#   1 NUMBER                 Running object number                                     
#   2 MAG_AUTO               Kron-like elliptical aperture magnitude                    [mag]
#   3 X_IMAGE                Object position along x                                    [pixel]
#   4 Y_IMAGE                Object position along y                                    [pixel]
#   5 X_WORLD                Barycenter position along world x axis                     [deg]
#   6 Y_WORLD                Barycenter position along world y axis                     [deg]
#   7 A_WORLD                Profile RMS along major axis (world units)                 [deg]
#   8 B_WORLD                Profile RMS along minor axis (world units)                 [deg]
#   9 THETA_WORLD            Position angle (CCW/world-x)                               [deg]
#  10 FWHM_WORLD             FWHM assuming a gaussian core                              [deg]
#  11 ELONGATION             A_IMAGE/B_IMAGE                                           
#  12 ELLIPTICITY            1 - B_IMAGE/A_IMAGE                                       
         1 -13.4854    233.1074     88.4159   5.1946009003e+01   1.6863016681e+01      2.73359    0.6696145 -32.85  0.009429743    3.323    0.699
         2 -14.0322    235.9898     39.8798   3.9997545002e+01   2.2689557374e+01     2.501524    0.5667836 -44.98  0.008751229    3.585    0.721
         3 -13.0615    248.3105     55.4639   4.2607439529e+01   1.8383699043e+01      1.84754    0.4431892 -33.85  0.007085917    2.909    0.656
         4 -15.0532    246.5737     21.1761   3.4793205028e+01   2.2698709262e+01     4.007823     1.846733 -28.04   0.02055361    1.868    0.465
         5  -9.2239    167.0000      8.9366   3.7771446932e+01   4.2112295954e+01    0.2198491   0.07604341 -22.93 0.0007996589    2.923    0.658
         6  -9.3288    160.5088      9.0281   3.8489578515e+01   4.3761306363e+01    0.2060228    0.1332223 -25.66 0.0007844385    1.569    0.363
         7 -10.3050    139.0694      8.5689   4.0959967322e+01   4.9370933702e+01    0.3065068    0.1179152 -54.43   0.00103507    3.345    0.701
         8  -9.7097    133.0000      9.0070   4.1996968075e+01   5.0915768181e+01    0.2279186   0.08008762 -21.93 0.0008070038    2.974    0.664
         9  -9.4349    148.3618      8.1592   3.9599181140e+01   4.6986013924e+01    0.2080927    0.1122943 -37.14 0.0009453985    1.767    0.434
        10 -11.7013    216.9348      3.5441   3.2311152870e+01   3.0695680965e+01    0.4075747    0.2321494 -44.04  0.002180291    1.436    0.303
        11 -10.5328    110.9809      4.9798   4.3951499780e+01   5.7020535430e+01    0.2065641    0.1923034  48.31 0.0003204145    1.055    0.052
        12 -10.2706    186.1387      4.1143   3.4562016302e+01   3.7807023358e+01    0.1936241     0.131133 -52.12 0.0007572717    1.321    0.243
        13 -10.4218     69.3788      4.0573   5.3913066847e+01   6.7262890498e+01    0.2419675    0.1659561  44.99 0.0006734098    1.359    0.264
        14  -9.7373     50.9431      3.4613   6.0839858898e+01   7.1252871249e+01    0.1894244    0.1622337  -6.34 0.0003198408    1.098    0.089
        15  -9.4143    153.3178      3.6666   3.7437549573e+01   4.6116106079e+01    0.1511965   0.09048652 -58.13 0.0004471641    1.693    0.409
        16 -10.2917    189.7392      6.8954   3.5090882554e+01   3.6669695423e+01    0.2538045    0.1445847 -45.77 0.0007608368    1.545    0.353
        17  -9.5087    159.0121      2.3186   3.6385292104e+01   4.4768624465e+01    0.1985686    0.1680284 -81.04  0.001153845    1.096    0.087
        18  -9.0713    121.3931      2.2782   4.1020926701e+01   5.4562418689e+01    0.1520143   0.09127136  43.11 0.0006995777    1.744    0.427
        19 -10.4064    206.9986    237.3708   8.4507617920e+01   4.0764465308e-01    0.2420386    0.1975574  53.06  0.001428553    2.180    0.541
        20 -10.2902    210.3796    248.5464   8.5454409641e+01  -1.2113097747e+00    0.2233656    0.1948515 -11.58  0.001890562    1.486    0.327
        21 -10.8093    193.7414    248.8844   8.8270077383e+01   6.8121220028e-01    0.2668202    0.2230828 -32.59  0.002157051    1.615    0.381
        22 -10.4609    203.5653    232.9738   8.4474941718e+01   1.3287584867e+00    0.2326603    0.1587947  43.48 0.0003849631    1.894    0.472
        23 -11.3693    191.1192    235.6444   8.6985371372e+01   2.5465080835e+00    0.3724402     0.316394 -73.61  0.002607392    2.381    0.580
        24 -10.7197    216.2549    233.9603   8.2497101057e+01  -3.0763292745e-01      0.24643    0.2395213   4.77  0.001880199    1.772    0.436
        25  -9.4856    187.1576    247.2075   8.9184209172e+01   1.6578893280e+00    0.1369595    0.1138385  29.70 0.0008131315    1.357    0.263
        26  -9.3458    240.5169    232.0238   7.8373740395e+01  -2.8669080176e+00    0.1173654   0.08725324 -45.08 0.0008100981    2.530    0.605
        27  -9.7509    225.6763    231.5387   8.0624076316e+01  -1.1418231294e+00    0.1498982    0.1253031 -34.17  0.001163329    1.788    0.441
        28  -9.7194    245.3967    230.7187   7.7441343910e+01  -3.2673659279e+00    0.1674635   0.08488693 -32.54 0.0008465494    2.053    0.513
        29 -10.3346    235.4975    229.5308   7.8781555488e+01  -2.0490712375e+00    0.2252431    0.1625841 -28.24  0.001581453    1.597    0.374
        30  -9.3709    145.4347    230.7367   9.4765979727e+01   9.1274656477e+00    0.1509103    0.1034869 -28.56 0.0009567843    1.775    0.437
        31 -10.0416    229.8440    228.5730   7.9527377412e+01  -1.3020141394e+00    0.1727447     0.132888 -37.75 0.0009155635    1.902    0.474
        32  -9.7413    212.0512    227.6668   8.2288156656e+01   9.1138866423e-01    0.1705669    0.1371989 -20.44  0.001134227    1.376    0.273
        33 -10.1556    199.0230    226.8999   8.4393448332e+01   2.6211235240e+00    0.1999349    0.1655797 -39.93  0.001228712    1.673    0.402
        34  -9.6159    244.2513    236.2948   7.8426984179e+01  -3.7016652346e+00    0.1243763   0.09875526   9.27 0.0006017166    1.328    0.247
        35 -10.6031    247.1793    226.0783   7.6482480370e+01  -2.9897989484e+00    0.2857016    0.1888749  37.62   0.00183243    1.956    0.489
        36 -10.8094    240.8539    221.8214   7.6798067443e+01  -1.8381967852e+00    0.2834805    0.2035656  38.97  0.002045062    1.918    0.479
        37  -9.5755    223.5196    226.5396   8.0238705224e+01  -3.3926939508e-01    0.1675724   0.09541201 -41.76  0.001033203    2.401    0.583
        38 -10.2739    206.0767    225.5365   8.2985168064e+01   1.9002926612e+00     0.246883    0.1490872 -39.26  0.001290597    1.986    0.496
        39 -10.0178    190.5103    225.9632   8.5752262322e+01   3.8257600171e+00    0.2479565    0.1065513 -39.26   0.00132076    2.602    0.616
        40 -10.2842    217.4720    223.5653   8.0784589924e+01   7.2611452909e-01     0.262526     0.181043 -47.54  0.001448163    2.388    0.581
        41 -10.2728    228.6233    222.0015   7.8739731995e+01  -4.3694280583e-01     0.232298    0.1287336  36.14  0.001484421    1.834    0.455
        42 -10.5465    186.2392    221.0772   8.5818313458e+01   5.0180289927e+00    0.3251271   0.09607485 -45.90  0.001316321    4.570    0.781
        43 -10.5561    193.5149    218.6504   8.4159443677e+01   4.3734532385e+00    0.2786362    0.2045445 -45.91  0.001559071    1.861    0.463
        44  -9.5447    211.0001    218.5324   8.1109157012e+01   2.1271232975e+00    0.1731886    0.1304594 -13.29  0.001245732    1.226    0.185
        45 -10.0254    219.9996    217.0851   7.9387162237e+01   1.1731409470e+00    0.1715726    0.1357725   5.83  0.001283405    1.095    0.087
        46  -9.8353    205.5165    214.8504   8.1484532555e+01   3.2864366855e+00    0.3956479    0.1051098 -39.17  0.001653748    4.025    0.752
        47 -10.1678    170.7148    216.1502   8.7983640666e+01   7.8006100393e+00    0.2496394    0.1009385 -41.03  0.001215297    2.774    0.640
        48 -11.1504    226.2395    212.1777   7.7604942559e+01   9.7806255544e-01    0.5686896    0.2423574 -46.10   0.00253589    4.371    0.771
        49 -10.9839    248.3514    218.1534   7.5097419292e+01  -2.2963543208e+00    0.2980607    0.2340398 -26.19  0.002172072    1.588    0.370
        50  -9.1421    138.2482    214.9501   9.4210026304e+01   1.2534302762e+01    0.1362983    0.1054236 -50.12 0.0006010918    1.550    0.355
        51 -10.3443    233.0021    213.0692   7.6664361255e+01   4.8149339895e-02    0.2378111    0.1455805 -34.47  0.001573838    1.790    0.441
        52 -10.4415    217.6184    212.1700   7.9018082634e+01   2.0608417525e+00    0.2666034    0.2349895  38.32   0.00198395    1.653    0.395
        53 -10.3782    193.5846    210.0912   8.2853507209e+01   5.4969334388e+00    0.2343347    0.1080581 -38.38  0.001236567    2.322    0.569
        54 -10.4462    240.8578    208.7496   7.4752083758e+01  -4.0471748596e-01    0.3307999    0.2057073 -47.31  0.001924824    2.953    0.661
        55 -10.1929    243.6000    201.6288   7.3173304304e+01   7.4483768468e-02     0.220361    0.1812249 -18.89  0.001684908    1.379    0.275
        56  -9.7791    229.7319    207.4155   7.6284076360e+01   1.1057275057e+00    0.2066855    0.1211367 -40.27   0.00126222    2.118    0.528
        57  -9.8298    206.4130    207.2064   8.0136809573e+01   4.1457816694e+00     0.253153    0.1346462 -32.37  0.001463265    1.893    0.472
        58  -9.7701    171.5062    207.9759   8.6634769576e+01   8.8799131228e+00     0.160452    0.1171315 -38.78 0.0005186597    1.541    0.351
        59  -9.9515    217.2483    204.7196   7.7892168359e+01   3.0291023065e+00    0.2241319    0.1341983 -21.19  0.001141037    1.590    0.371
        60  -9.4580    202.5644    204.6999   8.0408403146e+01   4.9946721020e+00    0.1443506    0.1076527 -37.78 0.0009454798    1.579    0.367
        61  -9.9355    197.2962    204.0315   8.1235713607e+01   5.8083780452e+00    0.2668258    0.1469281 -32.18  0.001302293    1.854    0.461
        62  -9.5267    210.4541    200.5128   7.8357370561e+01   4.4745070282e+00    0.2078934    0.1048502 -39.03  0.001135785    2.136    0.532
        63 -10.1287    187.1374    203.0151   8.2921772158e+01   7.3744166141e+00    0.2261824    0.1624787 -54.51  0.001346568    2.088    0.521
        64  -9.6177    172.9673    203.4756   8.5669086937e+01   9.3407894251e+00     0.180153    0.1518648 -21.46 0.0006280568    1.237    0.192
        65  -9.7461    250.2145    201.4274   7.2144956552e+01  -6.9447354161e-01    0.2193667     0.122846 -27.08  0.001225713    1.577    0.366
        66 -10.4124    247.2454    206.9375   7.3488318996e+01  -9.5773806559e-01    0.3062414    0.1463391 -40.84   0.00136919    2.777    0.640
        67 -10.1697    228.7129    201.4493   7.5475105354e+01   1.9493239962e+00    0.2569167    0.1400107 -28.99 0.0009913631    1.712    0.416
        68 -10.7105    231.0911    194.5855   7.3945277160e+01   2.4833259109e+00    0.5940934    0.1426201 -32.22  0.002275379    4.211    0.763
        69  -9.6532    230.0471    186.8417   7.2777745562e+01   3.5927531565e+00    0.1852077    0.1656024  68.23  0.001254861    2.084    0.520
        70  -9.9436    226.6214    196.7844   7.5036117107e+01   2.7940710241e+00    0.1853794    0.1503159 -45.96  0.000957848    1.880    0.468
        71 -10.5269    224.5995    192.5983   7.4655695611e+01   3.5899771231e+00    0.2610113    0.1863335 -36.01  0.001092605    1.583    0.368
        72 -10.5438    237.3842    198.0830   7.3542035772e+01   1.2550874645e+00    0.2309586    0.1956715 -36.05  0.001693723    1.685    0.407
        73  -9.3497    215.4677    198.2459   7.7128064333e+01   4.0916324972e+00    0.1487014    0.1044507 -38.95  0.000945524    1.686    0.407
        74 -10.1323    202.0719    197.1256   7.9259898112e+01   6.0871336953e+00    0.2474636    0.1621961 -37.13    0.0015134    1.642    0.391
        75  -9.7202    176.4098    197.6146   8.4084127137e+01   9.7220189443e+00     0.204922    0.1180094 -45.82  0.001007136    2.027    0.507
        76  -9.2824    162.0000    198.0268   8.6980618893e+01   1.1801092825e+01    0.1847553   0.07068072 -45.42 0.0007969241    2.904    0.656
        77 -10.4762    184.6956    195.0717   8.2093879308e+01   8.8823135348e+00    0.3465144    0.1088326 -37.87  0.001395929    3.419    0.708
        78 -10.4737    246.6839    193.3802   7.1325600568e+01   6.5085967993e-01     0.262437    0.2089117 -46.15  0.001811915    2.070    0.517
        79  -9.4719    219.2868    194.4362   7.5846489240e+01   4.0691659571e+00     0.171087    0.1399936 -43.08   0.00115652    1.707    0.414
        80  -9.6366    241.4961    191.4891   7.1789728406e+01   1.5233038049e+00     0.176001   0.09355113 -38.62 0.0008426219    2.091    0.522
        81 -10.0582    209.4284    194.2986   7.7498123040e+01   5.4418737564e+00    0.2121485    0.1034967 -30.28 0.0009124007    2.026    0.507
        82  -9.5956    198.6886    190.5692   7.8760218542e+01   7.4892998589e+00     0.205012    0.1042533 -37.03   0.00107274    1.997    0.499
        83  -9.3823    172.5968    190.8394   8.3722733623e+01   1.1343764252e+01    0.1644509    0.1200357 -51.87 0.0008617293    1.743    0.426
        84 -10.3546    210.4035    187.8075   7.6215877317e+01   6.1882213973e+00    0.3021038    0.1055606 -41.86  0.001293731    3.197    0.687
        85 -10.2873    237.0014    187.0133   7.1709707876e+01   2.6478580007e+00    0.2500709    0.1491071 -34.07  0.001135892    1.658    0.397
        86  -9.3171    239.4456    214.9569   7.5954126083e+01  -9.3009676248e-01    0.1267543   0.08918193 -46.47 0.0008076711    2.516    0.603
        87  -9.6212    215.2100    186.8779   7.5230421648e+01   5.6331190262e+00    0.1691042    0.1458293 -18.94 0.0005797146    1.254    0.203
        88  -9.3429    193.3213    187.6727   7.9240253980e+01   8.6997076215e+00    0.1098155    0.1007712  73.17  0.000510165    1.687    0.407
        89  -9.6223    250.0009    185.9786   6.9558386225e+01   1.1072092175e+00    0.1755306    0.1316983  -6.09 0.0007547479    1.009    0.009
        90  -9.5289    166.3574    185.8506   8.4134532009e+01   1.3113737696e+01    0.1809321    0.1120316 -30.25 0.0009486116    1.772    0.436
        91 -10.1261    223.9871    183.8741   7.3236865189e+01   4.8054634000e+00    0.2476077    0.1578585 -39.64  0.001313026    1.765    0.433
        92 -10.3824    197.7114    182.8741   7.7598349921e+01   8.7498336632e+00    0.3336757    0.2026493 -45.22  0.001733791    1.958    0.489
        93  -9.3244     77.7398    185.6248   1.0408231665e+02   2.6517409514e+01    0.1800067    0.1045592  42.18 0.0008670512    1.495    0.331
        94  -8.9595    173.6714    184.7032   8.2478220051e+01   1.2157810152e+01    0.1311396   0.09101199   3.48 0.0004769569    1.634    0.388
        95 -10.7960    241.6947    181.3056   6.9981034699e+01   2.7383625884e+00    0.3471115    0.2101898 -39.83  0.001679043    1.906    0.475
        96 -10.2080    219.2076    178.2309   7.3015505025e+01   6.2400047097e+00    0.3033683    0.1518446 -29.67  0.001600527    1.873    0.466
        97  -9.9495    183.4787    182.5645   8.0199195768e+01   1.0971387951e+01    0.2467124    0.1198035 -39.45 0.0008662464    2.121    0.529
        98  -9.1360    229.6407    181.8408   7.1959062787e+01   4.2909023177e+00     0.158535   0.09711006 -37.34 0.0008566898    1.717    0.418
        99 -10.2498    235.6785    181.0074   7.0855513292e+01   3.5767715430e+00     0.256906    0.1911931  55.13  0.001578924    2.325    0.570
       100  -9.3854    176.5546    181.0102   8.1269736632e+01   1.2301189764e+01    0.1847699    0.1220488 -39.04 0.0008449516    1.581    0.368
       101 -10.2152    247.8439    178.2505   6.8512587462e+01   2.3099474623e+00    0.2923206    0.1579116 -35.90  0.001668023    1.820    0.451
       102 -10.0117    227.0788    177.0785   7.1512945074e+01   5.2730933404e+00    0.3679516    0.1776272 -13.56  0.001630754    2.939    0.660
       103  -9.8928    190.6978    179.1387   7.8224778602e+01   1.0382424424e+01    0.1859913    0.1580557 -46.69 0.0009564123    1.477    0.323
       104  -9.0316    165.6411    179.7223   8.3232148592e+01   1.4251473905e+01    0.1344432   0.09402946   6.03 0.0007010069    1.661    0.398
       105  -9.8743    169.3913    177.7526   8.2124145222e+01   1.3980100742e+01    0.1765358    0.1168911 -28.95 0.0007397092    1.602    0.376
       106 -10.2368    210.7216    176.0117   7.4052708652e+01   7.7952406809e+00    0.2817042    0.1432274 -42.96  0.001056198    2.214    0.548
       107  -9.9700    197.7372    176.5973   7.6465179553e+01   9.6800681672e+00    0.2385276    0.1589338 -42.42 0.0009101027    1.668    0.401
       108  -9.8032    182.5333    175.9750   7.9205854660e+01   1.2162817725e+01    0.1894332    0.1213072 -36.77 0.0009418341    1.582    0.368
       109  -9.9379    232.5081    174.4576   7.0167691936e+01   4.8572137490e+00     0.231877    0.1017199 -32.60  0.001178563    2.053    0.513
       110 -10.0027    223.6513    173.0135   7.1324153705e+01   6.3112400343e+00    0.2779681    0.1568664 -43.22  0.001266225    2.082    0.520
       111 -10.6882    188.0949    172.6448   7.7530759130e+01   1.1804884184e+01    0.2179552    0.1700864 -43.35  0.001299347    1.455    0.313
       112  -9.8676    227.9697    171.4651   7.0337104738e+01   5.8982065791e+00    0.2192072    0.1513693 -41.30  0.001230883    1.687    0.407
       113 -10.5867    245.9659    168.8222   6.7073855002e+01   3.7298552364e+00    0.2795251    0.1902004 -35.11  0.001481392    1.508    0.337
       114 -10.1223    237.3940    169.0760   6.8412498108e+01   4.8782897649e+00    0.3100262    0.1314746 -37.41   0.00154305    2.245    0.555
       115 -10.5239    234.0930    163.9683   6.7960567410e+01   6.0241464526e+00     0.293116    0.1414649 -40.37  0.001383896    2.157    0.536
       116  -9.9219    205.3311    168.9182   7.3674060058e+01   9.6526635848e+00    0.2712525    0.1449634 -45.50   0.00133368    2.212    0.548
       117  -9.5696    197.9200    169.9700   7.5203560572e+01   1.0657782059e+01    0.1794923    0.1624724 -80.34  0.001023627    1.710    0.415
       118 -10.3107    218.7316    168.1429   7.1225497197e+01   7.7139453899e+00    0.2835529    0.1966518 -35.59   0.00122363    1.449    0.310
       119  -9.7917    212.0629    168.9205   7.2501316286e+01   8.6130708699e+00     0.178565    0.1612616 -31.91 0.0009173488    1.336    0.252
       120  -9.8822    169.4267    168.1977   8.0381033281e+01   1.5603148395e+01    0.1759826    0.1267969 -52.37 0.0006962083    1.663    0.399
       121 -10.6400    191.1955    165.6528   7.5627605640e+01   1.2414889748e+01    0.3785056    0.1769951 -34.11  0.001707627    2.140    0.533
       122  -9.2840    229.3148    165.8276   6.9063828061e+01   6.4672049191e+00    0.2356725   0.09342407 -39.92  0.001073431    2.556    0.609
       123  -9.9276    233.4899    154.0720   6.6138069784e+01   7.4584080074e+00    0.2805277    0.1846415 -42.34  0.001362881    1.694    0.410
       124 -10.2480    240.3677    163.8991   6.6988034734e+01   5.1370398445e+00    0.2597219    0.1851675 -47.44  0.001240006    1.941    0.485
       125 -10.3218    237.5170    158.6691   6.6419577477e+01   6.2382287408e+00    0.2962957    0.1945314 -42.99  0.001167533    1.778    0.437
       126  -9.8949    199.4886    164.4332   7.3862745050e+01   1.1259863732e+01    0.2529019    0.1180887 -37.79  0.001020836    2.076    0.518
       127 -10.5534    213.0269    162.8101   7.1166965172e+01   9.3556336181e+00    0.3613375    0.1727812 -33.60  0.001575025    1.946    0.486
       128  -9.9268    246.8594    162.1059   6.5686411125e+01   4.4617261990e+00    0.2706044    0.1386658 -38.48  0.001117768    1.939    0.484
       129 -10.1940    245.7524    157.5279   6.4975755691e+01   5.2073159855e+00      0.23393    0.1449007 -31.06  0.001033283    1.406    0.289
       130 -10.3383    205.2299    161.1729   7.2201588677e+01   1.0835916488e+01    0.3365954    0.1724084 -37.42  0.001668535    1.872    0.466
       131  -9.5451    221.5314    161.3152   6.9454424776e+01   8.2580522223e+00    0.2283494    0.1075926 -37.84  0.001121169    2.020    0.505
       132  -9.2866    184.5694    159.7964   7.5751817886e+01   1.4473454314e+01     0.182701    0.1226898 -48.16 0.0009482524    1.711    0.416
       133 -10.0495    158.6696    159.5249   8.0990275549e+01   1.8997490332e+01    0.2415367    0.1257592 -44.17  0.001085869    1.979    0.495
       134 -10.2193    197.1268    157.0383   7.2840814888e+01   1.2807367342e+01    0.3096083    0.1789409 -35.67  0.001581535    1.653    0.395
       135  -9.1344    165.4579    167.4906   8.1067305814e+01   1.6393935042e+01    0.1335594     0.121291   9.23  0.000127719    1.004    0.004
       136  -9.3881    176.5140    158.5004   7.7081732711e+01   1.6073032319e+01    0.1349369    0.1219291   2.07 0.0008105308    1.001    0.001
       137  -9.8500    226.6092    156.6431   6.7721015041e+01   8.1434735258e+00    0.2385378    0.1337243 -33.69  0.001023674    1.608    0.378
       138  -9.4269    222.4420    157.0093   6.8463987393e+01   8.7323596467e+00     0.186904    0.1082614 -32.90 0.0005783841    1.560    0.359
       139 -10.0227    216.4872    156.5993   6.9364963765e+01   9.7237567952e+00    0.2377644    0.1907087 -34.96  0.001063497    1.302    0.232
       140  -9.7483    212.0385    155.7290   6.9943321574e+01   1.0562805514e+01    0.1749298    0.1513557   5.95 0.0004880378    1.080    0.074
       141  -9.8059    187.5435    155.4207   7.4308246236e+01   1.4693568173e+01    0.2699559    0.1241176 -37.25  0.001188668    2.124    0.529
       142  -9.9308    241.8409    153.1550   6.4701347438e+01   6.3450837347e+00    0.2349268    0.1644355 -23.31 0.0008005882    1.185    0.156
       143 -10.4549    244.5011    149.6185   6.3618960581e+01   6.4269598682e+00     0.341858    0.2039948 -41.63   0.00148056    1.800    0.444
       144  -9.5459    247.2374    144.4180   6.2197940523e+01   6.7155693487e+00    0.1986929    0.1842177  66.57  0.001140928    1.646    0.392
       145 -10.7606    243.5199    140.0729   6.1851040832e+01   7.8546158564e+00     0.518466    0.1547561 -35.25  0.002133226    2.798    0.643
       146 -10.5621    242.2399    133.9157   6.0771079369e+01   8.8920366537e+00    0.3665698     0.176868 -38.82  0.001327107    1.889    0.471
       147  -9.7064    205.5335    153.9043   7.0703656161e+01   1.1901898723e+01    0.1901927    0.1805259 -26.89 0.0009982652    1.257    0.205
       148  -9.4128    202.5286    151.0657   7.0658389064e+01   1.2846488984e+01    0.2046349    0.1606373 -41.87   0.00119679    1.379    0.275
       149  -9.5032    192.6846    153.5089   7.2950811989e+01   1.4127161535e+01     0.233088    0.1144186 -37.34  0.001066824    1.959    0.490
       150  -9.7779    249.7463    151.3813   6.3214751808e+01   5.4390376827e+00    0.3821874    0.1121841 -33.55  0.001612514    2.842    0.648
       151  -9.6246    228.4838    151.5292   6.6411131241e+01   8.5764509199e+00    0.2336514    0.1057751 -35.91 0.0008331935    1.983    0.496
       152  -9.7484    229.4989    148.0188   6.5547584902e+01   8.9151109107e+00    0.2366102     0.152216 -16.26 0.0007385054    1.482    0.325
       153  -9.8498    221.1951    151.9398   6.7658139764e+01   9.6591028029e+00    0.1843891    0.1578603 -27.61 0.0006851219    1.200    0.166
       154  -9.7602    211.7314    151.2737   6.9098786280e+01   1.1284047552e+01    0.2309158    0.1376107 -39.73 0.0009878674    1.658    0.397
       155  -9.8624    215.3901    148.8326   6.7984712520e+01   1.1052712093e+01    0.2757288    0.1350811 -42.84  0.001292943    2.142    0.533
       156  -8.9944    196.3169    150.3026   7.1623476218e+01   1.4025632620e+01    0.1363311   0.09603632   1.94 0.0004898534    1.621    0.383
       157 -11.2964    235.3634    147.2752   6.4500755066e+01   8.1124660359e+00    0.4104432     0.262357 -39.00  0.001440592    1.557    0.358
       158  -9.8352    207.9778    146.0401   6.8666397473e+01   1.2712282547e+01    0.4403222    0.1957251 -36.90  0.001986682    2.079    0.519
       159  -9.2516    149.7621    147.9962   8.0660470048e+01   2.2789354557e+01    0.1871968    0.1178459 -44.41 0.0008815301    1.617    0.382
       160 -10.2194    223.6762    146.5093   6.6157593238e+01   1.0053245548e+01    0.2720052    0.2000839 -32.47  0.001644725    1.261    0.207
       161  -9.3180    200.5210    144.9959   6.9758294031e+01   1.4155332680e+01    0.2034782    0.1210564 -35.49 0.0008564571    1.571    0.363
       162  -9.2081    219.0852    144.3265   6.6448509497e+01   1.1119716326e+01     0.172438    0.1563961  -2.59  0.001129156    1.123    0.109
       163  -8.9647    171.3201    144.3226   7.5230901453e+01   1.9511811268e+01    0.1445518    0.1054183   0.11 0.0006050597    1.673    0.402
       164 -10.1605    155.5966    143.3777   7.8391451025e+01   2.2609307676e+01    0.2790423    0.1272629 -56.83 0.0009579542    3.374    0.704
       165 -10.3274    230.4302    141.2110   6.4014608803e+01   9.7357692691e+00    0.3347896    0.1528882 -36.04  0.001549205    1.930    0.482
       166  -9.5542    214.4542    142.5344   6.6837203301e+01   1.2158898595e+01    0.2281902    0.1076093 -43.98 0.0007833373    2.276    0.561
       167 -10.1425    182.0112    141.8827   7.2560972940e+01   1.7981129991e+01    0.3182011    0.1810612 -54.34  0.001373065    2.384    0.581
       168  -9.3834    147.6756    142.6709   8.0028309997e+01   2.4229114083e+01    0.1483223    0.1115141  -2.98 0.0007049949    1.699    0.411
       169  -9.8352    238.9614    140.4960   6.2594070122e+01   8.4957393809e+00    0.2301814    0.1486919 -40.06 0.0009021615    1.553    0.356
       170  -9.3162    250.4296    140.2580   6.0922194689e+01   6.7951175556e+00    0.1688693   0.09465706 -37.05 0.0009429488    1.616    0.381
       171  -9.9647    249.0663    135.6583   6.0180145043e+01   7.6085453023e+00    0.2525239     0.136797 -37.85  0.001235259    1.671    0.402
       172  -9.7866    224.2527    139.7986   6.4679140445e+01   1.0939695327e+01    0.2268248    0.1368579 -33.46  0.001206725    1.466    0.318
       173  -9.9520    198.1737    131.6266   6.7287125093e+01   1.6752161305e+01    0.2987696    0.1817675 -35.55 0.0007723267    1.519    0.341
       174  -9.7152    199.3941    136.6668   6.8178329522e+01   1.5703346446e+01    0.2680025    0.1802454 -35.55  0.001419004    1.384    0.278
       175 -10.0955    187.6033    135.7392   7.0144396394e+01   1.8013083285e+01    0.3086188    0.1239695 -38.40  0.001130989    2.364    0.577
       176  -9.5288    166.3750    140.1821   7.5373191925e+01   2.1193979353e+01    0.2012398    0.1293616 -50.61 0.0008370084    1.717    0.418
       177  -9.9194    218.6886    137.8836   6.5163073243e+01   1.2149560061e+01    0.2636172    0.1778678 -24.17  0.001471566    1.335    0.251
       178 -10.5323    234.7373    135.7467   6.2234541115e+01   9.8231923924e+00    0.3729025     0.179573 -41.65  0.001811094    2.066    0.516
       179  -9.3331    191.0000    147.9379   7.2119844253e+01   1.5337306844e+01    0.2213103   0.07220945 -38.89 0.0008023334    2.942    0.660
       180  -9.9748    172.1254    137.2667   7.3537770403e+01   2.0646345568e+01    0.3747073    0.2781753  75.82  0.001783547    2.134    0.531
       181  -9.6016    192.6929    136.4331   6.9344241799e+01   1.6957434243e+01     0.238024    0.1165972 -36.38  0.001047564    1.923    0.480
       182  -9.0998    161.2668    140.6458   7.6565265034e+01   2.2068924446e+01    0.1373015    0.1135172 -77.42 0.0003718272    1.628    0.386
       183  -9.5875    155.6089    135.7374   7.6732748720e+01   2.4092692251e+01     0.198548     0.135021 -51.83 0.0008086812    1.591    0.371
       184  -9.9038    225.2633    133.6880   6.3232386170e+01   1.1669780508e+01    0.2863713    0.2424698  53.62  0.001802253    1.517    0.341
       185  -9.4222    220.9972    128.9911   6.2885573913e+01   1.3093227831e+01    0.3640516    0.1638855 -40.81  0.001640835    2.101    0.524
       186 -10.1519    179.5030    132.4868   7.0986640881e+01   2.0106278348e+01    0.2713324    0.1937633 -43.22  0.001394865    1.399    0.285
       187 -10.6395    247.7336    112.8589   5.5581021771e+01   1.0898766878e+01    0.3445992    0.1855103 -44.99  0.001195756    1.910    0.477
       188 -10.8542    248.6366    129.7352   5.9023942956e+01   8.4676918570e+00    0.3389535    0.2897722 -53.24  0.002278892    1.538    0.350
       189 -10.2898    249.0922    124.0623   5.7783070997e+01   9.1612990333e+00    0.2732163    0.2051601 -37.80  0.000930114    1.288    0.224
       190 -10.6549    248.0856    118.8535   5.6817116934e+01   1.0026158740e+01    0.4017041    0.1704592 -36.07  0.001334912    1.939    0.484
       191  -9.8362    205.7186    130.3706   6.5690183486e+01   1.5580765831e+01    0.2459631    0.1472527 -41.51 0.0008091196    1.622    0.384
       192 -10.1139    143.0000    131.0487   7.8581288518e+01   2.7479527101e+01    0.2461856   0.08272784 -45.68 0.0008069605    2.974    0.664
       193  -9.8076    233.9962    129.4704   6.1022437766e+01   1.0833974057e+01    0.2444488    0.1502542 -41.17  0.001060061    1.590    0.371
       194  -9.8271    192.3504    129.2217   6.7802142653e+01   1.8237027782e+01    0.2476573    0.1591208 -42.86 0.0008151627    1.540    0.350
       195 -10.1290    242.8979    119.2932   5.7598796596e+01   1.0805785020e+01    0.2893723    0.1502531 -38.45  0.001039657    1.688    0.408
       196 -10.8940    240.6814    125.9323   5.9318043706e+01   1.0243905284e+01    0.4893063    0.2225704 -31.17  0.002312178    1.849    0.459
       197  -9.9747    238.7109    121.3490   5.8613179249e+01   1.1207653429e+01    0.2458086    0.1545682 -40.61 0.0007463906    1.504    0.335
       198  -9.0133    230.3306    129.6589   6.1603275176e+01   1.1412486840e+01       0.1246   0.09528533 -55.96 0.0005238437    1.745    0.427
       199  -9.2792    211.6247    128.7512   6.4339957052e+01   1.4775899697e+01    0.1920832    0.1112458 -41.54 0.0009432552    1.672    0.402
       200  -9.2238    186.3520    129.1348   6.8902191184e+01   1.9388613516e+01     0.204032    0.1205431 -45.82 0.0009243893    1.750    0.429
       201  -9.6197    171.7627    129.0167   7.1755149141e+01   2.2230237491e+01    0.1972803    0.1154972 -39.65 0.0008899325    1.649    0.394
       202 -10.2125    164.9867    125.4828   7.2349430848e+01   2.4229476478e+01    0.4347501    0.1872912 -50.98  0.001531663    2.836    0.647
       203 -10.1181    227.6116    124.8560   6.0972607579e+01   1.2570905027e+01    0.2847889    0.1821791 -40.39  0.001309071    1.487    0.327
       204  -9.1740    199.6189    125.7854   6.5718139278e+01   1.7446407179e+01    0.1914566    0.1178431 -42.94 0.0008096883    1.601    0.376
       205 -10.1783    179.5923    124.1755   6.9061492730e+01   2.1572648037e+01    0.3693292    0.1955961 -43.46  0.001430144    1.854    0.460
       206  -9.5613    169.9919    123.9909   7.0949768296e+01   2.3510579867e+01    0.2176631    0.1770081 -72.10 0.0006582731    1.606    0.377
       207  -9.8217    146.4974    124.5170   7.6249018876e+01   2.8125845210e+01    0.1458638    0.1431476 -16.69 0.0003332799    1.012    0.011
       208  -9.9093    235.0890    122.8565   5.9447690706e+01   1.1596294681e+01    0.2567003    0.1829773 -41.47 0.0008771638    1.392    0.282
       209 -10.1875    231.4822    120.0451   5.9352881339e+01   1.2610292058e+01    0.2872636    0.1490704 -37.22 0.0007526209    1.676    0.403
       210  -9.8716    230.6438    115.8686   5.8551971086e+01   1.3361207624e+01    0.2077363    0.1597094 -43.70 0.0007614572    1.330    0.248
       211  -9.5753    212.5667    122.3451   6.2755995759e+01   1.5607061710e+01    0.2535118    0.1152139 -37.72  0.001115612    1.966    0.491
       212  -9.6466    188.2719    122.6921   6.7056818231e+01   2.0133865493e+01    0.2695552     0.157544 -45.80  0.001240009    1.754    0.430
       213  -9.6476    203.1679    121.4112   6.4104837020e+01   1.7495563482e+01      0.23386    0.1469519 -38.29 0.0007905795    1.466    0.318
       214  -9.5923    194.3999    120.7834   6.5492119900e+01   1.9271039802e+01    0.2726327    0.1218008 -40.24  0.001125785    2.086    0.521
       215  -9.4716    173.5874    119.3474   6.9109755257e+01   2.3645357294e+01    0.2931442    0.1312367 -43.18  0.001148838    2.172    0.540
       216  -9.9653    218.3299    119.2391   6.1141942939e+01   1.5042247286e+01    0.2897427    0.1953588  60.97  0.001519696    1.999    0.500
       217  -9.4655     18.6135    119.1820   1.1357745504e+02   4.9033613027e+01    0.1855992    0.1049721 -66.85 0.0004289185    1.565    0.361
       218  -9.5811    209.2809    118.1003   6.2323558155e+01   1.6880580436e+01    0.1973842    0.1512526 -33.07 0.0005501584    1.170    0.145
       219 -10.0727    140.2381    118.2525   7.6237581157e+01   3.0685641270e+01    0.2442142    0.1192006 -54.54 0.0008920913    2.428    0.588
       220 -11.1965    235.5375    115.0685   5.7686269545e+01   1.2631715533e+01    0.5767471    0.1240888 -34.39  0.001911892    3.769    0.735
       221 -10.4781    218.7919    111.0608   5.9206291447e+01   1.6205167375e+01     0.608278    0.1545409 -39.82  0.002042588    3.454    0.711
       222 -10.1600    185.6783    114.5012   6.5593206658e+01   2.2068589316e+01    0.2611519    0.1234172 -37.42  0.001075508    1.970    0.492
       223  -9.8357    173.5736    114.2105   6.7862364905e+01   2.4589053420e+01    0.2735822    0.1323222 -43.03 0.0009287278    1.998    0.499
       224  -9.6294    194.9762    113.2271   6.3602465246e+01   2.0428203722e+01    0.2695227    0.1565114 -45.22  0.001243682    1.726    0.421
       225  -9.2671    181.4581    114.5085   6.6391862058e+01   2.2921425746e+01    0.1443976    0.1320933 -16.40 0.0001571273    1.042    0.040
       226  -9.0225    208.3486    112.7023   6.1221762752e+01   1.7912832542e+01    0.1336549    0.1046973 -65.23 0.0007035227    1.682    0.405
       227  -9.3674    168.4949    111.9849   6.8341552874e+01   2.6054276873e+01    0.2064241    0.1216548 -59.62 0.0008087031    2.410    0.585
       228  -9.5245    201.3996    109.2922   6.1555883391e+01   1.9809405308e+01    0.2620731    0.1248512 -32.11 0.0007566702    1.965    0.491
       229 -10.1635    176.6020    110.2401   6.6278272225e+01   2.4683059124e+01    0.2063391    0.1332878 -28.73 0.0009278597    1.575    0.365
       230  -9.3321    155.3236    110.6717   7.0830448675e+01   2.9078509858e+01    0.1516592    0.1193216 -79.46 0.0007049389    1.695    0.410
       231 -11.6005    242.7472    106.8228   5.4905454037e+01   1.2560865095e+01    0.5591053    0.2444008 -38.84  0.002651759    1.944    0.486
       232  -9.9204    189.5280    108.4915   6.3420096908e+01   2.2325027570e+01    0.2539978    0.1200087 -45.34 0.0009128576    2.142    0.533
       233  -9.9667    183.3760    108.7003   6.4599461924e+01   2.3552016038e+01    0.2939177    0.1242407 -41.40  0.001132905    2.220    0.550
       234  -9.9296    160.6897    108.4572   6.9090112278e+01   2.8368482652e+01    0.2734143    0.1316894 -39.74  0.001072841    1.999    0.500
       235  -9.9372    224.3725    248.4086   8.3187902971e+01  -2.7590475546e+00    0.1654862    0.1096182 -25.79 0.0008879981    1.610    0.379
       236 -13.1859    242.6654     95.5541   5.2402681799e+01   1.4133212506e+01     1.489504    0.8526158 -42.04  0.007996623    1.562    0.360
       237  -9.3065    168.1445    249.6368   9.2817002315e+01   3.6801083760e+00    0.1553764   0.07958793  24.74 0.0003434802    1.643    0.391
       238 -13.1943    247.0938     76.6029   4.7590146126e+01   1.5899048387e+01     1.643558    0.7731693 -39.42  0.008230083    1.717    0.418
       239  -9.1617    242.7957    248.4003   8.0348467543e+01  -4.7180671238e+00    0.1417215   0.06915143  20.00 0.0009461144    1.659    0.397
       240  -9.5568    218.6350    248.3078   8.4086835134e+01  -2.1154097677e+00    0.1337379    0.1162888  31.76   0.00109638    1.737    0.424
       241  -9.6249    200.8475    103.0825   6.0139601726e+01   2.0930056791e+01      0.21514    0.1738886 -48.85 0.0006859623    1.269    0.212
       242 -10.2232    175.9761    102.0064   6.4307016555e+01   2.6294255590e+01     0.231539    0.1735655 -64.29 0.0007398469    1.648    0.393
       243 -10.0371    160.1656    100.1409   6.7023921504e+01   3.0067966052e+01    0.2164288    0.1736403 -59.62  0.001000272    1.370    0.270
       244  -9.4545    225.4763     99.1275   5.5462985199e+01   1.6747581559e+01    0.2093776    0.1142885 -32.42  0.001016436    1.565    0.361
       245 -10.2403    221.4076     97.8050   5.5721201145e+01   1.7712690137e+01    0.2833782    0.1809591 -35.86 0.0007321961    1.347    0.258
       246  -9.1489    209.4585     99.4947   5.7890987907e+01   1.9780401852e+01    0.1386868    0.1218375 -27.53 0.0001619401    1.009    0.009
       247  -9.7459    202.8501     97.9021   5.8536033017e+01   2.1359803474e+01    0.2653598     0.172987 -39.96  0.001212919    1.393    0.282
       248  -9.7955    194.9568     97.4753   5.9722694943e+01   2.3055057102e+01    0.2836262    0.1794251 -47.81  0.001059161    1.603    0.376
       249 -10.4614    176.1037     97.0791   6.2995354639e+01   2.7144002608e+01    0.2217196    0.1940217  -8.79 0.0005213265    1.211    0.174
       250  -9.0071    183.6461     96.3326   6.1400415907e+01   2.5642914261e+01    0.1512837    0.1109469 -68.42 0.0001831965    1.786    0.440
       251  -9.5232    170.9876     95.4817   6.3559881826e+01   2.8549358357e+01    0.2400337    0.1839753 -38.39 0.0005951732    1.228    0.186
       252  -9.3275    206.7258     94.1937   5.7008229998e+01   2.1158906690e+01    0.2196191    0.1519398 -47.25 0.0005966837    1.428    0.300
       253  -9.7505    164.5022     93.9831   6.4453767115e+01   3.0259630663e+01    0.2383499    0.1412604 -39.23  0.001033279    1.597    0.374
       254  -8.9373    225.0396     92.7269   5.4013427530e+01   1.7768867834e+01    0.1846727    0.1537166 -28.00  0.000659371    1.040    0.039
       255  -9.5501    210.0399     91.0228   5.5721110929e+01   2.0978535091e+01    0.2216277    0.1541019 -58.19   0.00112096    1.687    0.407
       256  -9.8557    171.7177     90.7316   6.2133109997e+01   2.9236809663e+01    0.3018423    0.1835481 -43.59 0.0007856737    1.570    0.363
       257 -10.1356    158.0920     90.2191   6.4745363855e+01   3.2397994319e+01    0.3026897    0.1854991 -59.32   0.00123199    2.081    0.520
       258 -10.1993     25.0564     90.0914   1.0746419621e+02   5.6061098113e+01    0.2077788    0.1815011 -69.64 0.0004725278    1.037    0.036
       259  -9.8236    225.7410     87.4001   5.2649108367e+01   1.8408199341e+01    0.3278134     0.147086 -46.92 0.0009449496    2.291    0.564
       260  -9.1823    222.6902     83.7009   5.2155488696e+01   1.9539196862e+01     0.206591    0.1732413 -17.08 0.0008025924    1.178    0.151
       261  -9.9521    225.2735     81.6422   5.1321679105e+01   1.9326863278e+01    0.2754643    0.1709805 -40.24 0.0007001812    1.391    0.281
       262  -9.7319    150.8587     87.7153   6.5600824401e+01   3.4516285828e+01    0.3097094    0.1670713 -47.42  0.001242143    1.873    0.466
       263  -9.5837    197.5700     86.7238   5.6539336006e+01   2.4248189842e+01    0.2675122    0.1304808 -30.50  0.001096658    1.957    0.489
       264 -10.1255    163.9460     86.7552   6.2561349875e+01   3.1703093860e+01    0.2849844    0.1786669 -49.06  0.001113398    1.625    0.385
       265  -9.5937    206.1176     84.6529   5.4699356575e+01   2.2766619443e+01    0.2637105    0.1616824 -40.32  0.001017615    1.454    0.312
       266  -9.8555    170.4544     83.6508   6.0414300769e+01   3.0768676258e+01    0.2815938    0.1321268 -41.17 0.0009403549    1.987    0.497
       267  -9.3733    200.5558     82.8201   5.5061708652e+01   2.4226452781e+01    0.2041034    0.1161721 -43.86 0.0007880514    1.636    0.389
       268 -10.4557    159.0902     81.2758   6.1977884813e+01   3.3810282256e+01    0.3604966    0.2020334 -41.58  0.001517854    1.691    0.409
       269  -9.7313    220.2156     79.1828   5.1370372319e+01   2.0686640508e+01    0.3901822    0.1047121 -29.93  0.001249283    3.623    0.724
       270  -9.2841    209.6599     80.7993   5.3206547644e+01   2.2613168482e+01    0.2329692    0.1565815 -59.12  0.001155343    1.727    0.421
       271  -9.8454    210.9957     76.5110   5.1927794142e+01   2.2973378951e+01    0.3117719    0.1811872 -21.17  0.001434905    1.863    0.463
       272  -9.3590    150.3154     79.6335   6.3348071867e+01   3.6158427263e+01    0.1626274    0.1166651 -69.13 0.0007038554    1.773    0.436
       273  -9.8359    201.0691     77.6311   5.3628614559e+01   2.4919337911e+01    0.2856718    0.1655417 -45.43  0.001043669    1.629    0.386
       274  -9.1528    189.0000     77.9665   5.5583983573e+01   2.7521252842e+01    0.2414966   0.07648595 -33.75 0.0007099338    2.890    0.654
       275  -9.5132    174.4993     77.5154   5.7932373707e+01   3.0891083549e+01    0.2742118    0.1204082 -44.38  0.001029977    2.209    0.547
       276  -9.6670    166.7472     77.8666   5.9470741937e+01   3.2629294441e+01    0.3065377    0.1735981 -39.48  0.001313121    1.649    0.394
       277  -9.5167    183.4906     76.9845   5.6221454641e+01   2.8920614750e+01    0.2327545    0.1330744 -36.43  0.001030582    1.596    0.373
       278  -9.4286    223.4851     76.0187   5.0173797344e+01   2.0482501604e+01    0.2075623    0.1153353 -32.64 0.0009198852    1.534    0.348
       279 -10.8070    157.8340     75.4017   6.0499691382e+01   3.5153395324e+01    0.3634925    0.2036597 -39.42   0.00153113    1.685    0.406
       280  -9.6252    214.2672     70.0672   4.9847334896e+01   2.3224317049e+01    0.2765501     0.132364 -44.38 0.0009891446    1.907    0.475
       281  -9.3070    212.3826     66.2112   4.9095993566e+01   2.4173807221e+01    0.2630989    0.1156528 -36.71 0.0006729244    1.910    0.476
       282  -9.3494    206.4623     73.9966   5.1904494840e+01   2.4307656775e+01    0.2188685    0.1221507 -34.68  0.001018864    1.567    0.362
       283  -9.3405    210.5684     71.7099   5.0752739817e+01   2.3768593683e+01     0.201988    0.1100678 -42.03  0.000937948    1.624    0.384
       284  -9.7226    221.6370     70.8732   4.9127813077e+01   2.1582598918e+01    0.2256809    0.1444358 -57.23 0.0009672196    1.718    0.418
       285  -9.4928    218.4891     68.4763   4.8912406044e+01   2.2567789403e+01    0.2946407    0.1418167 -51.33  0.001261315    2.250    0.556
       286  -9.8977    169.8616     69.6695   5.6495852991e+01   3.3282558985e+01    0.4912422    0.2269708 -53.12  0.001742596    2.731    0.634
       287  -8.8795    216.5275     73.5282   5.0435700483e+01   2.2255684604e+01     0.232502    0.1672259 -17.45  0.001237468    1.463    0.316
       288  -9.4879    193.6511     67.7902   5.2080753575e+01   2.8060867603e+01    0.2132308    0.1144197 -40.87  0.000940565    1.669    0.401
       289  -9.8423    222.4047    104.8209   5.7226530208e+01   1.6476380861e+01    0.3081989    0.1401708 -34.81  0.001383505    1.875    0.467
       290  -9.3816    152.6524     66.1642   5.8719046763e+01   3.8003261762e+01    0.2185552    0.1410194 -25.41 0.0009443761    1.697    0.411
       291  -9.5106    171.0020     64.0239   5.4618584704e+01   3.3926756194e+01    0.2463715    0.1682247 -61.50  0.001126417    1.669    0.401
       292 -10.8270    192.5156     60.4565   5.0212484395e+01   2.9413168023e+01    0.4275843     0.218425 -35.38  0.001877886    1.738    0.424
       293 -10.0100    192.5754     55.2664   4.8746764601e+01   3.0150394875e+01    0.4348518    0.1267215 -37.42  0.001501477    2.805    0.643
       294  -9.5631    157.8526     61.6981   5.6291081301e+01   3.7486038532e+01    0.3103522    0.1573259 -43.03  0.001245695    1.887    0.470
       295  -9.8542    153.0000     59.9333   5.6669405123e+01   3.8965448856e+01    0.2512228   0.08341812 -33.76 0.0007978152    2.911    0.656
       296  -9.5816    220.9590     58.7738   4.6164748533e+01   2.3388452127e+01    0.2602286    0.1337106 -41.14  0.001052854    1.646    0.392
       297 -11.6027    227.0520     56.6327   4.4962252279e+01   2.2409759159e+01    0.3611583    0.2030613 -32.08  0.001416796    1.511    0.338
       298  -9.0913    206.5113     58.9922   4.7941523594e+01   2.6467623376e+01    0.1851943    0.1183408  -1.44 0.0007810314    2.368    0.578
       299  -9.8321    205.8195    105.2706   5.9862701319e+01   1.9587023392e+01    0.2501337    0.1633799 -41.01 0.0007951985    1.416    0.294
       300  -9.7630    139.6878     55.3503   5.7895177525e+01   4.3014470140e+01    0.1621429    0.1136639 -65.99 0.0007045745    1.722    0.419
       301  -9.5163    153.2851     52.6515   5.4250237306e+01   4.0063358897e+01    0.1587972    0.1086745 -61.37 0.0006005159    1.654    0.395
       302  -9.0722    175.5075     55.4914   5.1317551303e+01   3.4161796888e+01    0.1468983    0.1349289 -52.19 0.0008105355    1.016    0.016
       303  -9.0065    194.6519     50.3147   4.7075366412e+01   3.0363017173e+01    0.1521118   0.09630641 -60.86  0.000704725    1.722    0.419
       304  -9.0896    178.7002     50.3513   4.9288830517e+01   3.4143192050e+01    0.1565594    0.1001766 -58.84 0.0007037309    1.693    0.410
       305  -9.7751    146.7671     58.0215   5.7300019115e+01   4.0818025238e+01     0.209632    0.1228067 -35.08 0.0006405959    1.653    0.395
       306  -8.6180    200.3096     43.3244   4.4428274645e+01   2.9991581237e+01    0.1342861     0.105782  20.63 0.0005528981    1.653    0.395
       307  -9.1681    173.6361     40.3225   4.6963885968e+01   3.6778663552e+01    0.1591175   0.09950025 -62.69 0.0007040279    1.785    0.440
       308  -9.7997    168.5716     36.7790   4.6571954326e+01   3.8512926155e+01    0.2150313    0.1192701 -41.70 0.0009480211    1.672    0.402
       309  -9.5612    218.4955    104.4427   5.7709950648e+01   1.7267138435e+01     0.244828    0.1031405 -42.63 0.0009462723    2.242    0.554
       310  -9.6050    149.4176     34.3058   4.8728905163e+01   4.3709278081e+01    0.2725247    0.1457721 -22.91 0.0009490767    2.048    0.512
       311  -9.6462      7.5005    105.4741   1.1609696886e+02   5.3328004112e+01    0.1318779    0.1104375 -86.85 6.564266e-05    1.005    0.005
       312  -9.2317    164.0000     32.9503   4.5994529178e+01   4.0163612721e+01    0.2352374   0.07945415 -27.83 0.0007962862    2.900    0.655
       313 -10.5227    126.0815     30.3658   5.1643319500e+01   5.0239572295e+01    0.3598278     0.208603 -46.41  0.001565249    1.795    0.443
       314 -11.1235    221.0714     29.1589   3.8585669950e+01   2.7079085311e+01    0.1851543    0.1711694 -20.16 0.0006577127    1.222    0.182
       315 -10.1352     30.5406     28.0327   8.6825156846e+01   7.0496790869e+01    0.2336226    0.1735806  -3.64 0.0009733259    1.486    0.327
       316  -9.6795    136.5719     24.9836   4.7562597293e+01   4.8225328837e+01    0.2181739     0.141245 -26.73 0.0003979891    1.580    0.367
       317  -9.6586    147.5240     20.0352   4.3977267072e+01   4.5963012779e+01    0.2191571     0.138757 -26.98  0.001034579    1.598    0.374
       318  -9.6856    155.6963     16.4907   4.1604010675e+01   4.4236626624e+01    0.2540566    0.1250415 -25.38  0.001079125    2.045    0.511
       319 -11.4596    229.5490    102.5049   5.5685106475e+01   1.5501126582e+01    0.3565131    0.1984209 -37.71  0.001093291    1.540    0.351
       320  -8.7551    161.6803     15.3121   4.0462270531e+01   4.2822391654e+01    0.1514995   0.09428518 -59.92 0.0007036846    1.648    0.393
       321  -9.3028     23.5015     15.4758   8.4877384116e+01   7.3834903069e+01    0.1286871    0.1094483 -23.30  0.000101903    1.011    0.011
       322 -11.1154    176.3949    245.8607   9.0896106953e+01   3.1281398382e+00    0.4274896    0.1945513 -35.17  0.002475393    2.615    0.618
       323  -9.2439    250.5312    246.0151   7.8868329477e+01  -5.2862517608e+00    0.1363646   0.07824124 -20.14 0.0007030976    1.559    0.358
       324  -8.9647    238.6443    245.3538   8.0556859850e+01  -3.9931674650e+00   0.08542997   0.07527688  25.96 0.0007027679    1.855    0.461
       325  -9.9023    225.4378    243.7958   8.2392470643e+01  -2.4074715652e+00     0.179282    0.1404936  26.35 0.0009418444    1.482    0.325
       326 -10.0295    202.3077    242.5220   8.5993544863e+01   3.8395942333e-01    0.1704703    0.1644248  33.43  0.001207253    1.734    0.423
       327  -9.3976    233.2339    247.4214   8.1670736871e+01  -3.6195477626e+00    0.1295446   0.07752443  31.57  0.000935085    1.602    0.376
       328  -9.5025    240.3425    240.6875   7.9645940951e+01  -3.7176059398e+00    0.1257638    0.1098465  21.64   0.00073822    1.744    0.427
       329 -10.0563    184.1013    240.4476   8.8851063477e+01   2.8350131866e+00    0.2339397    0.1433546  58.36  0.001113458    4.303    0.768
       330  -9.3254    248.8632    240.6156   7.8355449766e+01  -4.6074764141e+00    0.1271971   0.07731219  31.20 0.0009344203    1.677    0.404
       331  -9.5813    219.9217    240.1659   8.2772081173e+01  -1.4077991301e+00    0.1476354    0.1190559  13.90 0.0006680134    1.275    0.216
       332  -9.8433    148.4789    239.9922   9.5284897550e+01   7.4147748686e+00    0.1323705   0.09857173  82.31 0.0008096939    2.511    0.602
       333 -10.6414    230.8118    237.1489   8.0616491933e+01  -2.3196868999e+00    0.2250048    0.2185978 -72.55  0.001588048    2.291    0.563
       334 -10.7238    159.4005    237.3788   9.2930562347e+01   6.3611478794e+00    0.2774509     0.113916 -56.15   0.00124089    4.506    0.778
