#   1 NUMBER                 Running object number                                     
#   2 MAG_AUTO               Kron-like elliptical aperture magnitude                    [mag]
#   3 X_IMAGE                Object position along x                                    [pixel]
#   4 Y_IMAGE                Object position along y                                    [pixel]
#   5 X_WORLD                Barycenter position along world x axis                     [deg]
#   6 Y_WORLD                Barycenter position along world y axis                     [deg]
#   7 A_WORLD                Profile RMS along major axis (world units)                 [deg]
#   8 B_WORLD                Profile RMS along minor axis (world units)                 [deg]
#   9 THETA_WORLD            Position angle (CCW/world-x)                               [deg]
#  10 FWHM_WORLD             FWHM assuming a gaussian core                              [deg]
#  11 ELONGATION             A_IMAGE/B_IMAGE                                           
#  12 ELLIPTICITY            1 - B_IMAGE/A_IMAGE                                       
         1  -8.5391     55.8643     10.0069   4.6308901377e+01   6.5856245735e+01    0.1697907    0.1543651 -13.51 0.0005345774    1.346    0.257
         2  -8.2067     90.8473      8.7704   3.3990094570e+01   5.9648742645e+01    0.1605265    0.1561594  82.05   0.00060059    1.353    0.261
         3  -7.6727     47.3861      9.6970   4.9582693469e+01   6.7148919840e+01    0.1019343   0.09863233 -77.55 0.0007017917    1.792    0.442
         4  -7.8467     28.2867      9.6558   5.8069830953e+01   6.9536168386e+01   0.09821895   0.08788224 -40.65 0.0007020658    1.647    0.393
         5  -7.6180     13.3071      8.6837   6.4992341845e+01   7.1104762363e+01   0.09126148   0.08532707 -39.99 0.0005520087    1.630    0.386
         6  -8.5539      6.7890      8.5853   6.8305421412e+01   7.1619074647e+01    0.1325577   0.09315456  24.50 0.0009506043    1.742    0.426
         7  -8.2254     70.2388      6.1950   3.9283120408e+01   6.3886279882e+01    0.1548753    0.1408457 -20.72 0.0007305468    1.351    0.260
         8  -8.5486     33.4408      5.0294   5.3449709091e+01   6.9573691497e+01     0.270452    0.1747877 -52.34  0.001462954    2.978    0.664
         9  -8.5914     79.3097      3.7039   3.5205595624e+01   6.2449413770e+01    0.2184636    0.1340095 -29.28 0.0009627548    1.751    0.429
        10  -7.7274     44.5056      2.9841   4.7542796866e+01   6.8374881689e+01    0.1417036   0.09504894 -46.11 0.0006064106    2.344    0.573
        11  -7.6267    101.4672      7.5595   3.0612567554e+01   5.7513647791e+01    0.1331744    0.1135263  32.55 0.0001037213    1.012    0.012
        12  -8.2225     62.5100      1.4563   3.9757681996e+01   6.5728732399e+01    0.1734998    0.1137225  53.83 0.0005077237    1.892    0.471
        13  -9.9488    223.9415    243.7863   6.4024572294e+01  -8.3723962001e+00    0.3993905    0.2275037 -45.00  0.002238223    2.626    0.619
        14  -8.6455    248.4239    249.4056   6.0683540439e+01  -1.2619220468e+01    0.3450192     0.182051  -7.40  0.001931928    2.297    0.565
        15  -9.5509    246.6755    229.3630   5.7679060432e+01  -1.0184524195e+01    0.4049408    0.1939636 -28.55  0.002087503    2.202    0.546
        16  -9.3034    248.6504    242.1013   5.9469071641e+01  -1.1887112789e+01    0.2936751    0.2106506 -35.58  0.001284253    1.873    0.466
        17  -9.1038    248.1264    234.9288   5.8371750173e+01  -1.1029593022e+01    0.3049328    0.2258212 -52.70  0.001827635    2.664    0.625
        18  -9.2213    210.9741    246.4743   6.6743182305e+01  -6.6521042012e+00    0.1826944    0.1693616 -54.77 0.0007697921    1.644    0.392
        19  -9.4154    146.9199    245.7466   7.8357932380e+01   4.0353472379e+00    0.3145827    0.1930234  72.30  0.001116996    2.509    0.601
        20  -9.4235    119.8881    244.9177   8.3234922012e+01   8.5936620481e+00    0.3258226    0.1974814  80.02  0.001577464    2.298    0.565
        21  -9.2378      9.9872    244.5525   1.0187381730e+02   2.3328077034e+01    0.3393801   0.09547685  87.79  0.001446111    4.525    0.779
        22  -8.8090    139.4758    244.4732   7.9578079417e+01   5.4656813054e+00    0.1792434    0.1163632 -73.85 0.0008470791    2.216    0.549
        23  -8.5179     67.4701    244.7973   9.2554047870e+01   1.6427444633e+01    0.1920991   0.09900256 -80.43  0.001059848    2.084    0.520
        24  -8.7854    201.8298    242.9350   6.7856980775e+01  -4.7418824667e+00     0.231041     0.168751 -50.37  0.001048658    1.995    0.499
        25  -8.8183    169.1961    243.2697   7.3907443567e+01   6.5560203418e-01    0.2262019     0.166617  55.89 0.0007515263    1.399    0.285
        26  -9.4923     78.3338    243.1937   9.0536039832e+01   1.5194328244e+01    0.3648488    0.1407032  64.10  0.001556789    3.331    0.700
        27  -8.0857     58.2492    244.2792   9.4087135148e+01   1.7746074699e+01    0.1637193    0.0771488 -88.88 0.0008906677    2.380    0.580
        28  -9.0816    194.5761    240.3521   6.8794896388e+01  -3.2112840472e+00    0.3214542     0.230305 -59.46  0.001544929    2.259    0.557
        29  -9.2733    183.0869    239.9091   7.0853089092e+01  -1.2226981831e+00    0.3787324    0.2336843  61.86  0.001937528    2.386    0.581
        30  -9.4554    160.1761    240.3036   7.5187011890e+01   2.6141511671e+00    0.2989316    0.2175943 -89.45  0.001317026    2.166    0.538
        31  -8.8315    153.1852    241.6856   7.6678333227e+01   3.5934699893e+00    0.1900448    0.1634676  85.04 0.0009384425    1.428    0.300
        32  -8.0247     88.2406    242.0038   8.8674070143e+01   1.3964756856e+01    0.1578554    0.1235796  79.37 0.0005394476    1.196    0.164
        33  -7.8249    214.0003    241.7131   6.5471399328e+01  -6.5594049479e+00    0.1601746   0.08680285  37.66 0.0008933209    1.470    0.320
        34  -9.0985    147.0206    240.1404   7.7633314014e+01   4.8701929094e+00    0.3414142    0.1940977  70.29  0.001375194    3.046    0.672
        35  -8.9056    241.6968    237.6362   5.9928725289e+01  -1.0378023668e+01    0.4872161    0.2155477 -13.58  0.002046728    3.889    0.743
        36  -9.1688    135.5881    238.6588   7.9595314087e+01   7.0252549790e+00    0.2404095    0.1469052  67.40 0.0009392119    2.010    0.502
        37  -8.6834    129.1584    238.4794   8.0781455889e+01   8.1241272269e+00    0.2047218    0.1328742  85.88 0.0007932003    2.194    0.544
        38  -9.0382    231.0895    235.9925   6.1512457690e+01  -8.5721860510e+00    0.3512081    0.2563937 -30.27  0.001701298    1.612    0.380
        39  -8.7328    209.0478    238.2942   6.5833365200e+01  -5.3349670044e+00    0.1725403     0.133832  31.52 0.0005159975    1.070    0.066
        40  -8.4399     25.9823    236.9608   9.8973636054e+01   2.2946733728e+01    0.2806762   0.09718554  65.59  0.001402724    2.751    0.636
        41  -8.6432    217.3081    235.6795   6.3922736077e+01  -6.3497224184e+00    0.2230583    0.1793296  37.36 0.0007479648    1.249    0.200
        42  -9.4951    213.6741    231.6387   6.3930057308e+01  -5.2465540987e+00    0.2894193    0.2429412  78.76  0.001459647    2.079    0.519
        43  -9.0815    203.0926    234.1682   6.6276830976e+01  -3.8181068376e+00    0.2923259    0.1770634 -46.45 0.0009032643    2.243    0.554
        44  -9.8585    175.6193    233.1642   7.1267054252e+01   1.0119615439e+00    0.4453556    0.2571943 -57.40  0.002278289    2.634    0.620
        45  -8.2356    170.3516    235.2772   7.2571767630e+01   1.6126775781e+00     0.143754    0.1206568 -62.08 0.0005060513    1.580    0.367
        46  -8.8265    108.6462    234.1955   8.4143534944e+01   1.2179948147e+01    0.3142887    0.1761644  68.13  0.001128089    2.050    0.512
        47  -8.9416     78.7188    234.3387   8.9689127501e+01   1.6694904655e+01    0.2046998    0.1238522  87.00  0.001219293    1.742    0.426
        48  -8.5848    194.4982    232.9106   6.7675005221e+01  -2.1984676984e+00    0.2437469    0.1946508  67.25  0.000871096    1.778    0.437
        49  -8.2252    122.8338    233.7427   8.1411874714e+01   9.9545687771e+00    0.2228768    0.1426152  79.77 0.0008972414    2.056    0.514
        50  -8.1987     99.6306    233.9206   8.5800906725e+01   1.3644689481e+01    0.2218133    0.1378643  87.82  0.001257879    1.914    0.478
        51  -9.5979     68.6270    232.0420   9.1311141445e+01   1.8529377764e+01      0.50341    0.2262412  75.84  0.002303172    3.036    0.671
        52  -8.3258    145.2410    233.4042   7.7095237566e+01   6.2311993228e+00    0.2166709    0.1231063  60.51  0.001047836    2.021    0.505
        53  -8.3615    140.1836    229.9156   7.7607264661e+01   7.6666994928e+00    0.3281109    0.1573683  60.67    0.0013767    2.873    0.652
        54  -9.0781    132.3720    232.3755   7.9426020892e+01   8.5902698882e+00    0.2669747    0.1718636  63.66  0.001140275    1.637    0.389
        55  -8.4500     92.6997    231.8540   8.6880325549e+01   1.5074079740e+01    0.2686574    0.1551597  77.33  0.001103059    2.010    0.503
        56  -9.3752    186.3199    230.3839   6.8821218041e+01  -4.4036586585e-01    0.2970425    0.2242931 -72.08  0.001263494    2.220    0.550
        57  -8.4233    157.8359    231.5882   7.4434301678e+01   4.3412098279e+00    0.1796132    0.1548652 -63.39 0.0006454443    1.455    0.313
        58  -9.0876    236.0103    230.3372   5.9704617261e+01  -8.6678403309e+00    0.2762105    0.1823745 -34.71  0.001054346    1.803    0.445
        59 -10.0303    149.7048    226.0609   7.5234001800e+01   6.6463387015e+00    0.6182108    0.3669922 -86.09  0.002458433    4.151    0.759
        60  -8.9327      1.8171    230.7171   1.0251712180e+02   2.6569703752e+01    0.2060194   0.08224656  72.27  0.001222067    2.059    0.514
        61  -8.4062    229.8097    228.7590   6.0538363092e+01  -7.5014586999e+00    0.1831595    0.1625996 -67.39  0.001198238    1.978    0.494
        62  -7.3409     30.6603    229.6652   9.7767746963e+01   2.3740640758e+01   0.09224337   0.08107036 -59.61 0.0007051351    1.753    0.429
        63  -8.6543    162.3294    227.6344   7.3003951020e+01   4.1725909100e+00    0.3109244    0.1842501  62.53  0.001416014    2.261    0.558
        64  -7.9896    120.1408    227.4829   8.1175524661e+01   1.1474990833e+01    0.2144087    0.1350122  86.34 0.0008913351    2.204    0.546
        65  -8.7179    127.7014    226.8536   7.9630815095e+01   1.0314996028e+01    0.2799779    0.1801448  62.10   0.00131704    1.558    0.358
        66  -8.2221     49.3805    226.6458   9.4319534709e+01   2.2061499403e+01    0.2547494    0.1108689  72.84  0.001251003    2.571    0.611
        67  -8.7267    206.0767    225.4658   6.4322521473e+01  -3.1550823965e+00    0.2403726    0.1713457 -44.83 0.0009009239    1.823    0.451
        68  -8.3073    200.1619    226.1318   6.5538295789e+01  -2.2330555946e+00     0.160108    0.1401338  48.76 0.0004606513    1.320    0.243
        69  -8.8314     94.3686    224.2224   8.5770167867e+01   1.6202983904e+01    0.4010256    0.1710617  60.66  0.001670004    2.706    0.630
        70  -8.3688     38.4496    224.6122   9.6098528778e+01   2.3775292807e+01    0.2399754    0.1068727  71.39  0.001126196    2.200    0.545
        71  -8.8920    216.4748    223.1541   6.2009396236e+01  -4.6043944083e+00    0.2398803    0.2037754 -67.67  0.001015003    1.970    0.492
        72  -8.6790    180.4442    223.8870   6.8934568473e+01   1.5426025541e+00    0.2295308    0.1797449  59.31 0.0006652796    1.468    0.319
        73  -8.6855    173.2157    223.0518   7.0204611712e+01   2.9561370183e+00     0.231259     0.203452  76.84 0.0007095282    1.424    0.298
        74  -8.1374    113.5971    223.7841   8.1999236205e+01   1.3212993776e+01    0.1613896    0.1134852 -84.47 0.0004582538    1.652    0.395
        75  -8.7306    104.6588    223.4396   8.3698138171e+01   1.4727510849e+01    0.3034597     0.186753  80.17  0.001612138    1.983    0.496
        76  -9.3645    160.8874    221.4510   7.2373496171e+01   5.4147838733e+00    0.6101994    0.2636172  57.64  0.002187093    3.717    0.731
        77  -9.2668    225.6008    221.4981   6.0058162506e+01  -5.9048889359e+00    0.2490438    0.2125343  50.85  0.001183007    1.542    0.351
        78  -9.3179    192.3293    221.2591   6.6229780458e+01  -1.7218559958e-01    0.2770861    0.2352846  88.23 0.0008050796    1.787    0.440
        79  -9.1942    120.5853    219.1551   8.0047543771e+01   1.2881205615e+01    0.4625238    0.2376666  67.98  0.001927511    2.987    0.665
        80  -8.3809     73.3559    220.5693   8.9404074771e+01   2.0003329775e+01    0.2170976    0.0963866 -85.14 0.0009406035    3.183    0.686
        81  -7.8312     27.4931    221.0055   9.7765274544e+01   2.5708872072e+01    0.1403255   0.07405921 -56.33 0.0008105307    2.562    0.610
        82  -8.4470    202.7279    219.7582   6.4002106784e+01  -1.7828854383e+00    0.1995939    0.1541289 -23.57 0.0006849834    1.446    0.308
        83  -8.3645    210.1547    218.7966   6.2441487755e+01  -2.9371970992e+00    0.1915464    0.1709938 -38.69 0.0006606531    1.433    0.302
        84  -9.7092    247.4444    213.4979   5.4753937873e+01  -8.4052572670e+00    0.4450478    0.2315856  -8.89  0.002100805    2.577    0.612
        85  -9.2620    132.9411    215.7849   7.7124389015e+01   1.1357220541e+01    0.4669998    0.2722659  79.69  0.001947674    3.195    0.687
        86  -8.3230     62.0342    217.1792   9.1227590361e+01   2.2217009959e+01    0.2744202    0.1193107  69.07  0.001231444    2.805    0.644
        87  -8.9962     51.5320    217.1831   9.3186220790e+01   2.3587553580e+01    0.2347345    0.1320089  85.26 0.0009007127    1.696    0.410
        88  -8.6229    179.1782    217.1931   6.8115820604e+01   2.7957808723e+00    0.1739125    0.1474904  61.27 0.0005714012    1.357    0.263
        89  -8.7011    169.3693    216.0972   6.9873723848e+01   4.7511365560e+00    0.3078569    0.2167003 -87.00  0.001283221    2.547    0.607
        90  -8.8143    142.9845    216.6158   7.5222451157e+01   9.4327179463e+00     0.262485     0.203568  80.94  0.001214453    1.554    0.357
        91  -8.7378     82.9924    220.5698   8.7568902289e+01   1.8606314419e+01    0.3057636     0.157387  76.52  0.001451696    2.514    0.602
        92  -8.9966    238.9051    221.3152   5.7643937623e+01  -8.0286444465e+00    0.2266051    0.1634363 -34.35 0.0008125476    1.651    0.394
        93  -8.5523    232.3698    214.7545   5.7650237258e+01  -6.1431625665e+00    0.2155781    0.1898061  49.70 0.0009976071    1.531    0.347
        94  -8.4847    185.5728    214.3059   6.6390385921e+01   2.0852401678e+00    0.2113711    0.1870218  74.86  0.001301802    1.467    0.318
        95  -8.0492    154.6325    215.2811   7.2687048757e+01   7.5668360145e+00    0.2023253    0.1443635  70.34  0.001073292    1.768    0.434
        96  -9.5211    214.0924    211.6263   6.0455118922e+01  -2.6156973696e+00    0.4032905    0.3618471 -51.53  0.001640624    1.536    0.349
        97  -9.0739     92.9617    213.7682   8.4889522725e+01   1.8391482223e+01    0.3349708    0.1775584  61.86  0.001651005    1.900    0.474
        98  -9.4161     73.6750    212.1283   8.8514646380e+01   2.1590071172e+01    0.6796469    0.2305684  60.49  0.002332749    4.448    0.775
        99  -8.7087    161.7008    212.1932   7.0788622454e+01   6.7997186145e+00    0.2536751    0.2039559 -87.88  0.001003161    1.669    0.401
       100  -7.8437    225.2015    212.2235   5.8500536418e+01  -4.6101132748e+00    0.1775056   0.09448004 -44.10 0.0005481698    2.450    0.592
       101  -8.0188    106.6970    212.6090   8.2001092388e+01   1.6416468766e+01    0.1852827   0.09926714  51.90 0.0006617973    1.618    0.382
       102  -9.0877    204.2949    210.7107   6.2150168511e+01  -7.5101043466e-01    0.2287041    0.2241182  37.66 0.0007297563    1.293    0.227
       103  -9.4116    175.5042    209.8699   6.7642806621e+01   4.6382629937e+00    0.3867714    0.2602737  71.80  0.001653403    2.429    0.588
       104  -8.7730    147.9968    210.3056   7.3273179775e+01   9.6369681768e+00    0.2923551    0.2055492  89.57  0.001296728    2.104    0.525
       105  -8.8829    116.5467    210.3758   7.9714514793e+01   1.5193085711e+01     0.351425    0.1977604  64.84 0.0009623614    2.079    0.519
       106  -9.0919      6.6936    209.2261   1.0065851679e+02   3.0096904816e+01    0.3858604     0.122522  77.23  0.001616143    3.920    0.745
       107  -8.2984    192.0817    210.0830   6.4402543929e+01   1.5524407862e+00    0.1891887    0.1605728  76.19 0.0006754387    1.644    0.392
       108  -8.4820     85.6377    209.2332   8.5838923226e+01   2.0400835838e+01    0.2635305    0.1465736  73.39  0.001126085    2.092    0.522
       109  -9.2806    236.4960    207.6510   5.5621620241e+01  -5.8897658981e+00    0.3396326    0.2302959 -48.11  0.001269863    2.166    0.538
       110  -8.3951     46.3744    209.2383   9.3495002827e+01   2.5788750435e+01    0.1649707   0.09064168 -89.89 0.0009416746    1.714    0.417
       111  -9.3001    246.3476    206.9418   5.3745376982e+01  -7.4031942905e+00    0.2667658    0.1867421 -22.22 0.0006307248    1.400    0.286
       112  -7.9733    156.5366    207.7730   7.1135300670e+01   8.5119930229e+00    0.1655949    0.1312165 -72.95 0.0007177186    1.610    0.379
       113  -8.2937    139.0801    208.0124   7.4754742584e+01   1.1669672081e+01    0.2140331    0.1501105  72.17 0.0006947026    1.723    0.420
       114  -7.8205    126.3984    208.2437   7.7401182870e+01   1.3889965678e+01    0.1691136    0.1228002 -79.42 0.0005093419    1.646    0.393
       115  -8.9784     57.2619    206.3950   9.1159929275e+01   2.4977001185e+01    0.4156168    0.1814142  74.40  0.001761328    3.164    0.684
       116  -9.1963     99.5380    205.9615   8.2630270962e+01   1.8871825546e+01    0.3799862    0.2189582  78.66  0.001292127    2.305    0.566
       117  -8.1432     12.2818    206.6491   9.9538854211e+01   3.0057876444e+01    0.1167855   0.05840449  70.54 0.0007015289    1.652    0.395
       118  -9.0158    183.8270    203.8187   6.4947378650e+01   4.0755285109e+00     0.319395    0.2328878  67.11  0.001428202    1.887    0.470
       119  -8.1583    109.0720    205.0343   8.0543784754e+01   1.7484944772e+01    0.2085613    0.1390509  72.31 0.0007887378    1.629    0.386
       120  -8.1328     25.4519    204.9631   9.7062197976e+01   2.9041601703e+01    0.1670178   0.06983078  78.36 0.0008084019    2.543    0.607
       121  -9.3354    194.7805    203.4515   6.2710039266e+01   2.0894173409e+00    0.3076745    0.2836047  61.94  0.001198679    1.322    0.244
       122  -9.4213    192.4946    197.0360   6.2001576638e+01   3.5465783216e+00    0.3969005    0.3052393 -68.13  0.001051453    1.963    0.491
       123  -9.5341    163.8561    202.7906   6.8822386959e+01   8.0139213326e+00    0.4632849    0.2648273  59.18  0.001186757    2.168    0.539
       124  -8.5410    131.1889    203.6530   7.5742767021e+01   1.3903660971e+01    0.2776096    0.1923335  77.99  0.001064409    1.817    0.450
       125  -7.9533     34.9655    203.7339   9.5204502650e+01   2.8238207717e+01    0.2191229   0.08177802  71.00 0.0008846559    3.589    0.721
       126  -9.2274    250.2130    201.7958   5.2111053827e+01  -7.3583069693e+00    0.3259429    0.1627361 -32.18  0.001270653    2.009    0.502
       127  -9.0749    243.1288    200.5689   5.3119827432e+01  -6.0435445032e+00    0.3116923    0.1738932 -31.63  0.001086566    1.820    0.450
       128  -8.3857    211.1633    201.8789   5.9248753997e+01  -6.7634991341e-01    0.2288589    0.1996968  87.14  0.000776724    1.772    0.436
       129  -8.8607    140.7167    201.0795   7.3354892564e+01   1.2653030261e+01    0.3746306    0.2367163  72.58  0.001333627    2.272    0.560
       130  -8.7504     80.1937    201.0987   8.6023902566e+01   2.2850250758e+01    0.3218863    0.1579742  69.72  0.001399523    2.651    0.623
       131  -7.8113     73.1448    202.1593   8.7579703433e+01   2.3661204408e+01    0.1793738    0.1218448  73.82 0.0005665061    1.351    0.260
       132  -8.3567     48.6292    201.8676   9.2430827350e+01   2.6993044264e+01    0.2538153    0.1134223  80.07  0.001133109    2.833    0.647
       133  -9.4588    149.6991    198.5469   7.1061949033e+01   1.1449405022e+01    0.4454019    0.2974509  82.21  0.001336825    2.412    0.585
       134  -8.7881    124.0991    199.0787   7.6557122453e+01   1.6052002572e+01    0.3157769    0.2097321  83.87  0.001016888    2.019    0.505
       135  -9.2789    113.0445    198.3543   7.8797844931e+01   1.8130637312e+01    0.4500113    0.2400594  68.93  0.001851777    2.742    0.635
       136  -9.2018    237.1189    198.2575   5.3753302762e+01  -4.7220438192e+00    0.2570182    0.1729792 -34.97  0.000808975    1.610    0.379
       137  -8.1593    177.0668    198.8558   6.5440912626e+01   6.1834076754e+00     0.201971    0.1747201  62.23 0.0005802214    1.297    0.229
       138  -9.0007     88.6389    198.3854   8.3951790464e+01   2.2123057780e+01    0.3319063    0.1976569  80.23  0.001392837    2.004    0.501
       139  -8.2704    202.4803    197.6230   6.0139015471e+01   1.5725903376e+00     0.236979    0.1881091 -80.30   0.00123375    2.137    0.532
       140  -9.2263     61.4251    196.9388   8.9410724863e+01   2.6358392801e+01    0.4135979    0.1944395  72.31   0.00183552    2.702    0.630
       141  -7.8932     29.3312    197.6615   9.5805216752e+01   3.0093521710e+01    0.1261701   0.06517686  68.73 0.0002506371    1.740    0.425
       142  -8.2300     12.4115    196.6608   9.8900545992e+01   3.2023353082e+01    0.2187728    0.0755934  87.16 0.0009558167    3.225    0.690
       143  -9.5955    245.8318    193.7164   5.1333593463e+01  -5.5666292082e+00    0.3222284    0.2625538 -69.30  0.001662225    2.324    0.570
       144  -8.7983    215.9002    195.3053   5.7116487150e+01  -5.4997842100e-01    0.2613739    0.1865348 -51.44 0.0008272674    1.915    0.478
       145  -8.3818    132.9956    195.9403   7.4185199690e+01   1.5054894569e+01    0.2199429    0.1555793  74.43 0.0006659353    1.701    0.412
       146  -8.1490     53.7545    196.1716   9.0886853667e+01   2.7520349640e+01    0.2220358   0.09683768  68.31 0.0009576296    2.826    0.646
       147  -7.5046     36.3148    196.6524   9.4381575341e+01   2.9524259570e+01    0.1276374   0.06814093  69.96 0.0007047342    1.721    0.419
       148  -8.9217    224.7710    193.9248   5.5183949349e+01  -1.9489357761e+00    0.3270791    0.1766848 -44.80  0.001436166    2.306    0.566
       149  -7.8985    209.3853    195.2367   5.8351289404e+01   6.5971427533e-01    0.1740938    0.1272205 -46.40 0.0005642399    1.679    0.405
       150  -8.9528    185.2428    194.6972   6.3030726025e+01   5.3207754854e+00    0.2560253    0.2163284  77.79 0.0006907232    1.574    0.365
       151  -8.9298    160.9364    193.8766   6.7908406626e+01   1.0164117546e+01    0.2931546    0.2339842  84.92  0.001078154    1.634    0.388
       152  -8.2044    231.0051    194.0484   5.4057002982e+01  -3.0726158740e+00    0.1796045     0.166972 -82.07  0.000616706    1.643    0.391
       153  -8.8641     77.0401    193.7121   8.5823879503e+01   2.4842642795e+01    0.2374267    0.1768723  77.29 0.0006313203    1.213    0.175
       154  -8.9759     43.8851    193.2194   9.2591863983e+01   2.9353593326e+01    0.3814055    0.1696528  66.78   0.00180883    2.455    0.593
       155  -7.9172    205.3690    191.7372   5.8466521591e+01   1.9607674174e+00    0.1744843    0.1259713 -22.75 0.0004156009    1.501    0.334
       156  -8.2467    198.9413    191.5500   5.9696140391e+01   3.2127780401e+00     0.194737    0.1809847 -13.66 0.0004680761    1.157    0.135
       157  -8.4260    179.3556    191.2161   6.3594140016e+01   7.0589275498e+00    0.1812275    0.1331899 -54.06  0.000504463    1.659    0.397
       158  -8.2871    172.2289    191.2366   6.5074162005e+01   8.4468214267e+00     0.184384    0.1607234  73.79 0.0004359631    1.357    0.263
       159  -9.1180    139.4026    190.3007   7.1897078527e+01   1.4961827869e+01    0.3523885    0.2476802  80.85  0.001202238    1.918    0.479
       160 -10.4455     92.5095    188.7182   8.1882891771e+01   2.3525156983e+01    0.9548256    0.2686763  50.28  0.002862922    3.744    0.733
       161  -8.5199    148.7025    189.3226   6.9723388443e+01   1.3377800758e+01    0.2379638    0.1753426 -71.91  0.001208505    1.716    0.417
       162  -8.8437      6.5673    190.2247   9.9572836267e+01   3.3865210504e+01    0.1502721    0.0803119 -71.39 0.0008532011    1.640    0.390
       163  -9.3547    248.9948    186.0036   4.9272118295e+01  -5.0346633933e+00    0.4308687    0.2529995 -17.44  0.002045318    1.776    0.437
       164  -7.7805    210.2990    189.6392   5.7104310131e+01   1.3633003544e+00    0.1277126    0.1113504 -89.61 0.0005859354    1.715    0.417
       165  -8.8022    129.2274    188.4100   7.3801480689e+01   1.7237912740e+01    0.3016974    0.2190171  88.48 0.0008417164    1.720    0.418
       166  -9.0150     34.2030    187.8294   9.4055402738e+01   3.1596434135e+01    0.3444149    0.1506859  79.68  0.001578306    2.707    0.631
       167  -8.9115    216.5251    187.7796   5.5545652314e+01   4.8744107147e-01    0.2577069    0.2252813 -48.79 0.0007643684    1.448    0.310
       168  -8.2396    237.4495    188.1013   5.1728412448e+01  -3.3475000763e+00     0.189621    0.1216681 -30.13 0.0006639707    1.556    0.358
       169  -8.7416    191.4257    187.1648   6.0365995169e+01   5.3968882253e+00    0.2992227    0.2312375 -75.40 0.0009679015    2.022    0.505
       170  -9.2282    155.9142    187.2206   6.7803641545e+01   1.2379417445e+01    0.3235847    0.2395698 -67.45 0.0008811872    1.696    0.410
       171  -9.4893    120.6109    185.9179   7.5297485292e+01   1.9319865821e+01    0.4699745    0.2598777 -73.32  0.001817605    2.582    0.613
       172  -9.1574     54.7105    186.6973   8.9738014636e+01   2.9395283676e+01    0.3907009    0.1871894  75.51  0.001347799    2.647    0.622
       173  -8.3954    230.6450    187.1509   5.2778173872e+01  -2.0029898745e+00    0.1930013    0.1594317 -36.41 0.0005521923    1.387    0.279
       174  -8.7092    164.8672    186.3573   6.5733882115e+01   1.0781250768e+01    0.2900148    0.2023285 -66.30 0.0009619407    1.947    0.486
       175  -9.2105    109.6289    186.0891   7.7751863877e+01   2.1227885093e+01    0.3773252    0.2326003  70.93  0.001229888    1.990    0.497
       176  -8.5751    202.9069    184.4732   5.7543848778e+01   3.6096455214e+00    0.2382074    0.1982225 -60.38  0.000880193    1.601    0.375
       177  -8.5886    183.0130    184.5560   6.1587800033e+01   7.5077534057e+00    0.2451276     0.197815 -61.09 0.0006274188    1.565    0.361
       178  -9.2237     66.6740    184.3310   8.6932044662e+01   2.8314435401e+01    0.3491863    0.1955926  72.11 0.0009275822    1.970    0.492
       179  -8.6093    210.1099    183.9138   5.6020149289e+01   2.3119732310e+00    0.2304687     0.187749 -31.78 0.0006851401    1.305    0.234
       180  -8.0289    197.2189    183.7734   5.8540448501e+01   4.8362289284e+00     0.214999    0.1564026 -88.20 0.0007082676    2.699    0.630
       181  -9.0017    174.3115    183.4217   6.3187363850e+01   9.4446729587e+00     0.288494    0.2392017 -72.64 0.0005955293    1.553    0.356
       182  -8.5075    224.2782    182.9729   5.3128444076e+01  -2.1177279784e-01     0.224805    0.1593618 -34.75 0.0008168306    1.478    0.324
       183  -9.1512     44.4918    182.2399   9.1427785314e+01   3.1608977191e+01    0.3598985    0.1941034  76.21  0.001101178    1.914    0.478
       184  -8.1825      1.7714    183.5510   1.0005527500e+02   3.5643306550e+01    0.1474606   0.07836276  53.28 0.0009440921    1.678    0.404
       185  -7.8392     19.4044    182.2040   9.6550387861e+01   3.4319473641e+01      0.17268   0.08523801  88.97 0.0009509281    1.805    0.446
       186  -9.1816    147.2211    180.1826   6.8432593671e+01   1.5451394599e+01    0.3693884    0.2606816  71.94  0.001442342    1.807    0.447
       187  -8.6801    143.5187    179.9748   6.9213850590e+01   1.6217799939e+01    0.2376452    0.1813841  52.70 0.0003690625    1.223    0.182
       188  -9.6504     25.7760    178.5513   9.4970139870e+01   3.4459035402e+01    0.6255342    0.2309492  80.60   0.00229192    4.351    0.770
       189  -7.9431    240.4814    179.9337   4.9556124770e+01  -2.6954368458e+00    0.1963143    0.1227326 -30.85  0.001024376    1.569    0.362
       190  -8.7557    137.8569    179.2506   7.0344477955e+01   1.7462732443e+01    0.3580107    0.2424342  73.66  0.001122008    1.953    0.488
       191  -9.5194    248.4456    176.3319   4.7426033861e+01  -3.5697656044e+00    0.4567885     0.268961 -48.34  0.001928132    2.359    0.576
       192  -8.6925    250.5222    172.4550   4.6275187474e+01  -3.3700016906e+00    0.2327103    0.1638503 -25.29 0.0005754661    1.323    0.244
       193  -9.4272    191.5141    178.1088   5.8576580780e+01   6.9438705292e+00     0.322749    0.2693256  81.67 0.0005518814    1.651    0.394
       194  -9.1792     35.9625    176.4021   9.2656250357e+01   3.3844169908e+01    0.5112409     0.200857  82.18  0.001840923    4.285    0.767
       195  -8.8144    205.3716    177.5617   5.5677365168e+01   4.2769510657e+00    0.2439366    0.2131841 -32.21 0.0006233268    1.229    0.186
       196  -8.0654    169.3762    178.2772   6.3251709217e+01   1.1389915948e+01    0.1879107    0.1389644 -56.96  0.000421468    1.602    0.376
       197  -8.6544    129.2507    177.2344   7.1925060565e+01   1.9522456978e+01    0.2790628    0.1884518  77.46  0.000705965    1.978    0.494
       198  -8.6653    231.1711    176.6951   5.0580914183e+01  -5.2403514599e-01     0.226267    0.1753541 -38.44 0.0007765664    1.421    0.296
       199  -8.4757    217.5007    177.0679   5.3217818978e+01   1.9957245869e+00    0.2008575     0.194567  63.54 0.0006065881    1.301    0.231
       200  -8.1092     97.3595    177.3018   7.9183311364e+01   2.5184301462e+01    0.1293172    0.1106725  -9.60 0.0007037425    1.719    0.418
       201  -9.2671     89.1907    176.6655   8.0945640260e+01   2.6647082710e+01    0.2982506    0.1880128  71.24 0.0008654649    1.775    0.437
       202  -9.3028     58.7405    175.4925   8.7628819091e+01   3.1308589700e+01     0.517687    0.2254388  66.29  0.002032516    3.265    0.694
       203  -9.4728     56.0109    170.7701   8.7678597597e+01   3.2707041598e+01    0.4526463     0.215113  76.25  0.001832317    3.094    0.677
       204  -8.6376     13.1481    176.6698   9.7377055971e+01   3.6075435862e+01    0.2279771    0.1263846  64.72  0.001336249    1.606    0.377
       205  -8.2472    211.5140    176.0346   5.4161584929e+01   3.3244663875e+00    0.2013369    0.1363181 -36.87 0.0007449412    1.549    0.354
       206  -9.1342    183.1158    175.4586   5.9785445274e+01   9.1176444524e+00    0.3882222    0.2383449 -44.25  0.001207877    1.781    0.438
       207  -9.0801    158.6722    174.6420   6.4875208808e+01   1.4258505873e+01    0.3881377    0.2686935 -78.49  0.001095739    2.233    0.552
       208  -9.4066    104.2594    174.5246   7.7178447639e+01   2.4624565093e+01    0.5468335    0.2732486  65.41  0.001733524    3.062    0.673
       209 -10.7983     75.8313    169.8259   8.3038569823e+01   3.0203020609e+01     1.233331    0.4601626 -75.69   0.00382472    4.740    0.789
       210  -8.5777    224.6692    174.3250   5.1298934778e+01   1.0633114866e+00    0.2336623    0.1655879 -44.69 0.0007337904    1.638    0.390
       211  -9.4587    175.6792    171.9446   6.0653647704e+01   1.1293218363e+01    0.3406717    0.2873987 -58.76 0.0009186944    1.379    0.275
       212  -8.6891    143.4612    172.6135   6.7879888461e+01   1.7721632463e+01    0.2848557    0.1971372  89.69  0.001004683    2.165    0.538
       213  -8.4032    134.7866    171.6836   6.9677850534e+01   1.9619891338e+01    0.2641505    0.1845188 -87.06 0.0007926315    1.983    0.496
       214  -8.9957     45.2237    170.9913   9.0104645002e+01   3.3977777743e+01    0.3237716    0.1615963  79.01  0.001278925    2.405    0.584
       215  -8.8915    230.4356    169.0658   4.9136622958e+01   7.9899033649e-01    0.4394864    0.1725119 -42.18  0.001701327    2.786    0.641
       216  -8.3444    198.7130    170.3226   5.5524500453e+01   6.8526642116e+00    0.2446607    0.1804969 -52.23    0.0010203    1.637    0.389
       217  -9.5965    121.4464    170.2525   7.2492408831e+01   2.2467901764e+01    0.3728531     0.269194 -89.18 0.0008769866    1.706    0.414
       218  -8.4228    237.1844    169.4618   4.7994978679e+01  -5.2635048057e-01    0.2055476    0.1820906 -36.52  0.000690132    1.293    0.227
       219  -8.5247    205.8848    170.1325   5.4048526215e+01   5.4327918263e+00    0.2060718    0.1972302 -85.80 0.0006031847    1.301    0.232
       220  -8.6744    149.7981    169.6382   6.5884852264e+01   1.7057952252e+01    0.2807845    0.2075225 -68.51  0.001017569    1.649    0.394
       221  -9.8737     81.3555    155.3289   7.9558731696e+01   3.2669516677e+01    0.5593116    0.4271978 -61.40  0.001632521    1.271    0.213
       222  -8.4120    244.4492    169.0442   4.6621429288e+01  -1.7901027421e+00    0.1980123    0.1225004 -31.86 0.0004227129    1.551    0.355
       223  -9.0570    167.1062    168.3062   6.1774423439e+01   1.3765821624e+01    0.3537794     0.269293  82.11  0.001221122    1.832    0.454
       224  -8.6389     88.1338    168.8488   8.0038465144e+01   2.8545099418e+01    0.2401547    0.2095635  66.30  0.001022027    1.061    0.058
       225  -8.5295    218.8734    168.1530   5.1107498860e+01   3.1787670591e+00    0.1971017    0.1935341  41.16 0.0004362719    1.221    0.181
       226  -8.9370    111.4662    167.0829   7.4272219256e+01   2.4986491967e+01    0.3117858    0.2104553  81.86  0.001018325    1.900    0.474
       227  -8.8946    191.9004    166.4396   5.6106295072e+01   8.9470179142e+00    0.2874384    0.2053976 -42.41 0.0007309554    1.498    0.332
       228  -8.3695    184.9452    166.1357   5.7493727453e+01   1.0453170835e+01    0.2153245    0.1994835  84.00 0.0004723184    1.276    0.216
       229  -9.6880    137.4107    164.5025   6.7725041321e+01   2.0615712501e+01    0.7358537    0.3190186  58.45  0.002235669    3.640    0.725
       230  -9.9469     94.9212    162.0591   7.7359465217e+01   2.8970655639e+01    0.8956233    0.5192935  88.86  0.003069422    2.645    0.622
       231  -8.9232     20.4642    165.9893   9.4993123439e+01   3.7690710810e+01    0.2966715    0.1267348  56.52  0.001240417    2.342    0.573
       232  -8.3554    234.0008    164.9408   4.7617704300e+01   7.7256325220e-01    0.1977957     0.171902 -69.85 0.0006095521    1.658    0.397
       233  -8.7274    159.5550    163.9768   6.2567154246e+01   1.6196289239e+01    0.3017747    0.2368269  88.21  0.001037974    1.683    0.406
       234  -9.5647     33.7286    163.3130   9.1838285718e+01   3.6960543074e+01    0.5121905    0.1918904  57.09  0.002178003    3.084    0.676
       235  -9.1964    246.1691    163.0233   4.5059741272e+01  -1.1941607778e+00    0.2298493    0.1713161 -31.79 0.0006356878    1.304    0.233
       236  -8.0654    239.8601    163.8343   4.6334743015e+01  -1.5582785075e-01    0.1757959    0.1608012 -45.07 0.0004713064    1.339    0.253
       237  -8.7938    213.0077    163.2324   5.1190604335e+01   5.1720644204e+00    0.2884353    0.1989695 -40.82 0.0007851739    1.530    0.346
       238  -8.4535    204.9563    162.4763   5.2612390636e+01   6.9481101820e+00    0.2628463    0.1985463 -51.66 0.0006489551    1.574    0.365
       239  -8.7569     57.4796    163.4016   8.6434473080e+01   3.4173594588e+01    0.3339933    0.1733059  19.84  0.001387952    3.521    0.716
       240  -8.7810     60.7879    159.9185   8.5201890965e+01   3.4535756308e+01     0.344827    0.1866916  70.97  0.001376721    2.299    0.565
       241  -9.2050      3.2364    162.0574   9.8307511435e+01   4.0026384756e+01    0.3687102    0.1482929  63.36  0.001857061    2.585    0.613
       242  -9.0441    177.5188    160.4817   5.7883595559e+01   1.3090201331e+01    0.2920358    0.2532467 -87.19 0.0007873126    1.432    0.302
       243  -8.7600    151.8000    160.8544   6.3684410306e+01   1.8448580990e+01    0.3207759    0.2285685  75.54  0.001227776    1.910    0.476
       244  -8.3918    241.9891    159.9465   4.5132918990e+01   4.9089070916e-02    0.1655453    0.1435334  -8.49 0.0006289811    1.036    0.035
       245  -8.6691    227.4585    158.9389   4.7527856457e+01   2.9999691275e+00    0.3332869    0.2046936 -55.20  0.001096724    2.419    0.587
       246  -9.8588    241.8085    154.0384   4.3892487870e+01   1.0064571695e+00    0.4746887    0.3166421  74.47  0.002007126    3.098    0.677
       247  -9.3911    233.6473    147.5710   4.3909824688e+01   3.6356019351e+00    0.3136144    0.1933851 -36.01 0.0009351572    1.565    0.361
       248  -9.8861    250.2421    157.4486   4.3179920481e+01  -1.0906997792e+00    0.3754229    0.2133499 -40.38 0.0008200542    1.796    0.443
       249  -8.8377    246.7302    155.3411   4.3325293599e+01  -1.2193313108e-01    0.1908143    0.1195535 -23.71 0.0004432002    1.557    0.358
       250  -8.5602    237.1502    159.1086   4.5807528839e+01   1.0936501433e+00    0.1800576     0.164869 -46.79 0.0007255336    1.319    0.242
       251  -8.6867    196.4524    157.7082   5.3298189994e+01   9.5793181303e+00    0.3086225    0.2358215 -60.09 0.0009057513    1.669    0.401
       252  -8.3637    128.2569    158.7702   6.8768082119e+01   2.3656221442e+01     0.278535    0.2143993  82.50 0.0009797546    1.541    0.351
       253  -9.6090    105.9836    157.7421   7.3942769599e+01   2.8046877705e+01    0.5249144    0.3486919  77.85   0.00154295    1.942    0.485
       254  -8.2721    188.0473    157.4797   5.4992842816e+01   1.1411884658e+01    0.2256559    0.1966772 -38.24 0.0004474063    1.204    0.169
       255  -9.1017    167.6278    157.1611   5.9341079509e+01   1.5854904670e+01     0.343518    0.2587973 -83.96  0.001180612    1.917    0.478
       256  -8.6424    218.0089    156.4473   4.8757563521e+01   5.3098888473e+00    0.2693341      0.19121 -49.62 0.0008254891    1.660    0.397
       257  -9.0645    157.7906    155.9764   6.1301999532e+01   1.8194517393e+01    0.3141268    0.2071816 -55.16  0.000874437    1.705    0.414
       258  -9.4581     50.3414    155.3078   8.7076928547e+01   3.6900735867e+01     0.523075    0.2276936  60.89   0.00214051    3.016    0.668
       259  -8.6524     22.7343    156.2346   9.3585559632e+01   3.9625457386e+01    0.2426997   0.09860354 -54.85  0.001163977    2.503    0.601
       260  -8.4408    204.7545    155.5101   5.1137043181e+01   8.2211642242e+00    0.2630736    0.1961657 -35.22 0.0006947989    1.365    0.268
       261  -9.0950    119.4667    155.0666   7.0165810266e+01   2.6168635261e+01    0.3838378    0.2639831  86.67  0.001472867    1.984    0.496
       262  -8.4821    144.4964    154.6593   6.4098989894e+01   2.1264895262e+01    0.2964187    0.2154047  71.78 0.0008347788    1.711    0.416
       263  -9.5681     68.4015    153.8424   8.2506059858e+01   3.4901821082e+01    0.4222188    0.2308073  70.01   0.00142242    2.425    0.588
       264  -8.7834    232.8033    153.5318   4.5376029304e+01   2.8293790309e+00    0.2495474    0.1811368 -66.39  0.000821263    2.248    0.555
       265  -9.8203    132.9717    151.7694   6.6240642726e+01   2.4248846672e+01    0.6029913    0.3691971 -55.17  0.001671968    1.729    0.422
       266  -9.6562     29.5316    150.7093   9.1448920238e+01   4.0213498249e+01    0.4093775    0.1975159  75.66  0.001696053    2.560    0.609
       267  -8.1349     20.2261    152.2485   9.3760304449e+01   4.0742085579e+01    0.1703033    0.1121702  77.21 0.0007473248    1.383    0.277
       268  -8.8160    189.4835    149.9572   5.3026810034e+01   1.2518350009e+01    0.3353314    0.2469393 -67.55 0.0008441824    1.893    0.472
       269  -8.0366    182.3939    151.1505   5.4798887824e+01   1.3838099409e+01    0.2110947    0.1422779 -53.45 0.0007849288    1.724    0.420
       270  -8.3784    162.6804    150.3786   5.8981317424e+01   1.8292133437e+01    0.2667707    0.1890014 -57.54 0.0006036568    1.620    0.383
       271  -8.5706     98.3762    150.6350   7.4534808504e+01   3.0990995642e+01     0.305099    0.2112642  77.25 0.0008505125    1.745    0.427
       272  -8.6773      2.9551    150.4328   9.7460386097e+01   4.2557780756e+01    0.2590345    0.1080112  85.31 0.0009312473    2.442    0.590
       273  -9.4762    248.9507    149.0996   4.1598414591e+01   4.3014375443e-01    0.3162024    0.1840727 -31.32 0.0008188108    1.597    0.374
       274  -9.8524    242.7154    149.4342   4.2731731691e+01   1.5605535437e+00    0.3323504    0.2843713  27.14  0.001744002    1.164    0.141
       275  -8.2510    213.0030    149.5165   4.8182193573e+01   7.5433290543e+00    0.2176475      0.19004 -27.76 0.0004300554    1.138    0.121
       276  -8.5224    198.7549    148.7326   5.0833784246e+01   1.0730036886e+01      0.27463    0.1987605 -49.21 0.0004681532    1.536    0.349
       277 -10.0400     89.3491    146.1587   7.6001751836e+01   3.3530601711e+01    0.6631831    0.3660195 -89.49  0.002383422    3.331    0.700
       278 -10.2884     39.8169    146.6762   8.8513608801e+01   4.0075258131e+01    0.6889052    0.3588214 -79.89  0.003063447    1.838    0.456
       279 -10.3497     54.9691    144.7003   8.4491847679e+01   3.8783517595e+01    0.7357426    0.3704906  76.78  0.002734395    3.211    0.689
       280  -9.9451     56.5258    135.4397   8.2681595868e+01   4.0751361104e+01    0.4480108    0.2732767   1.53  0.001884308    3.462    0.711
       281  -8.8381    223.4755    146.7122   4.5567643581e+01   5.8434133490e+00    0.2846818    0.2520494 -66.42  0.001169837    1.424    0.298
       282 -10.3732    148.9816    144.9925   6.0966441650e+01   2.2376683198e+01    0.5936731    0.3976036  83.24  0.001603209    2.503    0.601
       283 -10.2707    106.7652    143.6602   7.1092672040e+01   3.1112494154e+01     0.818083    0.5237557 -75.08  0.002656559    1.943    0.485
       284  -9.2147     78.0690    146.9044   7.8997323632e+01   3.5116399346e+01    0.2889101    0.1768016  74.15 0.0008242613    2.120    0.528
       285  -9.5368     13.3413    145.9616   9.4724297084e+01   4.2732235740e+01    0.3264618    0.1780331  74.34    0.0015805    1.852    0.460
       286  -8.0156    206.6509    146.2091   4.8677151985e+01   9.4831639960e+00     0.199515    0.1365563 -27.08 0.0005492518    1.537    0.349
       287  -8.0489    175.5806    145.8380   5.5082367877e+01   1.6376723115e+01     0.208217    0.1458089 -55.20 0.0005159698    1.646    0.392
       288  -9.7739    139.1534    144.9565   6.3308634031e+01   2.4466508114e+01    0.4969247    0.3060596 -67.91   0.00172094    2.235    0.553
       289  -9.4381    140.1486    136.6033   6.1205561371e+01   2.6078203935e+01    0.3743367    0.2683913  17.63  0.001311409    1.920    0.479
       290  -8.6181    240.3869    145.1869   4.2197204969e+01   2.6907243356e+00    0.2186995    0.1314308 -31.79 0.0004496094    1.574    0.365
       291  -9.5931    242.6704    142.7178   4.1256823684e+01   2.6406421013e+00    0.2373427    0.1862841  27.39 0.0006139695    1.301    0.231
       292  -9.7384    125.1247    142.5654   6.6238761157e+01   2.7861088887e+01    0.5744022    0.3721467 -87.03  0.001640657    2.532    0.605
       293  -9.1764    247.1185    143.6632   4.0714416458e+01   1.6289167536e+00    0.2991683    0.1977191 -17.57 0.0004669134    1.577    0.366
       294  -8.0903    250.4792    140.5196   3.9462978040e+01   1.4812759422e+00    0.1374074    0.1228715 -15.29 0.0008098675    1.025    0.024
       295  -7.9391    194.4285    143.9200   5.0623597866e+01   1.2570772058e+01    0.1988994    0.1305054 -63.43 0.0005543808    2.263    0.558
       296  -8.8164    165.5988    143.7572   5.6837362653e+01   1.9007266006e+01     0.291636    0.2479011 -77.06 0.0007695676    1.399    0.285
       297 -10.7981     69.4172    140.6844   8.0173883661e+01   3.7820878419e+01    0.5585064     0.326355 -82.11  0.002277675    2.029    0.507
       298  -9.7677     70.2548    133.7172   7.8754661334e+01   3.9338064958e+01    0.3484857    0.2483616  -0.52  0.001512399    2.305    0.566
       299  -8.2041    182.0952    141.5990   5.2690093824e+01   1.5760335570e+01    0.2569008     0.207527 -53.02 0.0005631014    1.357    0.263
       300  -8.3432    134.0000    139.9518   6.3469833948e+01   2.6636826298e+01    0.2517635   0.08738343 -48.44 0.0008031865    2.948    0.661
       301  -9.8629     23.3983    137.8580   9.1467840614e+01   4.3699737419e+01    0.4937772    0.2359086  70.95  0.001997468    2.696    0.629
       302  -8.6101    172.4116    138.1318   5.4003705080e+01   1.8626919201e+01    0.3055317     0.233035  89.00 0.0008273227    1.854    0.461
       303  -7.5753    218.5412    138.4389   4.4602527789e+01   8.3071294935e+00    0.1451731    0.1381605  -2.85 0.0004652038    1.027    0.026
       304  -8.7619    207.6721    137.5324   4.6474847671e+01   1.0827983658e+01      0.30026    0.1684814 -48.78 0.0007771619    2.028    0.507
       305  -8.6841    197.5321    137.4409   4.8479136134e+01   1.3095494448e+01    0.2793234    0.2408667 -71.98 0.0007560381    1.417    0.294
       306  -8.4873     84.0559    123.1772   7.2958742469e+01   3.9750108632e+01    0.3823876    0.2087781 -35.69  0.001535637    2.511    0.602
       307  -8.6428    250.8072    129.8621   3.7034065662e+01   3.1020637915e+00    0.4181247    0.1174835 -31.61  0.001299429    3.781    0.736
       308  -9.1625    248.5034    134.8726   3.8531035130e+01   2.7552935031e+00    0.3346442    0.2083799 -41.39 0.0008509702    1.576    0.365
       309  -8.6933    247.0955    129.9330   3.7649157182e+01   3.8228957486e+00    0.2964675    0.2005302 -42.51 0.0008346798    1.464    0.317
       310 -10.4364     83.4304    133.2397   7.5144675796e+01   3.7491085879e+01    0.6112937    0.3761321 -63.97  0.001911379    1.583    0.368
       311  -8.3303    162.6361    136.1561   5.5754021348e+01   2.1232953770e+01    0.2388526     0.192435 -62.65 0.0006221103    1.407    0.289
       312  -9.3527    152.8581    128.8697   5.6307378105e+01   2.4959273726e+01    0.4957278    0.2911784 -59.48 0.0009599932    2.168    0.539
       313  -9.1668    151.0988    135.3099   5.8259472908e+01   2.3980712671e+01    0.4746761     0.187599  36.31  0.001457076    3.216    0.689
       314  -8.6701    155.6897    134.0304   5.6870333385e+01   2.3233427617e+01    0.2746249    0.2169432  57.65  0.001303888    1.306    0.234
       315  -9.0862     39.0051    135.7846   8.7282631003e+01   4.2671784346e+01    0.2581195    0.1738878  86.90 0.0008282595    1.474    0.322
       316  -8.0168    187.5804    135.4785   5.0080781439e+01   1.5712663964e+01    0.1507067    0.1488955  13.69 8.576025e-05    1.036    0.035
       317  -9.6207      3.1330    142.1969   9.6721758979e+01   4.4346445293e+01    0.4170361    0.2028788  76.81  0.001821673    2.110    0.526
       318  -7.8088    231.5679    133.7944   4.1162113102e+01   6.3507443690e+00    0.1964977     0.129734 -43.82 0.0004563501    1.552    0.356
       319  -8.5656    179.3245    133.7304   5.1435775381e+01   1.7935933448e+01    0.2843621    0.2265001 -66.56 0.0007506928    1.528    0.345
       320  -9.0757    112.9201    133.1438   6.7319449778e+01   3.2377701431e+01    0.3687327    0.2662199  87.29  0.001029835    1.832    0.454
       321  -7.8881    237.5196    133.4911   4.0058419201e+01   5.1732733269e+00    0.1410813    0.1315765 -28.64 0.0002328135    1.090    0.082
       322 -10.2263    132.4270    130.8160   6.1789747931e+01   2.8987028775e+01    0.7090134    0.4492018 -70.47  0.001396165    2.232    0.552
       323  -9.3600    143.0448    131.6310   5.9342065489e+01   2.6536846717e+01    0.3098871    0.2461271 -72.90 0.0007862136    1.485    0.327
       324 -10.1339     97.8674    128.0564   7.0210478676e+01   3.6306987617e+01    0.9917472    0.2240823 -50.79  0.002819853    4.105    0.756
       325  -9.8503     73.0821    129.0988   7.7150045283e+01   4.0021086753e+01    0.4480469    0.2787963  89.70  0.001463857    2.188    0.543
       326  -9.8527     12.9106    128.2316   9.2979510939e+01   4.6739980262e+01     0.672949    0.2759581 -82.74  0.003084832    2.405    0.584
       327  -8.3486    204.4391    130.1919   4.5372719307e+01   1.2888067567e+01    0.2143534    0.1397652 -49.11 0.0009369265    1.680    0.405
       328  -8.3086    192.8715    130.0961   4.7684122298e+01   1.5537768120e+01    0.2300546    0.2105142 -76.01 0.0004647105    1.249    0.199
       329  -9.0592    168.3271    129.2336   5.2793988264e+01   2.1363207315e+01    0.3294655    0.2562873 -72.32 0.0004820441    1.633    0.388
       330  -7.8782    220.4967    129.5613   4.2167002511e+01   9.4372479800e+00    0.1457609    0.1397802  -9.88 0.0001467946    1.026    0.026
       331  -8.0443    211.5809    128.8077   4.3656910265e+01   1.1537265154e+01    0.2129925    0.1361712 -47.97  0.000665936    1.689    0.408
       332 -10.5554     60.3032    125.3196   7.9958886941e+01   4.2649319528e+01    0.7193769    0.4065394  80.84  0.002648927    2.848    0.649
       333  -8.8577     57.7630    116.4927   7.9051097699e+01   4.5039086670e+01    0.5174567    0.2865151 -29.30  0.002138729    2.996    0.666
       334 -10.7820     45.1401    123.5862   8.3835526160e+01   4.4853774521e+01     1.121293    0.5597082  82.86  0.004189938    3.710    0.730
       335  -9.9470    118.0249    124.9068   6.4123103088e+01   3.3259153008e+01     0.602505    0.4155776 -89.04  0.001669797    2.178    0.541
       336  -7.3612    228.6659    125.3076   3.9697741873e+01   8.4041907154e+00    0.1447648     0.115335 -71.81 0.0007041211    1.671    0.401
       337  -8.7623    179.1558    124.4498   4.9209541563e+01   1.9812830889e+01    0.2973673    0.2403742 -64.75 0.0005651174    1.452    0.311
       338 -10.4383     28.6635    122.0915   8.8092247059e+01   4.6839679094e+01    0.7323892    0.3447441  74.92  0.002904307    3.638    0.725
       339  -7.8980    244.2198    123.9438   3.6751975268e+01   5.3713396723e+00    0.1877589    0.1069254 -35.24 0.0004307863    1.618    0.382
       340  -7.9771    188.5648    123.8174   4.7044092235e+01   1.7736992823e+01    0.2164604    0.1445465 -51.81 0.0006349392    1.665    0.399
       341  -7.7448    203.2287    121.9585   4.3613354562e+01   1.4680635549e+01     0.199838    0.1247921 -37.94  0.000437364    1.584    0.369
       342  -7.9089    195.1565    122.1044   4.5260402306e+01   1.6525511454e+01    0.2100064    0.1792064 -62.78 0.0004645469    1.328    0.247
       343  -8.4421    171.9176    121.3006   5.0019479084e+01   2.2137867759e+01    0.2629234    0.2111433 -55.13  0.000485823    1.345    0.257
       344  -9.1022    158.7112    121.4121   5.3078358807e+01   2.5194147712e+01     0.347982    0.2593012  88.99 0.0008697573    1.903    0.475
       345  -9.8727    131.1610    118.5196   5.9151192724e+01   3.1974471781e+01    0.5684054    0.3830165  89.85  0.002159834    2.526    0.604
       346  -9.7357     71.0251    119.5478   7.5869429314e+01   4.2558137564e+01    0.3952658    0.2484793 -87.64  0.001102304    2.194    0.544
       347  -9.8885    141.7225    118.2813   5.6408786980e+01   2.9719196184e+01    0.5345563    0.3574303 -70.56  0.001303805    2.123    0.529
       348 -10.5532      3.2421    115.8611   9.4072543433e+01   5.0179088695e+01    0.8099226    0.3191678 -79.11  0.003944131    2.217    0.549
       349  -7.7808    231.5521    117.5008   3.7353361995e+01   9.1088272744e+00    0.1449428    0.1355599 -33.96 0.0001704699    1.049    0.047
       350 -10.1181    109.5093    114.1304   6.3838109813e+01   3.7367294646e+01    0.5340456    0.3314485 -69.29  0.001580587    2.169    0.539
       351  -7.9992    185.9379    115.9671   4.5624850503e+01   1.9870252954e+01    0.2435393    0.1906338 -75.41  0.000605069    1.653    0.395
       352  -8.2370    193.1954    115.1782   4.3924909051e+01   1.8295407245e+01    0.2132881    0.1816437 -67.06 0.0004315987    1.344    0.256
       353  -8.4682    153.3937    115.1918   5.2756871641e+01   2.7722676469e+01    0.2263817    0.1480469 -54.06 0.0005491869    1.689    0.408
       354  -9.9703     78.9096    112.3334   7.2086873168e+01   4.3079805023e+01    0.5612777    0.3612592 -88.79  0.001840291    2.369    0.578
       355  -8.3467     78.4204    104.8718   7.0527702747e+01   4.4876058460e+01    0.3125952    0.1839261 -33.65  0.001326077    2.105    0.525
       356  -8.1489    250.1010    114.5259   3.3657827185e+01   5.6944314063e+00    0.1990746    0.1392519  51.43  0.001024228    1.568    0.362
       357 -11.1585    248.5237    107.9982   3.2391467703e+01   7.0676311674e+00    0.7440779    0.3255398 -37.69  0.003075559    2.050    0.512
       358  -8.9068     92.8639    104.7542   6.6236595722e+01   4.2542628035e+01     0.519053    0.3031008  12.29  0.001814115    3.550    0.718
       359 -10.0765    133.8682    109.4870   5.6138815705e+01   3.3355900977e+01    0.7029242     0.326285 -52.24  0.001844802    2.413    0.586
       360 -10.1358    121.6597    112.0005   6.0005498986e+01   3.5415480326e+01    0.4952227    0.3480589  82.80 0.0009093539    2.164    0.538
       361  -8.3310    174.9126    111.8864   4.6943940112e+01   2.3304825805e+01    0.2450164    0.1934732 -78.72 0.0006094766    1.626    0.385
       362  -8.9324    159.2057    111.5586   5.0429150437e+01   2.7116354298e+01    0.2950082    0.2417505 -73.09 0.0005407238    1.454    0.312
       363  -9.8223     14.2699    110.9259   9.0485447033e+01   5.0549675931e+01    0.3294601     0.187103  83.72  0.001358662    1.991    0.498
       364 -10.2938     66.4334    109.5092   7.5125862031e+01   4.5538716240e+01    0.5524974    0.2914054 -63.01  0.002045114    1.840    0.457
       365  -8.0802    182.6754    108.9006   4.4491536968e+01   2.2015587542e+01    0.2331278    0.1380568 -48.10  0.000563146    1.794    0.443
       366  -8.3416     42.4729    109.3576   8.2165129249e+01   4.8446088960e+01    0.2260901    0.1219922   5.54 0.0009538169    3.436    0.709
       367  -8.2117    189.2384    107.7519   4.2827204112e+01   2.0646918691e+01    0.2824093    0.1844375 -40.83 0.0007473213    1.528    0.346
       368  -9.9581    118.8123    105.7990   5.9168178584e+01   3.7371039783e+01    0.4090223    0.3279108 -21.39  0.001972693    1.455    0.313
       369  -9.4667    116.2015    102.3668   5.8973604509e+01   3.8658101088e+01    0.3924632    0.2447449  58.73  0.001632245    1.955    0.488
       370 -10.3449    108.7814     98.4945   6.0011719911e+01   4.0990812333e+01    0.5749361    0.4557702  84.42  0.001259141    1.655    0.396
       371  -8.6019    107.3793     92.7514   5.8831227481e+01   4.2509317694e+01     0.436627     0.311837   5.27  0.001906372    2.031    0.508
       372 -10.5334     45.9225    102.1944   7.9780580571e+01   4.9731425094e+01    0.7889501    0.4367002  75.77  0.003132941    3.516    0.716
       373  -9.0754     45.6860     92.3895   7.7821726446e+01   5.1988888136e+01    0.3709343    0.2179521   3.80  0.001739934    2.677    0.626
       374 -10.6826     22.9287    102.6105   8.6775076115e+01   5.1781003570e+01    0.6528766    0.3525893  74.94  0.002089004    2.784    0.641
       375  -9.5263    150.5614    102.9146   5.0181683921e+01   3.0929461811e+01    0.4918347    0.3031842 -62.08  0.001155536    2.223    0.550
       376  -9.2177    139.8255    104.3652   5.3244534094e+01   3.3114403029e+01    0.3655053    0.2850395 -82.33 0.0009069518    1.682    0.406
       377  -8.5443    166.7508    103.7531   4.6609858139e+01   2.6884416420e+01    0.3116049    0.2093076 -50.98 0.0007584335    1.602    0.376
       378  -7.9522    167.4910    114.4843   4.9277562005e+01   2.4558459173e+01    0.1574798    0.1546822  71.76 0.0001276084    1.035    0.033
       379 -10.0602    128.4419    101.8188   5.5508213846e+01   3.6190392343e+01     0.386783    0.2961298 -65.43 0.0008727072    1.529    0.346
       380  -7.8873    175.6070    101.8030   4.4123724180e+01   2.5105935446e+01    0.2210867     0.146583 -49.08 0.0004784523    1.595    0.373
       381  -8.4437    159.7912    100.8462   4.7418425749e+01   2.9146200362e+01    0.2859843     0.212703 -60.52 0.0006405361    1.564    0.360
       382  -9.2175     82.0086     99.7039   6.8201663787e+01   4.5491982173e+01    0.3699318    0.2569319 -82.10  0.001065077    2.024    0.506
       383 -10.1835     64.0135     95.8264   7.2797951112e+01   4.9004744921e+01    0.5496453    0.3438707 -84.96  0.001531018    2.568    0.611
       384  -9.2857     95.1106     96.9321   6.3565040153e+01   4.3899208185e+01    0.3143714    0.2441573 -67.26 0.0006745476    1.445    0.308
       385  -9.4307      6.4052    102.3775   9.1548619201e+01   5.2989410003e+01    0.3163156    0.1633626  85.97  0.001294868    2.273    0.560
       386  -7.5701    183.7010     96.3469   4.0943494616e+01   2.4145670660e+01    0.1632427    0.1232315 -71.98 0.0005665261    1.681    0.405
       387  -7.9896    151.6692     94.6665   4.7625258022e+01   3.2333326811e+01    0.2557495    0.1919093  12.41  0.001098342    1.774    0.436
       388  -8.1916    165.0104     94.0316   4.4336244346e+01   2.9212011305e+01    0.2532141    0.1940701 -74.35 0.0006196243    1.673    0.402
       389  -7.7345    188.5500     93.4949   3.9192164369e+01   2.3468923902e+01    0.1561264    0.1507723 -73.20 0.0001650512    1.054    0.051
       390  -9.3357    139.2047     92.1264   4.9990469663e+01   3.5785154809e+01    0.3855602    0.2822305 -61.92 0.0006531283    1.638    0.389
       391  -9.0413    120.4964     93.0052   5.5203092878e+01   3.9769907309e+01    0.2772985    0.2206106  55.77   0.00134457    1.341    0.254
       392  -9.8456    124.5468     90.6190   5.3412205227e+01   3.9394891378e+01    0.4198011    0.3465159 -79.71 0.0007378588    1.509    0.337
       393 -10.1278     92.7044    112.2633   6.8100251685e+01   4.0856390321e+01    0.5502582    0.3265746 -68.20  0.001221856    2.090    0.521
       394  -9.0159     22.8069     90.2424   8.4691436270e+01   5.4574081065e+01     0.326339    0.2101814 -26.61  0.001730935    1.867    0.465
       395  -9.3621      5.3388     91.9015   9.0387096470e+01   5.5373667015e+01     0.226363    0.1516557  67.16 0.0009875128    1.807    0.447
       396  -8.3892    176.5200     93.3100   4.1616803987e+01   2.6497530962e+01    0.2823144    0.2143596 -57.77  0.000504665    1.470    0.320
       397  -8.8963    246.3246     90.3225   2.8576568261e+01   1.0362999363e+01    0.1407264    0.1089968  11.51 0.0006064017    1.683    0.406
       398  -8.1663    151.0490     89.0384   4.6169671603e+01   3.3591908131e+01    0.2471194     0.193858 -76.99 0.0005521589    1.634    0.388
       399 -10.0659     86.4941     85.9099   6.3175590614e+01   4.7803043678e+01    0.6050373    0.3754472 -59.84   0.00160053    1.830    0.454
       400  -7.7693    164.3348     87.1385   4.2542426574e+01   3.0693697221e+01    0.2274127    0.1406931 -47.50 0.0004371794    1.707    0.414
       401  -8.8786     65.4276     87.0925   7.0197924971e+01   5.0766611922e+01    0.2774413    0.1732424   5.85  0.001239063    2.477    0.596
       402  -9.6865     48.5962     83.9335   7.4940470043e+01   5.3556580578e+01    0.5165241    0.3401066  84.83  0.001800355    2.515    0.602
       403  -9.7662    104.8536     83.0362   5.6766444277e+01   4.5052547632e+01    0.4373777    0.2961281 -67.12 0.0008951288    2.070    0.517
       404  -8.4401    158.1024     83.8772   4.3015880707e+01   3.2853991668e+01    0.2377838    0.2102743 -75.47  0.000505449    1.264    0.209
       405  -9.2078    140.8854     82.4308   4.6727619991e+01   3.7308283025e+01    0.3832547    0.2198155 -46.02  0.001011054    1.820    0.451
       406  -8.5004     64.2242     82.4238   6.9371937475e+01   5.1952979187e+01    0.2246177    0.1625307 -74.43 0.0005902611    1.746    0.427
       407  -9.5164      9.9959     81.0627   8.7170122054e+01   5.7475841375e+01    0.3367684     0.224005  81.22  0.001515192    1.872    0.466
       408  -7.3770    185.2969     82.3077   3.6776631646e+01   2.6297620152e+01    0.1565873    0.1225984  18.20 0.0002379469    1.590    0.371
       409  -9.5576     24.7562     80.4507   8.2153049745e+01   5.6587485011e+01    0.4228172    0.2546711  89.61  0.001799248    2.403    0.584
       410  -8.4050    150.1915     80.2775   4.3808271950e+01   3.5476409972e+01     0.293733    0.1965087 -62.53 0.0008691733    1.979    0.495
       411  -8.9957    119.6270     80.2811   5.1700718431e+01   4.2559999974e+01    0.3332985    0.2215764 -59.46 0.0009523375    1.894    0.472
       412  -8.9446     74.5548     79.9802   6.5309355901e+01   5.0990931006e+01    0.3644373     0.235546 -69.36  0.001223178    2.150    0.535
       413  -9.4888     34.9311     89.9424   8.0757028043e+01   5.3614274971e+01    0.4150815    0.2525707  88.06  0.001527639    2.421    0.587
       414  -8.1178    166.9190     79.3559   3.9732651137e+01   3.1481568989e+01      0.21546    0.2010569  54.13 0.0004580422    1.050    0.048
       415  -7.9252    184.2348     78.0053   3.5784706068e+01   2.7321120979e+01    0.2050797    0.1304827 -35.39  0.000789515    1.594    0.373
       416  -8.5225    105.6667     76.6576   5.4595316689e+01   4.6187957405e+01    0.2387712    0.1771444   1.87  0.001103617    1.741    0.425
       417  -7.8951    205.2594     76.0568   3.1412666936e+01   2.2334787741e+01    0.2048111    0.1930417 -56.00 0.0003913166    1.038    0.036
       418  -7.5923    174.7704     78.0117   3.7684967358e+01   2.9730852440e+01    0.2024104    0.1305892 -36.16 0.0003821033    1.576    0.366
       419  -7.8993    157.1813     76.1909   4.0962942686e+01   3.4500811825e+01    0.2154917    0.1859628 -78.43 0.0005384603    1.329    0.248
       420  -9.3075    128.0780     75.0934   4.7803685145e+01   4.1691356154e+01    0.3515258    0.2581606 -59.95 0.0005984015    1.659    0.397
       421  -8.4219    140.4929     75.1190   4.4612640717e+01   3.8785708507e+01    0.2384084    0.2135699 -78.91  0.000510017    1.277    0.217
       422 -10.0311     63.2217     73.4311   6.7227475749e+01   5.4009821880e+01    0.4428689    0.2743999 -62.23  0.001263074    1.869    0.465
       423  -9.7486     82.5126     72.4026   6.0477069164e+01   5.1297741239e+01    0.4027372    0.2745816 -66.22  0.001094205    2.027    0.507
       424  -8.5591    163.4574     72.8559   3.8575743487e+01   3.3515270652e+01    0.2918167    0.1480218 -40.72  0.001113889    1.999    0.500
       425  -8.7177    115.6996     72.2027   5.0294169354e+01   4.4979990673e+01    0.3902605    0.1732126 -39.14  0.001224449    2.253    0.556
       426  -8.4256     42.6230     72.2954   7.4083153833e+01   5.6724511275e+01    0.2749043    0.1522219 -69.48 0.0009673883    2.291    0.564
       427  -7.8842    175.5392     72.4708   3.5933879525e+01   3.0499567597e+01    0.1544507     0.150679  54.63 0.0008085586    1.021    0.020
       428  -9.2752    105.9629     71.4938   5.2889705863e+01   4.7144231033e+01    0.2746346    0.2039204 -56.54 0.0006659936    1.567    0.362
       429  -8.8941     97.6041     60.4079   5.1786608931e+01   5.0886982501e+01    0.2914833    0.2496301  59.72 0.0009958176    1.394    0.283
       430  -9.5684     95.1477     70.8577   5.5972517431e+01   4.9371183574e+01    0.5384229    0.2388405 -51.69  0.001611995    2.668    0.625
       431  -9.1786     28.4658     70.7666   7.8725310451e+01   5.8379643864e+01    0.3808208     0.170505 -26.55  0.001547506    3.444    0.710
       432  -9.4568     51.5185     69.3710   7.0146593710e+01   5.6349732142e+01    0.4407621    0.2410109 -69.33  0.001613365    2.827    0.646
       433  -8.9564     16.5791     69.7325   8.2718358621e+01   5.9497009636e+01    0.2466568    0.1728789 -81.76 0.0008902664    1.632    0.387
       434  -8.7291    147.1354     67.9966   4.0797816752e+01   3.8456151384e+01    0.3056692    0.2170317 -45.24 0.0006691933    1.481    0.325
       435  -8.8583    121.7453     65.9216   4.6595298676e+01   4.4823067311e+01    0.3420033    0.2208871 -52.92 0.0008228374    1.848    0.459
       436  -8.6826    138.6492     65.8595   4.2178628153e+01   4.0899572755e+01    0.2926841    0.2239712 -66.61 0.0006889965    1.667    0.400
       437  -7.8062    151.6412     73.2936   4.1366873284e+01   3.6401902514e+01    0.1605117    0.1242074 -82.92 0.0004844199    1.697    0.411
       438  -8.8655     37.4071     63.8787   7.3725884412e+01   5.9015882167e+01    0.2621703    0.2017417  87.85   0.00109404    1.917    0.478
       439  -8.3318    250.3348     64.6913   2.2025430242e+01   1.3416493963e+01    0.1453343    0.0952296 -64.59 0.0005223877    1.675    0.403
       440  -7.5956    130.7135     64.3476   4.3701383827e+01   4.3049657066e+01    0.1526515    0.1207588 -71.59 0.0006335902    1.654    0.396
       441  -8.8435    110.2083     63.5130   4.9050271400e+01   4.7768086424e+01    0.2882809     0.235637 -74.92 0.0007381313    1.663    0.399
       442  -8.8882    102.1836     63.9827   5.1582655105e+01   4.9327431548e+01    0.2304105    0.2068798  31.48 0.0002369023    1.114    0.102
       443  -8.6419     64.3767     62.9959   6.3691963207e+01   5.5980160193e+01    0.3358698    0.2065963  -1.96  0.001503383    2.472    0.595
       444  -8.5201     52.3801     61.4927   6.7531882381e+01   5.7858109866e+01    0.2628228    0.1608726 -14.32  0.001272301    2.163    0.538
       445  -7.7000    158.2373     61.6131   3.6308046904e+01   3.6755894465e+01    0.1572631    0.1150906 -61.31 0.0003609453    1.643    0.391
       446  -9.5736     73.4188     59.2665   5.9327679853e+01   5.5357297457e+01    0.3580024    0.2247988 -52.94  0.000987759    1.773    0.436
       447  -7.8969     89.1352     59.2161   5.4059073834e+01   5.2699390402e+01    0.1830914    0.1682644 -65.21 0.0004920352    1.333    0.250
       448  -7.7476    147.3122     58.6879   3.7827701518e+01   3.9990857299e+01     0.154283    0.1206915 -75.02 0.0003066733    1.632    0.387
       449  -8.1790    130.6121     57.7043   4.1553406104e+01   4.4213330827e+01    0.2061992    0.1397157 -44.01 0.0005610427    1.576    0.366
       450  -9.8165     23.5593     56.3102   7.6905820338e+01   6.1780821438e+01    0.4015022    0.2690238  85.56  0.002010234    2.695    0.629
       451  -9.5284      7.7329     56.9803   8.3144490843e+01   6.2702282265e+01    0.2888007     0.187204 -82.34  0.001242222    1.917    0.478
       452  -7.6823    193.6052     55.8536   2.7870943203e+01   2.8519337802e+01    0.2172119     0.130998 -45.51  0.000921292    1.685    0.407
       453  -8.1460    139.9893     56.0218   3.8684736247e+01   4.2235002971e+01    0.2345473    0.1828345 -68.89 0.0005706974    1.637    0.389
       454  -9.1401    119.1195     55.1068   4.3710772272e+01   4.7296020875e+01    0.4318652    0.2310701 -47.19  0.001316666    2.170    0.539
       455  -8.4677     43.9999     55.3188   6.8758439582e+01   6.0056722839e+01    0.2051533    0.1600123 -52.60 0.0007994113    1.284    0.221
       456  -9.3896     62.7195     53.6936   6.1247272616e+01   5.8010173322e+01    0.4948095    0.1905579 -50.00   0.00164739    2.726    0.633
       457  -9.0616     54.1443     53.7874   6.4440193898e+01   5.9147202030e+01    0.3314089    0.1942214 -59.87  0.001155622    2.220    0.550
       458  -8.6564    105.8986     53.2394   4.6812075869e+01   5.0476347490e+01    0.2504564    0.2009895 -59.03 0.0005708921    1.574    0.365
       459  -9.5038     92.5758     50.4806   4.9910032468e+01   5.3607571485e+01    0.3912249    0.2488554 -52.52  0.001037395    2.005    0.501
       460  -8.5950     75.0511     51.3084   5.6033342924e+01   5.6567365929e+01    0.3134936    0.1871496   0.12  0.001300814    2.729    0.634
       461  -8.0676    144.6746     48.8054   3.5237999736e+01   4.2207053533e+01    0.2095698    0.1332351 -41.04 0.0005006935    1.666    0.400
       462  -8.0899    130.0019     49.0165   3.8791959340e+01   4.5758187060e+01    0.2260532    0.1821522 -72.32 0.0005433659    1.619    0.382
       463  -8.2957    120.9201     47.3421   4.0548307091e+01   4.8139443058e+01    0.2072721    0.1799281  42.58 0.0005553028    1.105    0.095
       464  -8.2576    112.4207     46.7510   4.2649658460e+01   5.0138351250e+01    0.2488549    0.1350504 -38.45 0.0005813125    1.898    0.473
       465  -8.9524     82.2921     46.4110   5.1792818790e+01   5.6188285076e+01     0.253888    0.2237547 -57.45  0.000639167    1.449    0.310
       466  -8.3531     45.0112     44.3319   6.4756807666e+01   6.2027651642e+01    0.1973635    0.1653198 -59.48 0.0005939075    1.509    0.337
       467  -9.2855     16.7094     44.2802   7.6290797372e+01   6.4667929840e+01    0.2276259    0.1644074 -68.57 0.0008410984    1.629    0.386
       468  -8.3901    132.7306     43.0243   3.6078308995e+01   4.6004380747e+01    0.2005818    0.1885165 -16.00 0.0004255707    1.106    0.096
       469  -8.4464     92.7434     42.3944   4.6900839626e+01   5.4902378024e+01    0.2424999    0.1635026  -8.14  0.001174772    1.733    0.423
       470  -8.8780     58.4227     42.4513   5.8872578884e+01   6.0648393697e+01    0.2553976    0.1993297 -58.23 0.0009462314    1.715    0.417
       471  -9.7906      5.2774     41.7936   8.0365916408e+01   6.5860265292e+01    0.3420121     0.191557 -73.02  0.001917424    2.236    0.553
       472  -8.6724    105.9971     41.2288   4.2473977184e+01   5.2377715545e+01    0.2385285    0.1954243 -55.84 0.0005507069    1.541    0.351
       473  -9.3051     69.6302     40.8333   5.4118235865e+01   5.9249082247e+01    0.4621668    0.2487949 -41.00  0.001901964    1.806    0.446
       474  -8.7347     36.9974     40.4559   6.6644042674e+01   6.3617516576e+01    0.2159197    0.1594457 -56.19 0.0006561457    1.572    0.364
       475  -7.7760    160.6173     39.7700   2.9007964958e+01   3.9441004901e+01    0.2020938    0.1348523 -42.41 0.0003968217    1.594    0.373
       476  -8.9106    150.7645     39.9418   3.1027260807e+01   4.1951194431e+01    0.2284954     0.188817  30.51  0.000662347    1.262    0.207
       477  -8.5572     95.6365     37.7869   4.4265597542e+01   5.5037887182e+01    0.2506284    0.2026966 -59.06 0.0007766996    1.689    0.408
       478  -8.4461     80.9756     36.5414   4.8504899979e+01   5.8014038579e+01    0.2441421    0.1776564 -45.51 0.0007793398    1.613    0.380
       479  -7.8150    133.6679     36.3122   3.3546717046e+01   4.6719763758e+01    0.1459326    0.1143876 -74.17 0.0005256241    1.677    0.404
       480  -9.4022     26.2615     35.2111   6.9342094817e+01   6.5602129569e+01    0.2765905    0.1852476 -60.02 0.0009029578    1.817    0.450
       481  -8.2405    126.0710     35.3392   3.5007289455e+01   4.8681312647e+01    0.2023462    0.1753267  49.50 0.0003578634    1.102    0.093
       482  -8.2512    111.9404     34.1719   3.8206561395e+01   5.2097050802e+01    0.2036524    0.1935531 -81.71 0.0004763443    1.286    0.223
       483  -7.4215    104.6700     34.3221   4.0278746965e+01   5.3664923000e+01     0.134748    0.1128579 -73.53 0.0007049268    1.695    0.410
       484  -8.5840    119.1622     32.6949   3.5773065032e+01   5.0655916983e+01    0.2457665    0.1839173 -38.74   0.00072528    1.466    0.318
       485  -8.8921     60.9157     32.4518   5.4082073649e+01   6.1947746300e+01    0.2226733    0.1672558 -43.82 0.0006358641    1.513    0.339
       486  -9.0302     48.4069     32.9117   5.9178984561e+01   6.3604664505e+01     0.222018    0.1895812 -22.50 0.0006272065    1.128    0.113
       487  -8.5232     72.4272     31.1849   4.9338515339e+01   6.0312318595e+01     0.221935     0.191421 -57.60 0.0009007719    1.652    0.395
       488  -9.0790     12.9560     29.9716   7.3434091231e+01   6.7595570215e+01    0.2832786     0.151537 -60.24  0.001227714    2.081    0.519
       489  -8.9189    101.3856     28.5225   3.8994394801e+01   5.5151238910e+01    0.3153642    0.1182057 -35.11 0.0009268029    2.720    0.632
       490  -8.0042     42.3036     29.6720   6.0418462297e+01   6.4890253463e+01    0.1062258   0.09782412 -64.81 0.0003845415    1.648    0.393
       491  -8.8061     81.6403     27.3467   4.4615628572e+01   5.9233412686e+01    0.2422262    0.2125898 -69.22 0.0007160415    1.715    0.417
       492  -9.3285      3.5995     27.2955   7.6841653294e+01   6.8661938374e+01    0.2281983    0.1635077 -64.43 0.0008466558    1.612    0.380
       493  -8.7982     91.8702     26.2446   4.0910765444e+01   5.7411130656e+01    0.2711331    0.1754609 -42.71 0.0007632679    1.841    0.457
       494  -8.3595    104.4630     22.5339   3.5798414609e+01   5.5243660785e+01    0.1358746    0.1233708  26.04 0.0008079259    1.055    0.052
       495  -8.8347     63.8458     20.9392   4.8177981162e+01   6.3187074884e+01    0.2692324    0.1590683 -41.36 0.0009077538    1.941    0.485
       496  -8.7715     48.4630     21.4116   5.4428457699e+01   6.5393804952e+01    0.2137276    0.1833318 -20.75  0.000694094    1.220    0.180
       497  -7.9666    120.7727     21.0127   3.1082991825e+01   5.1720999227e+01    0.1741524     0.115172 -23.06  0.000587671    1.618    0.382
       498  -8.3750     19.4035     21.2166   6.7251737168e+01   6.8611188505e+01    0.1516709   0.09532353 -49.57 0.0006220597    1.616    0.381
       499  -8.8897     74.1228     19.1984   4.3740186545e+01   6.1676691218e+01    0.2536618    0.1680346 -32.75 0.0006794935    1.562    0.360
       500  -8.0286     11.9661     20.4810   7.0502773018e+01   6.9317584260e+01    0.1275346   0.09013845  45.45 0.0006779985    2.368    0.578
       501  -8.0751     38.9735     18.2894   5.7104279097e+01   6.7065142540e+01    0.1634203    0.1317877  -6.20 0.0004304133    1.065    0.061
       502  -7.4322    186.7288     17.6950   1.8175277909e+01   3.5346250123e+01     0.136952    0.1018135  38.15 0.0001886424    1.537    0.350
       503  -7.8338    112.6490     16.8058   3.1454244479e+01   5.4072014221e+01    0.1793818    0.1213992 -34.11  0.000405496    1.632    0.387
       504  -8.0919     87.9627     17.3177   3.8446391874e+01   5.9299457398e+01    0.1819974    0.1544672  27.99 0.0005267126    1.072    0.067
       505  -8.1711     30.0281     15.9542   6.0099693000e+01   6.8429084544e+01    0.1519952    0.1414024 -47.58 0.0006569721    1.651    0.394
       506  -8.0171     97.3382     15.1739   3.4821624836e+01   5.7619553667e+01    0.1797718     0.115008 -33.25 0.0004266927    1.708    0.415
       507  -8.5550      7.5180     15.0321   7.0578689450e+01   7.0536132283e+01     0.135132   0.09359327 -69.76 0.0008100852    2.554    0.608
       508  -7.9231     17.4483     13.9379   6.5209587922e+01   6.9948223046e+01    0.1305116   0.09536541 -62.52 0.0004191071    2.315    0.568
       509  -7.7662    191.6351    249.3513   7.0644472443e+01  -3.8903409153e+00    0.1178243   0.08595458  61.91 0.0007018393    1.877    0.467
       510  -9.1396    175.6651    247.3994   7.3279743107e+01  -1.0013269918e+00    0.2843347    0.2280708 -86.98  0.001234602    1.942    0.485
       511  -9.2100    103.8870    246.6747   8.6317175250e+01   1.0822007146e+01    0.4017327    0.2057787 -84.19  0.001960686    3.105    0.678
       512  -8.3864     94.1999    249.2800   8.8285556785e+01   1.1858959819e+01    0.2418487    0.0934783  56.18 0.0009327875    2.392    0.582
       513  -9.2465    243.1217    245.7346   6.0999005025e+01  -1.1474366795e+01    0.3451706    0.1808257 -19.03  0.001993773    2.144    0.533
       514  -8.7784    232.7829    247.1156   6.2998940076e+01  -1.0096950446e+01     0.198243    0.1751395 -16.46 0.0007414914    1.452    0.311
       515  -8.3007    234.8144    243.3826   6.2055193623e+01  -9.9883493851e+00    0.2480661    0.1245171  19.77  0.001279959    2.150    0.535
       516  -8.3854    218.4368    247.2966   6.5541196818e+01  -7.9236679324e+00    0.2606505    0.1134889 -36.78  0.001355543    2.790    0.642
       517  -8.5594    156.1216    247.8607   7.6928531774e+01   2.1919084809e+00    0.1848068    0.1366041  56.98 0.0005923365    1.323    0.244
       518  -9.0039    132.0351    247.4892   8.1301543601e+01   6.2238436015e+00    0.1977873    0.1512813  78.69 0.0004877459    1.493    0.330
       519  -8.1349    113.1522    248.1385   8.4800156005e+01   9.1449813645e+00    0.1614235    0.1159678  72.27  0.001046126    1.389    0.280
