#   1 NUMBER                 Running object number                                     
#   2 MAG_AUTO               Kron-like elliptical aperture magnitude                    [mag]
#   3 X_IMAGE                Object position along x                                    [pixel]
#   4 Y_IMAGE                Object position along y                                    [pixel]
#   5 X_WORLD                Barycenter position along world x axis                     [deg]
#   6 Y_WORLD                Barycenter position along world y axis                     [deg]
#   7 A_WORLD                Profile RMS along major axis (world units)                 [deg]
#   8 B_WORLD                Profile RMS along minor axis (world units)                 [deg]
#   9 THETA_WORLD            Position angle (CCW/world-x)                               [deg]
#  10 FWHM_WORLD             FWHM assuming a gaussian core                              [deg]
#  11 ELONGATION             A_IMAGE/B_IMAGE                                           
#  12 ELLIPTICITY            1 - B_IMAGE/A_IMAGE                                       
         1  -9.9807     68.8633     39.8987   5.5081490871e+01   6.0069512694e+01    0.3874733      0.15699 -46.98  0.001637337    2.589    0.614
         2 -11.3552     27.2711     31.4203   6.8677419534e+01   6.6626204893e+01    0.7969946   0.09249786 -45.93  0.002554978    5.250    0.810
         3 -10.8046     60.8002     30.4770   5.4522720928e+01   6.2828897367e+01     0.463326    0.1375174 -34.96  0.001650119    3.827    0.739
         4 -10.8393     12.7476     28.3484   7.4141218361e+01   6.8311750900e+01    0.4528251    0.1352579 -57.12  0.002048181    2.989    0.665
         5  -9.6112     49.9785     16.5163   5.3093526230e+01   6.6460690794e+01    0.3327239    0.1618993 -10.16  0.001165226    5.042    0.802
         6 -10.7157     40.7013     14.0667   5.5971915318e+01   6.8009363421e+01    0.2438354    0.1628326 -18.08 0.0003548152    1.383    0.277
         7 -10.0639    160.6873    226.3329   7.2399233856e+01   4.9895850610e+00    0.2056074    0.1557421  61.11 0.0006799932    1.306    0.234
         8  -9.3509     13.5162    250.5263   1.0061941439e+02   2.2538266043e+01    0.1048961    0.0667931  68.96 2.567576e-05    1.008    0.008
         9 -10.4464    163.2277    224.4022   7.1644929058e+01   4.8458018155e+00    0.3310391    0.1868362  48.06  0.001344781    1.469    0.319
        10  -9.3161    193.2813    225.6250   6.6172879734e+01  -6.6128399229e-01    0.1182884   0.09447219  73.33 0.0007011975    1.707    0.414
        11 -10.2354     98.9847    225.1015   8.4073357840e+01   1.5739512429e+01    0.3071962    0.1479379  44.34  0.001135545    1.736    0.424
        12 -11.3407     85.8263    227.1838   8.6762291371e+01   1.7396744566e+01    0.3380505    0.1138427  49.87  0.001523992    2.330    0.571
        13  -9.8206     18.4117    224.7964   9.8623665298e+01   2.6599454164e+01    0.1402944    0.0813296 -75.68 0.0009527409    1.654    0.395
        14 -10.2883     60.1510    223.0276   9.1154435909e+01   2.1862659085e+01    0.3019089    0.1505227  71.64  0.001636496    1.912    0.477
        15  -9.3481     39.3271    224.6569   9.5015355184e+01   2.4228514681e+01    0.1252237   0.05971836  67.11 0.0007051004    1.741    0.426
        16 -10.7478    126.2710    220.5880   7.8287734906e+01   1.2024662075e+01    0.2549155    0.1931867  66.53 0.0007132054    1.197    0.165
        17  -9.6458     83.3318    219.6739   8.6510963728e+01   1.9183493286e+01    0.1340716   0.07395049  67.50 0.0004963437    1.710    0.415
        18  -9.9560     74.5282    219.0672   8.8130357494e+01   2.0603167489e+01    0.2532548     0.127011  57.14  0.001366785    1.643    0.391
        19  -9.1074     28.6828    219.3414   9.6548256600e+01   2.6491701831e+01    0.1228002    0.0582464  67.55 0.0007048859    1.711    0.416
        20  -9.8659    143.7218    216.7430   7.4360186976e+01   9.6270396900e+00    0.2462752    0.1545623 -85.88  0.001177951    2.485    0.598
        21  -9.1481     99.5901    215.8105   8.2954478155e+01   1.7381468345e+01    0.1688321    0.1086059 -87.62 0.0009375872    1.685    0.406
        22  -9.7227    131.4285    213.8234   7.6400441075e+01   1.2343520583e+01    0.1633468    0.1253367 -45.05 0.0009497126    1.697    0.411
        23 -10.2793     77.3161    211.9148   8.6911579803e+01   2.1587504498e+01     0.293222    0.2547446  77.69  0.002026316    1.212    0.175
        24  -9.8104    116.8190    210.2486   7.8863344063e+01   1.5565261765e+01    0.2317355    0.1185364  70.08  0.000955874    2.796    0.642
        25  -9.3753     47.4755    208.9884   9.2397380514e+01   2.6262130690e+01    0.1734113   0.07624453  78.91 0.0008097675    2.535    0.606
        26 -10.3042     99.4653    205.8725   8.1838121765e+01   1.9333852037e+01    0.3249649    0.1837377  73.54  0.001581374    2.034    0.508
        27  -9.8929     56.7072    205.1217   9.0301094119e+01   2.5843760125e+01    0.2045782    0.1213021  78.06  0.001187089    1.509    0.337
        28 -12.8590    177.0382    197.3322   6.4750432414e+01   6.7857116902e+00     0.638952    0.4136058  39.64  0.003313255    1.384    0.278
        29 -11.5898    112.8993    196.1121   7.7816265557e+01   1.9016588070e+01    0.4632486    0.2621391 -69.10  0.002267699    1.994    0.498
        30  -9.6588    105.5217    197.9805   7.9612468518e+01   1.9906972768e+01     0.185045    0.1261424 -66.05 0.0006158695    1.560    0.359
        31  -9.7101     13.3780    196.6030   9.7927438434e+01   3.2595178456e+01    0.2235031   0.07357045  86.65  0.000954002    3.332    0.700
        32  -9.9175     66.4227    194.2546   8.7318949161e+01   2.6757250793e+01    0.3151641    0.1598546  77.51   0.00125749    2.242    0.554
        33 -10.6005    163.1752    194.3871   6.7056705384e+01   9.9860510135e+00    0.2105384    0.1143271  52.64 0.0009523398    1.745    0.427
        34 -10.8753     78.1784    192.5176   8.4685982984e+01   2.5415142932e+01    0.3083807    0.1794272  87.81  0.001579446    1.838    0.456
        35  -9.8963     43.7059    192.7475   9.1796042441e+01   3.0050694959e+01    0.2538498    0.1130612  81.91   0.00117604    2.521    0.603
        36 -11.9070     87.6711    188.9991   8.2255732447e+01   2.4696524169e+01    0.4868316    0.2859513  88.69  0.002406116    1.933    0.483
        37 -10.8382    149.5477    198.5768   7.0527950223e+01   1.1828468134e+01     0.375116    0.2342587  77.48  0.001664138    2.437    0.590
        38 -10.3641     88.7631    198.2543   8.3137824423e+01   2.2592267584e+01    0.3072968    0.1605488 -86.06  0.001404102    2.410    0.585
        39 -11.2984    139.6214    189.6527   7.1200718269e+01   1.5420628745e+01    0.3432093    0.2168195  59.87  0.001380984    1.570    0.363
        40 -10.1783      7.7524    188.7605   9.8510201380e+01   3.4723513805e+01    0.2998725   0.09890268 -88.89  0.001379635    2.880    0.653
        41 -10.5240    129.8156    188.5236   7.3117461421e+01   1.7493587288e+01    0.2714702    0.1665332  77.99  0.001195024    2.257    0.557
        42 -12.5516     95.4962    184.5497   7.9990690150e+01   2.4380132458e+01    0.7878038    0.4476874  79.87  0.003570071    2.236    0.553
        43 -11.2376    156.4886    186.8712   6.7180650067e+01   1.2690699639e+01    0.2864526    0.2092678  69.12  0.001469455    1.521    0.343
        44 -10.9211    149.0069    187.2972   6.8828839593e+01   1.4073163061e+01     0.209089    0.1693822  52.74  0.000673836    1.082    0.075
        45 -11.3345    110.0123    185.5320   7.6957945328e+01   2.1699929765e+01    0.4317037    0.2881243  72.54  0.001813748    1.564    0.361
        46 -10.3489     54.6728    185.8447   8.8911050251e+01   3.0132378038e+01    0.4004949    0.1812222  79.22  0.001718811    2.825    0.646
        47 -10.0303     34.7804    186.9343   9.3103461089e+01   3.2321916739e+01    0.2394763    0.1290506  79.77  0.001348012    1.666    0.400
        48 -11.2778    120.8861    184.7704   7.4474875848e+01   1.9909754357e+01    0.3698405    0.2052581 -69.77  0.001666269    2.166    0.538
        49  -9.8113     66.2093    184.9800   8.6379827616e+01   2.8759187243e+01    0.2176919     0.118931  78.07 0.0008924015    1.967    0.492
        50 -11.4688    125.4943    197.3444   7.5342035288e+01   1.6531052790e+01    0.3293841    0.2335432  53.62  0.001815415    1.204    0.169
        51 -10.9433     74.4341    182.7833   8.4358701201e+01   2.8051762712e+01    0.3928447     0.205771 -79.30  0.001903691    2.001    0.500
        52 -10.1533      4.9268    183.9283   9.8759930481e+01   3.5968814897e+01    0.1991589    0.1500404  88.14  0.001500959    1.134    0.118
        53 -10.2324    197.7796    182.5987   5.8020753195e+01   5.2635631580e+00    0.1981016    0.1224268  52.86  0.000637543    1.646    0.393
        54 -10.0143     44.4126    181.7702   9.0669743277e+01   3.2295394267e+01    0.2294428    0.1024129 -79.12  0.001125915    2.091    0.522
        55  -9.7411     26.7347    181.7613   9.4316492957e+01   3.4298013583e+01    0.2497168    0.1055056  81.18  0.001173738    2.512    0.602
        56 -11.4806    148.4478    180.0514   6.7723220526e+01   1.5605136678e+01    0.3432016    0.2208337  57.97  0.001581423    1.529    0.346
        57 -10.4090    138.7804    179.7881   6.9774066885e+01   1.7555065776e+01    0.2088015    0.1571585  71.26  0.001079823    1.382    0.277
        58  -9.2488     37.3107    178.6578   9.1874867580e+01   3.3800026453e+01     0.131155   0.07108962  70.71 0.0003989116    1.698    0.411
        59 -10.2468    203.7368    187.5676   5.7792606930e+01   3.2767025212e+00      0.19554    0.1207935  52.77 0.0009506332    1.679    0.404
        60 -12.0998     78.4374    175.6419   8.2597301819e+01   2.9015852847e+01    0.5526113    0.2775538  69.23   0.00237666    2.458    0.593
        61 -10.0190     13.0727    176.4141   9.6680560620e+01   3.6788254533e+01    0.3024169    0.1314681  77.87  0.001565393    2.180    0.541
        62 -10.7077    106.2396    175.0867   7.6257725713e+01   2.4592234720e+01    0.3529243    0.1924646  74.02  0.001412486    2.647    0.622
        63 -10.5674    160.1196    175.2684   6.4368023814e+01   1.4204651934e+01    0.2877697    0.1873513  59.84  0.001132426    1.606    0.377
        64 -10.3509      2.8759    172.6277   9.8470937396e+01   3.8488318150e+01    0.3589076    0.1036037  83.77  0.001250854    4.985    0.799
        65  -9.7458     34.5078    173.0218   9.1960867789e+01   3.5336157111e+01    0.1817696     0.080089  80.64  0.000810438    2.586    0.613
        66 -11.2005    135.4500    171.6191   6.9114221397e+01   1.9891877814e+01    0.3234587    0.2282656  69.10  0.001413319    1.520    0.342
        67 -12.3506    122.3151    168.5172   7.1550459556e+01   2.3085509387e+01    0.6773927    0.4300551 -80.14  0.002763843    1.989    0.497
        68 -10.3310    168.8440    169.5584   6.1441378299e+01   1.3522741903e+01     0.273917    0.1888352  86.42  0.001190684    2.221    0.550
        69 -11.2279    150.3087    169.6413   6.5463879713e+01   1.7327321578e+01    0.3272543     0.231929  78.56  0.001513089    1.772    0.436
        70 -10.3730     55.0700    168.7595   8.7013634927e+01   3.3820067840e+01    0.3437869    0.1834025  88.01  0.001683853    1.989    0.497
        71 -10.3505     88.7476    168.2046   7.9239332018e+01   2.9058449754e+01    0.3182529    0.1933672  87.98   0.00115868    1.919    0.479
        72 -10.1082     60.1258    176.6487   8.6776189212e+01   3.1407579999e+01    0.2866692     0.161677  76.36  0.001461142    1.821    0.451
        73 -12.5127    139.9503    164.8039   6.6883046057e+01   2.0430687712e+01    0.6216619    0.4082728 -89.70  0.002517417    2.197    0.545
        74  -9.8432    111.7310    166.7910   7.3696981811e+01   2.5426144087e+01    0.2898446    0.1668165 -84.52  0.001176303    2.511    0.602
        75 -11.0948     99.4823    165.6277   7.6358423941e+01   2.7848597359e+01    0.4084148    0.2388368  63.81  0.001879611    1.834    0.455
        76 -11.2530     80.0445    163.3194   8.0569479020e+01   3.1527075569e+01    0.6435376    0.3157362  89.57  0.002381456    3.326    0.699
        77 -10.0316     19.9067    166.0854   9.4483160703e+01   3.8351192546e+01     0.220049    0.1362638  48.19  0.001145339    1.573    0.364
        78 -10.2198    217.9631    165.2993   5.0783101778e+01   4.1759330005e+00    0.1987165    0.1723655  35.96 0.0004378141    1.096    0.087
        79 -11.1168    148.1332    163.8032   6.4857648482e+01   1.8974092295e+01    0.2582235    0.2020195  46.47 0.0006964657    1.199    0.166
        80 -11.1246    152.3895    161.2055   6.3410895611e+01   1.8630957300e+01    0.2423561        0.191  47.43  0.000961359    1.185    0.156
        81  -9.5267     47.4895    163.5329   8.8143765304e+01   3.5935211944e+01       0.2286    0.1046097 -84.30   0.00102953    2.317    0.568
        82  -9.9318     37.8635    163.3762   9.0301760402e+01   3.7087417733e+01    0.2986618    0.1397931 -83.59  0.001464481    2.035    0.509
        83  -9.8077     69.8851    162.3825   8.2824694779e+01   3.3244075002e+01    0.3118919    0.1642358 -79.38  0.001452306    1.999    0.500
        84 -10.2950    178.2661    160.9595   5.7758590457e+01   1.3202752253e+01    0.3124006    0.1845089  69.87  0.001178724    2.712    0.631
        85 -10.9421     93.2269    159.6556   7.6899964588e+01   3.0251022354e+01    0.4900345    0.3166558  85.39   0.00189762    1.776    0.437
        86 -10.1307      8.6630    159.2801   9.6355216695e+01   4.0837095440e+01    0.3643143    0.1285286  82.85  0.001506704    3.400    0.706
        87 -11.3715    144.2818    159.5152   6.4908365282e+01   2.0665841747e+01    0.2992845    0.2431949  69.39  0.001121588    1.228    0.186
        88  -9.7546     44.6970    171.1423   8.9573749020e+01   3.4577911480e+01    0.2091914    0.1279616  83.46 0.0009849367    1.479    0.324
        89  -9.9428     62.0256    159.8371   8.4337511229e+01   3.4914287468e+01    0.2481687    0.1493703 -89.31  0.001270847    1.676    0.403
        90  -9.9972     31.2780    159.1154   9.1358811759e+01   3.8745716662e+01    0.3969585    0.1005596 -77.16  0.001325894    4.445    0.775
        91 -10.9997    128.7739    158.5675   6.8299282805e+01   2.4000097231e+01    0.3755074    0.2352202  77.19  0.001559693    2.227    0.551
        92 -11.1744    106.0188    157.2174   7.3441910921e+01   2.8591914549e+01    0.5854453    0.3731431 -89.28  0.002329528    1.965    0.491
        93  -9.9299     22.8708    158.3133   9.3168607633e+01   3.9766214138e+01    0.2895012    0.1297677 -85.57  0.001457429    2.030    0.507
        94 -11.4130    168.5283    157.6957   5.9170398488e+01   1.5926384720e+01    0.3668988    0.2496409  67.65  0.001651026    1.761    0.432
        95 -11.5266    158.1624    155.9418   6.1086184937e+01   1.8500223372e+01    0.3664941    0.2389217 -76.42  0.001520341    2.256    0.557
        96 -11.5503    119.7320    155.1769   6.9806361429e+01   2.6506630502e+01    0.4375475    0.2795156  87.84  0.001866243    2.160    0.537
        97 -10.6342     49.9556    154.5197   8.6526781955e+01   3.7674155200e+01    0.4903914    0.2507848  75.47  0.002254216    2.335    0.572
        98 -11.1423    145.3246    154.6988   6.3732563222e+01   2.1471597742e+01    0.3334243    0.2368244  79.55   0.00138741    1.760    0.432
        99 -10.9136     81.8089    153.5914   7.8710446388e+01   3.3476477704e+01    0.5161033    0.2975318 -85.35  0.002038392    2.062    0.515
       100 -11.1202     68.4468    153.0984   8.1892788923e+01   3.5571175204e+01    0.5105293     0.283843  74.48   0.00209294    2.188    0.543
       101 -11.9540    133.8661    152.5982   6.5976699727e+01   2.4285491642e+01    0.5599821     0.363725  86.85  0.002324277    2.243    0.554
       102 -10.3844     91.1446    150.8085   7.5976605543e+01   3.2619520073e+01    0.3468817    0.1737392 -79.16  0.001304228    2.876    0.652
       103 -11.0868    190.3272    150.5223   5.3088124828e+01   1.2598098589e+01     0.297896    0.2462447  67.89  0.001145357    1.315    0.240
       104 -10.2740     28.4502    148.7238   9.0962744899e+01   4.1357665489e+01    0.3979355    0.1648794  86.89  0.001657955    3.020    0.669
       105 -10.3608    143.1917    149.0635   6.3094781536e+01   2.3125915709e+01    0.2545229    0.1731643 -82.33  0.001089227    1.995    0.499
       106 -11.2009     56.3715    144.5886   8.3675015228e+01   3.9157581712e+01    0.7397848    0.3664054 -86.33  0.003198178    2.462    0.594
       107 -10.7850     39.2252    146.1622   8.8102226677e+01   4.0818799158e+01    0.5344434    0.2567556  86.80   0.00241941    2.447    0.591
       108 -12.7942    150.1045    145.1685   6.0689259693e+01   2.2489886687e+01    0.7189748    0.4538538  74.26  0.002501699    2.278    0.561
       109 -12.1006    107.8357    144.8013   7.0780594279e+01   3.1086231592e+01    0.7585263    0.4624324  86.01  0.003082799    2.418    0.586
       110  -9.8926     78.1044    146.0119   7.8439230993e+01   3.5797963476e+01    0.3057832    0.1714992 -81.32  0.001360161    2.071    0.517
       111 -10.2077     13.0064    144.4611   9.4162289351e+01   4.3711814260e+01    0.4269266    0.1355676 -76.43  0.001904873    2.600    0.615
       112 -12.1223    125.4289    142.4118   6.5976981415e+01   2.8245797393e+01    0.7498824    0.4366865 -77.51  0.002840342    2.641    0.621
       113 -10.7448     88.4409    142.7714   7.5289734599e+01   3.4923632598e+01    0.6074287    0.2746592 -66.81  0.002427178    2.378    0.580
       114 -11.2734    166.2929    143.9545   5.6776876859e+01   1.9199771555e+01    0.3479993    0.2345472  75.59  0.001458991    2.027    0.507
       115 -10.9576    138.2983    143.8727   6.3178669019e+01   2.5281354874e+01      0.30133    0.2288695 -87.48  0.001144464    1.541    0.351
       116 -10.4220    183.1898    142.3898   5.2798592512e+01   1.5744604920e+01    0.2253443    0.1385884  58.69 0.0009532961    1.750    0.429
       117 -10.9066      2.6149    139.6064   9.6154127293e+01   4.5585103008e+01    0.4487591    0.1428657 -85.71  0.001897335    3.110    0.678
       118 -10.4381     68.8322    137.7192   7.9476452259e+01   3.9087298483e+01    0.6119707    0.2616406 -76.12  0.002250804    3.114    0.679
       119 -10.8898    172.9005    138.7871   5.4193876227e+01   1.8776265204e+01      0.30213    0.2041136 -74.35  0.001249658    2.118    0.528
       120  -9.7030     81.3607    138.4551   7.6356204936e+01   3.7058503792e+01     0.341925     0.128812 -65.90  0.001235343    2.884    0.653
       121 -10.7216     22.7504    135.3817   9.0918113173e+01   4.4901548517e+01    0.7039112      0.25138 -79.19  0.003023485    2.697    0.629
       122 -10.0942     98.8752    150.3265   7.3992022704e+01   3.1419938023e+01    0.3266079    0.1960508 -78.82  0.001236232    1.979    0.495
       123 -10.8077    163.0222    136.3022   5.5819518066e+01   2.1513686980e+01    0.2273858    0.2013646  59.52 0.0009821892    1.077    0.072
       124 -10.8567     38.9556    134.5305   8.6728105270e+01   4.3513243751e+01      0.44213    0.1553102 -70.07  0.001871892    2.487    0.598
       125  -9.2063     96.3166    135.6402   7.1974239335e+01   3.5257014604e+01    0.1547028    0.1051562  80.04 0.0007043274    1.758    0.431
       126 -10.6699    180.0270    134.2009   5.1629640645e+01   1.8079685347e+01    0.2586317    0.1789168  78.90   0.00108333    2.004    0.501
       127 -10.7099    113.0876    132.8592   6.7104192679e+01   3.2836646682e+01    0.4078567    0.2775108 -81.23   0.00161604    1.793    0.442
       128 -12.4158    132.4942    130.2521   6.1664942880e+01   2.9512910872e+01    0.8443264    0.4271491 -62.39  0.003052172    2.505    0.601
       129 -11.2019     83.7004    130.0191   7.4229223550e+01   3.8663067386e+01    0.8748477     0.362496 -66.28  0.003224097    2.708    0.631
       130 -12.2503    143.6553    130.6013   5.9029132131e+01   2.7037793520e+01    0.5851585    0.3320231 -55.69  0.002400056    1.894    0.472
       131 -11.7513    169.5882    129.6790   5.2847600929e+01   2.1389903224e+01    0.3772463    0.2698474  68.12  0.001693328    1.581    0.367
       132 -11.9563    153.2830    128.7645   5.6334666476e+01   2.5297356078e+01    0.5403906     0.311252 -62.62  0.002094866    2.214    0.548
       133 -11.9144     99.1594    126.3832   6.9396696876e+01   3.6907642285e+01    0.8397529    0.4185974 -68.37  0.003208439    2.516    0.603
       134 -10.2722     73.2322    128.6643   7.6785079297e+01   4.0575656874e+01    0.4175915    0.2252855 -82.58   0.00172523    2.478    0.596
       135 -11.1867     12.7515    125.4972   9.2364406427e+01   4.7951294553e+01     0.841878    0.2096723 -71.17  0.003429429    3.032    0.670
       136 -11.4340    118.5911    125.3539   6.4085787342e+01   3.3471106503e+01    0.5986478    0.3450051  71.55  0.002181763    2.784    0.641
       137 -10.9415     59.2551    123.0603   7.9612252190e+01   4.3803880646e+01    0.7050773    0.3421161 -85.23   0.00266226    3.226    0.690
       138 -11.0192    180.6912    125.1331   4.9383651243e+01   1.9734097779e+01    0.3085387    0.1841915  65.44 0.0008964769    2.063    0.515
       139 -11.3924     43.0015    120.0175   8.3599701166e+01   4.6429844133e+01    0.9962494    0.3955978 -82.74   0.00333862    4.296    0.767
       140 -11.2371     28.1271    121.4279   8.7852875806e+01   4.7584550403e+01    0.7692987    0.3233157  78.69  0.002644866    4.769    0.790
       141 -11.9301    159.1643    121.3854   5.3237153211e+01   2.5519247383e+01     0.497252    0.3329331 -89.80  0.001945238    2.312    0.567
       142 -10.8880    173.0112    121.1980   5.0093684158e+01   2.2326046948e+01    0.2678227    0.1837527  81.38  0.001091683    2.033    0.508
       143 -12.7284    142.1977    117.9688   5.6434967983e+01   3.0110789643e+01    0.8936396    0.4062179 -54.07  0.003187407    2.453    0.592
       144 -11.7658    131.1691    117.8245   5.9142415126e+01   3.2556066498e+01    0.6532998    0.3705734 -64.99  0.002512916    2.275    0.561
       145 -10.2967     70.9755    118.8858   7.5608193116e+01   4.3189123242e+01    0.4327986    0.2153777 -73.31  0.001747237    2.392    0.582
       146 -11.4888      2.8446    115.2874   9.3855626446e+01   5.0909376497e+01     0.728714    0.2463504 -86.26   0.00300022    3.333    0.700
       147 -11.2290    109.3950    112.7957   6.3656008029e+01   3.8130010512e+01    0.9115457    0.3722785 -61.57  0.002922189    3.360    0.702
       148 -10.2368    186.0000    115.9744   4.6076135130e+01   2.0290061522e+01    0.2553868   0.08836153 -40.82 0.0008025553    2.943    0.660
       149 -10.2486    192.5330    115.5021   4.4637347450e+01   1.8826904225e+01      0.15202    0.1487978  77.22 0.0001281994    1.018    0.017
       150 -11.0695     92.5243    110.4768   6.7787129028e+01   4.1743462869e+01    0.9150794    0.3216156 -59.07  0.003055457    3.146    0.682
       151 -10.9204     79.0791    111.6399   7.1863089982e+01   4.3670038397e+01    0.6786267    0.3553178 -79.04  0.002493897    3.140    0.682
       152 -11.9983    159.7284    111.8873   5.0779207730e+01   2.7371946539e+01    0.4314963    0.2965281 -66.13  0.001664886    1.758    0.431
       153 -10.4936    122.4001    112.2266   6.0055647019e+01   3.5650478296e+01    0.4071007    0.2848429  89.11  0.001518678    1.959    0.490
       154 -11.0031    175.2468    112.1278   4.7389784034e+01   2.3624532241e+01    0.3070976    0.2083196  81.91  0.001239717    2.061    0.515
       155 -10.4971     66.3905    109.5465   7.5097427463e+01   4.6002102939e+01    0.4917144     0.240819 -69.48  0.002090984    2.230    0.552
       156 -11.3279     14.4027    108.9735   8.9997215088e+01   5.1522615713e+01    0.5915833    0.2541567 -71.10  0.003057002    1.845    0.458
       157 -10.7917    133.7857    109.3413   5.6408790831e+01   3.3850803146e+01     0.379376    0.2086848 -62.20  0.001419505    2.326    0.570
       158 -12.1212    140.3316    104.1264   5.3437106926e+01   3.3509238724e+01    0.6280445    0.3675027 -60.94  0.002470249    2.088    0.521
       159 -12.0848     22.2376     99.8141   8.6456388716e+01   5.2975589187e+01     1.027856     0.453553 -85.76  0.004412225    2.980    0.664
       160 -11.4241     44.9065    101.1954   7.9868236742e+01   5.0549651608e+01    0.8031344    0.4209083  86.12  0.003220192    3.332    0.700
       161  -9.8886     43.7586     92.4020   7.8527161367e+01   5.2658788459e+01    0.2748336    0.2015235 -25.08   0.00124935    1.696    0.410
       162 -11.3942    166.7231    103.5060   4.7064849389e+01   2.7412591692e+01    0.3928369    0.2136927 -52.30   0.00151671    2.011    0.503
       163 -12.4778    150.3331    101.7925   5.0392540332e+01   3.1684292341e+01    0.8040509    0.3238972 -51.69  0.002622832    2.864    0.651
       164 -12.1031      5.1378     89.0625   9.0052905161e+01   5.6513537476e+01    0.8049849     0.251474 -56.17  0.003892453    2.352    0.575
       165 -11.3850      8.7236     80.3913   8.7621232172e+01   5.8174788241e+01    0.3557868    0.2376643  87.85  0.001825581    1.597    0.374
       166 -11.9382    128.9009    100.9893   5.5528706893e+01   3.6728446927e+01    0.6255076    0.3213843 -50.90  0.002459746    1.996    0.499
       167 -10.1319    176.4955    102.4841   4.4681673862e+01   2.5234601001e+01    0.1579204    0.1494009  86.27 4.793524e-05    1.026    0.025
       168 -11.3063    160.1238    100.4811   4.7762375375e+01   2.9618896724e+01    0.3616278    0.2070753 -48.32  0.001460342    1.797    0.443
       169 -11.3412    109.4880     97.6130   5.9887089760e+01   4.1501524256e+01    0.9520996    0.5672589 -69.91  0.003664914    2.382    0.580
       170 -10.2679     82.0244     98.7585   6.8123771380e+01   4.6155103449e+01     0.497736    0.2281614 -63.31  0.001921139    2.531    0.605
       171 -10.3339     94.9875     95.6047   6.3518421645e+01   4.4669237618e+01    0.5678663    0.2037785 -51.65  0.002014178    2.689    0.628
       172 -11.1090     63.4272     93.5441   7.2588853726e+01   5.0055112213e+01    0.8647127    0.3416637 -62.42  0.003386541    2.619    0.618
       173 -11.2048    165.5559     94.0560   4.4836220330e+01   2.9578548003e+01    0.3298711    0.1942186 -57.65  0.001289866    2.018    0.505
       174 -10.6618    177.7638     93.5875   4.2094888497e+01   2.6646716948e+01     0.230621    0.1483943  66.62 0.0009571455    1.707    0.414
       175 -11.9716    125.2402     89.3155   5.3350836699e+01   4.0001229675e+01    0.8413488     0.384743 -46.93  0.003172807    2.201    0.546
       176 -11.8649      6.6982    100.7985   9.1144286900e+01   5.3856522291e+01    0.8179392    0.1602744 -68.40  0.003163025    3.414    0.707
       177 -10.4358     86.5058     86.0973   6.3589653039e+01   4.8222473554e+01    0.3460993    0.2411532 -81.60  0.001241812    2.005    0.501
       178 -10.1923    180.3263     85.9986   3.9547262751e+01   2.7436078561e+01     0.266418     0.105635 -55.62 0.0007050219    4.311    0.768
       179 -11.1245     48.4069     82.3508   7.4870231965e+01   5.4380568136e+01    0.7438626    0.3651704 -66.73  0.003435923    2.134    0.531
       180 -10.7295    104.6670     81.9188   5.7000482213e+01   4.5806045145e+01    0.6719544    0.3066762 -56.39  0.002454199    2.673    0.626
       181 -10.4758    158.5109     82.4937   4.3236327950e+01   3.3561376835e+01    0.1570302    0.1492678  81.43 0.0008105403    1.010    0.010
       182  -9.7908     86.3068     81.3145   6.2358069051e+01   4.9281587796e+01    0.1403403    0.1086051 -16.26 0.0003357071    1.625    0.385
       183 -10.3768    150.4172     80.2047   4.4448904249e+01   3.5987342765e+01    0.2262828    0.1431726 -52.41 0.0007179038    1.699    0.411
       184 -10.0978     57.9876     92.0062   7.3949440132e+01   5.1104295145e+01     0.189515     0.171524 -71.23  0.001191652    1.056    0.053
       185  -9.6994     74.4026     79.6236   6.5663523389e+01   5.1550547674e+01     0.273798    0.1237743 -64.94 0.0009573132    3.397    0.706
       186 -11.5567    139.3212     91.5775   5.0341119201e+01   3.6365155285e+01     0.599807    0.3449048 -61.77  0.002281427    2.299    0.565
       187 -12.0291     25.5906     76.1859   8.1224943236e+01   5.7905409795e+01     1.104097    0.2935277 -53.05  0.004627876    2.743    0.635
       188 -10.9136    128.3520     74.4535   4.8240843864e+01   4.2297679441e+01    0.6387464    0.2951771 -48.51  0.002393265    2.314    0.568
       189 -10.9372     34.9163     87.0753   8.0297238273e+01   5.4723479200e+01    0.8289707    0.2436583 -60.96  0.003363689    2.704    0.630
       190 -10.7787     62.3736     70.4000   6.7139676837e+01   5.5215056314e+01    0.8472521    0.1020515 -49.23  0.002172963    6.114    0.836
       191 -10.1385      9.9283     74.5827   8.6249830411e+01   5.9343370419e+01    0.1972353    0.1230895 -56.66 0.0004258536    1.263    0.208
       192 -10.5386     82.1646     70.7642   6.0663038470e+01   5.2168801646e+01    0.6655701    0.2319507 -51.12  0.002409723    2.891    0.654
       193  -9.8110    115.6596     71.5352   5.0795247360e+01   4.5652973893e+01    0.2716456    0.1368031 -42.81  0.001097374    1.990    0.498
       194 -10.0763     42.4968     71.0588   7.4209909300e+01   5.7447211957e+01    0.3388113    0.1081417 -57.94  0.001361376    2.721    0.633
       195 -11.0989      5.8857     70.4602   8.6911341302e+01   6.0446144280e+01    0.3618641    0.1413724 -71.58    0.0017937    2.254    0.556
       196 -11.1444    140.8958     82.3839   4.7368111846e+01   3.7847044435e+01    0.3751561     0.198506 -50.25  0.001463041    2.027    0.507
       197 -10.0172     95.1252     70.2940   5.6440478401e+01   4.9990101263e+01    0.3401387    0.1764788 -54.62  0.001410704    2.177    0.541
       198 -11.0181     51.1369     67.6337   7.0287515004e+01   5.7206781844e+01    0.7194611    0.2506714 -62.33  0.002493825    3.905    0.744
       199 -11.0334     16.5298     68.8173   8.2887585980e+01   6.0140828685e+01    0.4292564    0.1750621 -60.82    0.0022037    1.886    0.470
       200 -10.6816     17.5196     63.4579   8.1416800494e+01   6.1191211794e+01    0.3385949    0.1057862 -49.89  0.001563193    2.421    0.587
       201 -10.2342    146.9972     68.0083   4.1673517854e+01   3.9096436783e+01    0.2503521     0.186976 -78.13 0.0008094609    1.686    0.407
       202 -10.4214    138.6961     65.7005   4.2960509555e+01   4.1523391665e+01    0.3183188     0.172044 -57.59  0.001179186    2.517    0.603
       203  -9.9973    121.4249     64.8038   4.7126680440e+01   4.5674375710e+01    0.4677669    0.1398245 -41.98  0.001470329    3.358    0.702
       204 -10.7515     37.4907     62.5806   7.3868490481e+01   5.9716330405e+01    0.5328697    0.2018417 -57.70  0.002402716    2.312    0.567
       205 -10.6096     10.1265     64.3316   8.4282278875e+01   6.1483517308e+01    0.3086984    0.1204006 -59.55  0.001614823    1.887    0.470
       206  -9.7419    110.3930     63.2213   4.9695759387e+01   4.8343142399e+01    0.2115456    0.1330926 -51.45 0.0009539187    1.731    0.422
       207  -9.8428    100.4174     59.1651   5.1322369158e+01   5.1114006960e+01    0.3370437    0.1243594 -49.71  0.001142697    3.247    0.692
       208 -10.4744     73.2548     56.5948   5.9260322859e+01   5.6387027726e+01    0.7764969    0.2007546 -45.71  0.002607182    3.602    0.722
       209 -10.3958     25.1143     57.5406   7.7212573325e+01   6.1839595860e+01    0.3921282    0.1493995 -53.95  0.001929032    2.025    0.506
       210 -11.9117      7.6679     54.1965   8.3105011881e+01   6.3693746584e+01    0.7026702    0.1630308 -58.93   0.00309385    2.788    0.641
       211 -10.0128     44.9973     43.4323   6.5368152212e+01   6.2659477212e+01    0.4255276    0.1493721 -47.10  0.001878377    2.445    0.591
       212 -10.1522     43.9899     54.7559   6.9285582882e+01   6.0617729622e+01    0.3460563     0.173601 -60.40  0.001680287    2.151    0.535
       213 -11.1845     45.3133     49.1231   6.7074827393e+01   6.1560023044e+01    0.2370461     0.183974 -33.34 0.0003433785    1.141    0.123
       214  -9.9597     62.8955     48.7122   6.0334110034e+01   5.9399492551e+01    0.3823985    0.1455769 -42.68  0.001614394    2.426    0.588
       215 -10.5035     53.9106     51.7649   6.4645912442e+01   6.0030996609e+01    0.6199948    0.1763641 -54.73  0.002054611    4.306    0.768
       216 -10.8565     30.8915     49.3174   7.2776358762e+01   6.2982617590e+01    0.5595809    0.1639888 -58.22  0.002214847    3.309    0.698
       217 -10.4570     20.1555     50.4652   7.7343286831e+01   6.3633094237e+01    0.3685143    0.1515955 -55.68  0.001916616    1.908    0.476
       218 -10.0272     92.3258     48.3849   5.0189904988e+01   5.4589845667e+01    0.7008591    0.1085812 -43.47  0.001685227    6.821    0.853
       219  -9.9442     82.1508     45.4308   5.2457156432e+01   5.6940797475e+01    0.4463287    0.1490424 -41.11   0.00167612    2.914    0.657
       220 -10.6159     17.0970     42.1842   7.6367203842e+01   6.5458878624e+01    0.5435715    0.1149108 -54.34  0.002236509    3.174    0.685
       221 -10.1245     58.0209     41.3275   5.9603988102e+01   6.1404668255e+01    0.3760659    0.1758932 -53.47  0.001684414    2.549    0.608
       222 -11.6138      5.2941     39.0229   8.0488223007e+01   6.6791749422e+01    0.6954842    0.1474417 -60.41  0.002870079    3.457    0.711
       223  -9.3453    113.9857     41.4675   4.1392787492e+01   5.1286243321e+01    0.2035983    0.1329609  49.42 0.0002994283    1.466    0.318
       224  -9.2511    247.6840    247.3531   6.0003724584e+01  -1.1999576521e+01   0.09570632   0.08524913  53.68 0.0007046339    1.738    0.425
       225  -9.0653     95.3135     36.9855   4.5171434350e+01   5.5872918356e+01    0.2156484   0.09667724 -53.63 0.0007043413    4.225    0.763
       226  -9.2896     85.3114    233.6617   8.7457621862e+01   1.6293342785e+01    0.1287437   0.07052491  67.50 0.0007045346    1.690    0.408
       227  -9.0570    160.4702    232.4351   7.3271541639e+01   4.0679757981e+00    0.1277884    0.1010261  46.60 0.0001266276    1.008    0.008
       228 -10.1996     36.8825     39.1952   6.7231537719e+01   6.4312227003e+01     0.400999    0.1305732 -47.68  0.001780125    2.537    0.606
       229  -9.8814    237.8877    229.6496   5.8873632096e+01  -8.5676885659e+00    0.1974814    0.1471266  -1.85 0.0008813161    1.334    0.250
       230  -9.5113     81.5047     27.0111   4.5764334731e+01   5.9961917487e+01     0.176044    0.1070303 -55.15  0.000810418    2.543    0.607
       231 -10.7571      3.5836     25.4658   7.7468042938e+01   6.9383685873e+01    0.3040714   0.08262344 -58.19  0.001399843    2.957    0.662
       232  -8.8003     44.2947     25.3659   5.9117607346e+01   6.5851434921e+01    0.1254467   0.07913478 -15.83 0.0007029603    1.717    0.418
       233  -8.7193    110.6504     24.6814   3.6204661246e+01   5.4405892877e+01    0.1463933   0.09677988  25.38 0.0007048107    1.736    0.424
       234  -9.2529     48.4923     21.0334   5.5616241669e+01   6.5995602794e+01    0.1793828    0.1045076 -37.59  0.001028682    1.579    0.367
       235  -9.8135     72.6422    228.3425   8.9305743574e+01   1.9122558954e+01     0.198602     0.105414  67.18   0.00110811    1.689    0.408
       236  -9.0776     40.6640     21.2003   5.8993345998e+01   6.6942011720e+01    0.1604287   0.08951942 -32.32            0    1.609    0.379
       237  -9.8157     49.6411     31.4219   5.9258466422e+01   6.4201354536e+01    0.3045428   0.09638891 -41.08  0.001259724    2.864    0.651
       238  -8.9510     73.6759     19.3341   4.5303152285e+01   6.2409696668e+01    0.1161609    0.1011641 -71.45 0.0007050876    1.710    0.415
