#   1 NUMBER                 Running object number                                     
#   2 MAG_AUTO               Kron-like elliptical aperture magnitude                    [mag]
#   3 X_IMAGE                Object position along x                                    [pixel]
#   4 Y_IMAGE                Object position along y                                    [pixel]
#   5 X_WORLD                Barycenter position along world x axis                     [deg]
#   6 Y_WORLD                Barycenter position along world y axis                     [deg]
#   7 A_WORLD                Profile RMS along major axis (world units)                 [deg]
#   8 B_WORLD                Profile RMS along minor axis (world units)                 [deg]
#   9 THETA_WORLD            Position angle (CCW/world-x)                               [deg]
#  10 FWHM_WORLD             FWHM assuming a gaussian core                              [deg]
#  11 ELONGATION             A_IMAGE/B_IMAGE                                           
#  12 ELLIPTICITY            1 - B_IMAGE/A_IMAGE                                       
         1 -17.7855    125.7388    154.6144   9.9440488861e+01   2.5500017316e+01     5.730334     4.398386  88.64   0.02874245    1.562    0.360
         2 -17.9141    138.6356    107.9450   8.5486585976e+01   3.3128050680e+01     6.526891      5.52296 -13.88   0.03210401    1.343    0.255
         3 -17.6470    212.1969    122.1359   7.3113690020e+01   1.3560803819e+01     7.020972     4.237436 -36.20   0.03119176    1.583    0.368
         4 -17.5299    193.8877    115.9783   7.5109101916e+01   1.8832333638e+01     4.666923     2.847401 -60.97    0.0178789    2.442    0.590
         5 -17.2688    193.6688    158.2034   8.5190055364e+01   1.1074376571e+01     2.698632     1.547214  40.42   0.01208497    1.688    0.407
         6 -12.2325    216.5518     25.6738   4.6683933829e+01   2.7546953662e+01    0.6324874    0.2661276 -52.57  0.002415376    2.656    0.623
         7 -11.2990    174.9135     22.3025   5.1162233525e+01   3.8644747465e+01    0.2628717    0.2319766  62.52 0.0004503226    1.074    0.069
         8 -11.7975    238.3437     16.0036   4.2021271354e+01   2.3400561703e+01    0.3171863    0.1984991 -43.16 0.0009031745    1.435    0.303
         9 -10.8564     89.6543     15.0006   6.6719211940e+01   5.9967174439e+01    0.3015499    0.1183894 -25.68  0.001240682    2.508    0.601
        10 -10.1379     76.8721     11.8438   6.9305970335e+01   6.2816017944e+01    0.1969732    0.1474608  12.37 0.0003736466    1.205    0.170
        11 -12.3800    125.1020      8.4739   5.5084481978e+01   5.2721870395e+01    0.2679633    0.2509713 -30.74 0.0003478691    1.195    0.163
        12 -10.5580    196.2025      9.0612   4.4409333643e+01   3.4540792231e+01    0.3394835    0.1744501 -85.11  0.001392247    2.407    0.585
        13 -10.7679     22.9634      8.3185   9.0157483086e+01   7.1070541134e+01    0.1645385    0.1241314 -14.00  0.001160628    1.064    0.060
        14 -10.3261     26.7260      7.0064   8.7604310421e+01   7.0876715592e+01    0.1619565    0.1203204 -19.50 0.0003699473    1.042    0.040
        15 -10.2723    178.5082      6.0396   4.5620625036e+01   3.9396042232e+01    0.1981322    0.1363213 -26.16 0.0006710049    1.556    0.357
        16 -11.8247    238.2458      4.3077   3.9223618814e+01   2.4697747366e+01    0.2500548    0.1971503  38.49 0.0008036234    1.638    0.389
        17 -11.3001    212.1897      4.8935   4.1617651266e+01   3.0921347923e+01    0.3099345    0.1921108  59.77  0.001214562    1.581    0.367
        18 -10.8297    107.5067      4.3866   5.7291344891e+01   5.7211162270e+01    0.2669263    0.1893295  24.10 0.0006486326    1.346    0.257
        19 -10.4648      7.1933      4.9121   9.6870244123e+01   7.2958714808e+01     0.171001    0.1284776 -11.67  0.000330066    1.193    0.162
        20 -11.0335     40.1655      2.6633   7.8910603877e+01   6.9834388205e+01    0.2425028    0.1932218  34.78 0.0008094374    1.557    0.358
        21 -11.2314    206.5814      1.9527   4.1372354446e+01   3.2609080093e+01    0.2904865    0.1795841  77.07 0.0006905557    1.502    0.334
        22 -10.1858    141.9141      1.8858   4.9507750478e+01   4.9153912329e+01    0.2263097    0.1569719 -65.75   0.00113251    1.810    0.448
        23 -10.6952     33.0290    235.8432   1.2769531237e+02   2.2551195153e+01    0.1815924    0.1214225  84.09  0.001375171    1.218    0.179
        24 -10.9981    219.2006    248.9298   9.6721998072e+01  -6.5845111693e+00      0.20991    0.2061742  31.38 0.0009808403    1.557    0.358
        25 -10.7993    214.7040    248.7509   9.7461131000e+01  -5.8892759316e+00     0.284555     0.108483  41.95 0.0009712536    2.150    0.535
        26 -12.2683    192.9272    249.3362   1.0129658166e+02  -2.6131020896e+00    0.3702275    0.2148731  36.55  0.001017147    1.332    0.249
        27  -9.4165    135.6505    250.7695   1.1149567841e+02   6.1661785878e+00     0.109178   0.07617611  29.56 0.0002823282    1.559    0.358
        28  -9.9796    113.2178    249.9827   1.1530669579e+02   9.6740815754e+00    0.1497983      0.11995  58.27 0.0002855919    1.064    0.060
        29 -10.4476    164.3234    235.2831   1.0447427123e+02   3.8386884071e+00    0.2328777    0.1505169  28.71 0.0002345355    1.539    0.350
        30 -11.9202    164.9976    230.8475   1.0374235266e+02   4.3736334365e+00    0.3034246     0.229094  55.07 0.0008004747    1.331    0.249
        31 -11.7195    139.4960    223.9845   1.0759067963e+02   9.6837278197e+00    0.2899716    0.2077068 -78.00  0.001405493    1.841    0.457
        32 -12.4609    142.6670    229.6174   1.0772407884e+02   8.2544555580e+00    0.4799616    0.2969112  57.96  0.002723386    1.635    0.388
        33 -11.3450    149.0760    234.0358   1.0710458213e+02   6.5212287504e+00    0.2188287    0.1542395  40.32 0.0003141623    1.177    0.150
        34 -11.8372    201.1671    233.1076   9.7488988941e+01  -1.8994620253e+00    0.2273283    0.1833747  27.58  0.001551508    1.027    0.027
        35  -9.7400    245.5280    233.5437   8.9874190592e+01  -8.8066749045e+00    0.1178171   0.08716542  16.07 0.0001585405    1.014    0.013
        36 -12.0035    174.5520    231.6817   1.0210084737e+02   2.6652806884e+00    0.4386875    0.2981108  36.14  0.002696049    1.213    0.175
        37 -11.2333     97.7846    230.9210   1.1615595783e+02   1.5053216251e+01    0.2563972    0.2025864  80.86  0.001794155    1.213    0.176
        38 -10.7180    214.1525    230.6149   9.4793356399e+01  -3.6720034893e+00    0.3003382    0.1321901  49.65  0.001364205    2.740    0.635
        39 -10.8486     70.2361    230.5416   1.2104805566e+02   1.8969429136e+01     0.336457    0.1254954  50.13  0.001715026    2.126    0.530
        40 -12.2622    196.1170    226.2638   9.7343047802e+01  -1.7071838352e-01    0.4162446    0.3649346  72.93  0.002075112    1.628    0.386
        41 -11.5109    207.1523    228.7542   9.5742319140e+01  -2.3118467537e+00    0.4059386    0.2318669   6.17  0.001948503    2.705    0.630
        42 -12.9093    204.0044    224.7024   9.5663648164e+01  -1.2688595392e+00    0.5083655    0.2959113  26.67  0.001687229    1.622    0.384
        43 -11.4048    199.6086    220.3493   9.5762902723e+01   5.1708305865e-02    0.3452802    0.2114643  41.47   0.00147653    1.415    0.293
        44 -11.1083    156.2503    228.2584   1.0501012532e+02   6.2196643776e+00    0.3258483    0.2119381 -22.70  0.001737792    2.472    0.595
        45 -10.4810    132.6766    230.1757   1.0965273127e+02   9.7880585955e+00    0.2094083    0.1332705  51.41 0.0005533676    1.325    0.245
        46 -15.9994    230.9039    167.6836   8.0102656725e+01   2.1828316902e+00     2.487294     1.990619 -17.27   0.01333913    1.168    0.144
        47 -10.3067    125.4870    249.0090   1.1307988768e+02   7.9803477622e+00    0.1448544    0.1133099 -61.78  0.001029687    1.593    0.372
        48 -11.2827     59.8344    215.9521   1.2170142444e+02   2.2993633654e+01     0.289479    0.2810021 -64.48  0.002242567    1.535    0.349
        49 -10.7211    222.9604    216.9507   9.0971883754e+01  -3.3736147981e+00    0.1978374    0.1560708  22.42 0.0008538227    1.033    0.032
        50 -12.2765     95.5570    213.6120   1.1475283422e+02   1.8488767920e+01     0.517718    0.3490537  23.73  0.002853039    2.192    0.544
        51 -11.0057     13.5376    216.6340   1.2984384438e+02   2.8049313573e+01    0.1745971    0.1305475  69.11 0.0006363103    1.136    0.120
        52 -10.4356     15.7810    222.7385   1.2978816349e+02   2.6706139560e+01    0.2178116   0.08347958 -65.57  0.001244987    2.667    0.625
        53 -11.4239    237.1837    213.5985   8.7888614421e+01  -5.2391743620e+00    0.2366696    0.1818708  30.55 0.0005643971    1.211    0.174
        54 -10.8203     30.8102    213.8933   1.2674137030e+02   2.6792279419e+01    0.1535042    0.1275206  82.23 0.0005483107    1.236    0.191
        55  -9.7357    105.1565    212.1349   1.1272194954e+02   1.7299334673e+01     0.168073    0.1242759  71.05 0.0003527703    1.287    0.223
        56 -10.5370      2.9737    211.5149   1.3134204590e+02   2.9993730568e+01    0.1350797    0.0837963  49.00 0.0003407499    1.498    0.333
        57 -17.1055    171.8057    154.7540   8.9018933626e+01   1.6251826370e+01     1.888942     1.208318  15.19  0.007645617    2.410    0.585
        58 -10.3319     44.7734    208.9427   1.2389492263e+02   2.6174813543e+01    0.1571891    0.1351301  89.92 0.0005924522    1.270    0.212
        59 -11.5847    105.6108    205.5602   1.1183513597e+02   1.8464466185e+01    0.3970932    0.3015978 -16.31  0.001673925    2.411    0.585
        60 -10.4839     11.8294    208.1532   1.2968419381e+02   2.9809551115e+01    0.1600939    0.1179183  81.10  0.000279187    1.087    0.080
        61 -12.2043     12.8146    203.8144   1.2927523621e+02   3.0549787767e+01    0.4981805    0.1810724  74.41  0.002119466    2.829    0.646
        62  -9.8407      2.2833    208.3164   1.3130617645e+02   3.0656396819e+01   0.09062566   0.06824793 -69.85 0.0001841791    1.581    0.368
        63 -11.1773    233.2810    203.6785   8.6781280077e+01  -3.3474123056e+00    0.2435306     0.204769 -33.74  0.001575312    1.467    0.318
        64 -11.0755     68.9790    203.0419   1.1879985350e+02   2.4304951130e+01    0.2624896    0.1860948  73.79  0.001679117    1.220    0.180
        65 -10.3309     45.2088    201.9659   1.2326331127e+02   2.7495881228e+01    0.2017923     0.145868  54.50  0.001366586    1.258    0.205
        66 -10.3084    102.4625    200.5791   1.1184593576e+02   1.9920238560e+01    0.2387969    0.1209101 -60.46  0.001186496    2.100    0.524
        67 -18.4528    178.1793    139.6664   8.4242371063e+01   1.7832689591e+01      3.85695     2.364286  43.83   0.01598867    1.609    0.379
        68 -17.1037    208.0084    180.2345   8.6943617063e+01   4.5185687612e+00      5.18803     3.168465 -10.87   0.02356204    2.223    0.550
        69 -10.6440     69.3349    194.7500   1.1788405520e+02   2.5928303565e+01    0.2300164    0.1666945  33.00  0.001049273    1.667    0.400
        70 -10.1527     46.8542    194.8964   1.2235474796e+02   2.8728530537e+01    0.1642576    0.1385658 -82.08 0.0003008958    1.245    0.197
        71 -10.4792    165.5176    245.9094   1.0565704575e+02   2.1576935144e+00    0.1435446    0.1184457 -39.40 0.0007004773    1.544    0.352
        72 -11.2310     96.2363    185.4967   1.1117387020e+02   2.3937701247e+01    0.2208371    0.1901914  74.18 0.0002757304    1.017    0.017
        73 -11.6976     91.4984    188.5844   1.1258779554e+02   2.4026430924e+01    0.5632776    0.2876371 -82.99  0.002420336    2.793    0.642
        74 -10.9696     92.4610    183.5422   1.1172075108e+02   2.4930331600e+01     0.218596    0.1656485  74.58 0.0009621689    1.259    0.206
        75  -9.6624     76.8259    192.3244   1.1609512401e+02   2.5397345196e+01     0.169426    0.1280306  82.80 0.0004560372    1.190    0.160
        76 -11.4842     52.5694    192.0253   1.2097152516e+02   2.8635145120e+01    0.2570785    0.1695912  40.29  0.001595802    1.598    0.374
        77 -11.4635    105.8902    190.1815   1.0976274424e+02   2.1442306662e+01    0.3210938    0.1697647  42.46  0.001419655    1.749    0.428
        78 -10.1779     81.1923    187.7989   1.1465912810e+02   2.5714648178e+01    0.1959331    0.1487572  65.92 0.0009910779    1.163    0.140
        79 -10.2581    248.0265    185.5232   8.0744650740e+01  -3.3844188664e+00    0.1861442    0.1153195  37.14  0.001017899    1.549    0.354
        80  -9.8242    132.7088    246.5233   1.1154505477e+02   7.2435384393e+00    0.1670505     0.085866  50.77  0.000934456    1.612    0.380
        81  -9.9471     17.4691    184.5163   1.2722236278e+02   3.3968312007e+01    0.1133067   0.08379262  82.66  1.68745e-05    1.010    0.010
        82  -9.1234     37.6494    183.2630   1.2316447076e+02   3.2185006734e+01     0.122935   0.06927221  66.11 0.0003538591    1.613    0.380
        83 -10.8400     24.9934    181.9582   1.2557580055e+02   3.3774366671e+01    0.1699225    0.1285753  82.96 0.0003017575    1.010    0.010
        84 -10.5860     85.5034    180.9556   1.1287966825e+02   2.6527416422e+01    0.2886626    0.2072915 -80.63 0.0009893959    1.355    0.262
        85 -12.3015    100.7079    172.2132   1.0828058173e+02   2.6044486109e+01    0.4830247    0.3364699 -89.06  0.001882571    1.615    0.381
        86 -12.7136     98.3491    166.8579   1.0798734903e+02   2.7593274599e+01    0.5278898     0.384245  15.90  0.002616367    2.066    0.516
        87 -10.8763     95.3871    177.2733   1.1021500334e+02   2.5805476072e+01    0.2485915     0.219928 -87.59  0.001545958    1.075    0.070
        88 -12.6288     90.6738    174.5365   1.1087001399e+02   2.7125900291e+01    0.6332581    0.4017746  32.09  0.003253287    1.847    0.459
        89 -10.7555     51.3580    179.9259   1.2003993575e+02   3.1327230562e+01    0.2008422    0.1681662  49.34 0.0004700272    1.313    0.238
        90  -9.4985     42.3259    177.2881   1.2166396638e+02   3.2939907212e+01    0.1074378   0.08797409 -49.78 0.0002441472    1.610    0.379
        91 -10.3774     13.4962    176.5021   1.2743602611e+02   3.5997677455e+01    0.1144738   0.08363713  83.25 -1.92174e-05    1.015    0.015
        92 -10.1498     68.7414    175.0204   1.1577596641e+02   3.0179924258e+01    0.1720961    0.1423333 -85.68  0.001092723    1.080    0.074
        93 -11.7779     91.6310    165.9470   1.0939141206e+02   2.8859478380e+01     0.243703    0.2215156 -79.43 0.0004042629    1.098    0.089
        94 -10.4059     73.5135    218.8766   1.1944493055e+02   2.0649463016e+01    0.2748848    0.1062798 -67.81  0.001350057    2.679    0.627
        95 -12.6320     85.9033    165.6106   1.1065938855e+02   2.9811105825e+01    0.5408649    0.3946153   1.70  0.001502015    2.495    0.599
        96 -10.4924     79.3990    170.7872   1.1287038724e+02   2.9623237316e+01    0.2169122    0.2102642 -25.94 0.0008750234    1.364    0.267
        97 -10.6319     76.9793    168.0667   1.1304607092e+02   3.0570879155e+01    0.2032455     0.168107  86.80 0.0006953684    1.069    0.065
        98 -10.4974     55.5291    169.8842   1.1806542947e+02   3.3006181605e+01    0.3226361    0.1082436 -67.78  0.001350255    2.687    0.628
        99 -11.2599     66.3044    164.8687   1.1504525438e+02   3.2749093217e+01    0.3419737    0.2486488  86.41  0.002004726    1.283    0.221
       100 -10.9004     41.8776    159.5837   1.1994939251e+02   3.6881721627e+01    0.3770462    0.1510244 -75.38  0.001709369    2.314    0.568
       101 -11.1040    170.8281    223.7649   1.0164221597e+02   4.4452418957e+00    0.2762672    0.2529081  -7.93  0.001029616    1.253    0.202
       102 -12.1716     80.6719    149.1272   1.0935261199e+02   3.4331695973e+01    0.3509114    0.2281046 -62.97 0.0009904575    1.427    0.299
       103 -11.0777     16.5323    161.2090   1.2565519132e+02   3.9000538472e+01    0.1851942    0.1485453  51.96 0.0006853931    1.366    0.268
       104 -12.9407     76.2437    159.2353   1.1197191192e+02   3.2656964411e+01     0.589463    0.5027553 -39.62  0.002982243    1.478    0.323
       105 -11.2319     83.4563    152.4638   1.0921275818e+02   3.3150746892e+01    0.2727127    0.2439144  72.69  0.001091602    1.075    0.070
       106 -14.3126    238.7209    222.5738   8.9185393828e+01  -6.5566740716e+00    0.5018147     0.429555  63.19   0.00160998    2.009    0.502
       107 -10.4538     56.9130    158.1313   1.1633841792e+02   3.5467831267e+01    0.1945827    0.1456008  80.98 0.0004497617    1.222    0.181
       108 -12.4323    244.3532    220.1399   8.7805810185e+01  -7.1334745105e+00    0.3933578    0.2958557  47.07  0.002221031    1.732    0.423
       109 -10.7813     15.7735    156.0452   1.2538510489e+02   4.0196767290e+01    0.1808393    0.1466474  75.92 0.0003754032    1.147    0.128
       110 -11.3101     13.8002    150.0152   1.2529675795e+02   4.1693557635e+01     0.420885    0.1593355 -84.72  0.001948219    2.470    0.595
       111 -11.5096    149.9665    227.9966   1.0614913977e+02   7.3056445816e+00    0.3166155    0.1487741  48.16  0.001574753    1.837    0.456
       112 -11.8469     72.7825    146.9872   1.1095442139e+02   3.5955180470e+01    0.2873571      0.18346 -54.64  0.001232386    1.524    0.344
       113 -12.0561     73.2201    141.0280   1.0988372301e+02   3.7283838315e+01    0.4370453    0.2547024 -52.47  0.001210527    1.670    0.401
       114 -11.9071     70.6876    138.3124   1.1007840454e+02   3.8270424366e+01    0.4002889    0.2572845  84.58  0.001456163    1.863    0.463
       115 -11.0425    219.4187    225.9442   9.3109221847e+01  -3.9348376321e+00    0.2300638    0.1411937  30.69  0.000377713    1.344    0.256
       116 -10.3298     36.9451    142.1239   1.1908340685e+02   4.1375560374e+01    0.3220094    0.1417114 -83.66  0.001408779    2.485    0.598
       117 -10.2005     23.0856    137.8667   1.2194940809e+02   4.3650822902e+01    0.1906707    0.1342178  81.58 0.0007246698    1.279    0.218
       118 -12.9350    156.4748    222.4867   1.0416572763e+02   7.0789848985e+00    0.5035492    0.3964992  -8.36  0.002359158    1.730    0.422
       119 -11.4214     78.0257    131.9571   1.0705453494e+02   3.8731960727e+01    0.3970714    0.1873931 -48.76  0.001688715    2.117    0.528
       120 -11.8418     75.4836    128.4845   1.0708554495e+02   3.9918275131e+01    0.3946794    0.2717301   7.63  0.001863603    2.356    0.576
       121 -11.5767     68.3644    130.9676   1.0943029282e+02   4.0316394479e+01    0.2420358    0.1942018  57.80 0.0006380187    1.306    0.234
       122 -11.5721     63.7392    126.8646   1.0994626624e+02   4.1895382136e+01    0.2730402    0.2310477  83.43 0.0003396116    1.169    0.145
       123 -10.3829     62.6918    157.0430   1.1484826128e+02   3.4988620381e+01    0.1787801    0.1464999 -82.86 0.0002635329    1.054    0.052
       124 -11.7073    166.5169    223.7011   1.0244272073e+02   5.1870283947e+00     0.413027    0.2427546  24.96  0.001329875    2.026    0.506
       125 -11.1605     69.8479    121.6536   1.0732459122e+02   4.2322066574e+01    0.2574367    0.1869836  71.97  0.001348071    1.595    0.373
       126 -10.2496    249.9086    114.3715   6.4812312826e+01   6.8170152974e+00    0.3470484    0.1746063 -27.02  0.001487248    1.916    0.478
       127 -11.8609     67.5082    114.4012   1.0655600914e+02   4.4356331370e+01    0.3142849    0.2184444 -76.43  0.001073391    1.486    0.327
       128 -11.5262      6.0019    114.4954   1.2367250022e+02   5.0269709379e+01    0.2347306    0.1322594 -89.81  0.000884971    1.601    0.375
       129 -10.3467    107.3820    230.5701   1.1436938801e+02   1.3681572298e+01    0.2087663     0.102768  33.29  0.000698654    2.359    0.576
       130 -11.1650     73.3900    110.5049   1.0405331054e+02   4.4467905011e+01    0.2791069    0.1561498 -53.64  0.001085364    1.579    0.367
       131 -10.4672     57.9731    109.7617   1.0837859652e+02   4.6669349668e+01    0.1754707    0.1631228 -74.82 0.0003209087    1.090    0.082
       132 -10.6035     33.1839    109.3098   1.1547786633e+02   4.9394635172e+01    0.2171433    0.1384062 -59.51 0.0004615214    1.290    0.225
       133 -10.6758    175.3119    244.7952   1.0377397917e+02   7.4371953151e-01    0.3218967    0.1523789  32.85   0.00165594    1.970    0.492
       134 -10.5998     23.8162    108.6453   1.1804554825e+02   5.0346870471e+01     0.176035    0.1561015  18.79   0.00122371    1.461    0.316
       135 -11.2115     84.8614    107.6176   1.0008138535e+02   4.3430956479e+01    0.2868541    0.2236619 -49.48 0.0003786049    1.183    0.155
       136 -11.3518     79.6204    106.1096   1.0125451169e+02   4.4589739264e+01    0.2705761    0.2129972  26.30  0.001450701    1.486    0.327
       137 -10.5567    241.2112    104.3231   6.3730573181e+01   1.0213518081e+01    0.2341674    0.1793981 -21.71 0.0005707804    1.246    0.197
       138 -11.2484     84.9017    100.2418   9.8282144683e+01   4.5134191855e+01    0.2788094    0.1915433 -47.00 0.0002725224    1.337    0.252
       139 -11.7347    103.5258     94.6547   9.1336151461e+01   4.3185864677e+01    0.4140108    0.2562745 -43.22 0.0009319304    1.530    0.346
       140 -11.2724     98.8240     91.9079   9.1943177860e+01   4.4655796744e+01    0.3431129    0.2507738 -25.38 0.0008711407    1.570    0.363
       141 -11.6730    101.4889     98.5358   9.2982272672e+01   4.2694259975e+01    0.4557856    0.2036472  42.40  0.001461989    2.384    0.581
       142 -11.1837     97.6522     96.3237   9.3500731335e+01   4.3880725416e+01    0.2976519    0.2308921  56.12  0.001496579    1.477    0.323
       143 -12.6213     92.5731     93.6118   9.4267608442e+01   4.5375933015e+01    0.5915603    0.3221928 -55.74  0.002513818    1.846    0.458
       144 -12.8055     72.8650     97.2446   1.0117113364e+02   4.7641678119e+01    0.5620598    0.3743115 -56.28  0.001587279    1.344    0.256
       145 -10.9258     61.0592     97.3776   1.0483100472e+02   4.9196205381e+01    0.2331861    0.1900738 -38.23  0.000653934    1.240    0.194
       146 -17.2630    211.7952    136.5245   7.6676987947e+01   1.1118302564e+01      3.40987     2.131767  57.56   0.01512601    1.928    0.481
       147 -10.7936     46.1162     93.3835   1.0861962586e+02   5.1853701944e+01    0.2857412    0.1497703 -52.33 0.0008968692    1.582    0.368
       148 -11.0963     66.6954     90.2875   1.0137533323e+02   5.0098091029e+01     0.263822    0.2105217 -42.84 0.0005940491    1.153    0.133
       149 -12.3788    248.5065     87.8366   5.8606889516e+01   1.1237967706e+01    0.2854432    0.2417046 -19.87 0.0004282524    1.149    0.130
       150 -12.8471    105.4843     85.1866   8.8043594161e+01   4.4877697871e+01    0.5589437      0.53813 -76.18  0.001805323    1.134    0.118
       151 -12.3104    239.9791     85.9722   5.9359336355e+01   1.3390540092e+01    0.2915048    0.2616331 -40.80 0.0003702827    1.046    0.044
       152 -10.9404    239.3376     81.7104   5.8379741977e+01   1.4197543986e+01    0.2578928    0.2240047 -53.10 0.0005932851    1.148    0.129
       153 -10.1157    230.6969     85.5124   6.0626204291e+01   1.5559358117e+01    0.2639089    0.1383706  50.65 0.0009970893    2.025    0.506
       154 -10.2390      8.5990     81.2754   1.1837169288e+02   5.7653136045e+01    0.1789728    0.1356426  45.56  0.000844054    1.660    0.398
       155 -12.2279     88.1006     88.8221   9.4303611318e+01   4.7202528141e+01    0.5562365    0.3714149 -20.71  0.002496361    2.016    0.504
       156 -10.6101    247.9982     77.9598   5.6247805728e+01   1.2851810282e+01    0.2116486    0.1932817 -24.65 0.0005926698    1.079    0.074
       157 -11.8092     98.3271     77.2861   8.7772163403e+01   4.7897379334e+01    0.3803312    0.2832892 -80.30   0.00167896    2.039    0.510
       158 -10.5826    230.6904     74.8482   5.7872135267e+01   1.7240735623e+01    0.3266916    0.2361501 -10.52  0.001231634    1.643    0.391
       159 -11.0383    236.0230     71.9586   5.6370321779e+01   1.6448910282e+01    0.2128713     0.195681 -42.99 0.0003150025    1.009    0.009
       160 -11.8418     93.3962     71.3983   8.7428316059e+01   5.0016001694e+01    0.2690012    0.2444683 -38.37 0.0002502101    1.063    0.059
       161 -12.4565     24.1220     71.3605   1.1116261894e+02   5.8843739807e+01    0.2331655    0.1920738 -57.61 0.0003726004    1.061    0.058
       162 -17.8280    188.7371    170.1475   8.8709303584e+01   9.9466181788e+00     7.216754     3.931839  17.22   0.02495258    3.572    0.720
       163 -10.9904     53.1652     69.7732   1.0042225052e+02   5.6386439916e+01    0.2893237    0.1510457 -43.04   0.00107485    1.670    0.401
       164 -12.1350     85.3910     68.1172   8.8918390992e+01   5.2087984424e+01    0.3535675    0.2954518  42.60 0.0007897668    1.339    0.253
       165 -10.8769      6.4207     68.2527   1.1678619199e+02   6.0661837556e+01    0.2681121    0.1110806 -36.08  0.001017324    2.595    0.615
       166 -10.0845    235.6075     68.4081   5.5518702136e+01   1.7081143789e+01     0.290233    0.1387666  59.60  0.001203499    2.229    0.551
       167 -10.3619     43.9573     68.5135   1.0335344797e+02   5.7687379488e+01    0.1651064    0.1294789  21.11  0.000410683    1.499    0.333
       168 -12.1315    161.3232    222.4519   1.0324202213e+02   6.2613993259e+00    0.4173631    0.2176493 -52.43  0.002130365    2.424    0.588
       169 -10.9368    241.7388     64.1955   5.3638302953e+01   1.6297320424e+01    0.5141674    0.2813178 -60.48  0.001900275    2.335    0.572
       170  -9.8600    214.8102     66.5996   5.8051940132e+01   2.2325025931e+01    0.2089651    0.1439771  79.36 0.0009460255    1.739    0.425
       171 -12.0989    129.8463     62.0942   7.3820486813e+01   4.4248972811e+01    0.3158471    0.2707958  70.06 0.0003426104    1.358    0.263
       172 -10.8745     29.8063     62.6816   1.0698589358e+02   6.0285916035e+01    0.2195886    0.1703788 -63.38   0.00036991    1.235    0.190
       173  -9.7773     47.5351     62.5155   1.0034015443e+02   5.8586439730e+01     0.130739    0.1107459 -45.50 6.502983e-06    1.067    0.063
       174 -10.4393    210.2583     60.1776   5.6981459671e+01   2.4434903593e+01    0.2821251    0.1860736 -79.61 0.0008312477    2.040    0.510
       175 -10.5128     10.1427     59.3857   1.1359251048e+02   6.2381480843e+01    0.2294178    0.1153821 -53.01 0.0008560024    1.448    0.310
       176 -12.2509    137.8175     58.4995   7.0591002552e+01   4.2998736577e+01    0.5349112     0.295788  38.23  0.001005506    1.986    0.497
       177 -10.6723     35.3771     57.3867   1.0340706380e+02   6.0914804920e+01    0.3729549    0.1495428 -38.61  0.001632593    2.418    0.586
       178  -9.1234    225.6269     57.3233   5.3991888648e+01   2.1084003144e+01    0.1588207    0.1027916 -64.40 0.0001242599    1.815    0.449
       179 -13.1883    201.2236     52.1460   5.6103981728e+01   2.7908741549e+01     0.467876    0.3991694  29.63 0.0007418139    1.319    0.242
       180 -11.8358    206.5509     50.2761   5.4767820710e+01   2.6826022304e+01    0.4340528    0.2021912 -35.02  0.001548902    2.013    0.503
       181  -9.7845      1.4400     57.5228   1.1647852575e+02   6.3228122430e+01    0.1174493   0.08578358 -57.44 6.272573e-05    1.008    0.008
       182  -9.5641    240.9681     56.4649   5.1789781538e+01   1.7589140458e+01    0.1814784     0.111746 -73.26 0.0005798303    2.122    0.529
       183 -12.3741    184.1951     52.4048   5.8975831167e+01   3.2249331015e+01    0.7603198    0.3484573 -38.01  0.002916218    2.103    0.525
       184 -10.3832    114.4487     56.4563   7.6027071839e+01   4.8685052774e+01    0.2544842    0.2214987  21.41 0.0009469042    1.150    0.130
       185  -9.8704    111.0059     54.9925   7.6484829910e+01   4.9678275424e+01     0.246813    0.2031549  52.34 0.0003603593    1.330    0.248
       186  -9.2277     71.2953     56.2674   8.9694617923e+01   5.6725506351e+01    0.1347552   0.09808263 -12.67 0.0002020892    1.513    0.339
       187 -11.3289    249.2609     53.1625   4.9991161467e+01   1.6169017880e+01    0.2372592    0.1930611 -54.63 0.0003330246    1.135    0.119
       188 -11.4335    130.4135     44.1872   6.7391597437e+01   4.7063627579e+01    0.3008024    0.2581605  45.12  0.000815822    1.144    0.126
       189 -10.4884    114.2886     47.9085   7.2974408600e+01   5.0168554916e+01    0.2375293    0.2049639  54.40 0.0005336119    1.270    0.212
       190 -11.9329    118.9029     50.6370   7.2705499401e+01   4.8699700919e+01    0.4624946    0.3527502 -36.57  0.001217761    1.307    0.235
       191 -12.4144    125.1179     51.9263   7.1514398071e+01   4.7078581407e+01    0.5085035    0.4244078  12.91  0.002164639    1.254    0.202
       192  -9.1603     42.3073     54.6550   9.9906459431e+01   6.0789802566e+01    0.1196117   0.09862823 -84.42 0.0007043323    1.696    0.410
       193 -10.1973     58.0179     52.5579   9.3226591765e+01   5.9342512734e+01    0.1801785    0.1291779  27.44 0.0003624601    1.549    0.355
       194 -10.3343    167.5022     45.5569   5.9859802544e+01   3.7579073104e+01    0.2583118    0.2009021  66.47 0.0005768011    1.308    0.235
       195 -11.1532    172.0003     49.2463   6.0194266430e+01   3.5876202007e+01    0.3426069    0.2334281 -20.27  0.001184148    1.608    0.378
       196 -11.8572    173.2137     45.2065   5.8694179831e+01   3.6148979764e+01    0.4617523    0.3440673  58.56  0.001243884    1.311    0.237
       197 -12.9296    147.4846     46.3965   6.4210229186e+01   4.2561110100e+01    0.6254625    0.4702899 -17.07   0.00109139    1.420    0.296
       198 -11.0430    160.6683     44.7140   6.0902809767e+01   3.9462504193e+01    0.3096255    0.2159434  47.99 0.0005871403    1.401    0.286
       199 -11.9972    155.6932     43.6125   6.1532627213e+01   4.0894801070e+01      0.37243    0.3315256 -49.09  0.001157523    1.187    0.157
       200 -11.9567    140.1365     49.2299   6.6850585955e+01   4.3945835306e+01    0.3676139    0.2549461  42.42 0.0007779176    1.431    0.301
       201 -11.5812    241.8946     48.0347   4.9566094740e+01   1.8551143928e+01    0.4263389    0.3017724 -83.88  0.001660111    1.597    0.374
       202 -11.6759     95.6945     48.2115   7.8585433548e+01   5.3967559552e+01    0.3451242    0.2233045  53.82 0.0009994393    1.854    0.460
       203 -13.2519    191.8639     43.2947   5.4976269814e+01   3.1573176034e+01    0.5744072    0.3376432 -35.80   0.00149753    1.658    0.397
       204 -10.9785    186.7861     44.3560   5.6103259094e+01   3.2741823626e+01    0.2651056      0.20863  84.82 0.0008053321    1.375    0.273
       205 -10.4795     65.9722     50.7770   8.9655796291e+01   5.8578807101e+01    0.2498394    0.1786267 -44.75  0.000650958    1.319    0.242
       206  -9.8915    230.2353     47.2136   5.0743761118e+01   2.1408010504e+01    0.1970224    0.1488353 -61.13 0.0003194809    1.324    0.245
       207 -11.0529     29.3957     48.6175   1.0313734498e+02   6.3263600992e+01    0.2468141    0.1628243 -57.73  0.001463274    1.414    0.293
       208 -11.5653    209.9196     54.1819   5.5364815644e+01   2.5411408557e+01    0.3495309    0.2661063  83.99   0.00127363    1.449    0.310
       209 -11.8084    119.2933     43.5094   6.9981797183e+01   4.9750076012e+01    0.4486254    0.2581504 -10.44  0.001773461    2.403    0.584
       210 -10.8122    216.2514    221.9667   9.3014916359e+01  -2.9226425311e+00    0.2028945     0.147457  30.97 0.0004732938    1.136    0.120
       211 -11.0254    155.5196    245.4927   1.0738052685e+02   3.8075254163e+00    0.2338096   0.09322283  41.81 0.0006353591    1.964    0.491
       212 -11.1281     88.8560     43.7228   7.9051809669e+01   5.6031313129e+01    0.3040699    0.1486105  30.21  0.001212205    2.548    0.607
       213 -10.3521    124.7745     43.0215   6.8376249758e+01   4.8565857713e+01    0.2205676    0.1979531 -43.01 0.0004402847    1.210    0.173
       214 -11.0200    123.8732     39.6090   6.7340736513e+01   4.9282827477e+01    0.2808346    0.2158426 -37.94  0.001110571    1.355    0.262
       215 -10.9456     18.2135     43.1705   1.0611166153e+02   6.5245644203e+01    0.1842966    0.1223199 -41.32 0.0005017007    1.169    0.145
       216 -10.7640    115.2772     42.0116   7.0498514469e+01   5.0882149556e+01    0.2063701    0.1869048 -11.16  0.000537533    1.059    0.056
       217 -10.8997     82.4955    229.9888   1.1882452570e+02   1.7403254276e+01    0.2743424    0.1409429  39.68  0.001001614    1.831    0.454
       218 -11.4008     92.8745     38.5123   7.5706239433e+01   5.6112233225e+01    0.3851265    0.2255982 -43.76  0.001233633    1.871    0.466
       219  -9.6974    231.5916     40.1694   4.8761106234e+01   2.2033795074e+01     0.185154    0.1325915 -16.17 0.0003985081    1.618    0.382
       220 -12.0371    134.7198     38.0202   6.4130294458e+01   4.6926766509e+01     0.495816    0.2726634 -44.63  0.001436008    2.058    0.514
       221 -10.5979    133.0948     33.1640   6.2729139758e+01   4.7985319410e+01    0.2685517    0.1843901  32.89  0.000534401    1.509    0.337
       222 -10.0652     11.9043     40.0638   1.0788494210e+02   6.6287912286e+01     0.164864    0.1344544 -57.87 0.0003747061    1.235    0.190
       223 -11.3899    165.1287     38.0935   5.7878347014e+01   3.9235030331e+01    0.3316432    0.2959794  76.43  0.000519317    1.147    0.128
       224 -11.1092     55.3024     38.7243   8.9159333858e+01   6.2299077582e+01    0.2372532    0.1829962 -21.39 0.0001939666    1.122    0.109
       225 -11.9133    176.4039     39.3564   5.6291724356e+01   3.6132014032e+01     0.457104    0.3887916  16.09  0.001769512    1.321    0.243
       226 -10.8665    152.5464     38.4810   6.0432949716e+01   4.2417736296e+01    0.2463991     0.141629  57.24 -1.717028e-06    1.670    0.401
       227 -10.0718    155.6892     36.6896   5.9198506836e+01   4.1857791288e+01    0.2134581    0.1342224 -37.21 0.0003959564    1.623    0.384
       228 -11.5478    140.9392     37.3655   6.2492253272e+01   4.5490073398e+01    0.3091624    0.1983623  -3.18  0.001326196    2.001    0.500
       229 -10.6465    219.8034     35.4048   4.8905719619e+01   2.5527350227e+01    0.2502597    0.1873153 -33.54  0.000201552    1.307    0.235
       230 -10.2279     67.2876     36.3078   8.3597921088e+01   6.0973060150e+01    0.1351016   0.09267401  -7.41 0.0001671428    1.572    0.364
       231 -12.1384    187.8727     33.1728   5.2561570935e+01   3.3953304227e+01    0.2792944    0.2496106 -47.17 0.0003446272    1.122    0.108
       232 -11.4060    199.6997     32.7373   5.0745858127e+01   3.0947688555e+01    0.2677666    0.2341861 -64.81 0.0006054727    1.125    0.111
       233 -11.0088     98.9593     32.3610   7.1353414756e+01   5.5815740130e+01    0.3498637    0.2049527  25.20  0.001127601    2.009    0.502
       234 -10.9389    122.2844    244.0701   1.1312122819e+02   9.2198724906e+00    0.3299179    0.1291048  44.82  0.001659846    1.984    0.496
       235 -10.8808    194.2900     31.3404   5.1088501675e+01   3.2518921835e+01    0.2378556    0.1994312 -16.57 0.0005755962    1.308    0.236
       236 -11.3322    195.5022     28.4444   5.0074879248e+01   3.2563100367e+01    0.2732624    0.2098923  45.86 0.0008196845    1.376    0.273
       237 -11.5533    166.2001     31.0352   5.5379049994e+01   3.9874298544e+01    0.3509748    0.2526385  48.59 0.0004392437    1.348    0.258
       238 -10.8574     69.1964     31.6881   8.0966235479e+01   6.1422150338e+01    0.2508668    0.1752784 -53.34  0.001303341    1.991    0.498
       239 -10.8085    141.7428     27.0611   5.8630105555e+01   4.6626374805e+01    0.2013175     0.183656   4.34 0.0004388957    1.110    0.099
       240 -12.2621    214.4980     31.4876   4.8492764461e+01   2.7346443483e+01    0.4381077    0.2457657  64.90  0.002015288    1.746    0.427
       241 -11.0053    209.5120     25.1575   4.7362586170e+01   2.9375659181e+01    0.3125051    0.1891359  74.49 0.0007384364    1.651    0.394
       242 -10.8860     66.3773     24.7029   7.8969215435e+01   6.2948322737e+01    0.2460805    0.1102607 -37.59 0.0008899031    2.117    0.528
       243 -10.2121     46.5487     25.0023   8.7030255076e+01   6.5783306045e+01    0.1886567    0.1046902 -36.97 0.0007906325    1.550    0.355
       244 -10.4718     32.3831     24.9315   9.3237518482e+01   6.7436761785e+01    0.1967177    0.1629627  34.80 0.0007154044    1.621    0.383
       245 -11.8914    201.9010     23.1198   4.7717637060e+01   3.1552025532e+01     0.347634    0.2430093 -18.38  0.001744513    1.613    0.380
       246  -9.8410     48.4624    244.5125   1.2572277813e+02   1.9287833340e+01    0.1076494   0.07535975  66.95  4.93615e-06    1.016    0.016
       247 -10.1732     98.2106     21.3646   6.6986402388e+01   5.7441489972e+01    0.1844555    0.1293421  61.51 0.0006155361    1.712    0.416
       248 -10.9339     49.6879     20.1346   8.3504182953e+01   6.6127828993e+01    0.2764866    0.1589399 -14.93  0.001179241    1.866    0.464
       249 -10.4220     16.1057     18.8034   9.8404927247e+01   6.9975571169e+01    0.1620256    0.1358155 -33.51 0.0005152236    1.220    0.180
       250 -10.0385    241.2677    242.9850   9.2104122519e+01  -9.1891846824e+00    0.1272581   0.08944323 -17.13 0.0006760344    1.480    0.324
       251 -10.5894    222.8886     21.7970   4.4969552174e+01   2.6440049015e+01    0.1999894    0.1804165  47.68 0.0005024329    1.258    0.205
       252 -10.1976     12.4841     16.4486   9.9238877851e+01   7.0658856389e+01    0.2421662   0.08732153 -48.58  0.001212043    2.174    0.540
       253 -10.4823     33.3965    242.7675   1.2802133599e+02   2.1318045385e+01    0.1297636   0.08090645 -74.12  0.000950004    1.669    0.401
       254 -10.3110     49.8404     15.1586   8.1083694940e+01   6.6834277824e+01    0.1782734     0.158048 -18.64 0.0007460446    1.291    0.225
       255 -10.4408    205.9958     13.2676   4.4498410238e+01   3.1610085999e+01    0.1943211    0.1702853  85.39 0.0005312925    1.063    0.059
       256 -10.9570    189.9479    241.2850   1.0069318060e+02  -1.1409331246e+00    0.1780479    0.1524601  24.51 0.0004316905    1.113    0.102
       257  -9.4410     64.4488     11.5178   7.3518005965e+01   6.5056145331e+01     0.128616    0.1044757   1.08  0.000127127    1.005    0.005
       258  -9.5297    223.6526    241.6894   9.4873645898e+01  -6.4506753925e+00    0.1226598   0.07263874  16.04 0.0007045353    1.710    0.415
       259 -10.5902    151.1275    240.6342   1.0756499570e+02   5.2057387755e+00    0.1745824    0.1526602  71.09 0.0004555011    1.286    0.223
       260 -11.0894    113.6116    240.9850   1.1433592742e+02   1.1022174761e+01    0.3089102    0.1579609  34.32   0.00164379    2.100    0.524
       261 -11.9664    183.1164    237.6590   1.0139743588e+02   4.3466611405e-01    0.4525256    0.2347739  36.28  0.001712748    1.587    0.370
       262 -11.3096    230.4099    219.9934   9.0181221030e+01  -4.9513979547e+00    0.2965834     0.199663  43.93  0.001027005    1.570    0.363
       263 -12.6018    232.4462    235.9196   9.2466989769e+01  -7.1303910114e+00    0.3283069    0.2325712   7.49  0.001020078    1.276    0.216
       264 -10.4179    228.1805    232.2926   9.2614413884e+01  -6.0692575697e+00    0.2164002    0.1286071  27.71  0.000771125    1.387    0.279
       265 -11.9576    193.9734    237.0697   9.9367416715e+01  -1.2464322897e+00     0.312223    0.2420577 -26.47  0.002114249    1.524    0.344
       266 -10.6504    108.2617    219.5360   1.1298622377e+02   1.5470044835e+01     0.195005    0.1583133 -73.09 0.0005716782    1.348    0.258
       267 -11.9009    126.1391    236.0999   1.1155302243e+02   9.8749672922e+00    0.3493338    0.2374618 -78.74  0.001415412    1.887    0.470
       268 -11.0040    103.7067    237.0202   1.1569852953e+02   1.3148833019e+01    0.3312081     0.191949  63.39  0.001952429    1.668    0.400
       269 -11.2783    118.4042    235.1872   1.1285720504e+02   1.1226148225e+01    0.2299904    0.1738265  50.26 0.0007599082    1.068    0.064
       270 -10.3032     42.8453    236.1211   1.2611299156e+02   2.1388659026e+01     0.130844    0.1081084  88.93 0.0005202365    1.321    0.243
