#   1 NUMBER                 Running object number                                     
#   2 MAG_AUTO               Kron-like elliptical aperture magnitude                    [mag]
#   3 X_IMAGE                Object position along x                                    [pixel]
#   4 Y_IMAGE                Object position along y                                    [pixel]
#   5 X_WORLD                Barycenter position along world x axis                     [deg]
#   6 Y_WORLD                Barycenter position along world y axis                     [deg]
#   7 A_WORLD                Profile RMS along major axis (world units)                 [deg]
#   8 B_WORLD                Profile RMS along minor axis (world units)                 [deg]
#   9 THETA_WORLD            Position angle (CCW/world-x)                               [deg]
#  10 FWHM_WORLD             FWHM assuming a gaussian core                              [deg]
#  11 ELONGATION             A_IMAGE/B_IMAGE                                           
#  12 ELLIPTICITY            1 - B_IMAGE/A_IMAGE                                       
         1 -10.3245    111.5509     33.7492   8.9899682485e+01   5.3544150831e+01    0.3365504    0.1312255 -33.67  0.001280489    2.523    0.604
         2 -10.1884     97.3377     13.1654   8.5296273148e+01   5.9262304122e+01      0.25982    0.1223564 -14.56   0.00107989    2.549    0.608
         3 -10.8340    159.8490    238.5453   1.2611127485e+02   5.2397511195e+00    0.2076032    0.1562406 -84.19  0.001151059    1.916    0.478
         4 -11.3403    164.2522    226.1090   1.2367856422e+02   6.2962503097e+00    0.4448327    0.2855176  36.73  0.002617667    1.358    0.264
         5  -9.8448    149.3228    223.6685   1.2611780518e+02   9.2175553770e+00     0.126113   0.08529977  67.11 0.0004090602    1.701    0.412
         6 -10.6477    126.2095    220.8687   1.3010753719e+02   1.3551363161e+01    0.1902484    0.1387083  61.71 0.0005892939    1.222    0.182
         7 -10.7869    111.8250    214.8405   1.3213387198e+02   1.6934934131e+01    0.2746779    0.1569116 -49.34  0.001485626    2.267    0.559
         8 -10.0237    143.7236    216.7356   1.2625342369e+02   1.1288623679e+01     0.187867     0.159462 -56.82 0.0009531911    1.419    0.295
         9  -9.9334    185.6695    213.5583   1.1786780534e+02   4.4065804335e+00     0.196592    0.1201804 -42.14  0.001080493    1.963    0.491
        10 -10.6070    116.3452    210.6476   1.3075826316e+02   1.6951928338e+01    0.2767236    0.1726749  68.95  0.001275524    1.724    0.420
        11 -10.3912     99.3778    206.1839   1.3355634280e+02   2.0487211256e+01    0.1704798    0.1076038 -83.32 0.0006852429    1.769    0.435
        12 -10.7257    185.5624    203.2387   1.1622545822e+02   5.9658344525e+00    0.2843964    0.1293172 -39.34  0.001297353    2.599    0.615
        13 -11.5139    164.3434    201.6086   1.2005136703e+02   1.0118240897e+01    0.5438039    0.2880879 -51.68  0.002613206    2.291    0.563
        14  -9.6627    211.4972    201.0077   1.1102899140e+02   1.5963239156e+00     0.157904    0.1134632 -64.84 0.0008095607    2.462    0.594
        15 -10.9376    244.5697    199.2586   1.0493455369e+02  -3.8658313351e+00    0.1659322    0.1068609 -13.72 0.0009515472    1.604    0.377
        16 -10.2938    149.1648    198.3440   1.2254977272e+02   1.3451813958e+01    0.2679112    0.1545478 -77.32  0.001086595    3.410    0.707
        17 -10.2607     88.7847    199.1998   1.3487111650e+02   2.3446147172e+01    0.2217422    0.1070971  70.57 0.0009520641    2.806    0.644
        18 -12.5303    248.8402    184.6801   1.0149462985e+02  -2.7404320284e+00    0.4884761    0.1813959 -28.83   0.00207644    2.839    0.648
        19 -11.1315    124.8059    197.2968   1.2732319146e+02   1.7975029757e+01    0.3316946    0.2496468  52.20  0.001966311    1.134    0.118
        20 -10.4801    112.6852    197.6917   1.2984658824e+02   1.9954931859e+01    0.2506932    0.1460907 -89.04  0.001169495    2.464    0.594
        21 -11.3025    172.7922    195.9401   1.1747415989e+02   9.4884808146e+00    0.2401975    0.1747422  42.95 0.0007794451    1.187    0.157
        22 -10.6495    173.4044    191.6992   1.1663633712e+02   1.0077419797e+01    0.2556905    0.2193218 -78.74 0.0008582601    1.464    0.317
        23  -9.3051    215.3148    193.6494   1.0902101238e+02   1.9466443852e+00    0.1204761     0.104444  83.37 0.0005046972    1.729    0.421
        24  -9.8939    224.6143    191.7947   1.0701039320e+02   5.3376132526e-01    0.1675964    0.1184872 -42.62 0.0008799968    1.715    0.417
        25  -9.6188    179.3788    190.2236   1.1520336682e+02   9.1871268357e+00     0.173614    0.1288467 -56.77 0.0009420857    1.677    0.404
        26 -10.5167    138.9386    188.9099   1.2317363546e+02   1.7029208002e+01    0.3524875    0.1896234 -61.16  0.001633154    2.270    0.560
        27 -10.2512    129.2667    188.1403   1.2507104665e+02   1.8923956206e+01    0.2701795    0.1609403 -69.76  0.001300203    2.110    0.526
        28 -10.0385     86.6580    188.3415   1.3404700596e+02   2.5929216508e+01    0.1392526   0.08204658  70.16 0.0007048555    1.777    0.437
        29 -11.0338    162.8232    194.5256   1.1921215209e+02   1.1592003640e+01    0.2441142    0.1952119 -81.30  0.001096831    1.611    0.379
        30  -9.9883    156.3757    187.2119   1.1930204765e+02   1.4089210161e+01    0.1829356    0.1291787 -63.68 0.0009526276    1.737    0.424
        31 -11.3536    120.2942    184.7384   1.2645325269e+02   2.1172450274e+01    0.5812761    0.2222118 -64.76  0.002078341    3.813    0.738
        32 -10.5635     94.3273    186.2952   1.3218133767e+02   2.5169235655e+01    0.2626314    0.1427398 -89.49   0.00117405    2.548    0.608
        33 -10.4146    109.1760    185.5244   1.2892964078e+02   2.2919401386e+01    0.2449652    0.1457745 -88.51  0.001014985    2.292    0.564
        34 -10.0903    203.6803    183.5147   1.0929580409e+02   5.6148194881e+00    0.2250205    0.1240188 -37.62  0.001078431    1.986    0.497
        35 -11.0895    174.0568    182.3657   1.1486448519e+02   1.1540420441e+01    0.3717322    0.2004761 -50.18  0.001703111    2.184    0.542
        36 -12.0403    243.9852    180.9332   1.0158392376e+02  -1.4143982549e+00    0.2929156    0.1716855 -36.76  0.001553176    1.825    0.452
        37 -11.2052    147.8395    180.1282   1.1987558281e+02   1.7017097532e+01    0.3699183     0.201659 -54.99  0.001703969    2.101    0.524
        38 -12.6117    246.1225    191.5898   1.0325888386e+02  -3.1652951428e+00     0.419576    0.2525124 -44.51  0.002154937    2.233    0.552
        39  -9.8464    129.3832    177.2024   1.2333029138e+02   2.1039406257e+01    0.1914117    0.1273628 -70.92 0.0009501252    1.770    0.435
        40 -10.0315    182.5903    174.7179   1.1172741016e+02   1.1178758553e+01    0.2585729    0.1367448 -37.25  0.001146299    2.140    0.533
        41 -10.1482    105.4875    174.9844   1.2821252086e+02   2.5691802008e+01    0.1910205    0.1095925 -89.00 0.0008103603    2.548    0.608
        42 -10.2676     76.3803    175.2206   1.3465028729e+02   3.0170444474e+01    0.1812326    0.1082309 -82.69 0.0005791514    1.716    0.417
        43  -9.8049    177.3281    171.6453   1.1220145289e+02   1.2771303229e+01    0.1427587    0.1108539  83.42 0.0007045979    1.775    0.437
        44  -9.8518    134.4223    171.2397   1.2123321405e+02   2.1293999159e+01    0.1920474     0.132192 -69.64 0.0009507948    1.697    0.411
        45 -10.8801    121.2660    168.5069   1.2368382747e+02   2.4286397190e+01    0.4480773    0.2393523 -71.19  0.001856075    2.573    0.611
        46  -9.3053    205.6689    169.3229   1.0615277072e+02   7.4717796634e+00    0.1335964    0.1118357  87.04 0.0007049919    1.700    0.412
        47  -9.9709    168.3846    169.2191   1.1357915555e+02   1.5014241190e+01    0.1935045    0.1347723 -58.42 0.0006762929    1.720    0.419
        48 -10.4524    138.0091    178.8035   1.2173836985e+02   1.9127588193e+01     0.242864      0.17709 -75.90  0.001145585    1.642    0.391
        49  -9.9233     88.4024    168.2035   1.3104965262e+02   2.9886599829e+01    0.1880871    0.1164685 -79.52 0.0009492891    1.712    0.416
        50 -10.0095    111.4989    167.0099   1.2563644408e+02   2.6338064088e+01    0.1974209    0.1148645 -85.91 0.0008105732    2.595    0.615
        51 -11.0202    139.2072    164.1877   1.1892161572e+02   2.1798455426e+01    0.4971279    0.2648509 -64.42  0.002014391    2.509    0.601
        52 -10.4261     98.9875    166.0165   1.2832408333e+02   2.8670429975e+01    0.2293305    0.1487995  73.59  0.001031579    1.730    0.422
        53  -9.7950    192.0000    163.9791   1.0772463679e+02   1.1127322730e+01    0.2271989   0.08150008 -40.35 0.0008082122    2.983    0.665
        54  -9.9322    159.7068    164.1911   1.1444419935e+02   1.7716625935e+01    0.2225784    0.1829889 -78.40 0.0008968207    1.450    0.311
        55 -10.1612     79.1901    163.3500   1.3247349254e+02   3.2330135708e+01    0.2910326    0.1404336 -88.53  0.001085863    3.414    0.707
        56 -10.1476    205.0000    162.0475   1.0479136426e+02   8.7946967150e+00    0.2254386   0.07988027 -38.25   0.00080582    2.966    0.663
        57 -10.0370    178.0159    160.9857   1.0994693840e+02   1.4549828132e+01    0.2294116    0.1796772  84.91   0.00113377    1.735    0.424
        58 -10.1232    151.8501    160.6026   1.1545094664e+02   2.0007509998e+01    0.2853166    0.1924167 -69.14  0.001312431    1.928    0.481
        59 -10.0750     92.4951    160.0060   1.2890183520e+02   3.1028715587e+01    0.1972735    0.1096485 -88.73 0.0008105586    2.597    0.615
        60  -9.7080    128.4707    158.9757   1.2038514077e+02   2.4937218012e+01    0.2017466    0.1225161 -80.57  0.000809797    2.556    0.609
        61 -10.3388    196.5494    157.2823   1.0543294415e+02   1.1341762754e+01    0.3523153    0.1684397 -52.89  0.001302794    3.007    0.667
        62 -10.4555    168.0112    157.5268   1.1133979364e+02   1.7279454375e+01    0.2750373    0.2096504 -68.41  0.001362175    1.634    0.388
        63 -10.5067    105.2116    157.6572   1.2554675151e+02   2.9436015727e+01     0.307887    0.2046698  85.22  0.001477148    1.840    0.457
        64 -10.5575    119.3303    154.9268   1.2175952605e+02   2.7510246059e+01    0.4127379    0.2411598 -77.23  0.001698481    2.475    0.596
        65  -9.9024    144.9372    154.9431   1.1587642483e+02   2.2541698082e+01    0.2402019    0.1759648  81.76  0.001133824    1.753    0.430
        66 -10.5914    133.2139    152.3973   1.1805164843e+02   2.5404024772e+01    0.4769994    0.2586935 -66.75  0.001885524    2.530    0.605
        67 -10.4058     81.4045    154.2306   1.3064167666e+02   3.4023120646e+01    0.1938065    0.1174587 -78.13 0.0009531466    1.720    0.419
        68 -10.1616    190.1510    150.7682   1.0531287712e+02   1.3839735969e+01    0.3212031    0.2193481  87.02  0.001289614    2.755    0.637
        69 -11.2145    249.0000    149.0860   9.4215405833e+01   2.1154573697e+00    0.3809075   0.07113939 -33.68  0.001069435    5.100    0.804
        70  -9.7061     98.3232    150.6608   1.2600247553e+02   3.2144863922e+01    0.1480315   0.09968788  76.90  0.000705089    1.721    0.419
        71 -10.8745    200.0241    148.0037   1.0274631497e+02   1.2217293487e+01    0.4458218    0.2235367 -48.27  0.001791729    2.341    0.573
        72  -9.5262    234.0000    146.9620   9.6266693434e+01   5.3395791956e+00    0.2225166   0.07536807 -34.45 0.0007885501    2.890    0.654
        73 -10.8879    107.2742    145.2815   1.2286900081e+02   3.1803795487e+01    0.5830277    0.3312705  81.23  0.002115898    3.286    0.696
        74 -11.1852    148.5848    143.5979   1.1271187548e+02   2.4118815299e+01    0.6240773    0.3167847 -60.72  0.002307778    2.703    0.630
        75 -10.0230    165.8179    144.0186   1.0894852412e+02   2.0358344917e+01    0.2440914    0.1739403 -75.00  0.001075963    1.980    0.495
        76 -10.8807    124.5923    142.0241   1.1802579554e+02   2.9308056479e+01     0.571613    0.2868099 -68.51  0.002006678    3.144    0.682
        77 -10.2640     87.8700    143.5445   1.2735148875e+02   3.5440946613e+01     0.284356    0.1723125 -81.42  0.001141443    1.946    0.486
        78 -10.0914    182.4000    142.1524   1.0499628615e+02   1.7097485765e+01    0.2133393    0.1385961 -53.01 0.0008589562    1.771    0.435
        79 -10.0155    172.4964    138.4584   1.0625574120e+02   1.9983291084e+01    0.2691233    0.1392473 -53.64  0.001023606    2.358    0.576
        80  -9.9032    198.0439    138.0431   1.0089157548e+02   1.4401764791e+01    0.2361586    0.1877589 -80.82  0.001138166    1.735    0.424
        81  -9.7185    162.5888    135.7944   1.0781759563e+02   2.2694015934e+01    0.2162365     0.142994 -55.70   0.00095275    1.698    0.411
        82 -10.2321    179.8233    133.7594   1.0361006357e+02   1.9252854616e+01    0.2926993    0.1972363 -66.23  0.001234535    2.088    0.521
        83 -10.2188    112.6570    133.3077   1.1918068997e+02   3.3500826305e+01    0.2399638    0.1694401  82.58  0.001108357    1.788    0.441
        84 -10.5808    142.9029    130.6310   1.1116550105e+02   2.8029614277e+01    0.4890819    0.2034992 -50.75   0.00174239    2.554    0.609
        85 -10.9470    131.6714    130.1031   1.1375558519e+02   3.0489301798e+01    0.5898352    0.2845909 -58.41  0.002197073    2.467    0.595
        86 -10.5936     83.0822    131.3575   1.2641962295e+02   3.8973376919e+01    0.3573503    0.2127113 -79.62  0.001351334    2.005    0.501
        87  -9.6503    205.9857    131.4886   9.7827364615e+01   1.3799334565e+01    0.2030613     0.134096  77.03 0.0008099619    2.496    0.599
        88  -9.8249    193.2250    130.4301   1.0007008957e+02   1.6850373876e+01    0.2101259    0.1441836  60.66 0.0009451485    1.632    0.387
        89 -10.4740    168.7848    129.1214   1.0488924209e+02   2.2639568116e+01    0.3889765     0.198843 -51.60  0.001485805    2.235    0.553
        90 -10.6517    152.7851    128.2346   1.0828874782e+02   2.6390359795e+01     0.546129    0.2055872 -50.39  0.001794424    2.973    0.664
        91 -11.1251     98.5995    126.7749   1.2145021249e+02   3.7497965011e+01    0.6832076    0.3133118 -67.81  0.002436759    2.997    0.666
        92 -10.8660    117.8212    125.1202   1.1610397058e+02   3.4347707736e+01    0.4888285     0.312969  83.88  0.001936013    2.536    0.606
        93 -10.3757    179.7732    124.6558   1.0144634891e+02   2.1000509808e+01    0.3037955     0.253294 -65.14   0.00128455    1.367    0.269
        94 -10.2571    158.2943    120.8937   1.0524749016e+02   2.6664186297e+01    0.3459084    0.2345577 -65.02  0.001473185    1.875    0.467
        95 -10.9662    141.5363    117.9437   1.0847677936e+02   3.1011292824e+01    0.7032772    0.3187473 -57.97  0.002316817    3.069    0.674
        96 -10.5908    130.6172    118.1694   1.1123410554e+02   3.3296708452e+01    0.4938074    0.2915772 -70.61  0.001841249    2.622    0.619
        97 -10.2909    193.4292    115.7194   9.6433125545e+01   1.9491832827e+01    0.2951769    0.1428038 -42.19  0.001127034    2.078    0.519
        98  -9.9960    186.1399    115.8527   9.7935870576e+01   2.1181845436e+01    0.2922517    0.1751446 -45.75  0.001026356    1.726    0.421
        99 -11.2622    108.8433    112.9649   1.1565530621e+02   3.8781258583e+01    0.7498122    0.3190313 -60.09  0.002577943    2.933    0.659
       100 -11.1975     92.2038    110.6958   1.1970288535e+02   4.2261416403e+01    0.8561832    0.2633247 -57.66  0.002699333    3.526    0.716
       101 -10.7664     78.7516    112.1882   1.2382964850e+02   4.4059459459e+01    0.5179009    0.2750018 -81.97  0.001863681    3.385    0.705
       102 -10.7394    121.9963    112.0699   1.1194841254e+02   3.6404565531e+01    0.4136744    0.2025441 -53.19  0.001604458    2.107    0.525
       103  -9.9985    174.7472    111.5424   9.9223903673e+01   2.4694653932e+01    0.3358724     0.177179 -51.14  0.001269036    2.163    0.538
       104 -10.4618     14.6694    110.5539   1.4177673163e+02   5.1450626543e+01    0.2740858    0.1329947  73.55  0.001335892    2.558    0.609
       105 -10.3075    133.2752    109.0779   1.0829141107e+02   3.4689885244e+01    0.3602318    0.1778582 -58.35  0.001270269    2.612    0.617
       106  -9.6410    183.0000    109.0260   9.6832826622e+01   2.3205688405e+01    0.2571948   0.08812163 -38.18   0.00080162    2.937    0.659
       107  -9.9382    189.4344    107.7572   9.5194811577e+01   2.1898763643e+01    0.3085288    0.1429376 -42.42  0.001139824    2.163    0.538
       108 -10.6525    139.6620    104.0256   1.0536219090e+02   3.4354891648e+01    0.4683577    0.2791224 -60.86  0.001845275    2.126    0.530
       109 -10.5991    149.9548    102.1042   1.0233642228e+02   3.2405421798e+01    0.6033296    0.1870899 -48.85  0.001694915    3.803    0.737
       110  -9.9287    172.4968    120.9984   1.0210466639e+02   2.3386489166e+01    0.2391096    0.1517862 -42.91 0.0009947128    1.603    0.376
       111 -10.9491    128.5246    101.2592   1.0745255596e+02   3.7377291963e+01    0.5304874    0.2648911 -51.64  0.002038588    2.103    0.524
       112 -11.6754    108.8289     98.1265   1.1192778404e+02   4.2074495706e+01     0.837356    0.5232345 -74.46  0.003326091    2.477    0.596
       113  -9.1971    175.6645    101.6850   9.6427391903e+01   2.6358555895e+01    0.1615975    0.1234773  15.55 0.0007047058    1.692    0.409
       114  -9.9784     81.6382     99.4074   1.2011455912e+02   4.6545032232e+01    0.3624455    0.1735542 -68.87  0.001304146    3.054    0.673
       115 -10.7273     94.8374     95.2278   1.1516800433e+02   4.5293891690e+01    0.6212189    0.1928105 -48.96  0.002069187    3.002    0.667
       116 -10.0347     63.0455     95.5591   1.2486266955e+02   5.0084116198e+01    0.2769066     0.157352  85.52  0.001032435    3.560    0.719
       117  -9.2851    164.6790     93.6843   9.6613840621e+01   3.0556819661e+01    0.1604714    0.1246753  14.25 0.0007040954    1.659    0.397
       118 -10.4880    138.8309     92.0475   1.0225924387e+02   3.7008045849e+01    0.4497423     0.265878 -61.76  0.001714218    2.311    0.567
       119 -11.5300    124.6144     89.7360   1.0527865495e+02   4.0637628196e+01    0.6968355     0.321668 -49.32  0.002596261    2.240    0.554
       120  -9.5309    151.3218     89.6455   9.8525224389e+01   3.4565122171e+01    0.1647733    0.1233896 -77.15 0.0007046615    1.758    0.431
       121 -10.7992     86.2646     86.5774   1.1543136487e+02   4.8662336360e+01    0.3754565    0.2498312 -79.91  0.001569043    2.251    0.556
       122 -11.4463    104.5716     82.0604   1.0864271948e+02   4.6339584087e+01    0.7206081    0.3171612 -52.71  0.002665553    2.471    0.595
       123 -10.2849    140.8928     82.9613   9.9086778152e+01   3.8337121127e+01    0.2891344    0.2159342 -49.28  0.001236699    1.371    0.270
       124  -9.4577    158.3426     82.6802   9.4867360516e+01   3.4191397172e+01    0.1637957    0.1236414 -78.16 0.0003696506    1.721    0.419
       125 -10.4715    119.4608     80.1807   1.0384992475e+02   4.3695551808e+01    0.3654118    0.2368484 -63.31  0.001534477    2.017    0.504
       126  -9.9833    150.3686     80.2246   9.5974957439e+01   3.6601193405e+01     0.232507     0.139986 -48.20 0.0007946145    1.746    0.427
       127 -11.0612    128.1090     74.6890   9.9819816059e+01   4.2880057194e+01    0.6402632    0.2766222 -48.92  0.002246965    2.587    0.613
       128  -9.4190    157.6606     76.3349   9.3123893216e+01   3.5528871967e+01    0.1649317    0.1225878 -75.25 0.0002241964    1.752    0.429
       129 -10.5187    140.4837     75.0491   9.6774080378e+01   3.9946685213e+01    0.3535433    0.1396435 -44.36  0.001195234    2.595    0.615
       130 -10.2876    115.7824     72.1238   1.0236280210e+02   4.6075366562e+01    0.3927664    0.1865887 -49.69  0.001485463    2.294    0.564
       131 -11.1627     81.8017     70.7045   1.1224531667e+02   5.2779309836e+01    0.6588588    0.1835054 -50.90  0.002071518    3.673    0.728
       132 -10.8363    105.5396     70.7218   1.0486508339e+02   4.8457521102e+01    0.4393264    0.2246519 -49.51  0.001792909    2.032    0.508
       133 -10.9862     94.6853     69.7404   1.0783991838e+02   5.0733187390e+01    0.5818146    0.2225785 -50.43  0.002066564    2.796    0.642
       134 -10.1178    147.0088     67.7953   9.2919645238e+01   3.9695613053e+01    0.2984382    0.1936853 -49.66  0.001286899    1.664    0.399
       135 -10.5560    138.7882     66.1241   9.4358371409e+01   4.1986348897e+01    0.4032514     0.188407 -46.23  0.001483104    2.304    0.566
       136 -10.5917    121.5501     65.3709   9.8571315595e+01   4.6106041004e+01    0.4815847    0.2522343 -45.34  0.001957549    1.956    0.489
       137  -9.4589    203.6770     66.3375   8.1305574492e+01   2.5457043112e+01    0.1624205    0.1122787 -65.87 0.0007050841    1.716    0.417
       138 -10.6620    109.9782     62.9132   1.0099631676e+02   4.9053727270e+01    0.4102353    0.2029438 -45.12  0.001660636    2.036    0.509
       139 -10.6069    100.0038     59.5094   1.0280334342e+02   5.1706258328e+01    0.4402447    0.2154257 -52.84  0.001692534    2.561    0.609
       140 -10.2588    100.4439     54.6604   1.0097158531e+02   5.2507412971e+01    0.2743846    0.2187754 -17.91 0.0008056143    1.304    0.233
       141 -10.9706     72.7679     57.3261   1.1098030837e+02   5.6910246491e+01    0.6533127    0.1590824 -49.62  0.001960767    4.336    0.769
       142 -10.4085    130.7422     57.2099   9.3407134455e+01   4.5454901747e+01    0.3386721    0.1743393 -38.86  0.001367257    1.934    0.483
       143 -10.0035    139.5343     56.0079   9.0833269829e+01   4.3550394094e+01     0.235401     0.148333 -35.20   0.00103195    1.599    0.375
       144 -10.7394    119.2069     55.2768   9.5773942545e+01   4.8432870373e+01    0.3741093    0.2476904 -52.83  0.001414197    1.763    0.433
       145 -10.4290    105.5027     52.1800   9.8564000268e+01   5.1919912391e+01    0.3821267    0.1914558 -41.87   0.00160203    1.981    0.495
       146 -11.2745     91.9331     48.5458   1.0141300229e+02   5.5241850265e+01    0.6096652    0.1882132 -42.17  0.002090177    3.148    0.682
       147 -10.2754    129.8652     47.5294   9.0261325305e+01   4.7252547882e+01    0.3351591    0.1756614 -17.03  0.001217491    2.755    0.637
       148 -10.4055    122.4200     44.3777   9.1020791772e+01   4.9492326043e+01    0.4178506    0.1744626 -33.28   0.00157167    2.405    0.584
       149 -10.2399     81.6514     45.0323   1.0349330904e+02   5.7725821852e+01    0.3307572    0.1196999 -40.50  0.001265452    2.598    0.615
       150 -10.3671    112.6991     44.8961   9.3828898386e+01   5.1602034127e+01    0.5725929    0.2310101 -25.63  0.001910946    3.311    0.698
       151 -11.1150    105.7862     39.9139   9.3910161600e+01   5.3881171843e+01    0.4302797    0.1888501 -34.04  0.001730144    2.247    0.555
       152 -11.4787    166.6355    248.3995   1.2613946136e+02   2.7950390657e+00    0.2716268    0.1687722  33.95   0.00153383    1.430    0.301
       153 -10.5488     95.3150     36.5186   9.5717401203e+01   5.6566066417e+01    0.3597804    0.1872764 -33.23   0.00162084    1.873    0.466
       154 -10.0649    101.4641     28.0292   9.0438059315e+01   5.6535766528e+01    0.2156298    0.1314446 -28.16     0.001044    1.631    0.387
       155  -9.9778    119.3039     32.4968   8.7373664422e+01   5.1957636324e+01    0.2576464    0.1280981 -29.64  0.001078774    2.044    0.511
       156 -10.4328     91.4140     24.7218   9.2061769280e+01   5.9056955787e+01    0.4261185    0.1206893 -32.75   0.00148335    3.384    0.704
       157  -9.4897     44.4332     25.5067   1.0991270673e+02   6.6591226856e+01      0.12335   0.09946056 -21.69 7.415577e-05    1.017    0.017
       158 -10.4425     58.6309     22.1924   1.0253095817e+02   6.5175691617e+01    0.1733657    0.1031206 -25.74 0.0002602499    1.577    0.366
