#   1 NUMBER                 Running object number                                     
#   2 MAG_AUTO               Kron-like elliptical aperture magnitude                    [mag]
#   3 X_IMAGE                Object position along x                                    [pixel]
#   4 Y_IMAGE                Object position along y                                    [pixel]
#   5 X_WORLD                Barycenter position along world x axis                     [deg]
#   6 Y_WORLD                Barycenter position along world y axis                     [deg]
#   7 A_WORLD                Profile RMS along major axis (world units)                 [deg]
#   8 B_WORLD                Profile RMS along minor axis (world units)                 [deg]
#   9 THETA_WORLD            Position angle (CCW/world-x)                               [deg]
#  10 FWHM_WORLD             FWHM assuming a gaussian core                              [deg]
#  11 ELONGATION             A_IMAGE/B_IMAGE                                           
#  12 ELLIPTICITY            1 - B_IMAGE/A_IMAGE                                       
         1  -7.3155    144.4043      8.4680   5.7128816097e+01   4.7859212603e+01    0.1364588    0.1248697  47.43 9.277943e-05    1.027    0.027
         2  -9.4645      4.4004    248.8444   1.3829258500e+02   2.3575755724e+01    0.2363604    0.1823829  78.65  0.001682717    1.251    0.201
         3  -8.9177     34.0350    249.7101   1.3372702563e+02   2.0444999977e+01    0.1842416    0.1223098  86.92  0.001436781    1.346    0.257
         4 -10.6465    173.2699    242.7914   1.0874919924e+02   2.3658612623e+00    0.3740078    0.2197326  31.81   0.00223207    1.454    0.312
         5  -8.1042    246.5739    243.1451   9.6188998356e+01  -8.4315657194e+00    0.1629387    0.1175082  27.84 0.0004414797    1.239    0.193
         6 -10.2082    184.4063    240.7839   1.0648239492e+02   9.1351586854e-01    0.2553705    0.2166327 -20.25  0.001850226    1.380    0.275
         7 -10.2848    183.3042    237.2716   1.0618816617e+02   1.5444896869e+00    0.3619848     0.207202  18.44  0.001909001    2.172    0.540
         8  -9.5063    171.5921    236.3715   1.0818695436e+02   3.4994015733e+00    0.2597476    0.1541911 -54.11  0.001476404    2.372    0.578
         9  -8.1353    194.4711    241.4869   1.0479420626e+02  -7.1708856711e-01    0.1188954   0.09126742  25.73 0.0008094742    1.042    0.040
        10  -7.5828    209.6772    233.7011   1.0096574314e+02  -2.0703090570e+00    0.1212103   0.07655547  14.11 0.0002725808    1.626    0.385
        11  -9.1348    184.7819    230.9810   1.0501586592e+02   2.1565696078e+00    0.1843565    0.1174916  21.07   0.00105987    1.612    0.380
        12  -9.4518    198.1152    227.8282   1.0212266413e+02   4.6794247857e-01    0.3305212    0.1281819 -36.14  0.001541181    3.046    0.672
        13  -9.9953    140.4219    229.9186   1.1312441961e+02   9.3721289125e+00    0.2163611    0.1928353  51.17 0.0004155331    1.105    0.095
        14  -8.1485      1.7511    227.9861   1.3791918707e+02   2.7363268902e+01    0.1267157   0.06643254 -87.20 0.0008870735    1.587    0.370
        15  -9.2599      9.1482    225.8840   1.3662250863e+02   2.7058876360e+01    0.1894975   0.09646377  83.66  0.001276982    1.610    0.379
        16  -8.5638    190.7963    224.4009   1.0292751943e+02   2.0954041130e+00    0.1832964   0.09665563  31.53 0.0009551499    1.691    0.409
        17  -8.0537    217.4395    220.5058   9.7501848899e+01  -1.6207497089e+00    0.1229592   0.09665027  16.77 7.319433e-05    1.033    0.032
        18  -8.9471     12.9712    219.4602   1.3567871690e+02   2.7860894756e+01    0.1724812    0.1194885 -75.14  0.000488292    1.489    0.328
        19  -7.5345    142.2605    215.4140   1.1085016468e+02   1.1427365162e+01    0.1741421    0.1022752  47.91 0.0006632016    1.509    0.337
        20  -8.3297      5.1293    212.6125   1.3669748972e+02   2.9847713915e+01    0.1183597    0.0951439  29.68 0.0009348641    1.735    0.424
        21  -7.1046    224.4600    210.4660   9.4564400605e+01  -1.4371014293e+00    0.1226918    0.1013978  16.05 1.705577e-05    1.062    0.058
        22  -9.0488    249.3655    200.5384   8.8523656492e+01  -4.0448159175e+00    0.2305631    0.1871509  12.71 0.0003553931    1.099    0.090
        23  -9.3340    247.4528    182.5251   8.5439380033e+01  -1.4418395410e+00    0.2925334      0.26252 -59.56 0.0009659649    1.783    0.439
        24  -7.2492    160.7180    180.9850   1.0159603082e+02   1.4244250309e+01    0.1611883    0.1233928 -42.98 0.0005031275    1.420    0.296
        25  -9.1638    235.5214    177.5580   8.6491995911e+01   1.2114633058e+00    0.2941509    0.2216414  43.69   0.00173079    1.483    0.326
        26  -7.1001     18.4176    177.5740   1.3215605048e+02   3.5594279508e+01    0.1140899   0.08625731  80.68 0.0001309843    1.024    0.023
        27  -9.1756    236.3851    172.6923   8.5368477761e+01   1.7553347744e+00    0.2728277     0.226452  18.86 0.0002565073    1.111    0.100
        28  -8.3780    236.6341    167.9975   8.4370298463e+01   2.3880269981e+00    0.2097003    0.1703508  23.94  0.001266813    1.164    0.141
        29  -9.2891     90.8681    169.3459   1.1521243597e+02   2.8638667130e+01    0.2225969    0.1971291 -78.36 0.0002134687    1.101    0.092
        30  -8.3090    157.2176    168.1661   9.9948915771e+01   1.7294099780e+01    0.2212672    0.2032606  20.26 0.0003167917    1.084    0.077
        31  -7.0120     17.2791    169.3005   1.3178016030e+02   3.7449088250e+01    0.1049045   0.07714333 -58.00 0.0001650251    1.543    0.352
        32  -7.4942    246.0212    167.9549   8.2771857430e+01   7.8243568573e-01    0.1776949    0.1587968 -55.61 0.0004915651    1.625    0.385
        33 -10.2667    204.3275    165.2265   8.9683158799e+01   8.7299555705e+00    0.2520624    0.2335702  15.67  0.000301311    1.080    0.074
        34  -7.0378    103.3885    162.2857   1.1116805656e+02   2.8199096219e+01     0.134824    0.1095548  -6.66 0.0007007048    1.751    0.429
        35  -9.0019     90.3265    153.8465   1.1292198861e+02   3.2146264278e+01    0.2991118    0.2329556  10.78 -0.0001541599    1.787    0.440
        36  -7.2260    134.4859    149.5101   1.0139216298e+02   2.5416367303e+01    0.1435312    0.1397226  55.32 4.599763e-05    1.003    0.003
        37  -8.9166    224.0674    147.9989   8.2320646867e+01   7.7351024849e+00    0.2068504    0.1864272  14.86   0.00122266    1.078    0.072
        38  -7.9416    209.7911    147.4599   8.4819086230e+01   1.0620610233e+01    0.2725037    0.1901105 -34.17   0.00137778    1.403    0.287
        39  -7.8408    152.1811    145.6202   9.6450340421e+01   2.2737274572e+01    0.2287479    0.1934914 -53.99 0.0003568362    1.250    0.200
        40  -7.4200    156.7926    141.1915   9.4420678704e+01   2.2691477994e+01    0.1945917    0.1694004  -0.10  0.001010335    1.274    0.215
        41  -6.9787    250.7298    135.3762   7.5063772335e+01   4.6574179265e+00    0.1320089   0.09807251 -51.38 0.0006995695    1.684    0.406
        42  -6.8701     15.9698    130.7614   1.2862156909e+02   4.6112340268e+01    0.1238097     0.101422  32.60 0.0002877908    1.493    0.330
        43  -7.2117     17.5159    126.9900   1.2780924833e+02   4.6856101247e+01    0.1755363   0.09769764 -74.95 3.111008e-05    1.453    0.312
        44  -7.9078    244.4703    126.4711   7.4044925970e+01   7.1627519098e+00      0.13822     0.120464 -13.93 0.0002170437    1.012    0.011
        45  -7.0148    190.2886    125.3471   8.3468470184e+01   1.8583997587e+01    0.1548137    0.1153934   2.95 0.0003425015    1.658    0.397
        46  -8.6432    241.7923    122.6605   7.3593630769e+01   8.2633206360e+00    0.2064324    0.1626791  22.35 0.0008766366    1.346    0.257
        47  -7.2978    180.0327    122.7322   8.4937020874e+01   2.1322948954e+01    0.2038582    0.1893891  45.12 0.0003514966    1.106    0.096
        48  -8.5257    166.7262     99.9220   8.1854409888e+01   2.8681886851e+01    0.2375948     0.214046  42.01 0.0002992866    1.120    0.107
        49  -7.6913    129.4490     98.1021   9.0310459629e+01   3.7417894585e+01    0.2227832    0.1993451  40.68 0.0003804675    1.141    0.123
        50  -9.6659    222.8571     93.2622   6.9499281497e+01   1.6852810820e+01    0.2828508    0.2565777 -25.18 0.0003554062    1.032    0.031
        51  -8.3724    227.6805     89.2260   6.7730667551e+01   1.6419349175e+01    0.2914645    0.2388884   9.26 0.0008748975    1.397    0.284
        52  -7.2823    128.4907     89.9538   8.8236827058e+01   3.9299359249e+01    0.2305413    0.1483308 -39.62 0.0006260409    1.524    0.344
        53  -7.4060    156.4838     85.0000   7.9909076339e+01   3.3895049196e+01    0.3503461   0.08837697  51.52 0.0009442528    4.012    0.751
        54  -8.7144    109.8603     79.9233   9.0365073779e+01   4.5222051198e+01    0.2901921    0.2378561  81.24  0.001432149    1.619    0.382
        55  -7.2008     18.5104     79.5599   1.2055823197e+02   5.7688261392e+01    0.1246446   0.09724497 -55.75 9.211684e-05    1.055    0.053
        56  -7.2960    249.2708     76.3540   6.1565686220e+01   1.3685696340e+01    0.1706718    0.1295531  79.68 0.0004397102    1.598    0.374
        57  -7.8725    166.9632     73.1062   7.4094913040e+01   3.3483981996e+01    0.2265994    0.2192276   4.30 0.0005360012    1.038    0.036
        58  -8.1234    141.3969     62.3043   7.6370375268e+01   4.1532261150e+01    0.3779916     0.243594  16.18  0.001202184    2.295    0.564
        59 -10.2946    123.8514     58.3228   7.9412302819e+01   4.6290806765e+01    0.2686224    0.2440057 -23.44 0.0003043222    1.078    0.073
        60  -6.8286     87.3227     58.7106   9.0340021742e+01   5.3685186689e+01    0.1332563    0.1147852 -84.31  0.000317635    1.606    0.377
        61  -7.4860    135.0558     55.3790   7.5577585062e+01   4.4188357575e+01    0.1994941    0.1824753  55.12  0.001066329    1.129    0.114
        62  -7.8925    194.1428     48.8996   6.2030186322e+01   3.0441862626e+01    0.4398063    0.2456843  13.13  0.001449666    3.887    0.743
        63  -9.5498    220.0383     44.6434   5.7280734350e+01   2.4671779863e+01     0.423981    0.3570075  44.07  0.001525692    1.322    0.243
        64  -7.4065    193.1839     37.1708   5.8788531237e+01   3.2248121287e+01    0.1901891    0.1559273 -63.51 0.0002837329    1.253    0.202
        65  -7.6170    166.2435     27.0055   5.9779022390e+01   4.0363312335e+01    0.1871694    0.1838578 -17.30 0.0002888131    1.067    0.063
        66  -7.4249    161.4641     16.4732   5.7120967962e+01   4.2748772866e+01     0.139616    0.1302591 -87.95 -2.023348e-05    1.085    0.078
