#   1 NUMBER                 Running object number                                     
#   2 MAG_AUTO               Kron-like elliptical aperture magnitude                    [mag]
#   3 X_IMAGE                Object position along x                                    [pixel]
#   4 Y_IMAGE                Object position along y                                    [pixel]
#   5 X_WORLD                Barycenter position along world x axis                     [deg]
#   6 Y_WORLD                Barycenter position along world y axis                     [deg]
#   7 A_WORLD                Profile RMS along major axis (world units)                 [deg]
#   8 B_WORLD                Profile RMS along minor axis (world units)                 [deg]
#   9 THETA_WORLD            Position angle (CCW/world-x)                               [deg]
#  10 FWHM_WORLD             FWHM assuming a gaussian core                              [deg]
#  11 ELONGATION             A_IMAGE/B_IMAGE                                           
#  12 ELLIPTICITY            1 - B_IMAGE/A_IMAGE                                       
         1 -14.7254      8.3787    154.2859   1.4350929330e+02   4.1604744564e+01     9.025585     3.305816  67.29   0.04824123    2.627    0.619
         2 -13.4748    193.2505     27.2705   7.1076918152e+01   3.3275998068e+01     1.569896     1.359368  31.57  0.006379792    1.149    0.130
         3 -12.9156      3.1439      7.1948   1.2324563501e+02   7.2978778661e+01     1.051622    0.6047258 -58.94  0.006649402    1.392    0.282
         4 -13.5505    208.3730      7.7030   6.2924001500e+01   3.1266211838e+01     1.617195     1.026211  39.44  0.006865795    1.669    0.401
         5  -8.4953      2.3047    249.3361   1.4807017012e+02   2.6655444869e+01   0.06640571   0.05853106  88.46 0.0007039325    1.669    0.401
         6 -11.4741    244.0751    247.7977   1.1210314263e+02  -2.9969600306e+00    0.2967217    0.1584863  34.15  0.002155403    1.285    0.222
         7 -10.9674    125.5923    250.1418   1.3018881035e+02   1.3082396127e+01     0.367999   0.09895134  41.66  0.001877309    2.691    0.628
         8 -10.4318     35.2016    244.8603   1.4335411550e+02   2.4260737886e+01    0.2767771    0.1975941 -47.41   0.00227617    2.770    0.639
         9 -11.2076    139.5939    250.0944   1.2804482463e+02   1.1226964966e+01    0.3207871    0.1378892  43.23  0.002055147    1.648    0.393
        10  -8.2218     67.2921    250.6821   1.3897746831e+02   2.0113922497e+01   0.09548471   0.04818504  61.82  0.000340081    1.602    0.376
        11  -9.3115     81.1315    248.2317   1.3678204171e+02   1.8855501668e+01    0.1778548   0.09006661  69.53  0.001075348    2.086    0.521
        12  -9.8856    184.2158    238.5675   1.1992333008e+02   6.2147913167e+00    0.1598313    0.0734924  35.42  0.000960041    1.719    0.418
        13 -12.4249      9.8507    206.6744   1.4566156258e+02   3.2291717742e+01    0.6164889    0.3031213  41.98  0.003993682    1.760    0.432
        14 -11.4655    139.1452    245.8756   1.2772427908e+02   1.1769680892e+01    0.3121733    0.1674849  60.33  0.002009425    2.137    0.532
        15  -8.8695     94.3282    216.3823   1.3231405873e+02   2.1653093245e+01    0.1939444    0.1020506  64.25  0.001089156    1.971    0.493
        16  -9.3354    150.5011    229.4995   1.2426443470e+02   1.2115293884e+01    0.1074511   0.08041953  43.21 0.0008106952    1.004    0.004
        17  -9.4187    177.6349    227.3294   1.1961240620e+02   8.3749284299e+00    0.1503382     0.111419  60.20 0.0005687541    1.643    0.391
        18  -8.9611    152.6582    213.0269   1.2200217460e+02   1.3863442984e+01    0.1400074    0.1228961  43.46  0.000338588    1.124    0.110
        19 -12.6911     37.7403    235.2971   1.4256901573e+02   2.5349312814e+01    0.2209667    0.1850439  83.34 0.0008118113    1.385    0.278
        20 -11.5121     63.3443    200.5478   1.3636164326e+02   2.7931070191e+01    0.2094852    0.1840429 -77.48 0.0005355502    1.385    0.278
        21 -11.1698     20.9493    200.3305   1.4359473830e+02   3.2340643288e+01    0.1959873    0.1316213  57.09 0.0004591239    1.174    0.148
        22 -11.0361     17.2584    198.2142   1.4410997370e+02   3.3022174090e+01    0.1961497    0.1255387  60.19 0.0004574364    1.165    0.141
        23  -9.3967    191.9620    193.1184   1.1244296843e+02   1.0110637349e+01    0.4592901    0.2455624 -61.30  0.001486026    8.149    0.877
        24 -11.8286     69.4117    192.1196   1.3459955261e+02   2.8620420025e+01    0.2152609    0.1979934  89.05   0.00051559    1.302    0.232
        25 -10.7775     79.2086    179.0316   1.3153593494e+02   2.9670772857e+01    0.1987061    0.1753982  67.67 0.0003884821    1.127    0.112
        26 -13.1166     66.1473    177.2998   1.3389342090e+02   3.1596391603e+01    0.3884499     0.239353 -47.53  0.001792945    2.294    0.564
        27  -8.6456    102.9001    178.9907   1.2692943461e+02   2.6458829020e+01    0.1795477    0.1164136  67.73 0.0005374815    1.630    0.386
        28 -11.6562     86.6224    169.6752   1.2905053021e+02   3.0375882642e+01    0.5032448     0.471207  40.30  0.003764489    1.293    0.226
        29  -9.9943     98.6506    153.1587   1.2439946316e+02   3.1753587704e+01     0.273671    0.2239189 -59.86 0.0009428756    1.292    0.226
        30  -9.1442    101.7779    148.9212   1.2309442905e+02   3.2094652533e+01    0.1727566    0.1655665 -37.18 0.0004560346    1.257    0.205
        31 -11.8894     87.4500    152.6585   1.2674798716e+02   3.3455765839e+01    0.2348973    0.2220293 -48.41 0.0004660256    1.302    0.232
        32 -12.3500     67.2293    143.7376   1.3004501649e+02   3.7871803954e+01    0.6326267    0.3869324  64.71  0.003592048    1.671    0.402
        33 -12.9626     51.2365    217.4327   1.3953972847e+02   2.6599252792e+01    0.9187109    0.7532117  33.52  0.007160107    1.628    0.386
        34  -8.2210    192.2273    143.9937   1.0347702300e+02   1.6702683797e+01    0.1611249    0.1100964 -30.96 0.0004174591    1.549    0.354
        35 -13.9443     43.4014    227.9777   1.4135915762e+02   2.5837332212e+01    0.8108628    0.4136868  52.04  0.003120363    1.406    0.289
        36 -10.4938     97.4181    135.3773   1.2192574544e+02   3.5413424044e+01    0.2166894    0.2102716 -40.86 0.0006350943    1.204    0.170
        37  -9.5656     84.0172    134.8423   1.2495822883e+02   3.7475047911e+01    0.1911437    0.1565643  72.16 0.0008327597    1.165    0.142
        38  -8.5712    183.5782    146.7575   1.0568793248e+02   1.7974315668e+01    0.1687801    0.1276306 -47.20 0.0007546387    1.583    0.368
        39  -9.7618    110.2267    137.7384   1.1939289380e+02   3.2934793201e+01    0.3315044    0.2392272 -13.61  0.001220472    2.357    0.576
        40  -9.8739     54.3079    131.6709   1.3151133171e+02   4.1867642184e+01    0.1458565    0.1160065  25.70 0.0005747916    1.605    0.377
        41  -8.2296    116.3074    130.0004   1.1659109784e+02   3.3438976630e+01    0.2070321   0.09688131 -33.42 0.0007019831    4.096    0.756
        42  -9.0576    107.0864    124.3805   1.1768449914e+02   3.6102024181e+01    0.1756222     0.151369  49.83 0.0004011804    1.149    0.130
        43 -10.7821     53.9936    121.6620   1.3027660803e+02   4.4016268902e+01    0.3914521    0.1376752 -74.45  0.001518897    3.418    0.707
        44  -9.8896    167.8664    112.8633   1.0130631982e+02   2.6655064175e+01    0.2908134    0.2532462 -82.59  0.001010332    1.478    0.323
        45  -9.2552    203.4181    111.7373   9.4032893724e+01   1.9159844781e+01    0.1968306    0.1324166 -14.80 0.0007330733    1.565    0.361
        46 -10.2420    173.4187    221.9270   1.1962768414e+02   9.6193374895e+00    0.2088908    0.1607343  42.89   0.00107522    1.105    0.095
        47 -10.2244    243.1955     82.5994   8.0062874351e+01   1.4386895949e+01    0.2050433     0.119371  41.43  0.000958622    1.741    0.426
        48  -9.4316    156.9055     75.8147   9.3593201507e+01   3.5518413787e+01    0.2422868    0.2022137  15.82 0.0006787421    1.265    0.209
        49 -11.6590      2.9751     63.9019   1.3682148471e+02   6.0907449521e+01    0.5193674    0.2176256  89.82  0.002449557    2.721    0.632
        50 -10.9626      9.6439     63.9057   1.3455514837e+02   6.0547098339e+01    0.1932745    0.1647366  50.33 0.0007545029    1.431    0.301
        51 -10.1369     27.0357     60.1279   1.2776277730e+02   6.0197184341e+01    0.2981777    0.1437565  41.23  0.001556755    2.524    0.604
        52 -10.5836      6.6966     55.4359   1.3418589775e+02   6.2580599009e+01     0.178123    0.1083736  27.89    0.0011338    2.086    0.521
        53 -12.1620      2.3683     37.5590   1.3243924376e+02   6.6699389550e+01    0.5855603    0.2137136 -72.82  0.002795652    2.361    0.576
        54 -10.1051    152.9986    249.0148   1.2588856612e+02   9.5233082756e+00    0.1486567    0.1003165  25.92 0.0004590916    1.604    0.376
        55 -11.0010    100.4351    248.3987   1.3388250639e+02   1.6508010439e+01    0.2900377    0.1759731  39.19  0.002229389    1.447    0.309
