#   1 NUMBER                 Running object number                                     
#   2 MAG_AUTO               Kron-like elliptical aperture magnitude                    [mag]
#   3 X_IMAGE                Object position along x                                    [pixel]
#   4 Y_IMAGE                Object position along y                                    [pixel]
#   5 X_WORLD                Barycenter position along world x axis                     [deg]
#   6 Y_WORLD                Barycenter position along world y axis                     [deg]
#   7 A_WORLD                Profile RMS along major axis (world units)                 [deg]
#   8 B_WORLD                Profile RMS along minor axis (world units)                 [deg]
#   9 THETA_WORLD            Position angle (CCW/world-x)                               [deg]
#  10 FWHM_WORLD             FWHM assuming a gaussian core                              [deg]
#  11 ELONGATION             A_IMAGE/B_IMAGE                                           
#  12 ELLIPTICITY            1 - B_IMAGE/A_IMAGE                                       
         1 -13.6894    177.9659     41.5403   6.6642180723e+01   3.5369772480e+01    0.9250035    0.6471954  -2.63  0.001140867    1.778    0.438
         2 -14.0004    188.4068     32.0830   6.2065612954e+01   3.3887267232e+01     1.021556    0.9852852 -39.92  0.002948157    1.054    0.051
         3 -14.6151    196.6644     20.5392   5.7484073609e+01   3.3105111065e+01     1.135945    0.9183076   0.01  0.001754605    1.442    0.307
         4 -11.7284     50.0034      6.8313   8.6606886730e+01   6.7862886042e+01    0.2079688    0.1219889  12.36  0.001083435    1.999    0.500
         5  -9.8240    114.7643      3.9980   6.5277741193e+01   5.5560566345e+01    0.1716205    0.1110362 -16.86 0.0004274506    1.589    0.371
         6 -11.0504     57.3931      3.2093   8.1782188815e+01   6.7172937538e+01    0.1732902    0.1017895 -33.70 0.0009568714    1.698    0.411
         7 -11.3893     37.8537    226.1990   1.3392866614e+02   2.4903720466e+01    0.1667861    0.1086047  69.52 0.0003293563    1.144    0.126
         8 -12.7166     77.1591    217.1820   1.2644277804e+02   2.1669492156e+01    0.7679261    0.4792092 -87.48  0.004926302    1.651    0.394
         9 -12.3397     86.4402    239.0344   1.2670903426e+02   1.6769288044e+01     0.537685    0.3792812 -54.41  0.002797961    1.937    0.484
        10 -11.8576     59.4043    249.1950   1.3186409987e+02   1.8638563642e+01    0.4360327    0.2235624  45.91  0.001012331    1.539    0.350
        11 -13.1974     70.4377    246.8408   1.2994789809e+02   1.7639126220e+01     0.739473    0.3562015  38.70  0.001767213    1.983    0.496
        12 -15.2704    115.9687    229.0216   1.2063037488e+02   1.4130219207e+01     5.434882    0.9397112  42.54   0.01878796    4.380    0.772
        13 -14.9109    123.2683    247.7741   1.2128830364e+02   1.0232412408e+01     3.319414    0.7113854  38.50   0.01126445    5.136    0.805
        14 -14.7251     53.1949    231.4030   1.3171355189e+02   2.2256959217e+01     1.123346    0.6953436 -74.49  0.008088421    1.663    0.399
        15 -19.3378     11.0540    130.0204   1.3203008117e+02   4.6582468681e+01     16.97219     1.600076 -74.24   0.03771001   10.894    0.908
        16  -9.9747     37.4493    206.7846   1.3275711954e+02   2.8405221905e+01    0.1633857    0.1028147  59.75  0.000476234    1.259    0.206
        17 -12.0194    105.9085    201.6732   1.1940714730e+02   2.0302247652e+01    0.3473056    0.2057173  39.31  0.001945506    1.611    0.379
        18 -13.2445     67.4743    196.4081   1.2631952209e+02   2.6767300625e+01    0.5989837    0.4571001 -86.20  0.002615031    1.212    0.175
        19 -11.9894     37.4117    200.3009   1.3231070737e+02   2.9619195841e+01    0.1832054    0.1359257  69.20 0.0003251255    1.050    0.048
        20 -12.9517    195.8873    195.8920   1.0120563843e+02   5.8217753057e+00    0.7583997    0.5916122  70.65  0.004185716    1.866    0.464
        21  -9.7261     41.6480    228.1691   1.3342075852e+02   2.4143112652e+01    0.1030727   0.05123342  55.96 0.0002598087    1.529    0.346
        22  -9.9831     81.5247    194.8873   1.2341553356e+02   2.5160723646e+01    0.2274759    0.1588997  26.10  0.001332629    1.966    0.491
        23 -11.4180    207.9273    184.6617   9.6985380959e+01   5.2730177247e+00    0.2682086    0.2228461 -25.81  0.001423847    1.291    0.225
        24 -11.5341    211.6068    181.0890   9.5646031070e+01   5.1164348683e+00    0.3352311    0.2192905  19.73  0.001268281    1.641    0.390
        25  -9.6522     66.6886    233.0475   1.2956997902e+02   2.0326070856e+01    0.1349696     0.103557  76.57            0    1.136    0.120
        26 -10.4835    146.8063    185.5910   1.0897375088e+02   1.6356918817e+01    0.1871209    0.1111635  52.08 0.0004378435    1.602    0.376
        27 -10.0345     46.4057    217.9169   1.3194900838e+02   2.5381561864e+01    0.3287019    0.2976739  -0.91  0.002553899    1.967    0.492
        28 -12.0448     79.1639    180.7246   1.2228861456e+02   2.8270222392e+01    0.3396085    0.2455668 -41.83  0.001420823    1.949    0.487
        29 -12.1861     82.7496    175.3957   1.2088096024e+02   2.8841576514e+01    0.2921324    0.2382645 -50.42  0.001347827    1.489    0.329
        30 -10.5102     99.4537    180.5020   1.1801342086e+02   2.5315319709e+01    0.2391768    0.1151415  41.20 0.0007639468    1.948    0.487
        31 -11.1328    197.8307    175.3607   9.7106402020e+01   8.5401971156e+00     0.325654    0.2809183 -53.52  0.001103472    1.446    0.308
        32 -11.6604    137.7505    171.1993   1.0845781999e+02   2.0640168273e+01    0.3420082    0.2519018  82.92   0.00141768    1.742    0.426
        33 -10.9972    203.6181    167.8905   9.4553931398e+01   8.5936848755e+00    0.3770283    0.3298177  60.34  0.002225885    1.371    0.271
        34 -10.5566    141.2264    157.9982   1.0533181242e+02   2.2542936409e+01    0.2239629    0.1878294  50.66 0.0003156156    1.121    0.108
        35 -13.5100     95.6473    242.3253   1.2543624050e+02   1.4994261800e+01    0.9141591    0.7073946  28.41  0.006584389    1.719    0.418
        36 -10.6462    174.8341    149.0761   9.6344221331e+01   1.7529762619e+01    0.2170427    0.1998782  86.51 0.0006700224    1.261    0.207
        37 -11.3860    133.5909    142.3837   1.0398040544e+02   2.7146662704e+01    0.6253616    0.1944443 -55.35  0.001829673    4.407    0.773
        38 -10.2853    143.6690    144.3341   1.0208416611e+02   2.4776679162e+01    0.1488492    0.1127776  83.70 0.0007052171    1.728    0.421
        39 -11.7699    107.2230    141.9142   1.1010925394e+02   3.2071852616e+01    0.5321416    0.3284746 -31.67  0.002322659    2.470    0.595
        40 -12.2105     95.2902    142.5745   1.1310765257e+02   3.3910823893e+01    0.2501478    0.2460677  84.60 0.0006551197    1.149    0.129
        41 -11.2145    114.6858    131.6446   1.0626863473e+02   3.2971929573e+01    0.3229731    0.2710761  -5.44 0.0008043794    1.583    0.368
        42 -10.6437    105.9652    130.9768   1.0829160306e+02   3.4670692019e+01    0.3407947    0.2740194 -89.58  0.001383991    1.360    0.265
        43 -11.1479    102.3952    128.1565   1.0861683950e+02   3.5907078977e+01    0.2857358    0.2251163 -42.29  0.001062006    1.365    0.268
        44 -10.7019    160.7635    127.8974   9.4615751396e+01   2.4488266064e+01    0.2903035    0.2145633 -62.28  0.001369601    1.627    0.385
        45 -11.6468    118.7297    126.5255   1.0418017002e+02   3.3328550641e+01    0.4002602    0.2483206 -32.70  0.001740078    2.096    0.523
        46  -9.7491    125.6629    127.3335   1.0265583162e+02   3.1832542938e+01    0.1522225    0.1136557  84.69 0.0007051992    1.742    0.426
        47 -10.3567    110.0366    120.0835   1.0494886118e+02   3.6334917186e+01    0.2091293    0.2011583 -76.39 0.0003699598    1.015    0.015
        48 -12.4599    116.3235    211.9606   1.1864308550e+02   1.6876169850e+01    0.4047115    0.2524478  81.28  0.001214789    2.148    0.534
        49 -11.7096     63.5163    113.9746   1.1613789273e+02   4.4958726085e+01    0.2249548    0.1921857  -0.25 0.0007303035    1.547    0.354
        50 -10.2949    167.8982    112.7807   8.9342566205e+01   2.5822605770e+01    0.2927029    0.1985509 -66.24  0.001222811    2.086    0.521
        51  -9.9645    205.5431    110.0168   8.1085799547e+01   1.7709297293e+01    0.2256965     0.199258  43.61 0.0006274925    1.149    0.130
        52 -12.3991     58.8142    102.9961   1.1535190500e+02   4.8052694860e+01    0.3680511    0.2239856 -66.34  0.001909866    1.512    0.338
        53  -9.7490     70.2091     72.2136   1.0437122425e+02   5.3358409405e+01    0.1737592    0.1552646 -88.42 0.0004674609    1.327    0.246
        54 -11.0455    168.0977     68.0593   7.6733599465e+01   3.3869309992e+01    0.4066322    0.2918676 -77.50  0.001094704    1.956    0.489
        55 -16.1190     73.0125    150.7681   1.1973845835e+02   3.5427686682e+01     5.395558     2.713607  75.10   0.01459662    3.354    0.702
        56 -10.5567    173.9222    247.8455   1.1274183247e+02   2.5320306090e+00    0.1912267    0.1433012  79.89  0.001248747    2.137    0.532
        57 -12.9297    100.2423    249.6097   1.2529653784e+02   1.3259487653e+01    0.5210201    0.2694193  44.65  0.003323159    1.497    0.332
        58 -11.5679     40.2814    213.2782   1.3269754652e+02   2.6907228334e+01    0.2031143    0.1209206  59.91 0.0008196515    1.314    0.239
        59  -9.7039     95.2380     42.2524   8.6145049127e+01   5.4840031622e+01    0.2316808    0.1026464 -44.83 0.0009041689    2.444    0.591
        60 -13.9138     58.6273    209.7244   1.2916436653e+02   2.5396361490e+01     1.432525     0.514281  54.04  0.006569158    2.429    0.588
        61 -10.4984     44.0634    209.9934   1.3180441356e+02   2.7076327845e+01    0.3047466   0.09778614  56.20  0.001356142    2.808    0.644
        62 -11.3864     36.0903    230.0766   1.3444469774e+02   2.4437495850e+01    0.1936988    0.1297712 -82.04 0.0003726641    1.437    0.304
