#   1 NUMBER                 Running object number                                     
#   2 MAG_AUTO               Kron-like elliptical aperture magnitude                    [mag]
#   3 X_IMAGE                Object position along x                                    [pixel]
#   4 Y_IMAGE                Object position along y                                    [pixel]
#   5 X_WORLD                Barycenter position along world x axis                     [deg]
#   6 Y_WORLD                Barycenter position along world y axis                     [deg]
#   7 A_WORLD                Profile RMS along major axis (world units)                 [deg]
#   8 B_WORLD                Profile RMS along minor axis (world units)                 [deg]
#   9 THETA_WORLD            Position angle (CCW/world-x)                               [deg]
#  10 FWHM_WORLD             FWHM assuming a gaussian core                              [deg]
#  11 ELONGATION             A_IMAGE/B_IMAGE                                           
#  12 ELLIPTICITY            1 - B_IMAGE/A_IMAGE                                       
         1 -12.3187     60.3038     45.1977   9.9103546853e+01   6.0051653862e+01    0.9890308    0.4537462 -49.41  0.004597597    1.895    0.472
         2 -11.7337    124.6979     27.5354   7.2256593975e+01   5.0980840988e+01    0.6407905    0.4768179  40.32   0.00162352    1.328    0.247
         3 -13.4780    118.3436     40.5457   7.8912269441e+01   5.0468833634e+01     1.165256    0.9560097  41.67  0.003442475    1.236    0.191
         4 -10.9431     81.0857     39.7809   8.9840898760e+01   5.7928728693e+01    0.8572044    0.5722362 -11.69  0.004158444    1.962    0.490
         5 -11.6518    178.3163     21.4181   5.9510891822e+01   3.8052677802e+01     0.646172    0.3737648  29.29  0.001851072    2.119    0.528
         6 -12.1563    104.8363     12.8216   7.1160437526e+01   5.7447478198e+01    0.5439195    0.4055468 -29.35   0.00146305    1.319    0.242
         7 -12.4203    105.9776     20.1458   7.4068482044e+01   5.6240904236e+01    0.3419291    0.2647444 -22.32 0.0004013425    1.227    0.185
         8 -11.8822     27.2489     27.9577   1.0648596270e+02   6.7132936219e+01     0.544025    0.4581663  60.08  0.003765543    1.643    0.391
         9 -11.8345     22.5840     11.1570   1.0218941315e+02   7.0726712292e+01    0.5048706    0.3545111 -22.18  0.002385196    1.361    0.265
        10 -12.5677     15.5826     13.5639   1.0671817903e+02   7.0853284785e+01     1.078887    0.4178741 -41.32  0.003879751    2.093    0.522
        11 -11.4464     19.8934     22.7734   1.0802984130e+02   6.8757506736e+01    0.6112392    0.2322374 -52.96  0.003084175    1.960    0.490
        12 -12.8391    238.5213     15.0270   5.0344473171e+01   2.3121049524e+01    0.9104896    0.5280908  62.81  0.002735738    1.746    0.427
        13 -10.8292    145.4247     16.4124   6.3368032216e+01   4.7273229676e+01    0.5514152    0.3174648  55.08 3.667079e-05    1.637    0.389
        14  -9.5912     87.1702      7.3516   7.3714642726e+01   6.1838919643e+01    0.5930133    0.3632462  44.10  0.003060239    1.621    0.383
        15 -11.2854     91.1894     19.8439   7.8283279484e+01   5.9353900802e+01    0.5850239    0.3981468 -29.61  0.001421597    1.368    0.269
        16 -11.2303     86.0505     13.7089   7.7106242130e+01   6.1227393666e+01    0.4460722    0.3028419  -7.56  0.001638775    1.544    0.352
        17 -11.7709     36.4726     18.3702   9.8651198021e+01   6.8050262501e+01    0.6408123    0.3433577 -44.97  0.002587736    1.522    0.343
        18 -12.1586     48.0096     13.1095   9.1143299053e+01   6.7570861649e+01    0.6940238     0.378273  32.72  0.003749695    2.071    0.517
        19 -11.5690     68.3490     17.9181   8.5214640231e+01   6.3778228281e+01    0.5849304    0.4704096  57.23   0.00347628    1.676    0.403
        20 -11.2461    165.1524     17.3800   6.0205424428e+01   4.2007385322e+01    0.4682329    0.2793381  32.69  0.001061577    1.889    0.471
        21 -12.0639    133.5411     15.2083   6.5298510712e+01   5.0413766868e+01     1.532979    0.3963319  59.13  0.004782349    3.510    0.715
        22 -10.9787    126.5213     11.4904   6.5289968599e+01   5.2564719024e+01    0.8300936    0.4117094  78.77   0.00288399    3.497    0.714
        23 -12.3741    245.2252      6.2746   4.7433535635e+01   2.2358764810e+01     1.070438    0.6021333 -86.91   0.00505367    2.051    0.513
        24  -9.8354    191.6255     16.4478   5.5973260156e+01   3.5042564850e+01    0.3719857    0.2463339  -3.02  0.001704059    1.741    0.426
        25 -11.6744    192.3664      7.7161   5.3072748698e+01   3.5722353377e+01    0.7474995    0.4355491  25.40  0.003172973    2.159    0.537
        26 -11.7074    211.8908      9.7118   5.1479074409e+01   3.0375148136e+01    0.5387465    0.3473584   7.01  0.001314404    1.928    0.481
        27  -9.8506     31.8663     11.9736   9.7990843035e+01   6.9683056096e+01    0.1743342    0.1656075 -38.90 0.0006650508    1.321    0.243
        28 -10.2842      5.1691      9.4730   1.1056824162e+02   7.2321083320e+01    0.5145394    0.1636831 -53.08  0.002235587    2.124    0.529
        29 -10.6880    169.3960      9.7795   5.6847940259e+01   4.1674685033e+01    0.4093837     0.231297  42.59  0.001769542    1.797    0.443
        30 -10.5062     66.1033     10.1369   8.2332809332e+01   6.5326723393e+01    0.3232276    0.2056366  39.56  0.001607987    1.675    0.403
        31 -10.1478     62.8864      6.0452   8.1490747161e+01   6.6440004811e+01     0.277389    0.2557339   2.37   0.00180234    1.188    0.158
        32  -9.5786    151.7541      7.8462   5.8946112657e+01   4.6543278628e+01    0.4169698    0.0970115  51.23 0.0009856583    3.494    0.714
        33  -9.9731      1.2683      7.3263   1.1188169980e+02   7.2945901029e+01    0.1676131   0.07495989 -58.94 0.0001932625    1.741    0.426
        34  -9.6027     82.1416      1.2959   7.2265382479e+01   6.3562254029e+01    0.2317096    0.1223407  54.96 0.0004213966    2.088    0.521
        35  -9.8913     77.9415      6.9898   7.6522636283e+01   6.3670123334e+01    0.2917517    0.2597508 -85.26  0.001364881    1.650    0.394
        36 -10.3455     77.4765      3.0066   7.4659444271e+01   6.4259619734e+01    0.2943907    0.2107676   4.51  0.001198681    1.380    0.275
        37 -10.8339    175.8996      5.3543   5.4388328756e+01   4.0358506590e+01    0.6285956    0.2944598  84.69 0.0009434335    2.803    0.643
        38 -11.1601    218.6535      3.1717   4.8888229037e+01   2.9244901723e+01    0.3784302    0.3261491  71.62 0.0009520911    1.152    0.132
        39 -11.7337    223.7759      1.6240   4.7980014444e+01   2.8079046604e+01    0.8690951    0.4017592 -80.28  0.003290746    2.949    0.661
        40 -11.3879    205.2237      2.7595   5.0087489836e+01   3.2773866166e+01    0.4801307    0.3691642  76.07  0.001041294    1.280    0.219
        41  -9.4688    199.1849      5.6588   5.1629273516e+01   3.4102181059e+01    0.2041376    0.1190989  59.23 0.0002678612    1.629    0.386
        42 -10.1482     70.8581      4.0608   7.7492932509e+01   6.5342687993e+01    0.4466507    0.2443918  24.06  0.002106719    2.223    0.550
        43 -10.4716    142.1103      3.4702   5.8923827019e+01   4.9473190667e+01    0.3682176    0.2743038  75.42  0.001867806    1.444    0.307
        44 -11.9426    133.6871      2.6623   6.0148939630e+01   5.1697597040e+01    0.4201543      0.26585  51.60 0.0007973477    1.458    0.314
        45  -9.4926     55.0900      3.9071   8.3491824325e+01   6.7975800999e+01    0.1742906     0.154784 -29.25 0.0003691835    1.267    0.211
        46  -9.9793    162.9799      5.7666   5.6375819734e+01   4.3776968056e+01    0.2650628    0.2123388   2.32 0.0006043768    1.320    0.243
        47  -9.4338    157.7666      2.6534   5.6026556742e+01   4.5451079758e+01     0.200982    0.1818949  18.36  0.001118664    1.105    0.095
        48 -10.9605    105.2685      1.7055   6.5949844787e+01   5.8614387220e+01    0.6635337    0.2367961  63.78  0.002018305    3.367    0.703
        49 -10.6812    113.3242      1.6910   6.4006585380e+01   5.6759338488e+01    0.6065609    0.2477105  71.70   0.00204976    3.773    0.735
        50 -11.0136      3.5010      1.7221   1.0839250150e+02   7.3862605264e+01    0.4035856     0.177253   8.97  0.002206624    3.074    0.675
        51  -9.6681     12.7515      2.0588   1.0329013292e+02   7.3167086582e+01    0.1741136    0.1397277 -13.71  0.000475839    1.249    0.199
        52 -10.7510     42.1861      3.8335   8.9102837781e+01   6.9813902789e+01    0.4618519    0.2401864 -16.59  0.002172717    2.550    0.608
        53  -9.5206    123.1706      1.1205   6.1594164256e+01   5.4455436352e+01    0.3507023    0.0970851  66.03  0.001050665    4.121    0.757
        54 -10.5073     70.7874    151.4010   1.1797961275e+02   3.6055539282e+01    0.2250239    0.1757115 -86.38  0.001232666    1.151    0.131
        55 -11.0570     47.1590    146.4725   1.2262404932e+02   3.9871441519e+01    0.4366122     0.245068 -80.13  0.002405825    1.611    0.379
        56 -10.0362     47.9476    151.8472   1.2299932641e+02   3.8697654366e+01    0.2070266    0.1600667 -49.01 0.0009181447    1.692    0.409
        57 -10.3327     44.1536    150.3266   1.2366766980e+02   3.9413861141e+01     0.394094    0.1839163  60.78  0.002108744    2.148    0.535
        58 -12.0174      4.4607    147.1286   1.3180508726e+02   4.3632037899e+01    0.5397357    0.3353312 -75.10  0.003458357    1.393    0.282
        59 -11.9960      3.9073    136.6788   1.3127533290e+02   4.5748493463e+01    0.2489173    0.1655304 -71.87 0.0002998481    1.362    0.266
        60 -10.4585      1.7163    142.6750   1.3211031842e+02   4.4710188273e+01    0.1840383    0.1017174 -83.18 0.0006006471    1.402    0.287
        61 -10.9699      5.0573    141.4799   1.3133588221e+02   4.4704642713e+01    0.2412004    0.1758614  42.22  0.001770438    1.529    0.346
        62 -11.2527     62.4788    149.9132   1.1962682149e+02   3.7402018525e+01      0.46095    0.3470213  66.13  0.002499302    1.176    0.150
        63  -9.5672    214.6834    151.3600   8.8432185612e+01   1.0643727728e+01    0.1249158    0.1074527 -78.91 0.0007043175    1.758    0.431
        64  -9.7743     85.5013    150.0270   1.1455779863e+02   3.4328711926e+01    0.1825175    0.1139224 -66.02 0.0007425823    1.578    0.366
        65 -10.5005     56.1471    148.9171   1.2090626325e+02   3.8360698065e+01    0.1827911    0.1322672  75.13 0.0003160808    1.219    0.180
        66 -11.2436    249.7025    143.1434   8.0908906901e+01   5.0198199263e+00    0.6207624    0.2102568 -28.71  0.002523182    2.874    0.652
        67  -9.9551    239.9557    146.6803   8.3198868803e+01   6.4086968812e+00    0.1856117    0.1504664  30.38 0.0007114339    1.133    0.117
        68 -10.1328    107.9735    146.1415   1.0898298974e+02   3.1667804277e+01    0.2203351    0.1812328  43.12  0.001151581    1.233    0.189
        69 -10.6804     33.0849    144.2836   1.2550735860e+02   4.1761315757e+01    0.2427442    0.1764951  70.36 0.0007747725    1.173    0.148
        70  -9.8728    133.6588    140.5857   1.0232538402e+02   2.8276870838e+01    0.2660631    0.2068946 -20.65  0.001403333    1.751    0.429
        71 -10.5746     14.3612    133.4937   1.2874506739e+02   4.5609354441e+01    0.2882517     0.164337  48.13  0.001913947    1.700    0.412
        72 -11.0124     14.4856    140.4843   1.2924994402e+02   4.4177304812e+01    0.2039179     0.165293 -81.96  0.001325093    1.196    0.164
        73 -11.2528     11.1218    138.0965   1.2980687519e+02   4.4925476078e+01    0.3587636    0.1566239 -84.82    0.0020626    1.899    0.473
        74  -9.6966     33.3913    138.2030   1.2486955022e+02   4.2978267060e+01    0.1956579    0.1419643  75.42   0.00135885    1.173    0.147
        75 -12.0761     22.6533    135.7178   1.2706473683e+02   4.4468076064e+01    0.6176705    0.2870674  53.93  0.003582896    2.036    0.509
        76 -11.7493     29.7869    132.8353   1.2517283523e+02   4.4430131572e+01    0.4291353    0.2623887  89.69 0.0004624541    1.408    0.290
        77 -10.9013     46.7458    134.4282   1.2139838546e+02   4.2406999807e+01    0.3828726    0.2769103  86.50  0.002531058    1.203    0.169
        78  -8.6954    216.6971    135.2992   8.4680054961e+01   1.2470888918e+01    0.1251328    0.1108117 -77.35 0.0002827442    1.585    0.369
        79 -11.2605     92.7403    130.5171   1.0989413938e+02   3.7243309970e+01    0.5749468    0.2859355 -59.04  0.002747061    1.968    0.492
        80 -11.0505     70.2063    134.6126   1.1589845019e+02   3.9580160064e+01     0.355678    0.1986877  35.36  0.001899908    1.977    0.494
        81  -9.7404     62.5516    132.2080   1.1738263071e+02   4.1054907194e+01    0.2993149    0.1006276 -62.25  0.001297591    2.635    0.621
        82 -10.8817     10.5952    127.4642   1.2912559565e+02   4.7138619459e+01    0.3890435    0.1644133 -59.99  0.001633068    2.223    0.550
        83 -10.6971    239.0025    124.0116   7.8410994870e+01   9.4715937834e+00    0.4822455    0.2316357 -17.96  0.002028177    2.391    0.582
        84 -10.2035     18.6906    124.5331   1.2698595719e+02   4.7122419495e+01    0.3321557     0.117204 -65.64  0.001705899    2.272    0.560
        85 -11.1147     55.4592    123.3219   1.1788466138e+02   4.3793464878e+01    0.5068604    0.3151705  32.05  0.002212643    1.893    0.472
        86 -10.4728     45.8582    120.6657   1.1992077217e+02   4.5427196179e+01    0.3474838    0.1983295  69.38  0.001386262    1.933    0.483
        87 -10.4729     80.6176    136.0374   1.1365322015e+02   3.7873871936e+01    0.4046367    0.3145222 -11.02   0.00227569    2.177    0.541
        88  -9.8590      2.1021    125.5646   1.3092936515e+02   4.8129592343e+01    0.2490554    0.1278108  80.97  0.001556688    1.652    0.395
        89 -10.5055     82.2824    124.5058   1.1141342567e+02   4.0060825205e+01    0.4805389    0.2668267  23.05  0.002129484    2.954    0.661
        90 -11.6410    104.6238    121.6204   1.0539705684e+02   3.7187744755e+01    0.4412928    0.3795114 -68.95  0.001396276    1.129    0.115
        91  -8.9239     40.6638    122.2628   1.2141541255e+02   4.5619962208e+01    0.1191228   0.07518125  68.68 0.0003854156    1.583    0.368
        92  -9.8561      4.2395    121.2113   1.3011824846e+02   4.8882866967e+01    0.2265434    0.1310245  65.59  0.001245799    1.576    0.365
        93  -9.6413    221.4793    120.5142   8.0502730472e+01   1.3565087527e+01    0.1399892    0.1270182  10.96 0.0001211078    1.020    0.020
        94  -9.8920    149.3869    119.0668   9.4361297881e+01   2.9271103686e+01    0.4402301    0.2478999  24.49  0.001638256    3.013    0.668
        95  -9.3073     72.8423    119.7010   1.1296843243e+02   4.2401158387e+01    0.1731106     0.159767   9.84 0.0005003563    1.412    0.292
        96 -10.7342     34.1933    119.4075   1.2268039439e+02   4.6860992000e+01    0.2126913    0.1404022 -74.58  0.001081212    1.258    0.205
        97 -12.0502     35.7308     93.1740   1.1869686888e+02   5.2437140039e+01     1.595667    0.9364727  75.81  0.007675724    2.049    0.512
        98 -11.6434     18.9923    105.7880   1.2501519175e+02   5.1088880108e+01    0.4062133    0.1816834 -57.87 0.0003543824    1.986    0.497
        99 -12.2355      9.2519     96.1216   1.2657059193e+02   5.3862692134e+01    0.7271527    0.4252397  64.90  0.004577719    1.769    0.435
       100 -12.2749      7.5415     89.0188   1.2626018991e+02   5.5503690475e+01    0.4191733    0.3713616  77.72  0.003325433    1.220    0.181
       101 -11.1859     37.5786     85.9457   1.1694913866e+02   5.3860623235e+01    0.3322663    0.2830012  69.36  0.001652143    1.253    0.202
       102 -11.4346     43.3983     85.4812   1.1510378489e+02   5.3395155882e+01    0.4237297    0.2944615  12.75  0.001946559    2.019    0.505
       103 -11.9673     28.4807    113.0244   1.2337748200e+02   4.8750789618e+01    0.7526479    0.4014444  19.99  0.004170266    2.699    0.630
       104 -11.3915     21.7879    114.2407   1.2521478368e+02   4.9052595152e+01    0.3523032    0.2539164  -4.15  0.001303222    2.265    0.558
       105 -12.8201     25.4887    107.5085   1.2350286478e+02   5.0197787506e+01    0.9295832    0.5528863 -45.90  0.004183939    1.983    0.496
       106 -12.2222     19.9116     95.7929   1.2357608243e+02   5.3186724826e+01    0.5373824     0.435066  34.47  0.002688439    1.515    0.340
       107 -12.7251     18.0619     90.3936   1.2340514091e+02   5.4501209502e+01    0.4472127    0.2873812 -51.34 0.0005375689    1.549    0.355
       108  -9.5148    113.6977    115.9850   1.0203065264e+02   3.6781458843e+01     0.190432    0.1723048 -62.58 0.0003754438    1.091    0.083
       109 -10.4873     67.1348    112.0788   1.1315717085e+02   4.4802120362e+01    0.4605026     0.238846 -68.48  0.002275702    1.855    0.461
       110  -9.8370      7.0497    114.5168   1.2890682601e+02   5.0089860047e+01      0.18317     0.138036  70.08  0.001294043    1.224    0.183
       111 -11.4376      2.4542    112.1333   1.2983708383e+02   5.0891743479e+01    0.3191544    0.1806335 -79.83 0.0008514737    1.345    0.256
       112 -12.0859      3.9429    105.2476   1.2887804356e+02   5.2249730898e+01    0.3881116    0.2814428 -89.81  0.001013045    1.074    0.069
       113  -9.5086     87.3474    114.3133   1.0830911044e+02   4.1488166527e+01    0.3217811    0.1657413  57.03  0.001428208    2.347    0.574
       114 -11.1552     79.5289    108.6474   1.0926248634e+02   4.3861690444e+01     0.644533    0.3874358  48.41   0.00294684    1.735    0.423
       115 -10.9804     87.0536    104.5035   1.0643076749e+02   4.3641615736e+01    0.7159038     0.255999  35.97  0.002705293    3.250    0.692
       116  -9.0203    126.9714    113.7477   9.8326974844e+01   3.4773785228e+01    0.1830505    0.1180726  44.94 0.0008753883    1.535    0.349
       117 -10.6329    107.8161    112.2274   1.0268755449e+02   3.8596994428e+01    0.5915163    0.3659588 -85.15  0.002467948    2.696    0.629
       118 -10.7586    102.2145    109.3832   1.0349745878e+02   4.0154749313e+01    0.3567275    0.2983195  30.96  0.002043199    1.361    0.265
       119  -9.5218    103.1884    106.1583   1.0254549833e+02   4.0668357130e+01    0.2596085     0.227602 -76.22 0.0004098394    1.126    0.112
       120 -10.7965    170.2681    110.3170   8.7764646051e+01   2.6396209444e+01    0.4202866    0.3917805   4.59  0.001889556    1.091    0.083
       121 -10.3838    175.3154    107.9146   8.6121086515e+01   2.5691613231e+01     0.367991    0.2739564 -42.44    0.0018343    1.401    0.286
       122  -9.9857     49.1079    112.0942   1.1789754496e+02   4.6936581367e+01    0.1972939    0.1676707  63.56 0.0008716217    1.200    0.166
       123 -10.3031     14.7411    109.7067   1.2653488307e+02   5.0566353786e+01    0.2577645    0.1688368 -70.30  0.001567255    1.261    0.207
       124 -10.1287    120.0978    109.3360   9.8994451134e+01   3.6969890916e+01    0.2416219    0.1900271 -39.70 0.0007320319    1.347    0.258
       125  -9.6432    130.4959    107.9975   9.6153160367e+01   3.5232975520e+01    0.2234737    0.1393016 -47.58  0.001040546    1.615    0.381
       126 -10.4118    157.7342    106.0145   8.9388394631e+01   2.9921602617e+01    0.3254723    0.2590336  -0.99  0.001040175    1.554    0.356
       127 -10.4954    143.3292    106.1347   9.2673616483e+01   3.2981721430e+01    0.3078164    0.2812445 -72.91 0.0009024282    1.173    0.147
       128 -11.4769    145.4333    100.5389   9.0781050361e+01   3.3604925530e+01    0.5105941      0.44676  16.40  0.001907817    1.267    0.211
       129 -11.4792     47.8195    103.5186   1.1693131273e+02   4.8953613594e+01    0.3501726    0.2235758 -40.56  0.001962305    1.936    0.484
       130 -10.4704     52.4191     97.0192   1.1455332968e+02   4.9882408933e+01    0.5581066    0.1650724 -56.40  0.002140182    2.750    0.636
       131  -9.9414     93.9083    111.5401   1.0607837893e+02   4.1061799897e+01    0.3023066    0.2293459  86.06  0.001654393    1.492    0.330
       132  -9.2031     82.0661    102.7038   1.0739967211e+02   4.4781211919e+01     0.176888    0.1657485 -85.00 0.0005214228    1.048    0.046
       133 -10.0207     57.5511    102.2402   1.1403582409e+02   4.8140441343e+01    0.2625463    0.1588886 -77.71 0.0006756393    1.668    0.400
       134 -10.3679     57.3576     97.7185   1.1327866256e+02   4.9159367199e+01    0.2876403    0.2062492 -83.32  0.001535704    1.385    0.278
       135 -11.7798     67.9542     96.7072   1.1008576329e+02   4.8060389216e+01    0.5253503    0.2928921 -53.49 0.0007380472    1.629    0.386
       136  -9.0420     95.9892     99.9916   1.0305884061e+02   4.3186953243e+01    0.1572492    0.1481443  65.37            0    1.090    0.083
       137 -11.1783     89.4063     90.1485   1.0256783797e+02   4.6362045263e+01    0.4219407    0.2699765 -46.10  0.001013734    1.512    0.339
       138  -9.8663     66.8829     74.7721   1.0548287399e+02   5.2994804776e+01     0.376728    0.2220891 -74.28  0.001751988    2.197    0.545
       139 -10.8510     66.7402     81.8514   1.0723516013e+02   5.1476063527e+01    0.3536673    0.3069077  27.16  0.002218403    1.355    0.262
       140 -10.8648     79.8227     83.0325   1.0359648271e+02   4.9376012089e+01    0.6895247     0.479573 -64.11  0.003558991    1.418    0.295
       141 -11.2918     73.8335     77.2754   1.0395798222e+02   5.1492264698e+01    0.5829793    0.4278535 -24.62   0.00314277    1.726    0.420
       142 -10.8612     78.0094     96.9830   1.0731690816e+02   4.6616248800e+01    0.4009322    0.1900528 -62.32            0    2.098    0.523
       143 -11.2820     82.0017     93.4328   1.0541921838e+02   4.6801578370e+01     0.685403    0.3260439  46.22  0.003071325    2.277    0.561
       144  -9.8644    210.4376     97.8583   7.6867910454e+01   1.9300059324e+01    0.2564196     0.218848 -33.93  0.001381644    1.197    0.164
       145  -8.9464    190.3283     96.6672   8.0242773890e+01   2.4138189097e+01    0.1508152    0.1183653 -71.48 0.0006389084    1.718    0.418
       146  -9.6298    140.9157     96.0410   9.0673953261e+01   3.5429225178e+01    0.2381898    0.1841862   4.86  0.001048488    1.721    0.419
       147  -9.4623    160.8359     93.8039   8.5533046487e+01   3.1447585467e+01    0.2060419     0.181582 -81.84  0.000986867    1.333    0.250
       148  -9.9071    137.7494     93.6141   9.0789176954e+01   3.6569674425e+01     0.364308    0.2489114  17.22 0.0008649245    2.162    0.538
       149 -10.6743    117.4427     93.0679   9.5717686352e+01   4.0793232806e+01    0.6676734    0.4129241  29.19  0.002949944    2.094    0.522
       150 -10.5732    126.1571     93.1446   9.3516190380e+01   3.9060151517e+01    0.3539178    0.3167847  37.16  0.001078465    1.158    0.136
       151 -10.6641    122.3432     93.6821   9.4619974848e+01   3.9713290088e+01     0.265557    0.1490958 -44.03 0.0007800021    1.759    0.431
       152 -11.3875    102.2117     90.3781   9.9076356667e+01   4.4159522783e+01    0.5008911    0.4295796 -43.36 0.0007485711    1.154    0.133
       153 -10.4282    153.2104     91.7942   8.6687036810e+01   3.3535526063e+01    0.4462642    0.2917451  35.04  0.002000704    1.687    0.407
       154  -9.9404     50.5220     91.4875   1.1409699959e+02   5.1315089749e+01    0.3994268    0.1938612  34.13  0.002014702    2.335    0.572
       155  -9.7313     51.8012     87.9765   1.1305091664e+02   5.1949076292e+01    0.1833649    0.1379464 -62.80 0.0004989157    1.137    0.121
       156 -10.2182    183.7902     86.2856   7.8709474312e+01   2.7368356789e+01    0.5650364    0.1876464 -38.69  0.001853873    2.943    0.660
       157 -10.7048    113.2956     83.3313   9.4215227766e+01   4.3570197716e+01    0.6744313    0.2919231 -38.27  0.002528742    2.543    0.607
       158 -11.7332    108.6666     80.0821   9.4567833893e+01   4.5111273941e+01     0.767653    0.5166619  80.84  0.002741016    2.489    0.598
       159  -9.6122     67.2167     88.0813   1.0849459814e+02   5.0050438826e+01     0.200557    0.1577474 -44.35 0.0006443193    1.294    0.227
       160  -9.3681    212.1670     87.5746   7.3883987589e+01   2.0422403845e+01    0.2101577    0.1284798  41.01 0.0006271705    1.663    0.399
       161 -11.1432    120.2093     85.3345   9.2940354843e+01   4.1812381298e+01    0.4156079     0.248678  42.03  0.001410741    1.744    0.427
       162 -10.5295    165.4080     83.2651   8.1621737221e+01   3.2249417696e+01    0.4261967    0.3269805 -56.06  0.002002869    1.494    0.330
       163 -11.3046    143.3301     84.0865   8.6833961125e+01   3.7170563981e+01    0.3569546    0.3158461 -12.43  0.001893863    1.211    0.174
       164 -10.3813    127.3276     83.4434   9.0582546005e+01   4.0736942776e+01    0.2783086    0.2599354 -86.74  0.001065735    1.151    0.131
       165  -9.5726     60.0306     83.3410   1.0961145638e+02   5.2005597567e+01    0.1740506    0.1664069 -83.87  0.001165736    1.116    0.104
       166 -11.4486     52.8111     76.3992   1.1031981801e+02   5.4384497877e+01    0.6715487    0.2865695 -61.45  0.003066333    2.067    0.516
       167 -10.9119     52.6992     72.8939   1.0955502457e+02   5.5163891561e+01    0.3189175    0.2278307 -49.27 0.0009215312    1.260    0.206
       168 -10.5291     58.7077     78.4200   1.0891942233e+02   5.3246361323e+01     0.256591    0.2295663  54.22 0.0008490671    1.253    0.202
       169 -10.0175     20.4551     71.7343   1.1986655001e+02   5.8412804198e+01    0.2398566    0.1808629  -0.59  0.001398825    1.818    0.450
       170 -11.8316     14.1632     74.4169   1.2233070753e+02   5.8259504673e+01    0.4289679    0.2847875 -73.64  0.001661361    1.186    0.157
       171  -9.9991      9.2708     76.0671   1.2411417682e+02   5.8207364310e+01    0.1741937    0.1182617 -59.42 0.0004584707    1.259    0.206
       172 -11.8360      1.9779     71.3908   1.2578766351e+02   5.9627854968e+01    0.6621563     0.133325 -71.48  0.002630661    3.428    0.708
       173 -11.1167     14.5220     66.6122   1.2096258026e+02   5.9936960821e+01     0.318673    0.2173597 -81.66 0.0007824624    1.307    0.235
       174 -12.1728      5.8387     62.3760   1.2321947549e+02   6.1370379976e+01    0.6530249    0.3046557 -51.29  0.003387643    1.829    0.453
       175 -11.2496     12.5973     62.2076   1.2086242711e+02   6.1015114821e+01    0.2210921    0.1900028 -15.75 0.0009533653    1.471    0.320
       176  -9.4047    170.3746     77.8392   7.9013115025e+01   3.1990395300e+01    0.2091715    0.1968812  78.24  0.000576838    1.159    0.137
       177 -10.7504     93.5754     76.4297   9.7820080578e+01   4.8574461010e+01    0.4906468    0.3591799  26.29  0.001754948    1.646    0.393
       178 -11.7083     85.7606     73.7569   9.9395639486e+01   5.0428326499e+01    0.7899889    0.5832713 -61.15  0.004265483    1.360    0.265
       179 -11.0862     78.7201     67.4154   9.9775843127e+01   5.2862115721e+01     1.155404    0.5717161 -62.86   0.00468889    2.610    0.617
       180 -10.9969     91.5174     62.4169   9.4297900094e+01   5.1793227355e+01    0.4183027    0.3591397  55.27  0.002397958    1.311    0.237
       181 -11.7848     89.3193     57.4356   9.3382482292e+01   5.3163247345e+01     1.423222    0.9972491  81.40  0.006475232    2.485    0.598
       182 -11.6111     74.5098     53.0007   9.6726935696e+01   5.6457138925e+01    0.5776324    0.3510917 -39.24  0.002034048    1.531    0.347
       183 -10.7345     72.6519     47.0195   9.5345677932e+01   5.7922236043e+01    0.6848336    0.4516686 -72.15  0.002026274    2.443    0.591
       184  -9.4322      5.2301     78.4463   1.2567620729e+02   5.7927333408e+01    0.1296314   0.09749977  53.08 0.0004054224    1.514    0.339
       185  -9.3484    134.2017     77.2199   8.7057573619e+01   4.0468694429e+01    0.2007939    0.1763068 -83.12 0.0005333743    1.326    0.246
       186  -9.7670    126.9679     76.9075   8.8789580871e+01   4.2079913789e+01    0.2162088     0.211821 -46.83 0.0003108647    1.025    0.024
       187  -9.1610     32.7500     77.4001   1.1691106328e+02   5.6184825585e+01    0.1384906    0.1167121  -5.47 0.0005105527    1.556    0.357
       188 -11.9191    186.4639     70.5940   7.3721061859e+01   2.9216873465e+01    0.8331031    0.6558269 -26.63  0.003470094    1.261    0.207
       189 -11.8879    122.7540     68.9629   8.7477467988e+01   4.4485458115e+01    0.5701143    0.5189458  54.27  0.002134925    1.155    0.135
       190  -9.3905     60.9416     72.9195   1.0690630351e+02   5.4167853515e+01    0.1899247    0.1464171  81.10  0.000420676    1.584    0.369
       191 -11.7036     32.5876     72.2192   1.1597907137e+02   5.7338227479e+01    0.4917903    0.2426791  32.99  0.001854763    2.358    0.576
       192 -11.4237     40.7719     70.1137   1.1284018284e+02   5.7039990359e+01    0.5308817     0.240152 -64.44  0.002301988    1.920    0.479
       193 -10.0483    161.5766     70.3822   7.8650082342e+01   3.5370118931e+01    0.3130071    0.2643319 -86.14  0.001088143    1.446    0.308
       194 -10.4868    172.0403     67.6504   7.5640539957e+01   3.3259343478e+01    0.4388502    0.3174376 -42.37  0.001831936    1.417    0.294
       195 -11.4247    219.5954     66.4425   6.6943964664e+01   2.1645172300e+01    0.6247206    0.3603588  62.01  0.002299624    1.867    0.464
       196  -9.8466    208.3490     68.1003   6.9177229499e+01   2.4163430970e+01    0.3475706    0.1890881  42.63  0.001437851    1.926    0.481
       197  -8.7098    111.6192     67.2852   8.9964482051e+01   4.7086191233e+01    0.1457531    0.1147733 -89.13 0.0007012901    1.730    0.422
       198  -9.6313    192.5339     65.8388   7.1216573680e+01   2.8425008507e+01    0.2856342    0.2080327  86.95 0.0008686768    1.836    0.455
       199  -9.9547     21.5379     65.2046   1.1832938122e+02   5.9760043344e+01    0.2153986    0.1512748  83.00  0.001207933    1.575    0.365
       200  -8.9697     25.6583     65.2043   1.1691816819e+02   5.9447751133e+01    0.2293801   0.09650663 -47.46  0.000935901    2.179    0.541
       201 -10.0874     98.2636     62.9765   9.2443126887e+01   5.0478410813e+01    0.3617572    0.2460499  -5.68  0.001595109    2.326    0.570
       202 -10.9436     58.1069     61.7852   1.0494163927e+02   5.6913410064e+01    0.4319042    0.2984643 -69.42  0.002007605    1.547    0.354
       203 -10.1529    143.2450    249.5660   1.1524573272e+02   9.9120965217e+00    0.2116912   0.07181389  45.82  0.001145765    2.102    0.524
       204 -11.1137     60.8568     36.1995   9.5695637115e+01   6.1724392890e+01    0.3683124    0.1788861 -45.35  0.001004691    1.786    0.440
       205 -10.6590    159.2707     61.7410   7.6458305109e+01   3.7366745291e+01    0.4846896    0.2872766  38.04  0.002014132    1.853    0.460
       206 -10.2188    106.1883     62.5341   8.9991166630e+01   4.9071021454e+01    0.2893682    0.1988993 -41.73  0.001428142    1.376    0.273
       207 -10.0030     51.7929     48.1679   1.0319492499e+02   6.0527980516e+01    0.2422328    0.2150408  63.11 0.0009981368    1.398    0.285
       208 -11.2000     20.8983     47.3632   1.1475189547e+02   6.3648812324e+01    0.7154803    0.3049937 -46.82  0.003712445    1.985    0.496
       209 -10.4079     26.0261     48.0022   1.1292479427e+02   6.3121862948e+01    0.3280951    0.1882694 -23.02  0.001322782    2.371    0.578
       210 -12.3992     49.4642     60.4208   1.0754853204e+02   5.8226559718e+01    0.5944464    0.4803996  71.24  0.001844094    1.530    0.346
       211 -11.1996     33.9695     43.7904   1.0868299012e+02   6.3320272103e+01    0.6068892    0.3494666 -38.93  0.002408372    1.650    0.394
       212 -10.4804     33.8556     57.8867   1.1243866155e+02   6.0345819585e+01    0.3478396    0.1803828 -34.52  0.001739612    2.352    0.575
       213 -11.4777     40.1793     55.8124   1.0963803285e+02   6.0192346819e+01    0.4731851     0.406177 -76.11   0.00222414    1.209    0.173
       214 -10.2801     26.0952     59.9464   1.1568059038e+02   6.0556059303e+01    0.3808726    0.2416696  34.14  0.002080001    1.902    0.474
       215 -11.5680     27.6184     54.1178   1.1381738309e+02   6.1690116057e+01    0.8403125    0.4309016   4.32  0.004069079    3.331    0.700
       216 -11.3716     46.3822     48.9318   1.0543728079e+02   6.0991573201e+01    0.4089274    0.3262155  -5.74  0.001473597    1.502    0.334
       217 -11.7074     42.4933     45.0192   1.0573039713e+02   6.2220718444e+01    0.4395521    0.3250957  15.06 0.0008115175    1.656    0.396
       218  -9.2265    230.3394     73.6561   6.7298343041e+01   1.8114090246e+01    0.1514579    0.1075147 -58.68 0.0007048578    1.777    0.437
       219  -9.9708    113.5998     61.3461   8.7518834882e+01   4.7822471326e+01    0.4288388    0.2336178 -43.49  0.001857892    1.769    0.435
       220 -11.6561    120.2804     57.5621   8.4445944719e+01   4.7123577049e+01    0.9542176    0.5766859  68.76  0.003832997    2.545    0.607
       221  -9.4410    175.3242    246.6456   1.0992863284e+02   5.5852571644e+00    0.1021677   0.06946726  61.46 0.0001642199    1.764    0.433
       222  -9.7642    199.2350    244.4198   1.0595222486e+02   2.2806168272e+00    0.1539666   0.07685556  47.58 0.0009517261    1.689    0.408
       223  -9.4892    147.4090     60.7183   7.8761114653e+01   4.0408086812e+01    0.3876489    0.1430624  58.97   0.00121276    3.304    0.697
       224  -9.3853    236.0593     59.5416   6.2719635696e+01   1.8610062879e+01    0.2104413    0.1431483  63.62  0.001028906    1.599    0.375
       225  -9.9575    139.9699     43.7809   7.4721625521e+01   4.4942774076e+01    0.4961121    0.1913468  54.81  0.001377141    2.587    0.613
       226 -10.8449    136.5440     56.2463   7.9851868813e+01   4.3723463031e+01    0.6233782     0.429806  13.30  0.002708957    1.977    0.494
       227 -10.4117    133.7325     50.1783   7.8462818039e+01   4.5396264850e+01    0.3808779    0.2650439 -73.76   0.00161281    2.248    0.555
       228 -11.2380    146.0020     46.4624   7.4290999038e+01   4.3060928373e+01    0.6346197    0.3411762 -23.74  0.002358645    2.024    0.506
       229 -11.5386    156.4917     52.4769   7.4043368162e+01   3.9534910915e+01    0.8900496    0.4234242 -45.26  0.003311454    2.336    0.572
       230  -9.1925      1.7932     56.3335   1.2367246750e+02   6.2877254383e+01    0.1271581   0.09868148 -20.54 0.0006699474    1.624    0.384
       231  -9.2075    151.2197     73.6029   8.1921265419e+01   3.7278627630e+01    0.2190754    0.1372296  40.99 0.0006095953    1.660    0.397
       232  -9.9008     67.0826     54.7753   9.9815065319e+01   5.7187489049e+01    0.2228387    0.1680648 -59.00 0.0006831774    1.310    0.237
       233 -11.0138    240.2721     50.1888   5.9668999161e+01   1.8774022277e+01    0.3131364    0.2662509 -13.92 0.0008265445    1.135    0.119
       234 -10.8045    201.5028     47.1401   6.4137530931e+01   2.8774633545e+01    0.5261703     0.329805 -39.31  0.002365607    1.582    0.368
       235 -10.8729    173.9076     48.1958   6.9159630165e+01   3.5760461371e+01    0.5096428    0.3600017  77.64    0.0016749    1.712    0.416
       236 -10.2036    145.7205     52.0483   7.6272361139e+01   4.2245948025e+01    0.3990387    0.3143682  31.15  0.001367461    1.336    0.252
       237  -9.5208     90.9923     48.2414   8.9721959894e+01   5.4633456031e+01    0.2525883    0.1717594 -55.48  0.001245023    1.660    0.397
       238 -10.0476     12.8604     47.2327   1.1784175078e+02   6.4216325105e+01    0.4683511    0.1405485 -38.77  0.001775649    4.496    0.778
       239  -9.7805      2.5669     48.8847   1.2211669048e+02   6.4430649343e+01    0.2020779    0.1874104  18.52  0.001639407    1.419    0.295
       240 -10.2136    232.9366     45.2651   5.9236306769e+01   2.1124850755e+01    0.2690252    0.1817753  43.53 0.0008203504    1.573    0.364
       241  -8.8463    132.3107     45.3259   7.7097502255e+01   4.6519003367e+01    0.1556359    0.1135001  14.82 0.0002912709    1.659    0.397
       242 -10.0137    101.2392     44.0436   8.5051142815e+01   5.3461209661e+01    0.2992523    0.2285263 -66.21  0.001368194    1.748    0.428
       243 -11.0741     94.3547     41.3422   8.6137296360e+01   5.5266803452e+01    0.6523886    0.2757046  44.61  0.002383984    2.514    0.602
       244  -9.5123    162.4316     43.6386   6.9857027054e+01   3.9363796063e+01    0.3350686    0.2228424  64.18  0.001498802    1.596    0.373
       245 -11.5085    156.2740     41.8380   7.0482263221e+01   4.1192082202e+01    0.3904047    0.3544952  21.06 0.0007985199    1.100    0.091
       246 -10.7200    153.5339     36.3216   6.9111204189e+01   4.2671106656e+01    0.3679458    0.2825591 -40.67 0.0007686508    1.344    0.256
       247  -9.7504      3.7665     44.4905   1.2081988219e+02   6.5304047893e+01    0.2254119    0.1136402  14.77 0.0007897737    2.627    0.619
       248 -10.3034    189.0599     42.2168   6.4595239108e+01   3.2651284987e+01     0.291671    0.2040496 -31.38 0.0004473794    1.402    0.287
       249 -10.7539    127.8817    242.9549   1.1704706828e+02   1.2897667067e+01    0.2333119     0.133067 -77.52  0.001468013    2.808    0.644
       250  -9.9355     71.3323     32.6414   9.0453757194e+01   6.0818174195e+01    0.2481003    0.1808939 -55.15   0.00091481    1.580    0.367
       251  -9.8823     68.0049     31.9977   9.1405397798e+01   6.1452784337e+01    0.3364568    0.2692743 -28.42  0.001291422    1.105    0.095
       252 -10.5227     77.6304     34.3293   8.8904954494e+01   5.9490761343e+01    0.5396556    0.2980629  34.62  0.001011354    2.047    0.511
       253 -10.0353     81.4415     30.6341   8.6104593328e+01   5.9475778360e+01      0.40718    0.3195097 -64.11    0.0022132    1.732    0.423
       254 -10.1793     18.3126     41.2754   1.1426705832e+02   6.5116017959e+01    0.2761994    0.1851601 -30.52  0.001775853    1.597    0.374
       255 -10.4457    231.6317     39.5683   5.7821482622e+01   2.2122691835e+01    0.2670794    0.2335092 -52.11 0.0006750909    1.161    0.139
       256  -8.5577     29.3330     40.2825   1.0951498632e+02   6.4462120861e+01    0.1219916   0.07610564 -34.18 0.0003346575    1.614    0.380
       257 -11.4713    183.3979     24.8836   5.9891786073e+01   3.6302279493e+01    0.6880975    0.2843907  50.55  0.002548461    2.312    0.567
       258 -11.2003    176.7067     36.9175   6.4959028582e+01   3.6584580932e+01    0.4328791    0.3240571 -26.30   0.00142101    1.330    0.248
       259 -10.2994    172.0597     33.0160   6.4460995590e+01   3.8311246104e+01    0.3077632    0.2641338  64.57 0.0009103614    1.183    0.155
       260 -10.8159    176.1160     29.8129   6.2689587046e+01   3.7644837164e+01    0.4354819    0.3435058  20.10  0.001514181    1.380    0.275
       261  -9.3838    131.2266    240.6060   1.1629407173e+02   1.2722840344e+01    0.1520104    0.0781209  38.13 0.0009482754    1.689    0.408
       262 -10.6697     22.8702     36.9187   1.1120225500e+02   6.5685520025e+01    0.3181443    0.2240461  55.49  0.001493517    1.977    0.494
       263  -9.5589    133.5992     37.3942   7.3893444762e+01   4.7445022993e+01    0.3982132    0.2635514 -70.54  0.001626352    2.456    0.593
       264  -9.7667    206.8249     37.0242   6.0305746814e+01   2.8688372285e+01    0.2527128    0.2189014  65.36  0.000844891    1.179    0.152
       265 -10.9858    138.5190     32.7920   7.1041147152e+01   4.6921653332e+01    0.6313457    0.5480664 -74.50  0.002848123    1.383    0.277
       266 -10.8606      4.3071     35.8579   1.1875458716e+02   6.7089151344e+01    0.2290749    0.2007486  19.71 0.0005286275    1.485    0.327
       267 -10.0266      6.7799     30.7740   1.1644130634e+02   6.8010527193e+01    0.2737321    0.1520925 -20.96  0.001628218    2.239    0.553
       268  -9.5846     98.6676     28.4979   7.9716460801e+01   5.6556498537e+01    0.4747627    0.3683068 -62.27  0.001674962    1.736    0.424
       269 -10.1478    150.5726    237.7169   1.1289012583e+02   1.0270074699e+01    0.1588016    0.1057689 -43.89  0.001135107    2.077    0.519
       270 -11.9639    105.6292     33.1113   7.9551945044e+01   5.4398417231e+01    0.8592286    0.5013418  -0.36  0.001519808    2.975    0.664
       271 -12.5461    113.9814     24.5941   7.3785590004e+01   5.3855818120e+01    0.8404714    0.3819818  59.58  0.001659135    2.547    0.607
       272  -9.3084     15.1567    233.8493   1.3392689482e+02   2.7641647117e+01     0.111403   0.08995172  74.97  0.001070632    1.350    0.259
       273 -11.5020    159.9108     30.1596   6.5674934272e+01   4.1856078583e+01    0.5254265    0.3218335 -38.82 0.0004474414    1.665    0.399
       274 -11.2419    164.0118     27.4716   6.3973124228e+01   4.1124944054e+01    0.3802949    0.2853678 -26.42  0.000399087    1.333    0.250
       275 -11.0701    147.4487     31.7229   6.8710290788e+01   4.4845284489e+01    0.2856544    0.2587727 -17.20 0.0002910618    1.093    0.085
       276  -9.8187    158.4811     20.4750   6.2462817734e+01   4.3416593539e+01    0.7509118     0.189269  63.27   0.00217499    3.835    0.739
       277 -10.7796    156.7930     25.1373   6.4461641920e+01   4.3299556754e+01    0.5457433    0.3245585 -65.14   0.00138087    2.552    0.608
       278 -10.9275    241.0097     31.0270   5.4422504911e+01   2.0823215748e+01    0.5029386    0.3093716  -7.39  0.002331424    1.866    0.464
       279 -10.7976    189.3515     28.5681   6.0197183660e+01   3.4289161190e+01    0.5664796    0.3386031 -26.21  0.002506679    1.652    0.395
       280 -10.0813    182.8257     32.0674   6.2342616753e+01   3.5591600937e+01    0.2268389     0.202664 -58.07 0.0004643013    1.191    0.160
       281  -9.9795     59.9645     24.4938   9.1349430087e+01   6.3980608246e+01    0.4853559    0.1864389 -50.24  0.001887005    3.078    0.675
       282  -9.3126     62.1807     21.3513   8.9117457289e+01   6.4189886948e+01    0.2004044    0.1576444 -14.29 0.0007411594    1.202    0.168
       283 -11.3979     56.1653     30.9815   9.5496202002e+01   6.3344241225e+01    0.3128622    0.2633281  10.29 0.0002640208    1.294    0.227
       284 -11.7784     48.0876     30.7158   9.8620246881e+01   6.4426480198e+01    0.6953319    0.3236695  28.38   0.00328458    2.649    0.623
       285 -11.6329    199.1433     28.1585   5.8661357172e+01   3.1751342267e+01    0.5234497    0.4211637  13.88  0.001011848    1.370    0.270
       286  -9.5659     23.7418    231.7697   1.3257482404e+02   2.7132812089e+01    0.1348417    0.0702877  63.12  0.001047835    1.338    0.253
       287  -9.0801    247.3189    231.3163   9.6875097464e+01  -3.5814106602e+00    0.1117634   0.06085137  20.34 0.0003682978    1.656    0.396
       288  -9.8568    241.8758    231.1567   9.7666203944e+01  -2.7815994651e+00    0.1582542     0.124418  34.42  0.000873917    1.297    0.229
       289  -9.9669    197.6585    231.6719   1.0459531009e+02   3.8115366021e+00    0.1133096   0.06885818  22.39 0.0007051368    1.740    0.425
       290  -9.4397    221.5815     29.6886   5.6235120344e+01   2.5770836833e+01      0.20517     0.124084 -35.74 0.0009406761    1.560    0.359
       291  -9.3279    210.8258     29.8601   5.7620148303e+01   2.8505096025e+01     0.208151    0.1624916 -50.37 0.0005039594    1.318    0.241
       292 -10.0204    230.2180     26.7975   5.4425057758e+01   2.3926518392e+01    0.2451953    0.2253051 -40.44 0.0007710744    1.041    0.039
       293 -10.9526    250.4962     24.6036   5.1769682812e+01   1.9270628573e+01    0.4342459    0.1510513 -32.87  0.001715306    2.375    0.579
       294 -10.8846    242.0619     22.5066   5.2022641517e+01   2.1491743758e+01    0.3005308    0.2089629  30.57  0.001099329    1.712    0.416
       295 -11.4031    246.0411     20.9517   5.1228289984e+01   2.0703441515e+01    0.2784153    0.2663594  40.96  0.001133507    1.132    0.116
       296  -9.4403      9.4853    227.4597   1.3453975477e+02   2.9130150811e+01   0.09209733   0.06105476  67.02 7.317673e-05    1.025    0.024
       297 -10.4146    214.3841     24.1852   5.5491280952e+01   2.8225717716e+01    0.3363829    0.3288029 -34.03  0.001144993    1.009    0.009
       298  -9.6303    215.6769     20.6994   5.4311374522e+01   2.8270621094e+01    0.2635868     0.166447  52.48 0.0008449056    1.595    0.373
       299  -9.6820    132.9444     23.2791   6.8642522656e+01   4.9572804133e+01    0.4278707    0.3070774 -71.38  0.001962259    1.977    0.494
       300 -10.1465    234.5046    222.5190   9.7530671877e+01  -9.1768461181e-01    0.1119125   0.08152615  27.18 8.331521e-06    1.010    0.010
       301 -10.2494    138.2136     21.5929   6.6832935556e+01   4.8483181325e+01     0.390161    0.2378465  48.86  0.001167942    1.570    0.363
       302  -9.6931    141.7828     19.6021   6.5318872987e+01   4.7828668860e+01    0.3268668     0.221562  63.33  0.001026699    1.514    0.340
       303 -10.7513    152.5192     26.9901   6.5952619879e+01   4.4173698309e+01    0.5686342    0.3635856  11.71  0.001733031    2.001    0.500
       304  -9.5203      9.6907    217.6823   1.3416163461e+02   3.0633595902e+01   0.07632382   0.06567793 -77.96 0.0004778629    1.637    0.389
       305  -9.1963    165.6514    212.3455   1.0737276979e+02   1.1150581469e+01    0.1160555   0.08041311  66.40 0.0007042334    1.808    0.447
       306  -9.0433    152.5241    207.5351   1.0903517050e+02   1.3923182763e+01     0.117492   0.09324517  46.16 0.0001878657    1.001    0.001
       307 -10.6689     47.0429     18.5131   9.4041765656e+01   6.6779859759e+01    0.3373324    0.2603152 -17.21  0.001533241    1.222    0.182
       308 -10.4075    238.7654    204.3671   9.4057833423e+01   1.6705961333e-01    0.2204894    0.1409242  -8.43  0.001411408    1.679    0.405
       309  -9.8618      4.4485    204.6770   1.3450407429e+02   3.3200580699e+01    0.2087044   0.08351608 -71.95  0.001381914    2.397    0.583
       310  -9.6392    223.4970     22.4263   5.3929577156e+01   2.6087433693e+01    0.2399486    0.2113054 -86.33 0.0006708357    1.178    0.151
       311 -10.0343    221.0320     19.0132   5.3219689768e+01   2.7076460100e+01     0.236801     0.193866 -39.96 -0.003769674    1.179    0.152
       312 -10.5812     66.2420     22.0249   8.7861723838e+01   6.3451708646e+01    0.2309906    0.2034953  24.44 0.0003962409    1.234    0.190
       313 -10.2539     73.6896     19.3751   8.3931292430e+01   6.2655307418e+01    0.2359964     0.196869 -39.29 0.0009328786    1.255    0.203
       314 -11.0077      5.5628    198.1742   1.3407400285e+02   3.4192971106e+01    0.2764208    0.1019295 -79.89  0.001742646    2.321    0.569
       315  -8.8272      1.4700     20.5686   1.1610391764e+02   7.0352766533e+01    0.1119662    0.0822435 -52.81 0.0002447915    1.013    0.013
       316  -9.4637    211.3053     18.9987   5.4314477560e+01   2.9583263022e+01      0.19793    0.1788406 -26.87  0.000322552    1.096    0.088
       317 -10.8735    245.3339    200.8566   9.2456757899e+01  -5.2394729439e-01    0.1934784    0.1349168  40.15 0.0007398007    1.350    0.259
       318 -10.2700    233.8357    197.2944   9.3677986394e+01   1.6807678807e+00    0.1798851    0.1560542 -16.49  0.001050906    1.379    0.275
       319  -9.7231    246.3245    194.3164   9.1201962625e+01  -3.3984726947e-02    0.1236872   0.07185378  18.00 0.0007043693    1.669    0.401
       320  -9.5501    169.0330    191.7340   1.0387956796e+02   1.3402522442e+01    0.1785042    0.1315552  42.08  0.000447213    1.119    0.106
       321 -10.3880    186.3907     15.1167   5.6243887026e+01   3.6579852678e+01    0.2827219    0.2278051  57.46   0.00048051    1.203    0.169
       322  -9.6804     16.7832    191.9983   1.3191035138e+02   3.4262382058e+01    0.1382763    0.1078288  86.61 0.0004593559    1.232    0.188
       323 -10.0111    244.4160    188.1880   9.0440765884e+01   9.0050989383e-01      0.14647    0.1061242 -31.03 0.0009472033    1.658    0.397
       324 -10.9268    113.4506     49.7999   8.3625404745e+01   4.9958787332e+01    0.5143191    0.3271871  26.80  0.001503153    1.985    0.496
       325  -9.2210      6.2160     16.4253   1.1248114980e+02   7.0921259911e+01    0.1698075    0.1065964   4.02   0.00103687    1.986    0.496
       326 -10.2549    143.1990     24.6377   6.6955035716e+01   4.6848787005e+01    0.2736146     0.231552  52.46  0.001007776    1.166    0.142
       327 -12.1098      4.8242    184.5963   1.3363580197e+02   3.6604193834e+01    0.5079274    0.3007342  66.17   0.00395084    1.239    0.193
       328 -10.7081     82.4139     18.9498   8.0717148497e+01   6.1165212473e+01    0.4883366    0.1849985  44.72  0.001341725    2.739    0.635
       329  -9.7327    239.9861    184.7625   9.0539582607e+01   1.9962612285e+00    0.1588488   0.08492099  40.90 0.0008754095    1.598    0.374
       330  -9.8746    213.0204    181.4792   9.4421340468e+01   7.0283803717e+00    0.2575317    0.1378101   8.95  0.001046743    3.536    0.717
       331  -9.8515    249.8698    180.3617   8.8187701706e+01   8.1784349940e-01    0.1971741    0.1517327 -20.19   0.00132129    1.394    0.282
       332  -9.4181     92.3882    175.2063   1.1632509481e+02   2.8516388491e+01     0.164672    0.1036693 -81.04 0.0009589818    1.741    0.426
       333  -9.0194     57.4867    174.5985   1.2319700229e+02   3.3188157096e+01    0.1105523   0.08799788  71.47 0.0001533525    1.031    0.030
       334  -9.7983    248.7796    173.3430   8.7063303548e+01   1.7467904388e+00     0.319518   0.07030172  39.35  0.001092513    4.160    0.760
       335  -9.5812     51.5230    173.4681   1.2426852099e+02   3.4089590255e+01    0.1116948   0.08612253  73.68 6.714293e-05    1.013    0.013
       336 -10.4140     39.1203    173.0699   1.2665434928e+02   3.5513625015e+01    0.1888337    0.1259507  50.68  0.001344439    1.350    0.259
       337 -11.7430      9.8693    165.5587   1.3178672622e+02   3.9660511742e+01    0.4498091    0.2784398 -74.73  0.002628042    1.477    0.323
       338 -10.8621     13.9383    158.0330   1.3055384091e+02   4.0756016020e+01    0.3407184    0.1437845 -83.96  0.001776314    1.987    0.497
       339  -9.5696    198.1636    167.8026   9.4575290049e+01   1.1530721080e+01    0.1851653    0.1646998  39.22 0.0005735338    1.125    0.111
       340 -10.1404     19.0416    165.1864   1.3000040845e+02   3.8944464319e+01    0.1983759    0.1768316  81.69  0.001217471    1.313    0.238
       341 -10.0797    205.1713    163.3265   9.2477898197e+01   1.0830708569e+01    0.2229808    0.2040943  11.10 0.0007070224    1.107    0.096
       342  -9.6029    188.8005    163.9578   9.5578889529e+01   1.3844746105e+01    0.2032104     0.162371  16.46 0.0009565437    1.292    0.226
       343 -10.0205     28.2837    162.6644   1.2800948698e+02   3.8577009821e+01    0.2540062    0.1180696 -64.71  0.001518538    2.067    0.516
       344  -9.5717     79.4880    160.0516   1.1716176537e+02   3.3186490810e+01    0.1783081    0.1091843 -69.74  0.001038174    1.609    0.378
       345  -9.6409    223.3673    156.8241   8.8030091477e+01   8.2556200868e+00    0.1827207    0.1516426  34.65  0.001028951    1.130    0.115
       346 -11.1209    105.1042    153.4903   1.1076386003e+02   3.0695165169e+01    0.5221848    0.4155559 -86.52  0.003241509    1.275    0.216
       347 -10.0048      8.9009    156.0409   1.3143408382e+02   4.1553370550e+01       0.2213    0.1011236 -65.13  0.001366211    2.090    0.522
       348 -10.3489     23.1123    155.2231   1.2851296964e+02   4.0504435361e+01    0.2813453    0.1437328  40.31  0.001792685    1.921    0.479
       349 -12.0216     23.0689    149.1848   1.2807096571e+02   4.1702640177e+01    0.4526651    0.3070153 -26.77  0.002766454    2.914    0.657
       350 -11.1317     15.9966    148.0977   1.2947616003e+02   4.2528973775e+01    0.3395742    0.1674735  47.67  0.001525465    1.849    0.459
       351 -10.7020     31.3702    153.9818   1.2670967008e+02   3.9979000189e+01    0.3375966    0.1897515  66.80  0.001821345    1.585    0.369
       352 -10.5624     30.6355    149.3080   1.2647688385e+02   4.0981037008e+01    0.2471836    0.1327376  70.13 0.0007798659    1.731    0.422
       353 -10.7733     14.9858     22.3457   1.1018849909e+02   6.9202308758e+01     0.241161    0.1864706 -34.50 0.0006551279    1.181    0.153
       354  -9.0719    140.8281    154.1366   1.0325699364e+02   2.4469748998e+01    0.1736506    0.1461302  27.34 0.0002776677    1.305    0.234
       355  -9.5641     74.5205    153.0056   1.1736152503e+02   3.5244592545e+01    0.2661073    0.1934801  84.56  0.001622867    1.295    0.228
