#   1 NUMBER                 Running object number                                     
#   2 MAG_AUTO               Kron-like elliptical aperture magnitude                    [mag]
#   3 X_IMAGE                Object position along x                                    [pixel]
#   4 Y_IMAGE                Object position along y                                    [pixel]
#   5 X_WORLD                Barycenter position along world x axis                     [deg]
#   6 Y_WORLD                Barycenter position along world y axis                     [deg]
#   7 A_WORLD                Profile RMS along major axis (world units)                 [deg]
#   8 B_WORLD                Profile RMS along minor axis (world units)                 [deg]
#   9 THETA_WORLD            Position angle (CCW/world-x)                               [deg]
#  10 FWHM_WORLD             FWHM assuming a gaussian core                              [deg]
#  11 ELONGATION             A_IMAGE/B_IMAGE                                           
#  12 ELLIPTICITY            1 - B_IMAGE/A_IMAGE                                       
         1 -12.2375     10.4127     55.5756   7.7351778009e+01   6.5312537733e+01    0.9827607    0.5234877 -79.28  0.003595404    1.991    0.498
         2 -12.2407     56.4466     35.8357   4.7175286283e+01   6.4548402523e+01     1.015424    0.4468403 -36.75  0.003409821    2.229    0.551
         3 -11.6517     52.3757     47.2272   5.3909956341e+01   6.2953696945e+01      1.47916     0.808867 -69.04  0.005075988    4.119    0.757
         4 -10.5054    101.4360     28.2663   2.7151134783e+01   5.6480150888e+01    0.3083962    0.2402577 -78.55 0.0009757472    1.728    0.421
         5 -12.1919    137.4543     15.5706   1.4079300519e+01   4.8879470659e+01    0.7340856    0.5747933 -57.73  0.001903711    1.366    0.268
         6 -12.7832    128.4304     23.8527   1.8881888315e+01   5.0304891600e+01    0.4075605    0.2953721 -32.07 0.0003652165    1.424    0.298
         7 -12.0366    133.0813     18.8618   1.6077984862e+01   4.9668490087e+01    0.3728505     0.273975 -51.06 0.0002604856    1.469    0.319
         8 -10.0068     50.4213     16.9331   4.0491543985e+01   6.8733510771e+01    0.3130252    0.2265556 -47.36 0.0007796073    1.710    0.415
         9 -11.7747     54.5940     14.2552   3.7006580356e+01   6.8380774173e+01    0.4526404     0.323758 -50.38  0.001355708    1.896    0.473
        10 -10.9765     63.0604     12.3006   3.2237036422e+01   6.7021126356e+01    0.5999753    0.3455966  39.83  0.001632003    1.631    0.387
        11 -11.6494     59.8195     25.2181   4.0526690986e+01   6.5788762765e+01    0.7934501    0.3729075 -44.49  0.002250316    2.384    0.581
        12 -11.2849     82.2001      7.0842   2.2693673771e+01   6.3492700058e+01    0.2609677    0.2024936  10.99 0.0002915355    1.298    0.230
        13 -12.0895     75.4347     10.0206   2.6390656170e+01   6.4698172489e+01    0.8606472    0.5829425   5.91  0.004452074    1.627    0.385
        14 -10.6334     73.8717      1.6158   2.2329250687e+01   6.5902319289e+01    0.2533578    0.1939514  65.42 0.0006102243    1.427    0.299
        15 -10.7177     82.7289     21.8706   2.9956227686e+01   6.1641274884e+01    0.3344632    0.3156542 -43.42  0.001320062    1.220    0.180
        16 -10.9373     69.4347     21.7332   3.4722192777e+01   6.4470900036e+01    0.6477538    0.3539363 -51.03  0.002388761    2.738    0.635
        17 -10.5148     36.5204      7.7063   4.2369248049e+01   7.2357916566e+01    0.3759863    0.2752337  12.34  0.002269645    1.285    0.222
        18  -9.8637     21.8877     23.6378   6.0163952055e+01   7.1477266736e+01    0.5042426     0.322655 -59.89  0.002755512    1.804    0.446
        19 -10.4837     24.3105     19.9828   5.6858159236e+01   7.1922991795e+01    0.4185872    0.3052483  56.09  0.002308686    2.297    0.565
        20 -11.4187     34.9332     14.5028   4.7390717588e+01   7.1547791821e+01    0.4866955    0.2506508  24.91 0.0009743993    2.134    0.531
        21 -11.8332     14.1664     17.2500   6.2205389456e+01   7.3433474106e+01    0.6022079    0.4657187  37.78  0.002793526    1.676    0.403
        22 -10.8530      9.5339      9.3288   6.1480010794e+01   7.5318346777e+01    0.3288666    0.2910285  16.75  0.001627796    1.362    0.266
        23 -11.9238      3.6666     18.8408   7.0288004497e+01   7.3867232933e+01    0.4010037    0.3563021 -15.81   0.00161118    1.193    0.162
        24 -12.1952      3.2165     13.3863   6.8283742750e+01   7.4993249695e+01    0.8000341    0.1850167 -51.46   0.00332859    2.828    0.646
        25 -10.5943    169.4176     17.1251   1.0032373917e+01   4.0403834131e+01    0.2728551    0.2275938 -37.52  0.001105286    1.206    0.171
        26 -11.2797    165.6989     13.4885   9.3297917618e+00   4.1735902845e+01     0.342715     0.258614  80.29  0.001807646    1.262    0.208
        27 -11.8105    162.4668     18.9843   1.1523147594e+01   4.1998513735e+01     0.533617    0.3208227  45.04  0.002484498    1.817    0.450
        28 -11.8177    237.6464     18.4141   4.0352202687e+00   2.4120091690e+01    0.3850179    0.2519998  33.69  0.001278499    2.344    0.573
        29 -11.9668    240.8733      3.1170   3.0934706330e-01   2.5022404625e+01    0.6494464    0.2718587  73.99  0.002724575    2.438    0.590
        30 -11.5805    232.9653     13.9723   3.3125790435e+00   2.5591815649e+01    0.3850875    0.1913283 -37.53   0.00141886    1.662    0.398
        31 -12.1109    235.3526      9.3909   2.0767423948e+00   2.5556186466e+01    0.5545292    0.2533176 -65.17    0.0026572    2.250    0.555
        32 -11.1624    175.9976     11.4341   7.5122544684e+00   3.9305637175e+01    0.4309702    0.3850345 -56.86  0.002599759    1.076    0.071
        33 -11.3838    164.6123      4.7899   6.6671973889e+00   4.2843679562e+01    0.2768596    0.2213134 -65.68 0.0003522586    1.212    0.175
        34 -11.5651    160.0709      8.9494   8.5373413291e+00   4.3633817126e+01    0.3172814    0.2762317 -67.46  0.000461992    1.114    0.102
        35 -11.8516    154.5789      8.0078   8.9008735731e+00   4.5147784378e+01    0.3925003    0.2957394  88.92   0.00138799    1.292    0.226
        36 -10.0028     99.5070     12.9997   2.0822796564e+01   5.8790943938e+01    0.3307186    0.1574269 -32.54  0.001053569    2.155    0.536
        37 -11.0461    102.1395      9.2538   1.8462470587e+01   5.8526872323e+01     0.451993    0.3006127 -11.12  0.001441841    1.651    0.394
        38 -10.6938     27.1829     11.9203   5.0620807897e+01   7.3011234547e+01    0.3733189    0.2383611 -28.35  0.001626189    1.393    0.282
        39 -11.4011    145.1410     11.1704   1.1278234694e+01   4.7311055272e+01    0.4624494    0.2976521  25.00  0.002172893    1.963    0.491
        40 -11.2003    248.5902      7.9101   9.5363992747e-01   2.2962456193e+01    0.2632768    0.2114559 -81.03   0.00181699    1.223    0.182
        41  -9.8641     90.4435      8.2459   2.0933781192e+01   6.1455261609e+01    0.3187907    0.1581092  24.77  0.001254906    2.714    0.632
        42 -11.2420     19.9364      7.2755   5.2672260649e+01   7.4654861812e+01     0.395959    0.3008761 -33.07   0.00095034    1.202    0.168
        43 -10.9257     15.7122      2.5416   5.2717673357e+01   7.5903128506e+01    0.3430192    0.2460412  40.48  0.002126656    1.884    0.469
        44 -10.8486     26.8645      2.4591   4.4839375160e+01   7.4528717377e+01    0.2435733    0.2019476  30.26 0.0007267331    1.377    0.274
        45  -9.8259    214.9858      7.4554   2.9771350441e+00   3.0252537856e+01    0.1870575    0.1171568  81.67 0.0007333308    1.572    0.364
        46 -10.7625    223.0732      5.3828   1.9078411023e+00   2.8631738417e+01    0.2474371    0.1657696 -28.79  0.001440458    1.468    0.319
        47  -9.6033     68.5044      5.5035   2.6323626123e+01   6.6686626750e+01    0.1351456    0.1160401  22.63 0.0008106012    1.018    0.018
        48 -11.4175    179.0719      3.7651   4.8984869248e+00   3.9256723883e+01    0.2627659    0.2080103  67.80  0.000215155    1.236    0.191
        49 -10.5784    119.8088     10.4713   1.5241194751e+01   5.3958421541e+01    0.3797175    0.2532338   9.83  0.001832764    1.827    0.453
        50 -11.2482     91.1671      2.4356   1.7880652337e+01   6.1823201388e+01    0.2360106    0.2226228 -42.41 0.0002959334    1.212    0.175
        51  -9.4907     86.9331      3.5792   1.9551818701e+01   6.2728230212e+01    0.2453926    0.1480218  52.22 0.0002747695    1.466    0.318
        52  -9.4602     59.8988      5.0000   2.9311544057e+01   6.8523592735e+01    0.2127067   0.06972592  52.81 0.0008030566    2.947    0.661
        53 -10.4600    126.1643      2.8851   1.1061280966e+01   5.2997833230e+01    0.2423494    0.1861629  52.71 0.0005261084    1.207    0.172
        54 -10.1506     97.9177      3.1888   1.6625803351e+01   6.0121464533e+01    0.1894588    0.1848254 -76.35 0.0004906751    1.153    0.133
        55 -10.2506      9.5198      2.3618   5.7402127870e+01   7.6557979627e+01    0.2633533    0.1882866  49.00  0.001559546    2.355    0.575
        56 -10.1868    168.7869      2.1065   5.3843685173e+00   4.2010445351e+01    0.2056167    0.1611715 -63.76 0.0005617574    1.222    0.182
        57  -9.6590    114.1530      2.4024   1.2926719354e+01   5.6124386016e+01      0.19958    0.1263857  81.51 0.0009570796    1.691    0.408
        58  -9.1751     56.0000      2.0494   2.9128654393e+01   6.9623286899e+01    0.2013891   0.06984445 -25.57 0.0007949107    2.891    0.654
        59 -10.2306    230.0096      1.4204   5.3097272453e-01   2.7493686375e+01    0.1693158    0.1097342  84.69 0.0003602792    1.522    0.343
        60 -11.0588    145.3273      7.7090   1.0019169977e+01   4.7587427625e+01     0.318412    0.2684324 -31.00   0.00131495    1.255    0.203
        61  -9.8032    102.6805      1.4802   1.4780172497e+01   5.9089265786e+01    0.1741757    0.1273544  81.31  0.000563371    1.479    0.324
        62 -10.5563     22.1984      1.6135   4.7403804178e+01   7.5275945584e+01    0.2481927    0.1837492  11.84  0.001043712    1.242    0.195
        63  -9.8683     61.8880    184.6603   7.9039083543e+01   2.8674140670e+01     0.209625    0.1668963 -68.02  0.000931759    1.322    0.244
        64 -11.9747    248.0511    248.1029   5.0054682207e+01  -7.3896508525e+00    0.5303586    0.2993948   0.74   0.00363952    1.535    0.349
        65 -12.4003    226.5796    245.2215   5.3111014117e+01  -4.6170429788e+00    0.5775479    0.3837537  -5.31  0.004169979    1.312    0.238
        66  -9.2438    168.6666    250.6641   6.4062838520e+01   2.1500132596e+00    0.1168999   0.07426006   8.09 0.0007052122    1.739    0.425
        67  -9.8804    109.9681    250.0673   7.5131960917e+01   1.0098448413e+01     0.179193    0.1358525  39.35  0.000608722    1.011    0.011
        68 -10.6024     90.9838    249.3577   7.8730139479e+01   1.2660650523e+01    0.2218065    0.1663592  71.40  0.000990706    1.447    0.309
        69 -11.9294     21.4991    248.5327   9.1704613971e+01   2.0656510157e+01    0.4533904    0.1574338  46.49  0.002641834    1.906    0.475
        70 -10.7758      5.3090    244.3772   9.4446238231e+01   2.2880591986e+01    0.2314835     0.129728  61.01 0.0009309859    1.291    0.225
        71  -9.3471     13.3081    249.6897   9.3199176219e+01   2.1243229533e+01    0.1402446   0.07523228  67.24 0.0005777373    1.486    0.327
        72 -10.9533     22.9127    180.0367   8.8018340835e+01   3.3960894372e+01    0.3947226    0.1358437  57.61  0.001485291    2.812    0.644
        73 -10.8831    249.5057    179.6152   3.8404434952e+01   1.8733705839e-01    0.2549049    0.1004738 -31.77  0.001231682    2.237    0.553
        74 -11.5970      3.0567    179.3780   9.2594520504e+01   3.5792914082e+01    0.3623727    0.2447111 -28.32  0.002159859    2.409    0.585
        75 -11.0355    186.8849    191.9708   5.1780256323e+01   7.8854163063e+00    0.4668283    0.2049628 -26.57  0.001857662    3.180    0.685
        76 -10.4370     54.0656    175.7871   8.0055545108e+01   3.1617302186e+01    0.2272219     0.177598 -71.11 0.0006721301    1.289    0.224
        77 -10.0254    172.1895    175.4077   5.1746312716e+01   1.3096138592e+01    0.1914055    0.1222421  46.23 0.0008479287    1.653    0.395
        78 -10.6638     17.8067    172.7491   8.8772872116e+01   3.6058484179e+01    0.2737632    0.1480814  66.11  0.001492645    1.657    0.397
        79 -11.5650      8.0816    172.4767   9.1091948993e+01   3.6929638009e+01    0.2486793    0.1569564 -86.67  0.001477971    1.362    0.266
        80  -9.7153     24.9909    169.7340   8.6801315015e+01   3.6098999131e+01    0.1449669    0.1016051  35.13 0.0004148242    1.455    0.313
        81 -10.7583      1.4838    165.0144   9.2298748398e+01   3.9113223687e+01    0.4893311    0.1012738 -82.25  0.001702352    4.274    0.766
        82  -9.0579     93.3325    166.7487   6.8856398081e+01   2.8297011921e+01    0.1429176   0.09806773  60.34 0.0002435074    1.557    0.358
        83 -10.2908     67.7446    165.6886   7.5383421037e+01   3.2222688466e+01    0.2694028    0.1782126 -85.53 0.0008297059    1.609    0.379
        84 -10.3117    145.2094    190.0269   6.0163475677e+01   1.5053974485e+01    0.2265137    0.1764657  30.40 0.0005050325    1.153    0.132
        85 -11.1213     51.1106    160.4945   7.9175397488e+01   3.5529945267e+01    0.4763368    0.2165099 -77.12   0.00206152    2.286    0.563
        86  -9.3271    132.7651    160.9860   5.7930684407e+01   2.2917072243e+01     0.186728     0.121541 -49.10 0.0003753798    1.618    0.382
        87 -10.7187      8.0293    163.5407   9.0615543462e+01   3.8965108118e+01    0.2479437    0.1829203 -27.66  0.001289797    1.975    0.494
        88 -10.0712     20.0960    157.6699   8.7150094942e+01   3.9354445696e+01    0.2190143    0.1733323 -37.48  0.001315466    1.648    0.393
        89 -10.7946    247.9760    156.3256   3.4122514506e+01   3.5050510816e+00     0.254039    0.1805944 -10.77  0.001231292    1.229    0.186
        90  -8.8239     67.2915    157.6927   7.4451275525e+01   3.4169442987e+01    0.1426422   0.09584342  67.06 0.0003497267    1.579    0.367
        91  -9.3770      7.5231    157.4995   9.0390884826e+01   4.0403606419e+01    0.1245621   0.09757543  75.94 -1.371384e-05    1.040    0.038
        92 -10.2651      2.4552    157.0754   9.1654349242e+01   4.0867896034e+01    0.2173346    0.1680289 -58.30  0.001432629    1.460    0.315
        93  -9.9211    214.9180    154.4103   3.9183270731e+01   9.1377979656e+00    0.3670285    0.1264732  43.80  0.001416236    3.044    0.671
        94 -10.3043    158.8396    153.7800   5.0361169370e+01   1.9539573128e+01    0.3623625    0.1987774  34.04  0.001135395    1.854    0.461
        95 -10.1747     11.1000    152.9696   8.9176718870e+01   4.1199446473e+01    0.3222353    0.1486075  44.19  0.001649114    1.980    0.495
        96  -9.9498     40.8097    152.5267   8.1096607554e+01   3.8599445038e+01    0.2327314    0.1608555 -77.94 0.0005200331    1.328    0.247
        97  -9.6689    143.8805    148.4132   5.2718840555e+01   2.3474885118e+01    0.2382789    0.1705874 -38.72 0.0005446836    1.446    0.309
        98 -12.0849     13.8891    147.9198   8.8073398284e+01   4.2190159136e+01    0.2559976    0.1932098  84.40 0.0003076739    1.109    0.098
        99 -10.9446    217.5546    145.1933   3.6760923878e+01   1.0127503885e+01    0.3622086    0.1978951  29.30  0.001488035    2.095    0.523
       100 -10.7599      6.3597    145.5651   8.9952114640e+01   4.3309417061e+01    0.4408952    0.1234264  25.28  0.001823259    3.514    0.715
       101  -9.1986    182.2740    145.3213   4.3474190967e+01   1.6642686235e+01    0.1450968    0.1068654  -2.24 0.0002079129    1.574    0.365
       102 -12.3425     15.8350    141.5521   8.7035690436e+01   4.3581355199e+01    0.7741281    0.2720478  69.77   0.00272299    3.897    0.743
       103 -13.4086     37.4554    134.8257   8.0022356318e+01   4.3320582803e+01     0.706391    0.3536214 -72.15   0.00125902    1.804    0.446
       104  -9.8546    188.8226    139.7777   4.0911795481e+01   1.6372243374e+01     0.184739    0.1740143 -72.41 0.0005036531    1.327    0.247
       105  -9.7176    236.1744    138.1592   3.2174563367e+01   7.9840783713e+00    0.1667993     0.148784 -39.71  0.000646332    1.310    0.237
       106  -9.9132    144.2670    136.9324   5.0113452132e+01   2.5798542698e+01    0.2110868    0.1917234 -22.97 0.0003581488    1.119    0.106
       107 -10.2751     43.9892    136.7054   7.8296178435e+01   4.2162328719e+01    0.1859399    0.1677686  73.06 0.0004222884    1.063    0.060
       108 -10.5354      2.8889    136.1715   9.0292983611e+01   4.5801588446e+01    0.3148609    0.1473144 -76.25 0.0007675535    1.764    0.433
       109  -9.3051      9.4286    136.4413   8.8451709324e+01   4.5302381535e+01    0.1263328    0.1030743  86.22 6.065065e-05    1.010    0.010
       110 -10.4171     20.5568    134.9624   8.5086410467e+01   4.4826773234e+01    0.2455976    0.1465198 -87.10   0.00104678    1.505    0.335
       111 -11.3844     17.4568    131.0350   8.5635229718e+01   4.6047405210e+01     0.375537    0.2491865  20.96  0.001552942    1.776    0.437
       112 -11.4192     53.4034    132.5150   7.4847848315e+01   4.2133143984e+01    0.3471686    0.3044746  43.32 0.0005308518    1.189    0.159
       113 -10.4424     59.7740    131.1743   7.2678941009e+01   4.1674863245e+01    0.2614761    0.1842602 -16.09  0.001206582    2.077    0.519
       114 -11.0756      4.5230    130.2644   8.9409824207e+01   4.7137982910e+01    0.2174118    0.1906878 -86.42 0.0005152461    1.099    0.090
       115 -10.7067     73.6401    129.0295   6.8040040593e+01   4.0299978228e+01    0.3061706    0.2574013  88.28  0.000825282    1.217    0.178
       116 -11.0170     24.5861    126.8419   8.3025269888e+01   4.6522059284e+01    0.2767595    0.2132662  48.34    0.0012635    1.329    0.248
       117 -10.4424    229.5932    125.2954   3.0381537627e+01   1.1072608793e+01    0.2578131    0.1123648 -36.88  0.001116713    2.019    0.505
       118 -10.3833     47.4342    124.2337   7.5449712941e+01   4.4928505862e+01    0.2319759    0.1913759  32.84 0.0007529724    1.317    0.240
       119  -9.9524     30.5097    124.1849   8.0848323413e+01   4.6672830841e+01    0.2000938    0.1179481 -73.76  0.001000661    1.496    0.331
       120 -12.1062     10.4462    121.3377   8.6878280084e+01   4.8965511990e+01    0.5118403    0.3053782  83.50  0.001878889    1.549    0.354
       121 -10.6417    117.4281    124.3125   5.4161996890e+01   3.3893930307e+01    0.4318175    0.1348848 -44.28   0.00129408    3.384    0.705
       122 -10.2922     19.8986    122.6515   8.4034285799e+01   4.7956741086e+01    0.2607652    0.1468773 -60.45  0.000678674    1.596    0.374
       123 -11.0421     23.8297    119.0880   8.2367863115e+01   4.8543043716e+01    0.3656017    0.2869718  -7.60  0.002133283    1.641    0.391
       124  -9.1913    243.3324    122.3182   2.7657305726e+01   9.0909503295e+00     0.133752   0.09226206   1.92 0.0007048092    1.692    0.409
       125 -10.1743     75.5912    112.3696   6.4047284612e+01   4.4164558721e+01    0.2653761    0.1825776  31.01 0.0006025889    1.561    0.359
       126  -9.5177     65.4035    119.7787   6.8887560972e+01   4.3796834095e+01     0.248315    0.1850098  13.30  0.000594929    1.662    0.398
       127 -11.0969     69.6058    121.3979   6.7851389146e+01   4.2796179126e+01     0.408535    0.3032602  13.86  0.001930485    1.672    0.402
       128 -10.8681     71.8381    116.1452   6.6078469096e+01   4.3789021369e+01    0.4083986    0.2780125 -66.43  0.001930721    1.449    0.310
       129 -10.4425     56.7891    121.2778   7.1948869996e+01   4.4557929531e+01    0.2429208    0.1803756 -81.74  0.000517742    1.348    0.258
       130 -10.5932      1.4805    118.5417   8.9442332409e+01   5.0202444056e+01    0.2280121    0.1191755 -81.13 0.0001722287    1.572    0.364
       131 -11.7815     30.3761    107.5479   7.8599706235e+01   5.0922029966e+01    0.7992039    0.3763754  70.11  0.003001209    3.234    0.691
       132 -12.2058     12.8392    110.5465   8.5017612595e+01   5.1516135684e+01    0.5716193    0.3880722 -74.53  0.002700526    1.232    0.188
       133  -9.9936    249.5117    117.5006   2.5735153489e+01   8.7271257888e+00    0.1303216    0.1071065 -24.52 -5.051155e-05    1.021    0.020
       134 -10.4461    100.3727    117.1438   5.7374429728e+01   3.8797879394e+01    0.2943971    0.2152557   7.90  0.001298663    1.889    0.471
       135  -9.6149     50.6130    116.8714   7.3206952968e+01   4.6435125011e+01    0.2173132    0.1922343  -0.27 0.0005666734    1.347    0.258
       136  -9.9176     85.8925    116.1447   6.1585716419e+01   4.1574683872e+01    0.2215729    0.1975632  81.00 0.0002775738    1.184    0.155
       137 -12.1475     22.1061    107.7994   8.1518447946e+01   5.1547913811e+01    0.9492974    0.4324318  -7.37  0.003445775    4.365    0.771
       138 -10.9323    182.0055    114.7194   3.6306410920e+01   2.2302623040e+01    0.5297583    0.2485008  39.96  0.001395286    2.348    0.574
       139 -10.3151    250.2549    112.4229   2.4520775363e+01   9.3236284489e+00    0.2278927    0.1320761 -45.38 0.0008147153    1.760    0.432
       140 -11.5510     55.1742    109.7036   7.0347965967e+01   4.7704611155e+01    0.2882507    0.2609505 -59.53 0.0005953138    1.057    0.054
       141  -8.8261     42.2987    108.3401   7.4557710665e+01   4.9550776481e+01    0.1459026   0.09571308 -40.61 0.0002891299    1.664    0.399
       142 -10.1875      3.1593    107.9147   8.7999763803e+01   5.2752218438e+01    0.2165692    0.1614583  34.93 0.0008454682    1.517    0.341
       143 -10.2923     62.1172    106.3731   6.7274950471e+01   4.7636121337e+01    0.1993013    0.1882149  65.92 0.0006917371    1.101    0.092
       144 -11.9131     51.0681    103.9970   7.0655396904e+01   4.9662126792e+01    0.3968459    0.3273549  18.31 0.0008462686    1.385    0.278
       145 -11.8220     16.1543    115.5880   8.4469934625e+01   5.0016622104e+01    0.3966812    0.2610916  69.36 0.0008183784    1.528    0.346
       146 -10.6802     75.5252    101.0257   6.1428166656e+01   4.6986612937e+01    0.3626238    0.2436659 -73.41  0.001004578    1.741    0.426
       147  -9.9363     76.7993     97.4398   6.0090375922e+01   4.7660840162e+01    0.2722514    0.1910772 -45.38 0.0005120864    1.386    0.278
       148  -9.4824    119.5093    101.4908   4.7740807527e+01   3.8637915949e+01    0.1554066    0.1518611 -19.80 0.0003540494    1.023    0.022
       149 -11.8909     62.1526     98.1432   6.5424180541e+01   4.9699197051e+01    0.6779022    0.2541666 -52.59  0.002499376    2.376    0.579
       150  -9.8243     66.9983     97.7741   6.3606628169e+01   4.9096479647e+01    0.2794875    0.1405517  24.74 0.0004465396    2.453    0.592
       151 -11.6964     15.9638     97.4301   8.2314155619e+01   5.4625782236e+01    0.5360726    0.2503991 -62.69  0.002552678    1.737    0.424
       152 -10.1443     31.6240     92.7532   7.5671431995e+01   5.4580511780e+01    0.2492632    0.1692174 -66.81 0.0002779658    1.286    0.222
       153 -10.2554     21.7804     98.9931   8.0399791430e+01   5.3813104438e+01    0.3467238    0.1620707  36.61   0.00160407    2.280    0.561
       154 -10.5251     32.4146     96.4783   7.6045509094e+01   5.3561760688e+01    0.4289207    0.2150375  84.97  0.001000934    2.979    0.664
       155 -10.3056    225.8572     98.0134   2.4609068000e+01   1.5976069331e+01    0.2026754    0.1959606  31.94  0.000323953    1.169    0.144
       156  -9.5359     81.6979     97.6335   5.8465089126e+01   4.6800777826e+01    0.2188116    0.1650875 -22.33 0.0005395899    1.620    0.383
       157 -10.7653    102.4421     96.0994   5.1296152917e+01   4.3346407679e+01    0.3450872    0.2471178  65.31 0.0007957031    1.784    0.439
       158  -9.9145     57.4437     96.0885   6.6654369020e+01   5.0853955047e+01     0.218162    0.1314075 -58.65 0.0003424419    1.516    0.340
       159 -10.5422    226.3523     93.1870   2.3376352501e+01   1.6611973319e+01    0.2363778    0.2116159 -72.04 0.0005236508    1.299    0.230
       160 -10.1950     52.3067     93.5442   6.7973866967e+01   5.2153071544e+01    0.2985596    0.2342547  25.86  0.001104284    1.409    0.290
       161 -11.3845     56.7935     90.4081   6.5548470987e+01   5.2357639993e+01    0.4649144    0.3295174  -5.50  0.000579813    1.892    0.472
       162 -10.0615    231.5931     91.7089   2.2292472406e+01   1.5791399181e+01    0.1969233    0.1094195 -40.09  0.000846896    1.581    0.367
       163 -11.7150     10.4172     90.9954   8.3521019761e+01   5.6596933336e+01     0.237368    0.2103381 -54.72 0.0003439927    1.141    0.123
       164  -9.2787    249.7006     91.2886   1.9866251695e+01   1.2414154057e+01    0.1267331   0.08859513 -53.83 0.0002804959    1.558    0.358
       165 -10.6185    160.4334     90.2122   3.4252350091e+01   3.1718068208e+01    0.3412587    0.2751597 -41.16  0.001357744    1.209    0.173
       166  -9.4986     36.2661     91.0589   7.3557909228e+01   5.4570570131e+01    0.3262955    0.1474095  53.43  0.001232216    3.142    0.682
       167 -10.5487     49.1195     90.0181   6.8374701255e+01   5.3427475578e+01    0.2061315    0.2052188  14.12 0.0002958406    1.105    0.095
       168  -9.9284     23.9593     89.9696   7.8140109270e+01   5.5934287445e+01    0.2499914     0.184671 -89.56    0.0012872    1.361    0.265
       169 -10.8905     21.5397     83.8849   7.8036330177e+01   5.7652919815e+01    0.4604373    0.2139908 -79.75  0.001751427    2.275    0.560
       170 -10.4780    177.9382     89.0158   3.0322854194e+01   2.7847253136e+01    0.2189713    0.2076624 -26.63            0    1.018    0.018
       171 -10.0873    153.0500     89.0955   3.5578791562e+01   3.3661815055e+01    0.2195092    0.2145618 -47.43  0.001169656    1.031    0.030
       172 -11.4934     94.8364     88.5518   5.1545515424e+01   4.6560157958e+01     0.380738    0.2744489  47.63  0.001357838    1.462    0.316
       173 -10.6125     84.6441     88.4378   5.4934083521e+01   4.8479927392e+01    0.4896611    0.2411969  37.97   0.00159262    2.117    0.528
       174  -9.9659     73.9410     89.0596   5.8874528227e+01   5.0155518626e+01    0.2138194    0.2024959 -51.83            0    1.013    0.013
       175 -12.3566    107.4356     84.7992   4.6416204190e+01   4.4857030625e+01    0.3646494    0.3047839  70.48 0.0003684767    1.409    0.290
       176 -10.8504     65.1270     85.7089   6.1197534100e+01   5.2335554142e+01     0.349249     0.285917 -41.66  0.001410019    1.174    0.148
       177 -10.3316     42.4634     86.9094   7.0256533281e+01   5.4970960137e+01    0.2084157    0.1856888  72.35 0.0003189077    1.231    0.188
       178 -10.3052     38.9060     86.4081   7.1553757448e+01   5.5475640590e+01    0.2656375    0.1395738 -36.54 0.0007149272    2.204    0.546
       179 -10.0353     29.9944     85.4964   7.4926024389e+01   5.6559857196e+01    0.2596526    0.1893997  63.55  0.001150581    1.601    0.376
       180 -10.7548     30.4998     81.4518   7.3895820535e+01   5.7528704942e+01    0.3306404    0.2155439 -49.50  0.000983318    1.373    0.272
       181 -10.3062    116.9756     83.3024   4.3113330273e+01   4.3120779356e+01    0.3658633    0.2214402 -57.61  0.001450134    2.013    0.503
       182 -10.1660     68.9963     82.5845   5.8873411227e+01   5.2494257085e+01    0.3096285    0.2059061 -71.08  0.000596548    1.837    0.456
       183  -9.7496     86.0274     82.9798   5.2843449403e+01   4.9495038115e+01    0.2288041    0.1797328 -10.35 0.0003279821    1.561    0.359
       184 -11.1729     77.3866     82.1164   5.5644152866e+01   5.1228147138e+01    0.5335353    0.2386512  42.05  0.002032596    2.357    0.576
       185 -10.1931      7.3646     81.0166   8.3339093826e+01   5.9261770635e+01    0.3170621    0.1638578 -45.53  0.001082843    1.821    0.451
       186 -10.4819     44.7348     74.5679   6.6301856061e+01   5.7758359573e+01    0.2655772    0.1398005  48.86   0.00111882    2.453    0.592
       187 -10.5208     50.5065     78.5072   6.4968186888e+01   5.6099694021e+01    0.4127003     0.209195 -64.60  0.001726445    2.040    0.510
       188  -9.4255     97.7383     79.6801   4.7875997446e+01   4.7973803378e+01    0.2427325    0.2103135 -36.58 0.0001581476    1.130    0.115
       189 -11.1813     99.7710     75.9717   4.6018220020e+01   4.8359796063e+01    0.5649202    0.3683872 -69.68  0.002229901    2.359    0.576
       190  -9.6136     62.4565     79.9783   6.0624255589e+01   5.4110812640e+01    0.1896038    0.1272639 -84.98 1.726516e-05    2.220    0.549
       191 -12.7293     88.1464     77.3948   5.0368515932e+01   5.0360410443e+01     0.395906    0.3348981  19.49 0.0003837259    1.281    0.219
       192 -11.5597     20.7508     76.1991   7.6922739850e+01   5.9630433642e+01    0.5091965    0.2805196 -32.44  0.002453503    2.045    0.511
       193 -10.7673     38.1560     75.5648   6.9341845934e+01   5.8244233714e+01    0.3435303    0.2129908 -28.58 0.0009665384    1.885    0.469
       194 -11.6568    167.7955     73.2664   2.7774720702e+01   3.2990197867e+01    0.4110578    0.2381409 -38.48 0.0004489977    1.651    0.394
       195 -11.0216     54.8171     75.0195   6.2245616079e+01   5.6375697191e+01      0.30858    0.2089766  19.43 0.0009303882    1.705    0.414
       196 -11.6194      2.8538     63.3740   8.2537592563e+01   6.3809592071e+01    0.7051319    0.2582195 -64.86  0.003205547    2.025    0.506
       197  -9.8359     23.8584     41.7138   6.6303406406e+01   6.7529057678e+01    0.6770408    0.2737565 -43.47  0.002837409    2.129    0.530
       198 -12.8893     27.0975     37.1852   6.2836679665e+01   6.8198988373e+01    0.4324341    0.3232235  45.00  0.001740953    1.725    0.420
       199 -10.3106      7.4959     73.1840   8.2088253891e+01   6.1196254421e+01    0.3143145    0.1729475 -47.92 0.0009676628    1.610    0.379
       200 -10.9178      6.5994     68.1126   8.1638049450e+01   6.2486150879e+01    0.2774601    0.2044206  79.57 0.0007438183    1.483    0.326
       201 -10.0147     83.5976    248.2859   8.0067397482e+01   1.3760407444e+01    0.2210487    0.0965694  43.36 0.0007169576    1.710    0.415
       202 -11.0654      2.6835     52.8590   8.0667912890e+01   6.6334824473e+01    0.3487843    0.2162038 -46.44  0.001778494    1.363    0.266
       203 -13.4762     12.4722     47.6308   7.4324203146e+01   6.7053183460e+01    0.5874193     0.522866  72.83 0.0008461591    1.375    0.273
       204 -11.3986      3.1795     48.1950   7.9421202620e+01   6.7410103119e+01    0.4684649    0.3656788 -39.66  0.002346815    1.169    0.144
       205 -11.1105    105.4109     65.2926   4.0593366439e+01   4.9345289803e+01    0.4227687    0.2937697 -16.37  0.001261517    1.825    0.452
       206 -10.7383    109.8686     64.3315   3.8899830699e+01   4.8536708206e+01    0.4299003    0.3165865 -70.95  0.001742865    1.877    0.467
       207  -8.9061     76.0058     74.0000   5.3641381126e+01   5.3332320603e+01     0.238736   0.08548823  37.85 0.0008006631    2.930    0.659
       208  -9.5480     61.5222     73.4765   5.9079002150e+01   5.5787573852e+01    0.1447289    0.1345837 -44.13 4.137572e-06    1.024    0.023
       209  -9.1699    149.0194     77.7729   3.3112826902e+01   3.6750893065e+01    0.1994597    0.1290666  53.33 0.0004724349    1.576    0.365
       210  -9.6030    160.2750     71.5910   2.8775477738e+01   3.5113830190e+01    0.2076476    0.1427205  45.69 0.0004539575    1.510    0.338
       211 -13.9535     16.5747     67.4699   7.6997186462e+01   6.2070499603e+01    0.5496844    0.3510394 -48.43 0.0009047873    1.356    0.263
       212  -9.9788     45.1315     70.8146   6.5102865834e+01   5.8615203691e+01    0.1948286    0.1775718 -69.32 0.0002956992    1.141    0.124
       213 -11.0127     93.2634     67.5813   4.5331052278e+01   5.1464119367e+01     0.517482     0.253384 -32.00  0.001687495    2.485    0.598
       214  -9.6926    244.8034     69.1631   1.5337189359e+01   1.6398488852e+01    0.1674086     0.144235  -4.83  0.000413304    1.312    0.238
       215 -11.4788    122.6597     67.4948   3.6354561391e+01   4.4980786285e+01    0.3028033    0.2676815 -34.75 0.0002457533    1.123    0.110
       216 -12.3820     39.2252     50.6071   6.1454102770e+01   6.3974626702e+01    0.6726863    0.6132609 -12.42  0.004173682    1.101    0.091
       217 -10.9101     73.0242    244.4965   8.1824548301e+01   1.5685956215e+01    0.2709401    0.2035448  34.37  0.001169244    1.249    0.199
       218 -11.7242     47.0636     60.2218   6.1033955238e+01   6.0852835580e+01    0.6435667    0.3731114  -7.89  0.002045837    2.824    0.646
       219 -11.5303     50.3327     68.2194   6.2113984382e+01   5.8580987903e+01    0.3090107    0.2252526 -39.33 0.0004994452    1.293    0.226
       220 -11.2652     51.3051     62.3886   5.9858036035e+01   5.9800338758e+01    0.5121095    0.3746359  -6.98    0.0026118    1.632    0.387
       221 -11.0930     44.9168     38.2137   5.3782240263e+01   6.5851466423e+01    0.2712244    0.2191589 -36.89            0    1.129    0.114
       222 -12.4129    147.0311     65.5758   2.9714206925e+01   3.9417249538e+01    0.3083449    0.2828627 -57.72  0.001615383    1.117    0.105
       223 -10.2523    139.2462     66.9040   3.1937297831e+01   4.1100534381e+01    0.2409797    0.2118314 -74.26 0.0005263361    1.269    0.212
       224 -12.5963     30.2989     63.2367   6.9644874226e+01   6.2002671568e+01    0.5169817    0.4419451 -50.75   0.00121114    1.017    0.017
       225  -9.6601    131.2076     65.1725   3.3329080447e+01   4.3368381765e+01    0.2110822    0.1811789 -68.80 0.0004410958    1.317    0.241
       226 -11.0904     81.4057     64.9656   4.8593779533e+01   5.4338565595e+01    0.2772511    0.2163285  28.97 0.0005540868    1.349    0.258
       227 -12.1783     64.1525     37.5605   4.4533496708e+01   6.2907894658e+01    0.6287998    0.4404906 -12.40 0.0006069043    1.629    0.386
       228 -10.4900    210.0060     63.1544   1.8053926843e+01   2.4581543532e+01    0.2229649    0.1839063 -35.93 0.0003254421    1.109    0.098
       229 -10.9701     44.4982     43.6419   5.6242838964e+01   6.4805983237e+01    0.4608867    0.3397353 -78.14  0.001382922    2.110    0.526
       230 -11.7012    202.0676     62.5108   1.8974838922e+01   2.6492738636e+01    0.2705926    0.2142706 -32.61 -0.0001277281    1.188    0.158
       231  -9.9931    194.3887     62.6447   2.0131390851e+01   2.8272526441e+01     0.264784    0.1715047  59.64 0.0007571658    1.621    0.383
       232 -10.8544    154.8994     62.9257   2.7179428252e+01   3.7909593643e+01    0.2853527    0.2769856  49.74 0.0007221247    1.047    0.045
       233 -10.5508    150.8069     60.8868   2.7377263722e+01   3.9269881017e+01    0.2487151     0.220474  57.46 0.0003883614    1.135    0.119
       234 -10.7726    119.3829     60.3522   3.4767208245e+01   4.7075068008e+01    0.4667172    0.2530377 -39.19 0.0008083968    1.829    0.453
       235  -9.7055    114.7640     60.2007   3.6001991645e+01   4.8188732656e+01    0.2744585    0.1985836  42.25 0.0006049112    1.393    0.282
       236 -10.4157    112.0208     56.4955   3.5441131401e+01   4.9500766504e+01    0.2707407    0.2179013 -40.36 -9.724718e-05    1.249    0.199
       237 -10.7301    115.8257     55.3443   3.3941241201e+01   4.8811229367e+01    0.3163198    0.2626752  44.47  0.000628186    1.195    0.163
       238 -10.1785     90.0596     61.0764   4.4101446377e+01   5.3445358892e+01     0.220741     0.214425 -34.86 0.0004002283    1.067    0.062
       239 -10.2613     83.2725     60.6524   4.6356943115e+01   5.4881060729e+01    0.2633157    0.1815052  51.96 0.0007215875    1.639    0.390
       240 -10.7871    169.4463     58.9248   2.3133685948e+01   3.4918112284e+01    0.4486213    0.2809605  37.27  0.001628652    1.924    0.480
       241 -11.9281    135.1938     58.1177   2.9947963028e+01   4.3626636703e+01    0.7988821    0.4477524 -53.19  0.002272039    2.180    0.541
       242 -10.3487    127.4996     50.9672   2.9287774209e+01   4.6720184370e+01    0.2988685    0.2519867  14.09 0.0008597099    1.328    0.247
       243 -11.1794    130.9177     49.1417   2.7804926787e+01   4.6163005112e+01    0.5575728    0.2976264  73.85 0.0007984335    2.809    0.644
       244 -10.8075    127.1276     58.3407   3.2010250666e+01   4.5570265674e+01    0.3020104    0.2493808 -39.12 0.0005752518    1.212    0.175
       245  -9.9103    163.4925     57.8172   2.3878647757e+01   3.6580332650e+01     0.294488    0.1856977  39.33 0.0008768464    1.826    0.452
       246  -9.5050     38.7651     57.9423   6.4123607520e+01   6.2373361365e+01    0.1916059    0.1345565 -20.66 0.0005555858    1.570    0.363
       247  -9.7452     87.2802     57.5444   4.3760769750e+01   5.4712372455e+01    0.2633653     0.145924  38.19  0.001098333    1.885    0.470
       248 -11.1345     89.3277     53.0718   4.1327435504e+01   5.5156064176e+01    0.6589796    0.3586647 -47.26  0.002743243    1.953    0.488
       249 -11.2604     80.0667     56.5192   4.5995618641e+01   5.6337251341e+01    0.4104441    0.2626767 -19.02  0.001350372    2.049    0.512
       250  -9.0686    177.3321     56.2767   2.0977699686e+01   3.3361750568e+01    0.1476533     0.112433  28.13 0.0003610048    1.601    0.375
       251 -10.1437    106.8597     54.8351   3.6341163189e+01   5.0991060633e+01    0.2776733    0.2432165 -79.79 0.0004722814    1.375    0.273
       252 -11.3218    103.8549     52.7487   3.6461203381e+01   5.2049988062e+01    0.5156166    0.3406222  13.29  0.002111326    2.235    0.553
       253  -9.9529    144.3358     54.1473   2.6524414816e+01   4.1992267835e+01    0.3927262    0.2181655  77.81  0.001407166    2.757    0.637
       254  -9.5412     28.3291     53.8833   6.7920319406e+01   6.4380135444e+01    0.2894146    0.1593456  33.04  0.001429513    2.036    0.509
       255  -9.9268     61.9504     52.6982   5.1784657494e+01   6.0333316988e+01    0.2322277    0.1754405 -34.50 0.0003395211    1.246    0.197
       256  -9.6971    149.0307     51.4946   2.4648909071e+01   4.1219701676e+01    0.2259592    0.1460759  57.02  0.001007625    1.527    0.345
       257  -9.7514     73.5423     49.9426   4.5932088821e+01   5.8870169462e+01    0.3101962    0.1774735 -41.91  0.001277765    1.686    0.407
       258 -10.6320    141.1590     48.8375   2.5388907276e+01   4.3628471786e+01    0.4153785    0.2592508  85.29  0.001278266    2.334    0.571
       259 -10.7312    141.9059     45.1933   2.3961806600e+01   4.3988367202e+01    0.4995268    0.2140425  61.18  0.001828941    2.360    0.576
       260  -9.3156    168.5537     48.5276   2.0071627345e+01   3.6699452420e+01    0.1464489    0.1402038 -63.38 0.0001019176    1.009    0.009
       261  -9.5691    121.1688     46.8247   2.9350091408e+01   4.8948663880e+01    0.2185643    0.1983841 -85.55 0.0003159351    1.227    0.185
       262  -9.3463     62.0445     47.4455   4.9671912750e+01   6.1389493417e+01    0.2036421    0.1375452  36.48 0.0005007464    1.543    0.352
       263 -10.8382    112.6640     45.3430   3.1040649099e+01   5.1251290923e+01    0.2783526    0.2384036  17.94 0.0005576067    1.239    0.193
       264  -9.3832    104.5128     46.5057   3.3834120840e+01   5.2981380807e+01    0.1492551    0.1427062  12.81 0.0008105126    1.009    0.009
       265 -10.3059    152.7448     45.3174   2.1851814936e+01   4.1195093542e+01    0.3815869    0.1715975  62.10  0.001398989    2.229    0.551
       266 -10.8907    163.0827     43.1275   1.9282592250e+01   3.8856472266e+01     0.482279    0.1825751 -40.97  0.001234428    2.539    0.606
       267 -10.1130    130.9586     42.2052   2.5272395292e+01   4.7214809164e+01    0.3621685    0.2003891 -31.17  0.001404754    1.835    0.455
       268 -11.1047     96.5734     42.1392   3.4512290207e+01   5.5520599813e+01    0.4175307    0.3134262  24.17   0.00100998    1.457    0.314
       269 -11.1452     73.2863     43.2213   4.3251622041e+01   6.0191545655e+01    0.2983443     0.237061  56.03  0.001055167    1.502    0.334
       270 -10.8915    226.7327     40.7243   1.0352411793e+01   2.3869417144e+01    0.5174487    0.1771274 -45.83  0.002044289    2.602    0.616
       271  -9.6650    158.0152     43.0465   2.0134086040e+01   4.0166511939e+01    0.1806342    0.1644192 -36.78 0.0004975946    1.103    0.093
       272 -12.4655     75.5914    240.1926   8.0997112717e+01   1.6099318108e+01    0.5362603    0.4366364 -86.01  0.003628695    1.392    0.282
       273 -11.2903     95.5371     36.0585   3.2276408567e+01   5.6725896498e+01    0.6771474    0.2707641  54.21  0.001878214    2.553    0.608
       274 -12.3447     83.5662     35.7018   3.6106672880e+01   5.9417844123e+01    0.5937117    0.4486724 -11.05 0.0009198211    1.425    0.298
       275 -10.1992     78.1210     41.1465   4.0490969317e+01   5.9621247868e+01    0.2639637    0.2568656 -46.91 0.0009419619    1.175    0.149
       276 -11.5067     75.0371     35.5453   3.9187942277e+01   6.1199411021e+01    0.4633022    0.3868805  30.09  0.001626235    1.168    0.144
       277 -10.3271     73.5598     31.4761   3.7881091802e+01   6.2162338283e+01    0.2634024     0.225374   8.50 0.0005553383    1.125    0.111
       278  -9.8995    187.0005     41.0525   1.5022896324e+01   3.3107271770e+01     0.167843    0.1556067 -57.54            0    1.011    0.011
       279 -10.6027    108.8765     40.9765   3.0369502648e+01   5.2849825729e+01    0.3959945    0.2511034  66.47  0.001727976    1.864    0.464
       280 -10.6136    236.3047     39.8956   9.2464503012e+00   2.1921058296e+01    0.2064514    0.1985967  21.74 0.0004347657    1.276    0.216
       281  -9.4624    189.6542     39.2838   1.4157411600e+01   3.2684335942e+01    0.1498129   0.09921125 -64.97 0.0005405023    1.645    0.392
       282  -9.2867    135.4590     39.4448   2.3273091985e+01   4.6469593908e+01    0.2490936     0.147268 -29.28 0.0005314014    1.736    0.424
       283 -10.5898    134.6266     35.0793   2.1851039062e+01   4.7287337067e+01    0.3297282    0.2423485 -89.52 0.0005524036    1.631    0.387
       284  -9.5928    155.0177     37.8341   1.8931257619e+01   4.1653323731e+01    0.2243061    0.1456372 -48.64  0.001024131    1.598    0.374
       285 -10.9833    247.9556     36.2650   7.3989790836e+00   1.9965479686e+01    0.2184545    0.1621991 -42.71 0.0002890222    1.103    0.094
       286 -10.2043    202.7603     36.8784   1.1884087386e+01   2.9821065774e+01     0.283916    0.1765928  54.17  0.001013024    1.736    0.424
       287 -10.9669      9.8065     34.8417   7.2062268792e+01   7.0102566715e+01    0.3925581    0.2954035  59.61  0.002181046    1.861    0.463
       288  -9.6138      1.4203     37.0559   7.7711127867e+01   7.0041907976e+01     0.188957   0.09684535 -62.48    0.0010051    1.561    0.359
       289 -10.5394    193.8217     34.7379   1.2333881026e+01   3.2240441224e+01    0.4374712    0.1608308 -39.80  0.001197284    2.384    0.581
       290  -9.6876    129.1811     35.8276   2.3297662914e+01   4.8577488110e+01    0.2055488    0.1659102  33.06 0.0003838948    1.306    0.234
       291 -10.4921    110.3808     35.0231   2.7549130194e+01   5.3380263098e+01    0.4146559    0.2082191  46.43  0.001599667    1.930    0.482
       292 -12.6480    240.6912     34.2749   7.5293992761e+00   2.1682646680e+01    0.2461233    0.2101848 -57.95 0.0004498579    1.062    0.059
       293 -11.1874     89.1870     41.3915   3.6626307088e+01   5.7275168748e+01    0.3371574    0.3017357 -49.40  0.001029729    1.240    0.193
       294  -9.5200     34.0736     33.6921   5.7522854533e+01   6.8155336799e+01    0.1740824    0.1536309 -10.30 0.0005845419    1.087    0.080
       295  -9.0231    141.2420     33.6497   2.0006891320e+01   4.5772314254e+01    0.1500191    0.1062256 -56.77 0.0003423868    1.577    0.366
       296  -9.8048    123.7896     33.1514   2.3487283163e+01   5.0311556019e+01    0.2134633     0.168126  29.94 0.0008094532    1.358    0.264
       297  -9.7674    118.0969     33.1566   2.4831851276e+01   5.1741374536e+01    0.4089631    0.1446856  43.78  0.001329491    3.118    0.679
       298  -9.6409     12.2018     29.2112   6.8624823144e+01   7.1160780202e+01    0.1947931    0.1416625 -16.45 0.0003760161    1.344    0.256
       299 -10.2210     15.7747     31.9264   6.7433956752e+01   7.0319980886e+01    0.2458592    0.1524261 -60.21  0.000905581    1.538    0.350
       300 -10.0054     19.2075     31.1567   6.5056362548e+01   7.0202039446e+01    0.2629777    0.1953582  24.71 0.0009010716    1.514    0.339
       301 -10.2345    163.0551     28.6479   1.4594083714e+01   4.0743383859e+01    0.3462361    0.2046578 -13.86  0.001509536    2.079    0.519
       302 -11.6428    234.1083     27.2047   6.3868266963e+00   2.3891987069e+01    0.2731166    0.2041709 -62.24 0.0002724305    1.215    0.177
       303 -11.4987    197.1747     28.0725   1.0071755837e+01   3.2230934363e+01    0.4984524    0.2293295  82.51  0.001794884    2.615    0.618
       304  -9.9687    145.4702     27.6947   1.7107313317e+01   4.5426263989e+01    0.3393501    0.2304162  -8.80  0.001462916    1.783    0.439
       305 -10.8059     88.8856    241.0814   7.8440999431e+01   1.4275279620e+01    0.1755223    0.1572575 -67.34  0.001212197    1.392    0.282
       306  -9.8925      7.3089     25.6356   7.0434388555e+01   7.2238977943e+01    0.2705143     0.164191 -78.87  0.001406299    2.253    0.556
       307  -9.5089    156.6592     28.2627   1.5445748870e+01   4.2446801976e+01    0.1486952    0.1049535 -69.97  0.000239454    1.592    0.372
       308  -9.8635    133.3116     27.4131   1.9265513661e+01   4.8616168767e+01    0.3125784    0.1552357  49.72    0.0012856    1.934    0.483
       309 -10.1631     59.8897    240.8937   8.4124568099e+01   1.7862965980e+01    0.1629606    0.1378895  35.00  0.001222427    1.285    0.222
       310  -9.7508    114.6477    240.0324   7.3225074656e+01   1.1034975003e+01    0.3087394   0.07592375  43.24  0.001191941    3.311    0.698
       311 -10.9440     35.1198    237.8768   8.8721223422e+01   2.1132677720e+01    0.2665668    0.1032235  52.11  0.001400669    1.958    0.489
       312 -10.8574    119.2403     27.5077   2.2302025102e+01   5.2201661008e+01    0.4031608    0.3279509 -73.23  0.001597037    1.449    0.310
       313  -9.8136    123.4086     25.4823   2.0566111964e+01   5.1396418071e+01    0.2334774     0.210208   6.18 0.0005770511    1.175    0.149
       314 -10.6928     30.8402    234.6121   8.9378579251e+01   2.2159875682e+01    0.2664862    0.1800471 -81.43  0.001335469    1.556    0.357
       315 -10.3446     32.0801    230.4527   8.8933982199e+01   2.2789910644e+01      0.17947    0.1463619  28.98  0.001098491    1.446    0.309
       316  -9.1679     18.3236    237.3193   9.1856177394e+01   2.2913170091e+01   0.08822833   0.08147318 -40.35 0.0004012658    1.674    0.402
       317 -11.3461      8.4403    248.7638   9.4023690816e+01   2.1849299417e+01    0.3536382    0.1937797  32.93  0.001896849    1.702    0.412
       318 -10.7906     54.7602     24.4881   4.2461914916e+01   6.6803216427e+01    0.3452308    0.2508529 -57.87 0.0006318697    1.993    0.498
       319 -10.7686     64.8611     19.3132   3.5307194198e+01   6.5724383685e+01    0.3666035     0.259159  74.34    0.0017399    2.425    0.588
       320  -9.1450    191.2810    236.3200   5.7990699648e+01   9.3913953655e-01      0.11622   0.07470626   5.21 0.0004913457    1.584    0.369
       321  -9.5310     76.2846     15.8058   2.9130255562e+01   6.3830777531e+01    0.2200091    0.1768823  27.65  0.001241453    1.157    0.136
       322 -11.2806    160.7404    235.1150   6.3570412988e+01   5.3386406107e+00    0.3008046    0.1613644  22.96  0.001212854    1.825    0.452
       323 -10.1160     67.5773    236.0803   8.2274523391e+01   1.7790297143e+01    0.2291703    0.1476378  31.71  0.001456809    1.457    0.314
       324 -11.4654    215.8872     25.5988   7.5447513486e+00   2.8107533083e+01    0.3803287    0.2403887  65.85  0.001150995    1.652    0.394
       325 -11.0303    176.5734     26.7146   1.2112979579e+01   3.7507787563e+01    0.2803996    0.2128072 -70.65 0.0005641591    1.342    0.255
       326 -10.0601     80.3870     26.2344   3.2863989515e+01   6.1545069299e+01    0.2710519    0.1920853 -25.56 0.0009220177    1.412    0.292
       327 -11.0135    182.9936    234.1497   5.9211701391e+01   2.3548284224e+00    0.3108379     0.179207  31.46  0.001308757    1.398    0.285
       328 -10.6395    239.6626     25.8476   5.6307885661e+00   2.2872962468e+01    0.2799121    0.1439793 -53.39  0.001435696    1.749    0.428
       329 -10.0895     90.2392     25.7215   2.9339736036e+01   5.9437264837e+01    0.2284111    0.1872687  48.09 0.0005290664    1.186    0.157
       330 -11.7078    185.0941    228.1213   5.7951608340e+01   2.8678783251e+00    0.5925855     0.316835  18.07  0.003122728    1.989    0.497
       331 -10.6421     39.6595    229.3633   8.7386451812e+01   2.2193642692e+01    0.2684949    0.1439202  65.30  0.001347959    1.666    0.400
       332  -9.7630     45.7148    244.5453   8.7061942643e+01   1.8833687831e+01      0.16142   0.07166155  44.53 0.0009465847    1.626    0.385
       333 -12.1395     34.3212     22.6081   5.2152917394e+01   7.0239405339e+01    0.2809771    0.2229251 -15.02 0.0001440179    1.119    0.106
       334  -9.8963     54.8263    231.9836   8.4530217816e+01   2.0026733165e+01    0.2100737    0.1230468  85.58  0.001106915    1.849    0.459
       335 -11.9020     28.8602     19.7365   5.3903993013e+01   7.1444814599e+01      0.32525    0.2160018   4.58 0.0004058895    1.623    0.384
       336 -10.0356     58.5952    229.1936   8.3580022198e+01   2.0096024978e+01    0.3345182   0.08475272  42.48  0.001460896    2.698    0.629
       337  -9.1212     24.2777    232.3250   9.0528628840e+01   2.3234255769e+01    0.0898206   0.08195873 -53.55 0.0002781886    1.588    0.370
       338 -10.2689    195.7963    238.4529   5.7475157441e+01   6.5659167028e-02    0.2093684    0.1737863   0.80 0.0009570966    1.189    0.159
       339  -9.4336    102.3044    243.6478   7.6022074018e+01   1.2110400914e+01    0.1196575   0.07278485  57.87 0.0006794497    1.707    0.414
       340  -9.6792    109.6384    222.6991   7.2381153237e+01   1.4621112168e+01    0.1202198   0.09113448   4.38 0.0007036097    1.722    0.419
       341  -9.8429    247.6487     25.7159   5.0116542103e+00   2.1246588587e+01    0.1120188   0.09273393  29.93 0.0002704167    1.658    0.397
       342 -10.1088      4.0671    225.6884   9.4113806271e+01   2.6333604611e+01    0.1728692    0.1563231 -45.31  0.001404994    1.685    0.407
       343  -9.9836     16.3111    222.0785   9.1630622854e+01   2.5906792796e+01    0.1539093    0.1113586  70.47 0.0005291762    1.115    0.103
       344 -10.0665    160.0553     24.0477   1.3526051967e+01   4.2060826435e+01    0.2994339    0.1925125 -47.33  0.001057014    1.572    0.364
       345  -9.0795    123.6313    221.7304   6.9332697432e+01   1.2781260416e+01    0.1227233   0.08899597   9.95 0.0006996134    1.666    0.400
       346 -10.8586     10.9761     24.3783   6.7530471473e+01   7.2258837437e+01    0.6885947    0.1848698 -35.43   0.00224852    4.665    0.786
       347 -11.3880    249.0959     20.8609   3.8132679736e+00   2.1493681932e+01    0.2603866    0.1802323 -55.09 0.0003393573    1.214    0.176
       348 -10.3034    224.5275     21.5554   5.7816953956e+00   2.6615914795e+01    0.2155203    0.1881114 -55.03 0.0004783873    1.038    0.036
       349  -9.9454    156.0397     21.7165   1.3336914974e+01   4.3368008656e+01    0.1981046    0.1761368  71.82 0.0004544145    1.074    0.069
       350  -9.3776     48.2847     22.7138   4.4681469800e+01   6.8176978653e+01    0.1157969    0.1077707 -72.84 0.0002157144    1.527    0.345
       351 -10.5661    193.2073     20.8988   8.4757899905e+00   3.4015340203e+01    0.2570837    0.2103649  45.72 0.0002894461    1.400    0.286
       352 -10.2378    193.8004     16.5914   7.2003287107e+00   3.4336421651e+01     0.293343    0.1798703 -86.00  0.001450697    1.707    0.414
       353 -10.4166    122.1777     20.2754   1.8751900933e+01   5.2324115043e+01    0.3871951     0.206429  37.00   0.00112352    2.140    0.533
       354 -11.5010     48.2695    218.7293   8.4975463841e+01   2.3252651567e+01    0.4943322    0.2100614  26.59  0.002378437    2.609    0.617
       355 -10.8531    239.4780     14.4641   2.9906005218e+00   2.4157666087e+01    0.2330895    0.1669471 -71.71 0.0005642461    1.301    0.231
       356 -10.3278     87.1335     20.0556   2.7650119010e+01   6.0890171751e+01    0.2264555    0.1853379  40.62            0    1.140    0.123
       357  -9.5104     44.9030     19.2858   4.4575865395e+01   6.9278028194e+01    0.2055511    0.1569397 -87.12 0.0009692744    2.979    0.664
       358  -9.4618     41.4211     19.4909   4.6536201654e+01   6.9781485269e+01    0.1330207    0.1100406 -10.05 0.0001364309    1.049    0.046
       359  -9.3954     94.7793     17.3870   2.4117386284e+01   5.9438312318e+01    0.2016118    0.1156486  46.29 0.0006476881    1.611    0.379
       360  -9.4632     16.3039     26.5378   6.4974941816e+01   7.1404118636e+01    0.2083228    0.0983563 -54.35 0.0004448514    1.844    0.458
       361 -10.6722    244.3428     15.6742   2.9515789794e+00   2.3020058033e+01    0.2127953    0.1467457 -55.86 0.0005383106    1.217    0.178
       362  -9.6182    211.8084    218.8472   5.1634881535e+01   3.6446196587e-01    0.1478803    0.1295777  15.59 0.0007265907    1.310    0.237
       363  -9.0331    198.6402    219.3204   5.4094877115e+01   2.1386692967e+00     0.109556   0.09201457  52.05 0.0007043531    1.768    0.434
       364 -10.1251     91.6653    235.6806   7.7406850595e+01   1.4824252129e+01     0.109496   0.08777271   1.88 0.0002916774    1.700    0.412
       365  -9.6874    215.9160     16.3211   5.1613216242e+00   2.9126641352e+01    0.3343687   0.06242021  62.31   0.00109816    4.422    0.774
       366  -9.6243    108.6898     16.4381   2.0126055061e+01   5.6159505406e+01    0.1860769    0.1234646  50.09 0.0002391162    1.386    0.278
       367 -10.5795     70.0292    217.7084   8.0300730145e+01   2.0854887954e+01    0.1774909    0.1342118  46.66  0.001058906    1.091    0.083
       368  -9.7010    136.0786    216.8533   6.6104227970e+01   1.1768614135e+01    0.1959404    0.1536244  49.09  0.001221967    1.277    0.217
       369  -9.1758     38.3540    217.2334   8.6940338582e+01   2.4631253608e+01   0.09761623   0.08733575   5.21 0.0002487864    1.571    0.364
       370 -10.2673     14.7451    215.4094   9.1661506479e+01   2.7334049855e+01    0.1886977    0.1099848  41.34 0.0006866643    1.438    0.305
       371 -11.4550     11.7369    210.1772   9.2049361002e+01   2.8635274882e+01    0.3994414    0.1788958  73.90  0.001335706    2.000    0.500
       372 -10.5406      8.3133    215.6666   9.2951487497e+01   2.7863174368e+01    0.2234196    0.1180343  61.59  0.001281561    1.465    0.318
       373 -12.0516      5.2607    211.2564   9.3396512223e+01   2.8988718742e+01    0.5461377    0.2046232 -87.82  0.002862003    2.474    0.596
       374 -11.6929      3.7637    206.0861   9.3511544345e+01   3.0140656472e+01    0.3418606    0.2453559  55.90   0.00222322    1.112    0.101
       375 -11.2925    112.0524     27.5075   2.4019919963e+01   5.3999011627e+01     0.585831    0.3202532  38.22  0.002384265    1.989    0.497
       376 -11.1385     29.3644    215.3292   8.8687321843e+01   2.5937908426e+01    0.2204307    0.1916811  42.50  0.001188098    1.279    0.218
       377  -9.6946    110.4698    211.9790   7.0951500159e+01   1.6423777406e+01    0.1696012    0.1261495 -57.97 0.0009196181    1.568    0.362
       378  -9.9739    217.0033    209.4506   4.9173235120e+01   8.5681745344e-01    0.1887708    0.1379845 -19.12   0.00107346    1.294    0.227
       379 -10.1103     38.6711    233.6625   8.7818183084e+01   2.1513802614e+01    0.1609581    0.1035363 -78.47  0.001086034    1.661    0.398
       380 -10.5887     18.4648    207.4677   9.0542712211e+01   2.8561243433e+01    0.2513371   0.09749049 -86.25 0.0007384865    2.519    0.603
       381 -10.0604     19.3173    203.6777   9.0177020611e+01   2.9249888165e+01    0.1881202    0.1362592  60.75 0.0008210431    1.079    0.073
       382 -10.7834     20.4539    199.8150   8.9734501196e+01   2.9938314415e+01    0.2835813     0.197855 -50.78  0.001311728    1.917    0.478
       383  -9.9632    148.0172    205.8155   6.2027596762e+01   1.1808941083e+01    0.2542727    0.1683148  18.36  0.001362361    1.611    0.379
       384 -10.6651     27.9213    205.1712   8.8424417851e+01   2.8113441352e+01    0.1838877    0.1213393  60.39  0.000503705    1.221    0.181
       385  -9.8570    206.0000    203.9920   5.0231832156e+01   3.1697387028e+00    0.1901625   0.06603696 -37.61 0.0008102302    2.997    0.666
       386 -10.5680    175.2905    202.1149   5.5817704108e+01   8.1286044783e+00    0.2355898    0.1786886  24.88 0.0004150942    1.134    0.118
       387  -9.8709     67.4217    203.1892   7.9566657014e+01   2.4049037417e+01    0.2244833    0.1480899  40.39 0.0006133086    1.318    0.241
       388  -8.9097    238.2938    200.7052   4.4032519958e+01  -9.5105188385e-01   0.09746789   0.09133957  -9.14  0.000274146    1.559    0.359
       389  -9.4630    120.2498    200.0459   6.7241089113e+01   1.7181357680e+01    0.1582844    0.1136813 -54.13 0.0008870901    1.587    0.370
       390  -9.9048     41.1513    198.1431   8.5065352966e+01   2.8191516266e+01    0.2919495    0.0838494 -77.66  0.001109834    3.866    0.741
       391  -9.9614    134.9604    196.4539   6.3442064212e+01   1.5538434635e+01    0.1841161    0.1745842 -32.56 0.0005688118    1.182    0.154
       392  -9.2665     56.4681    197.4760   8.1535752183e+01   2.6581630144e+01    0.1234375    0.1058167  61.28 0.0002528148    1.041    0.039
       393  -9.2010    215.3259    194.3219   4.6852020013e+01   3.1377477594e+00    0.1314781   0.08276494   3.17 0.0004396559    1.685    0.407
       394 -11.9524     15.6586    192.0133   9.0374275641e+01   3.2016315419e+01    0.3707059    0.3399519 -87.96  0.001954444    1.277    0.217
       395 -12.0183     16.0201    182.3154   8.9768348901e+01   3.4080162632e+01     0.435754    0.2329504  60.98  0.002230077    1.601    0.376
       396 -10.2817    244.8262    188.1448   4.0723060077e+01  -2.5755921216e-01    0.1713115    0.1430976  -5.53 0.0004918661    1.191    0.160
       397 -10.1742    226.1706    188.5735   4.3904999997e+01   2.3302159474e+00    0.1696824    0.1006518  22.56 0.0004575828    1.613    0.380
