#   1 NUMBER                 Running object number                                     
#   2 MAG_AUTO               Kron-like elliptical aperture magnitude                    [mag]
#   3 X_IMAGE                Object position along x                                    [pixel]
#   4 Y_IMAGE                Object position along y                                    [pixel]
#   5 X_WORLD                Barycenter position along world x axis                     [deg]
#   6 Y_WORLD                Barycenter position along world y axis                     [deg]
#   7 A_WORLD                Profile RMS along major axis (world units)                 [deg]
#   8 B_WORLD                Profile RMS along minor axis (world units)                 [deg]
#   9 THETA_WORLD            Position angle (CCW/world-x)                               [deg]
#  10 FWHM_WORLD             FWHM assuming a gaussian core                              [deg]
#  11 ELONGATION             A_IMAGE/B_IMAGE                                           
#  12 ELLIPTICITY            1 - B_IMAGE/A_IMAGE                                       
         1 -12.3900    158.3814     47.9899   2.9020643960e+02   6.3125866319e+00   0.06053156   0.04584264 -42.26  0.004989023    1.342    0.255
         2 -11.7279    170.4121     17.8632   2.8988515128e+02   6.5920690998e+00   0.04294242   0.04101007  80.87  0.004377312    1.089    0.082
         3  -9.1915    120.1864      8.9234   2.9041703968e+02   6.9872877068e+00   0.01494491   0.01309739  36.82  0.001061833    1.149    0.129
         4  -9.7209    247.4657      3.7150   2.8890296045e+02   6.3073701778e+00   0.01597772   0.01118473 -45.71 0.0009964573    1.435    0.303
         5  -9.1682    235.9456      2.7564   2.8903118110e+02   6.3856402273e+00   0.01556198  0.009643639 -60.89  0.001007836    1.588    0.370
         6  -9.6123    168.5478    236.6251   2.9121800857e+02   4.0629262227e+00    0.0153371    0.0109447  17.58  0.001024057    1.481    0.325
         7  -9.4296    152.0048    249.3394   2.9148620892e+02   4.0109414330e+00   0.02172521   0.01383026  12.02  0.001595752    1.811    0.448
         8 -18.6197     76.1798    224.3602   2.9221930248e+02   4.7394714834e+00    0.2636577    0.2583474 -54.58   0.01757928    1.015    0.015
         9  -7.4600      3.6079    175.7204   2.9277484151e+02   5.7232496672e+00  0.007089929  0.004916344 -21.86 0.0006998112    1.745    0.427
        10 -10.6735    192.8943    165.3000   2.9050835020e+02   4.7504010027e+00    0.0449471   0.02379664 -82.41  0.003067677    2.814    0.645
        11  -9.2697    204.0192    164.0339   2.9037139664e+02   4.7005521151e+00   0.02762901   0.01027485 -64.90  0.002041486    2.828    0.646
        12 -11.2582    143.5892    147.0840   2.9097301806e+02   5.2478549510e+00   0.08595844   0.02306422 -65.13  0.005395575    4.200    0.762
        13  -9.2748    154.8724    167.0537   2.9096119667e+02   4.9504724010e+00   0.01852905   0.01264704  50.60  0.000837173    1.604    0.377
        14  -7.9050    154.5131    157.5186   2.9090831264e+02   5.0633336522e+00   0.01029676  0.007676021  60.45 0.0006155247    1.537    0.349
        15  -9.3368    150.4971    153.8087   2.9093285205e+02   5.1297052820e+00   0.01771146   0.01111005  59.88  0.001332463    2.013    0.503
        16 -10.6605    150.2356    161.2080   2.9098018161e+02   5.0452552663e+00   0.02610019   0.01963986 -65.64     0.001852    1.342    0.255
        17 -10.0549    143.4026    167.2103   2.9109562862e+02   5.0150953454e+00   0.02047352   0.01437021  57.46 0.0006792105    1.644    0.392
        18  -8.9803    175.9447    232.5000   2.9110738853e+02   4.0680208416e+00   0.01566817  0.007585459 -56.53  0.001185837    1.958    0.489
        19  -9.4601    144.3255    155.6803   2.9101589786e+02   5.1437151760e+00   0.01546897    0.0112804 -67.82 0.0007493118    1.407    0.289
        20 -10.5919    136.4840    139.0721   2.9100778953e+02   5.3820944912e+00   0.05578898   0.01185725 -63.73  0.003185219    5.015    0.801
        21  -8.7246    132.5352    137.4908   2.9104431131e+02   5.4233369481e+00   0.01244789   0.01054097 -54.94 0.0006073311    1.161    0.139
        22 -10.2826    134.2735    148.4400   2.9108960412e+02   5.2860580883e+00   0.04378311   0.01785638 -75.71  0.002908039    4.065    0.754
        23 -10.4484    133.8515    142.5337   2.9105916886e+02   5.3571248975e+00   0.02834126   0.01733913  77.14  0.002507476    2.468    0.595
        24  -8.5428    200.6612    168.9625   2.9043996619e+02   4.6628016451e+00    0.0122347  0.009232367  75.32  0.001303697    1.598    0.374
        25  -8.2926     10.8139    218.5269   2.9294555706e+02   5.1840011602e+00   0.01125978  0.008832627 -61.44 0.0007631145    1.262    0.207
        26  -8.4485     10.2229    153.2007   2.9256358630e+02   5.9470280358e+00   0.01974845   0.01075687 -12.41  0.001516667    3.245    0.692
        27  -8.9542     27.4683    146.0449   2.9231985305e+02   5.9309114009e+00   0.01519749   0.01187738 -63.56   0.00116626    1.277    0.217
        28  -8.8364     28.2612    142.1363   2.9228728953e+02   5.9717799976e+00   0.01816926   0.01093502   6.72   0.00168086    2.115    0.527
        29  -8.5395    172.9604    145.9356   2.9062425889e+02   5.0909419370e+00   0.01055514  0.007639658  61.85 0.0005143785    1.623    0.384
        30  -8.1896     20.0521    141.0705   2.9237665065e+02   6.0314575050e+00   0.01249326  0.008180389 -15.23  0.001193713    2.005    0.501
        31  -9.8034    152.7024    200.6913   2.9118760344e+02   4.5721963548e+00   0.02408645   0.01201142 -69.68  0.001270731    2.246    0.555
        32  -8.5808    216.0000    186.9573   2.9036942603e+02   4.3648218061e+00   0.01088399  0.003740892 -62.71 0.0005594206    2.887    0.654
        33  -8.4887    191.1538    134.3701   2.9034325476e+02   5.1196927206e+00   0.01056886  0.008531688 -49.40 0.0003508241    1.221    0.181
        34 -10.2600    123.3436    128.7773   2.9109921010e+02   5.5777956099e+00   0.01789638    0.0124366  24.73 0.0006243987    1.458    0.314
        35  -8.4738    160.6164    128.5080   2.9066352087e+02   5.3649436013e+00   0.01357492  0.008518307 -67.16  0.001290032    1.649    0.394
        36 -10.0479    237.2857    126.6491   2.8976048314e+02   4.9413294240e+00   0.01291121   0.01234438  42.53 0.0004114589    1.062    0.059
        37  -9.4678    135.3360    122.3562   2.9092106001e+02   5.5829294267e+00   0.02306562  0.008748946 -70.90  0.001603581    3.533    0.717
        38  -9.7468     90.8687    125.0950   2.9145559012e+02   5.8084750608e+00   0.02708218  0.007906284  31.93   0.00195603    3.086    0.676
        39  -9.7043    111.3458    123.5615   2.9120777216e+02   5.7078422637e+00    0.0113262    0.0110799  -0.42 0.0005765801    1.025    0.025
        40  -8.1029    140.4049    121.1928   2.9085504833e+02   5.5670733091e+00  0.009028986  0.006415062 -80.11 0.0003879954    1.607    0.378
        41  -9.5545    181.0102    183.8144   2.9075740500e+02   4.6042679428e+00   0.02574931  0.009388682 -65.18  0.001931503    2.914    0.657
        42 -11.4792     11.4810    206.7747   2.9286790836e+02   5.3168308585e+00   0.03460468   0.02656388  15.12  0.002556479    1.375    0.273
        43  -8.3498    115.3130    118.0555   2.9112858071e+02   5.7488450467e+00  0.009161831  0.008478292 -67.61 0.0004121313    1.088    0.081
        44  -9.2850    195.0114    183.1472   2.9059059683e+02   4.5308310446e+00   0.01406759   0.01176782  72.89 0.0008477313    1.340    0.254
        45  -9.3655    165.0418    180.8118   2.9092518405e+02   4.7317028326e+00   0.02061317    0.0117847  57.98  0.001628777    2.303    0.566
        46 -10.9290    111.7991    107.4282   2.9110588620e+02   5.8926356162e+00   0.02575302   0.02139083  88.26  0.002964639    1.343    0.256
        47  -9.7670    122.0408    112.0534   2.9101423843e+02   5.7796134914e+00   0.01416137   0.01102728  42.61 0.0007505735    1.311    0.237
        48 -10.0452    117.2617    109.9913   2.9105757609e+02   5.8312395473e+00    0.0207685   0.01030806  48.22  0.001783201    2.333    0.571
        49  -8.8249    104.7392    113.5862   2.9122504708e+02   5.8619612703e+00  0.009453826  0.005970801  37.61 0.0009461098    1.577    0.366
        50  -7.6026    183.6087    112.1818   2.9029799376e+02   5.4211186608e+00  0.008841974  0.005937244 -50.92 0.0003142419    1.457    0.314
        51  -9.4216     52.7470    110.9526   2.9181549094e+02   6.1930105009e+00   0.02649788   0.01138324  16.03  0.001990928    3.110    0.678
        52  -9.9534     60.4547    109.6739   2.9171794966e+02   6.1633786460e+00   0.01647227   0.01456848   7.49  0.001579019    1.174    0.148
        53 -11.4313     65.4769    103.1824   2.9162054843e+02   6.2098004288e+00   0.04545691   0.03094513 -42.88  0.003238826    1.506    0.336
        54  -8.8604     30.6922    105.4489   2.9203986693e+02   6.3841614997e+00   0.01765428   0.01044829   3.84  0.001324498    2.270    0.559
        55  -9.3488    240.5210    107.8375   2.8960994394e+02   5.1408030765e+00   0.01456298   0.01067068  73.96  0.001523094    1.681    0.405
        56 -10.6894    156.2769    192.3402   2.9109609903e+02   4.6485334608e+00   0.03711521   0.02280268  81.02  0.001671596    2.437    0.590
        57  -9.5531    222.1724    178.5035   2.9024706028e+02   4.4271643559e+00   0.01461995   0.01066632 -88.45  0.001160371    1.638    0.389
        58  -7.7673     51.0260     92.5626   2.9172558454e+02   6.4166035949e+00   0.01008684  0.006445414  26.98 0.0006024437    1.568    0.362
        59 -10.1347    171.7656    196.5833   2.9094130805e+02   4.5095079777e+00   0.02125484   0.01657593  73.19   0.00122038    1.505    0.335
        60  -9.8727    204.6033    176.3691   2.9043849174e+02   4.5539116526e+00   0.01670839   0.01522042 -65.78 0.0009759123    1.101    0.092
        61  -9.2866    197.0438    177.3284   2.9053212828e+02   4.5866262407e+00   0.01513418   0.01207718  40.80  0.001188445    1.270    0.213
        62 -10.0753    153.4021     67.6602   2.9038259034e+02   6.1132516528e+00    0.0194402   0.01276103  52.81 0.0008605704    1.726    0.421
        63 -11.5519    147.6846     62.1213   2.9041596111e+02   6.2107060566e+00   0.03209906   0.02512858  20.60  0.001648769    1.309    0.236
        64  -8.5807    163.2734    244.3378   2.9132536702e+02   4.0038486851e+00   0.01029841  0.009113189 -27.79 0.0006185992    1.169    0.144
        65 -10.9354    162.5090     39.1538   2.9010524839e+02   6.3911134316e+00   0.02253515   0.02157463 -45.56 0.0008719996    1.032    0.031
        66  -8.3670    191.4178     64.2364   2.8991925514e+02   5.9321936307e+00    0.0100094  0.008612941  -2.52 0.0005109134    1.244    0.196
        67  -8.5999    132.0201     52.9357   2.9054340385e+02   6.4081569240e+00  0.009522287  0.009371966 -44.28 -0.001877172    1.006    0.006
        68  -9.7543    246.7388     51.0607   2.8919640717e+02   5.7630670140e+00   0.01301129   0.01130493  -5.93 0.0005121742    1.230    0.187
        69  -8.1621    250.5195     47.0204   2.8912814688e+02   5.7878703011e+00  0.009931155  0.006465944 -62.13 0.0003340836    1.523    0.344
        70  -8.3355    188.1538     38.0723   2.8980000205e+02   6.2546277009e+00   0.01014534  0.008427686 -31.56 0.0004071885    1.262    0.208
        71 -10.2487    141.9491     29.3831   2.9028617713e+02   6.6237958120e+00   0.01231317  0.009881327 -58.17 0.0005550203    1.226    0.185
        72  -9.0299    166.2169    247.9587   2.9131276571e+02   3.9447425746e+00   0.01240539   0.01049939 -45.01 0.0005437419    1.176    0.150
        73  -8.0842     11.7316     23.4313   2.9177052306e+02   7.4458131186e+00  0.009176236  0.006466155   8.49 0.0009456846    1.609    0.378
        74  -9.2732    189.9565     15.6917   2.8964439219e+02   6.5035957249e+00  0.009532129  0.008688099  28.18  0.001013717    1.102    0.092
        75  -9.0947    162.7208    247.9963   2.9135362736e+02   3.9645410783e+00   0.01379632   0.01017375 -58.34 0.0003761393    1.329    0.248
        76  -9.5495    169.7692    242.1646   2.9123688775e+02   3.9914975005e+00   0.02064688   0.01445087   4.15   0.00184803    1.681    0.405
