#   1 NUMBER                 Running object number                                     
#   2 MAG_AUTO               Kron-like elliptical aperture magnitude                    [mag]
#   3 X_IMAGE                Object position along x                                    [pixel]
#   4 Y_IMAGE                Object position along y                                    [pixel]
#   5 X_WORLD                Barycenter position along world x axis                     [deg]
#   6 Y_WORLD                Barycenter position along world y axis                     [deg]
#   7 A_WORLD                Profile RMS along major axis (world units)                 [deg]
#   8 B_WORLD                Profile RMS along minor axis (world units)                 [deg]
#   9 THETA_WORLD            Position angle (CCW/world-x)                               [deg]
#  10 FWHM_WORLD             FWHM assuming a gaussian core                              [deg]
#  11 ELONGATION             A_IMAGE/B_IMAGE                                           
#  12 ELLIPTICITY            1 - B_IMAGE/A_IMAGE                                       
         1 -11.1809    202.2598     18.1058   2.8240517806e+01   3.2688242590e+01     2.315666    0.3324634 -37.71  0.008055842    4.078    0.755
         2 -13.6359    228.6995     92.0474   4.2617415156e+01   1.7475387913e+01     5.777621     1.636792 -48.26   0.01792359    4.586    0.782
         3 -13.5640    215.6015     80.8341   4.1794903857e+01   2.1718583555e+01     2.379982      1.79011  73.20   0.01359629    1.535    0.349
         4 -13.1409    220.0001     34.1351   3.0418209330e+01   2.7093032868e+01     6.435803          nan -34.00  0.008766968    7.542    0.867
         5 -13.1950    247.5641     79.8646   3.7712885749e+01   1.5796358078e+01     2.496782    0.6069176 -33.83  0.008953189    3.591    0.722
         6 -14.4290    236.2900     41.5347   3.0619291913e+01   2.2926285313e+01     3.122942     1.806873 -19.20   0.01637316    2.267    0.559
         7 -12.8978    248.5668     33.2176   2.7903215477e+01   2.1576218396e+01    0.9909959    0.3512263 -29.22  0.004355282    2.872    0.652
         8 -14.1976    244.6979     65.1169   3.4886898019e+01   1.8323338470e+01     1.806315     1.410088  33.36   0.01148784    1.761    0.432
         9 -10.5991    142.7672     12.0293   3.3141980001e+01   4.7342371276e+01    0.9658471    0.3219995 -16.48  0.002108435    4.393    0.772
        10  -9.6494    156.4959     10.7953   3.0971933563e+01   4.4092788568e+01    0.3642464    0.2526299  -8.03  0.001417421    1.841    0.457
        11  -9.4570    135.9295     13.8740   3.4754853706e+01   4.8858209669e+01    0.2503724    0.2118046  41.70  0.001505696    1.227    0.185
        12 -11.4232    118.8681      9.4936   3.6057562379e+01   5.3452651970e+01    0.6914554    0.5016699  58.83    0.0023709    1.198    0.165
        13  -9.2944     92.2722      9.4889   4.1642021098e+01   5.9834362533e+01    0.2198087    0.1875874  -7.72 0.0009166822    1.280    0.219
        14  -8.7300    238.9051      2.7904   2.2343204625e+01   2.6637842890e+01    0.3906669    0.2645373  63.57  0.001935055    1.712    0.416
        15  -9.3252    228.1114      7.0128   2.3832840286e+01   2.8353474404e+01    0.4009712    0.1944413 -70.96  0.001633637    2.038    0.509
        16  -9.7365    232.0000      5.9747   2.3381347231e+01   2.7678631101e+01    0.3116389    0.2209567 -16.16  0.001387079    1.853    0.460
        17  -8.0243    208.4823      7.4956   2.5246139126e+01   3.2396362542e+01     0.184717    0.1167454 -10.04  0.001001938    2.278    0.561
        18  -8.5284    219.8887     10.9003   2.5208779677e+01   2.9648479853e+01    0.1583898    0.1472794  85.10  0.000398822    1.241    0.194
        19 -12.3589    240.3743     22.6479   2.6310424902e+01   2.4312323532e+01    0.8253645    0.6403183   7.77  0.003024983    2.054    0.513
        20  -9.2179     19.6189    201.1334   1.1228916560e+02   2.9344716737e+01    0.1884874    0.1756232  31.76 0.0002852603    1.249    0.199
        21  -9.2526    192.2534    193.5793   7.0441301096e+01   6.8758357595e+00    0.6981003    0.3759293 -60.88  0.002212101    6.024    0.834
        22  -9.2041    210.5793    188.2881   6.5913824050e+01   4.9865226576e+00    0.2479223    0.1150492 -41.69  0.001145473    2.179    0.541
        23  -7.5512    181.2587    188.6899   7.1778666549e+01   9.4300662841e+00    0.1172219    0.1109158 -85.05 0.0001479132    1.526    0.345
        24 -10.0570    221.5132    186.2473   6.3539536839e+01   3.7158966243e+00    0.3291778    0.2383133  41.47  0.001451554    1.708    0.415
        25  -8.7893     22.5179    185.5355   1.1051373246e+02   3.2627964986e+01    0.2008392    0.1845199  72.71  0.001355691    1.085    0.079
        26  -8.6853    243.7686    179.3718   5.8488379593e+01   1.6533727767e+00    0.1579785    0.1036422  19.88 0.0007710259    1.571    0.363
        27  -9.6988    222.0232    178.1069   6.1897265422e+01   4.9066224102e+00    0.2509621    0.2208348  54.50  0.001579735    1.702    0.413
        28  -9.7191    237.3398    175.0526   5.8708740265e+01   3.1709814733e+00    0.2795741    0.2675034  85.54  0.001098723    1.708    0.415
        29  -9.2826    225.8086    176.1666   6.0862030238e+01   4.6534133780e+00    0.1865777    0.1616747 -23.57 0.0008792266    1.213    0.176
        30  -7.3715    101.0086    175.9890   8.8621085119e+01   2.5184735250e+01    0.1562717    0.1501148  32.67            0    1.006    0.006
        31  -9.4001    228.3704    171.2777   5.9472920626e+01   5.0362328061e+00    0.2569632    0.1636876 -30.28  0.001447721    1.352    0.260
        32 -10.0974    230.1118    166.6941   5.8279528087e+01   5.4906579037e+00    0.3989322    0.2056617 -43.68   0.00164972    2.017    0.504
        33  -9.6526    193.2702    170.4636   6.5776242675e+01   1.0692569658e+01    0.5804633    0.3978747  83.98  0.001907797    5.741    0.826
        34  -8.1854    211.6599    166.3280   6.1430682120e+01   8.3995085563e+00    0.1780469    0.1611502 -77.58 0.0006694224    1.687    0.407
        35 -11.6710      3.6002    157.9785   1.1346604506e+02   4.0682001866e+01    0.8948157    0.3981932 -78.69  0.004292647    1.947    0.486
        36 -10.3370    237.0126    162.0204   5.6227272556e+01   5.1896972550e+00    0.4922821    0.1678979  40.29  0.002071497    3.283    0.695
        37  -8.0058    203.4030    160.7363   6.1819817166e+01   1.0697578142e+01    0.1876041     0.117471 -27.92 0.0006734777    1.506    0.336
        38  -9.7037    167.5635    158.1688   6.8641241740e+01   1.7474628833e+01    0.2523448    0.2278819  11.90 0.0002764078    1.057    0.054
        39  -8.9320    193.8688    157.0729   6.2891380604e+01   1.2972176572e+01    0.3339409    0.1930057 -38.61  0.001243472    1.627    0.385
        40  -8.9066    192.6252    153.3112   6.2335774110e+01   1.3867677801e+01     0.242296    0.1983765  79.90  0.001027514    1.947    0.486
        41  -8.7566    247.6306    156.6968   5.3532515467e+01   4.4503531039e+00    0.1285735   0.08367406  -3.11 0.0003973399    1.747    0.428
        42 -12.1232    197.8922     88.0451   4.6139910664e+01   2.4262595509e+01     2.171953    0.7421378  41.66  0.006805465    4.483    0.777
        43  -8.7371    249.0403    249.2869   6.9547696945e+01  -8.0258004228e+00    0.1603501    0.1086933   4.44  0.001186906    1.081    0.075
        44 -12.4810    177.2230     83.5469   4.8501043654e+01   2.9517143352e+01     1.323741    0.8494301  37.06   0.00136263    1.848    0.459
        45 -12.5122    235.6341    119.6734   4.7708187592e+01   1.1988125739e+01     2.309969    0.9982213 -51.25  0.005371386    3.125    0.680
        46  -9.9521    178.4723    246.1742   8.1798077924e+01   6.1449479271e-01     0.375968    0.2824445  12.83  0.001496287    1.047    0.045
        47  -8.6491     42.1750    247.1673   1.1026731683e+02   1.7712507883e+01      0.16371    0.1027056  53.04 0.0002640403    1.310    0.237
        48 -10.3832    199.2486    241.1505   7.7053244216e+01  -1.3354460752e+00    0.2114598    0.1649197   5.21 0.0002061035    1.048    0.046
        49  -9.0047    168.8576    231.6062   8.1594468450e+01   4.0825881533e+00    0.2246684    0.1675189  28.81  0.001146503    1.208    0.172
        50 -12.4941    230.7729     77.0004   3.8992495754e+01   1.9294437803e+01    0.9589142    0.6698713 -73.16  0.001536141    1.722    0.419
        51  -9.3209    165.8966    240.5481   8.3507046828e+01   3.1041898392e+00     0.288296    0.1905716  36.79  0.001282337    1.452    0.311
        52 -10.1285    168.3400    236.1226   8.2370221188e+01   3.4510616233e+00    0.3711841    0.2558164  28.65 0.0009347427    1.244    0.196
        53  -8.1122    178.7962    232.3857   7.9695943010e+01   2.5995167412e+00    0.1721914   0.09933214  20.97 0.0004194137    1.550    0.355
        54 -11.7739    236.8679     62.5368   3.5122493732e+01   2.0132200214e+01    0.4468898    0.2700057 -41.74 0.0007054877    1.379    0.275
        55  -7.9705    173.1664    154.9052   6.6710538395e+01   1.7085658241e+01    0.1994258     0.157841 -12.50 0.0004197251    1.293    0.227
        56  -8.6461    110.9994    152.9449   8.1687709042e+01   2.8890662801e+01    0.2134423     0.206345   1.31  0.001170865    1.017    0.017
        57  -8.1418    197.8393    151.9102   6.1020153409e+01   1.3197493949e+01    0.2715675    0.1895094 -64.92  0.001249181    2.367    0.578
        58 -10.2563    249.6103    144.6847   5.0865634710e+01   5.9502659113e+00    0.6144426    0.2176577 -39.74  0.002696471    2.395    0.583
        59  -8.5180    172.1816    148.8016   6.5591801659e+01   1.8451920152e+01    0.2132434    0.1690948  -0.47  0.001087769    1.358    0.263
        60  -9.1345    134.0076    147.3989   7.4356917543e+01   2.5980757745e+01    0.5518066    0.1711318 -52.29  0.001602889    3.835    0.739
        61 -11.2972     34.4813    146.3238   1.0337190947e+02   4.1127282066e+01    0.5397416    0.3867299  14.19  0.001330284    1.615    0.381
        62 -11.8329     42.1036    143.1873   1.0059564822e+02   4.1161976860e+01    0.8662365    0.7230274 -88.59  0.002958976    1.172    0.147
        63  -8.0852    192.2169    143.8084   6.0346228209e+01   1.5663432786e+01    0.1896985    0.1528148  -6.26 0.0002997444    1.267    0.211
        64 -11.2729     49.3863    141.7847   9.8100920901e+01   4.0723105908e+01    0.6655225     0.473586 -84.39  0.002063315    1.483    0.326
        65  -8.9540    214.4155    139.8449   5.5399660554e+01   1.2381035511e+01    0.2647377    0.2024297 -47.57 0.0002972483    1.406    0.289
        66  -8.5822    209.8143    136.9379   5.5566339024e+01   1.3684120356e+01    0.3005144    0.2094766  52.87  0.001574251    1.758    0.431
        67 -11.5318     64.8907    139.1620   9.2757987140e+01   3.9470444163e+01     1.872656     1.277078  49.44  0.008995347    1.570    0.363
        68 -10.3478     14.8883    145.8010   1.0924892703e+02   4.2914034616e+01    0.3989243    0.1708882  87.71  0.001609202    2.667    0.625
        69 -10.4814    186.4797    125.7203   5.7338200788e+01   2.0068559309e+01    0.8820277    0.4241642 -54.74  0.003137023    3.115    0.679
        70  -7.3737    117.5533    127.5270   7.4226061362e+01   3.3596631229e+01    0.1520364    0.1508667 -11.92 -3.309639e-06    1.047    0.045
        71  -8.8571    136.0000    129.4813   6.9703845326e+01   2.9526876414e+01    0.5131091   0.08688378 -45.93  0.001149955    5.871    0.830
        72  -7.5735     92.6511    125.3315   8.1122661710e+01   3.8673554253e+01    0.1599931    0.1207424  72.64 0.0007048565    1.769    0.435
        73  -8.8838    160.4019    129.0636   6.3659424611e+01   2.4671893996e+01    0.4308278    0.3128392 -21.23   0.00202367    1.529    0.346
        74  -8.5283     61.1480    119.0021   9.0121508037e+01   4.5091917800e+01    0.2147122    0.1986241 -41.02 0.0003729758    1.048    0.046
        75  -8.3009    199.7979    114.6319   5.2251405803e+01   1.9411573400e+01    0.2599216    0.1659238 -58.16 0.0007979886    2.007    0.502
        76  -9.0165    176.0356    112.1130   5.6114060602e+01   2.4716216538e+01     0.444158     0.297845 -12.69  0.001944428    1.998    0.500
        77  -9.2497    206.0874    110.0190   5.0096392844e+01   1.8960973897e+01    0.2964697    0.2433645  50.82  0.001372124    1.359    0.264
        78  -7.6037    192.6585    108.3257   5.2009485809e+01   2.1942826571e+01    0.1453642    0.1100915 -70.09 0.0007051164    1.733    0.423
        79  -9.5470    207.8428    104.4170   4.8496674762e+01   1.9548359004e+01    0.3614642    0.2149393 -47.50  0.001367636    1.656    0.396
        80 -11.4120    123.8790    103.2773   6.6150305086e+01   3.7691513478e+01    0.7117751     0.494956  65.60  0.003038582    1.931    0.482
        81  -9.9358    113.2577    104.5262   6.9525886847e+01   3.9629165444e+01    0.3301873    0.1914581 -57.44  0.001290033    2.093    0.522
        82 -10.1179    160.0964    101.3748   5.6691074311e+01   3.0167462141e+01    0.4760496    0.2574469  38.39  0.001718274    2.075    0.518
        83  -7.1897     91.6989    102.2645   7.5625812819e+01   4.4322257735e+01    0.1463343     0.121819  73.31 0.0001835592    1.519    0.342
        84 -10.1743     80.3453    101.7539   7.9330334184e+01   4.6438245304e+01    0.2560159    0.2487562  -5.25 0.0002683159    1.033    0.032
        85 -10.8061    131.7231    103.8956   6.4203807012e+01   3.5886435727e+01     0.499303    0.4197899  89.06  0.001458948    1.521    0.343
        86 -11.0287    176.5435     95.5424   5.1784764276e+01   2.7608607715e+01    0.6792111    0.3977989  45.48  0.003044632    1.801    0.445
        87 -10.1125    143.4030     95.9903   5.9051165449e+01   3.4912181734e+01    0.3644745    0.3200113  67.95  0.001047202    1.264    0.209
        88  -8.5159    149.4776    105.1538   6.0114354073e+01   3.1770448865e+01    0.2637732    0.2154219  41.19 0.0005443439    1.243    0.195
        89  -9.7994    135.1204    100.2995   6.2321998378e+01   3.5887876416e+01    0.3092938    0.2648681 -18.95 0.0005393663    1.231    0.188
        90  -7.0633     85.3010     96.3339   7.6132014836e+01   4.6843076760e+01    0.1584551    0.1163201 -15.44 0.0004360006    1.655    0.396
        91 -11.0013    158.8881     92.7347   5.4616427012e+01   3.2045559535e+01    0.5443955    0.3822482 -25.82 0.0007107473    1.549    0.354
        92  -8.0884    129.7432     83.0219   5.8685642099e+01   4.0484985462e+01    0.2079292    0.1938921 -25.77  0.001102829    1.076    0.070
        93  -7.5858    155.3381     73.6351   4.9966482264e+01   3.6216411748e+01    0.1581603    0.1127264 -70.90 0.0003514371    1.834    0.455
        94  -7.9863    192.7135     70.9478   4.2637839647e+01   2.8060958782e+01    0.1950166     0.163537 -43.38  0.000547478    1.113    0.101
        95  -9.5878    206.1908     64.6376   3.9165460432e+01   2.6053178738e+01    0.2728392    0.2338982 -50.99 0.0007989373    1.053    0.051
        96 -10.2610    172.1590     64.7067   4.4270441922e+01   3.3689355732e+01    0.5272386    0.3138394 -89.06  0.002105525    2.705    0.630
        97 -11.0116    168.2927     57.9242   4.3023001356e+01   3.5609226208e+01    0.6410791    0.5634064 -41.16  0.003664765    1.130    0.115
        98 -10.0698    163.1456     52.7231   4.2401390293e+01   3.7583401380e+01    0.4105188    0.3082247  -7.76  0.002082488    1.689    0.408
        99  -9.9339    160.8325     50.1740   4.2049780200e+01   3.8496550124e+01    0.4300996    0.3014198  14.61  0.002019832    2.073    0.518
       100  -9.4412    135.8972     62.9622   5.0939737089e+01   4.2584842035e+01    0.4044395    0.2094607 -40.72  0.001165311    1.962    0.490
       101  -8.7560    199.3750     47.9062   3.5882411667e+01   2.9828005947e+01    0.4608931    0.1261376 -29.13  0.001510606    4.044    0.753
       102  -9.6482    198.7682     57.2828   3.8313440794e+01   2.8701096877e+01    0.7876227    0.1529583 -35.88  0.002463423    4.062    0.754
       103  -9.8395    193.0238     54.6751   3.8412700381e+01   3.0341596471e+01    0.5391526    0.3794155 -87.53  0.002848891    1.609    0.378
       104  -8.9575    192.9810     64.8216   4.1027450089e+01   2.8912389421e+01    0.2634275    0.1762111 -40.59 0.0005543475    1.389    0.280
       105  -7.7255    187.6594     58.7030   4.0208589389e+01   3.0992853336e+01    0.1355194    0.1049546  27.30 0.0003577883    1.662    0.398
       106  -8.5322    146.1665     55.8356   4.6487075331e+01   4.1226983901e+01    0.2111282    0.1888888 -76.28 0.0003253442    1.182    0.154
       107 -10.4742    136.1526     49.3563   4.6496281748e+01   4.4603814016e+01    0.4402591    0.3705193 -38.50  0.001631825    1.232    0.189
       108 -10.5746    134.0138     31.8323   4.1109358942e+01   4.7427944136e+01     0.368519    0.2761671 -66.57  0.001706578    1.545    0.353
       109 -10.9308    152.1133     47.0638   4.2645214058e+01   4.1037719867e+01    0.6435778    0.4558401 -61.56  0.003212177    1.601    0.375
       110 -11.2790    141.7723     41.8151   4.2916351462e+01   4.4269654053e+01    0.6300285    0.4698234  81.14   0.00324998    1.454    0.312
       111 -11.1071    133.5123     39.3740   4.3741532670e+01   4.6613063863e+01     0.699789    0.3563736 -26.61  0.003008191    2.175    0.540
       112  -8.2080    211.3043     48.9812   3.4761455738e+01   2.7091325401e+01    0.1814446    0.1490579 -45.38 0.0004958017    1.109    0.099
       113  -9.3237    188.2070     44.9003   3.6508656471e+01   3.2740249222e+01    0.5308982    0.1602138 -39.08  0.001991776    2.871    0.652
       114  -8.7232    115.6387     46.8811   5.0421540135e+01   4.9891222208e+01    0.2513409    0.1964913  60.32 0.0003962443    1.277    0.217
       115  -8.6795    205.6607     44.5294   3.4316362522e+01   2.8879662013e+01    0.2293543    0.2084656 -70.48 0.0009195189    1.043    0.041
       116  -9.4480    191.1827     37.6896   3.4264382716e+01   3.2964471402e+01    0.4999314    0.2818985 -59.47  0.002429232    1.895    0.472
       117 -10.4844    122.4133     36.7175   4.5187443774e+01   4.9663139852e+01    0.5485867    0.2667283 -17.65  0.002133982    2.818    0.645
       118  -9.3226    111.2285     31.0844   4.5717086872e+01   5.3064522707e+01    0.2695306    0.1926336  14.16 0.0009727209    1.699    0.411
       119 -10.0690    139.9740     28.7162   3.8990995516e+01   4.6321233543e+01    0.4315023    0.1760513 -37.28  0.001768937    2.466    0.594
       120 -10.2844    134.2192     20.0582   3.7104088014e+01   4.8676848610e+01    0.3275848    0.2337943  28.44  0.001210307    1.649    0.394
       121  -7.9066    161.0051     17.7314   3.2461573993e+01   4.2331724703e+01    0.1722503    0.1493537  71.13 0.0002617842    1.085    0.078
       122  -7.4917    196.7072    229.3326   7.5699232849e+01   6.5330753333e-01    0.1047746   0.09676695  41.58 0.0002396098    1.634    0.388
       123 -10.1285    135.7070    224.1078   8.7574037208e+01   1.0052720278e+01    0.2382793    0.2154702 -15.26 0.0004526213    1.179    0.152
       124  -8.1402    239.6664    218.3050   6.6118862184e+01  -3.2226187583e+00   0.09682503   0.09109486  -3.69 0.0004305684    1.664    0.399
       125  -8.4131     87.1189    217.4322   9.7827842608e+01   1.8167485417e+01     0.186571    0.1753267 -38.48 0.0003624956    1.222    0.182
       126  -8.6608    158.9214    210.8856   8.0453356812e+01   8.9729011880e+00    0.1944592    0.1674289  10.36 0.0003818531    1.014    0.014
       127  -8.4163    243.1282    208.0584   6.3785286737e+01  -2.2773254675e+00    0.1553659    0.1461112 -34.86  0.001124931    1.759    0.431
       128  -7.5532    144.2326    206.9639   8.3079593336e+01   1.1923563305e+01    0.1598766     0.113404 -46.09 0.0004145214    1.553    0.356
       129  -9.3009    230.7696    195.0154   6.3545264940e+01   1.1210451910e+00    0.2293941    0.2104523  23.35 0.0006647719    1.484    0.326
       130 -10.7621    240.0363    199.0623   6.2709939619e+01  -6.6281432188e-01    0.7573612    0.4035625  49.13  0.002236945    3.607    0.723
       131  -9.2647    235.6771    197.0309   6.3074640404e+01   1.8345140430e-01    0.2586671    0.2291198  27.69 0.0009571463    1.517    0.341
