#   1 NUMBER                 Running object number                                     
#   2 MAG_AUTO               Kron-like elliptical aperture magnitude                    [mag]
#   3 X_IMAGE                Object position along x                                    [pixel]
#   4 Y_IMAGE                Object position along y                                    [pixel]
#   5 X_WORLD                Barycenter position along world x axis                     [deg]
#   6 Y_WORLD                Barycenter position along world y axis                     [deg]
#   7 A_WORLD                Profile RMS along major axis (world units)                 [deg]
#   8 B_WORLD                Profile RMS along minor axis (world units)                 [deg]
#   9 THETA_WORLD            Position angle (CCW/world-x)                               [deg]
#  10 FWHM_WORLD             FWHM assuming a gaussian core                              [deg]
#  11 ELONGATION             A_IMAGE/B_IMAGE                                           
#  12 ELLIPTICITY            1 - B_IMAGE/A_IMAGE                                       
         1  -9.0424     97.2697     13.5867   6.2948361988e+01   5.8703684921e+01    0.3456152    0.1213131 -18.80  0.001211313    3.638    0.725
         2  -8.3628      2.3390     11.7023   1.0225264820e+02   7.2390853326e+01   0.08951716   0.08524871 -89.23 0.0007033162    1.660    0.397
         3 -12.2558    247.2841    244.4934   8.9501911203e+01  -1.0445687162e+01    0.9063256    0.5018466 -14.40  0.005555131    1.941    0.485
         4 -11.7190    246.5845    229.1655   8.7137501574e+01  -8.6798259116e+00     0.528715    0.2800661  40.52  0.003052448    1.812    0.448
         5 -10.6668    167.8083    242.6332   1.0318734323e+02   1.9036491784e+00    0.2366988    0.2061009  51.19 0.0009646403    1.202    0.168
         6  -9.4512    194.6148    247.7473   9.9054166979e+01  -3.0292426257e+00    0.1815102      0.16085 -43.39  0.001334868    1.529    0.346
         7 -11.2053    173.8787    244.0905   1.0227534464e+02   7.2605627084e-01     0.460325    0.2978902 -71.16  0.002441198    3.041    0.671
         8 -12.1021    237.7153    241.0325   9.0558881397e+01  -8.7262431086e+00    0.4115319    0.3266802  22.82  0.001788086    1.159    0.137
         9 -10.1030    107.7996    237.1773   1.1362648038e+02   1.2264422434e+01    0.3760895    0.1947493  69.20  0.001840025    2.575    0.612
        10  -9.7300    164.9928    234.0246   1.0254736272e+02   3.6083277305e+00    0.1869258     0.137313  64.24  0.001124241    1.649    0.393
        11 -10.9729    169.8318    232.1116   1.0137433218e+02   3.0903136662e+00    0.5917182    0.3648495 -66.39  0.003034234    2.818    0.645
        12  -9.4165    171.4112    225.5222   1.0012669284e+02   3.8122904084e+00    0.3298216    0.1340954  50.00  0.001325899    2.561    0.610
        13 -10.7711    164.5515    226.3625   1.0155623988e+02   4.8430959120e+00     0.333437    0.2963894  51.57  0.001722332    1.154    0.134
        14 -10.4108    160.7950    227.3343   1.0241123073e+02   5.3254483041e+00    0.2909749    0.2287708  47.06  0.001123482    1.116    0.104
        15 -11.3808    236.5058    230.5164   8.9074382297e+01  -7.3565358901e+00    0.3113012    0.2817066 -66.28  0.002158326    2.010    0.503
        16  -9.7717    128.3280    232.0772   1.0921679000e+02   9.9154853077e+00    0.1726647    0.1571061 -13.49  0.001181884    1.501    0.334
        17 -10.3613    108.2986    223.1997   1.1202184933e+02   1.4623124267e+01    0.3358556    0.2343208  31.31  0.001509507    1.633    0.387
        18 -11.6130     99.0287    226.6289   1.1417367282e+02   1.5425185043e+01    0.3944486    0.3044469  41.79  0.001598164    1.287    0.223
        19 -10.4845    128.6144    225.7770   1.0839631076e+02   1.0929959511e+01     0.408495    0.2375506  86.18  0.001832523    3.204    0.688
        20 -11.2067    125.8470    221.0938   1.0834969393e+02   1.2193176452e+01    0.3560294     0.309081  36.67 0.0008366899    1.217    0.179
        21  -9.2814     84.9611    228.4786   1.1700649776e+02   1.7151925585e+01    0.1799633   0.06993773  56.41 0.0008095569    2.509    0.601
        22  -9.0646    185.4621    226.9691   9.7691147468e+01   1.2338204914e+00    0.1622975    0.1242513 -38.41  0.001018723    1.560    0.359
        23 -11.1086    166.3571    248.5628   1.0422098669e+02   1.3114095168e+00    0.3730676    0.2285456  41.89  0.002293341    1.274    0.215
        24  -9.5880     19.8703    222.6767   1.2825638465e+02   2.6251540829e+01    0.1475494      0.12613  53.86  0.001194503    1.438    0.304
        25  -9.0424    157.3757    221.9547   1.0230625512e+02   6.7572433268e+00    0.1648665    0.1565997  35.27 0.0007541624    1.142    0.124
        26 -10.7918    131.3762    215.4479   1.0652274814e+02   1.2275624890e+01    0.3493581    0.2394195 -60.42  0.001300964    1.695    0.410
        27  -8.5659    148.5815    220.5168   1.0381630395e+02   8.4910940231e+00     0.127084    0.1078472  44.36 0.0001005553    1.020    0.019
        28 -11.4317     99.7794    218.8683   1.1319429800e+02   1.6728457245e+01    0.4491992    0.2798136  68.75  0.002527621    1.652    0.395
        29 -10.6685     88.4810    224.9053   1.1600064715e+02   1.7296546372e+01    0.3704708    0.1099566 -62.64  0.001563867    3.631    0.725
        30  -9.0899     75.5097    219.9604   1.1798928733e+02   2.0057468951e+01    0.1879137    0.1293799  51.02 0.0006310734    1.229    0.186
        31  -8.8513    143.5592    216.7265   1.0427507806e+02   9.9884479462e+00    0.2126196    0.1260993 -46.97  0.001123562    2.012    0.503
        32  -8.6218    175.6952    216.2976   9.7904614039e+01   4.4999320244e+00    0.1226297   0.09551138  64.49 0.0007002019    1.586    0.369
        33 -10.1236     79.0648    211.0115   1.1643131853e+02   2.1282376312e+01    0.2513535    0.1453051  44.49 0.0009196638    1.530    0.346
        34  -8.9968    202.6720    208.9872   9.1537729285e+01   9.2497631811e-01    0.1773232    0.1561771   0.24 0.0009474573    1.134    0.118
        35  -8.8231    115.0047    221.0576   1.1046840063e+02   1.3951532861e+01    0.1772811    0.1484984  12.49 0.0006341742    1.675    0.403
        36  -9.3898     11.4049    207.3921   1.2891027633e+02   3.0008233267e+01    0.1653114    0.1040362  13.01 0.0009558887    3.303    0.697
        37 -10.1870    250.3143    199.1328   8.1201318588e+01  -5.6003250307e+00    0.3161582    0.1457164 -25.25  0.001534849    2.226    0.551
        38  -9.2333     89.0389    199.5648   1.1315656071e+02   2.2111415975e+01     0.235881    0.1588778  84.59  0.000837701    1.551    0.355
        39  -9.6694    126.8375    197.1384   1.0488323345e+02   1.6459463851e+01     0.250571    0.2102941 -45.89   0.00104441    1.403    0.287
        40 -10.3165    173.1762    195.7374   9.5014146591e+01   8.3365496354e+00    0.2991177    0.2648236  58.66 0.0008635018    1.221    0.181
        41  -8.2499    131.3008    195.6409   1.0371485824e+02   1.5970895233e+01    0.1396625    0.0983085  74.28 0.0007036807    1.715    0.417
        42  -8.4845     67.0299    195.2839   1.1725071166e+02   2.6127151430e+01     0.237076    0.1043721  73.20 0.0009061234    3.544    0.718
        43  -8.9314    174.3129    191.7311   9.4078839079e+01   8.8213772876e+00    0.1854206    0.1799879 -55.84 0.0004268843    1.183    0.155
        44  -9.0812    124.4588    192.0219   1.0462792037e+02   1.7878545888e+01    0.2087275    0.1654015  50.44 0.0004255291    1.125    0.111
        45 -10.8697     96.3033    187.7932   1.1012900303e+02   2.3429217776e+01     0.572674    0.2354459  55.17  0.001853064    2.712    0.631
        46  -9.1171    203.6448    188.2390   8.7598908231e+01   3.9424845446e+00    0.3243366    0.1692489  53.71  0.001387977    2.427    0.588
        47  -8.8995    156.8452    188.4795   9.7135092705e+01   1.2684678150e+01    0.2136274    0.1255318  42.30  0.001013989    1.536    0.349
        48  -8.9030    120.8613    187.5616   1.0473056468e+02   1.9401997169e+01    0.2151127    0.1563701 -67.23 0.0007630273    1.489    0.328
        49  -8.8265    144.3924    186.8144   9.9504831891e+01   1.5321181729e+01    0.1752609    0.1320347 -38.73  0.000364132    1.547    0.354
        50 -10.0015    110.0144    186.5446   1.0695322818e+02   2.1462277983e+01    0.3812225    0.1796352  59.28  0.001485586    2.651    0.623
        51  -9.7821    211.1290    183.3029   8.5213860840e+01   3.3513060283e+00    0.4889754    0.2808463  17.12  0.002111956    2.408    0.585
        52  -8.5021     74.6388    184.3309   1.1441735848e+02   2.7404236702e+01    0.1423101   0.08318842  68.81 0.0007040139    1.802    0.445
        53 -11.0995     14.0849    182.7498   1.2693671331e+02   3.4749561882e+01    0.3589679     0.254315 -29.30  0.002222471    2.658    0.624
        54  -8.5352     44.7412    182.7848   1.2067185049e+02   3.1575010109e+01     0.186454   0.06901873  46.11 0.0008687095    2.390    0.582
        55  -8.4083    197.5143    181.5453   8.7510921801e+01   6.1858284438e+00    0.1395058    0.1237473  19.44 0.0001702368    1.021    0.021
        56  -8.9702    130.1978    178.1845   1.0116093959e+02   1.9661646370e+01    0.2003717    0.1577815  72.65 0.0007443259    1.368    0.269
        57  -9.7739    204.5624    176.0799   8.5049939845e+01   5.7582837765e+00     0.292035    0.2377722 -23.78 0.0009306838    1.246    0.197
        58 -10.4953    100.8037    176.1128   1.0747224711e+02   2.5206057086e+01    0.2459848    0.2068938  25.95            0    1.449    0.310
        59  -9.4497     88.4793    177.2786   1.1043755282e+02   2.6903405723e+01    0.3558683   0.08718209  43.07  0.001204534    3.552    0.719
        60  -9.8605     77.8204    176.4060   1.1272863608e+02   2.8680028280e+01     0.517695    0.1745034  51.39  0.001933773    3.154    0.683
        61 -10.7209    106.5219    175.7842   1.0611973742e+02   2.4329643738e+01    0.3539042    0.2058924  64.04  0.001528841    2.020    0.505
        62  -9.1545    149.0323    174.5904   9.6341859395e+01   1.6854460724e+01    0.2708139     0.170287 -72.04  0.001150514    2.392    0.582
        63 -10.0945     20.2879    173.9835   1.2504851266e+02   3.6042382908e+01    0.2694052    0.1200132 -85.51  0.001401576    1.975    0.494
        64  -8.2635     45.3326    172.6628   1.1955478656e+02   3.3721253429e+01    0.1350192   0.07666201  69.96 0.0007052019    1.740    0.425
        65  -9.6133    122.7013    170.6338   1.0157151376e+02   2.2612751835e+01    0.3525844    0.2031011  68.57  0.001135947    2.553    0.608
        66  -9.7168     14.6592    170.8382   1.2598463420e+02   3.7235947076e+01    0.2041743    0.1388236   3.24  0.001215432    2.711    0.631
        67  -9.1249    208.2586    170.1880   8.3136498542e+01   6.0334515835e+00    0.2456548    0.1721479  29.09 0.0006796179    1.405    0.288
        68  -8.6436    162.7056    170.3116   9.2536698992e+01   1.5024398684e+01    0.1415153    0.1135002  80.76 0.0004816097    1.593    0.372
        69  -8.6518    153.4754    170.4539   9.4586520332e+01   1.6817703709e+01    0.1440557    0.1344066  46.38 0.0001620381    1.003    0.003
        70  -8.8764     55.6945    170.3391   1.1698999032e+02   3.3001434769e+01    0.2140687    0.1221338  69.24  0.001072412    1.824    0.452
        71  -9.3158    112.8541    168.2716   1.0344973938e+02   2.4877930147e+01    0.2487168    0.1419521  73.35 0.0009554249    2.819    0.645
        72 -10.0459    100.1953    166.7908   1.0617461277e+02   2.7358695588e+01    0.4722336     0.192091  52.33  0.001784068    2.715    0.632
        73  -8.9135    140.5073    166.0213   9.6656201444e+01   2.0251694164e+01    0.2994231    0.1690151  70.91  0.001025058    3.451    0.710
        74  -9.8409     80.5979    164.8156   1.1050503767e+02   3.0870457584e+01    0.4750741    0.2482578  77.56  0.001847322    3.052    0.672
        75  -8.8861     37.9833    164.9840   1.2041202300e+02   3.6251179590e+01    0.2066263    0.1186989  69.45 0.0008009967    1.704    0.413
        76  -9.4476    148.6443    164.0934   9.4438193962e+01   1.9059775054e+01    0.2589929    0.1913143  53.32  0.001287531    1.339    0.253
        77  -8.7564    214.2704    168.0456   8.1541794656e+01   5.2322688449e+00    0.1938022    0.1742806 -10.31  0.000774082    1.071    0.066
        78  -8.5746     70.3657    163.6896   1.1276774266e+02   3.2586748479e+01     0.143864   0.08841908  69.54  0.000703841    1.757    0.431
        79  -9.4411     10.0490    161.8787   1.2629434951e+02   3.9579102574e+01    0.2660307    0.1152655  66.03  0.001354585    2.310    0.567
        80  -9.7626     93.8424    161.0217   1.0676399445e+02   2.9692414190e+01    0.4096736     0.189619  53.35  0.001672961    2.351    0.575
        81  -8.8218     62.6279    161.3201   1.1428469257e+02   3.4165233440e+01    0.2133141    0.1315863  71.15 0.0007839746    1.719    0.418
        82 -10.4037    107.0932    158.8423   1.0320206562e+02   2.7974931268e+01      0.65593    0.2252013  50.34  0.002182975    3.317    0.698
        83  -9.8915    120.3947    156.3680   9.9546058750e+01   2.6147859316e+01    0.3622082    0.2191623  62.50   0.00123244    2.005    0.501
        84  -9.2554    146.0387    155.8366   9.3384785318e+01   2.1300284252e+01    0.2500584    0.1674574  69.17 0.0009433764    1.995    0.499
        85  -9.7798     82.9012    155.6909   1.0857786664e+02   3.2618482230e+01    0.3836692    0.1964664  62.97  0.001566543    2.556    0.609
        86  -9.7419     50.2721    155.6856   1.1651718669e+02   3.6991053864e+01    0.3769746    0.1736898  58.35  0.001692264    2.447    0.591
        87  -9.2211    213.0180    155.1427   7.9031924587e+01   7.6493217794e+00    0.2207374    0.2042396  10.63 0.0008691752    1.029    0.028
        88  -9.5223     68.9437    154.5894   1.1183965958e+02   3.4877422926e+01    0.3542604    0.1790556  59.31  0.001489465    2.291    0.563
        89  -9.8056    134.4343    153.8867   9.5708297736e+01   2.4020927563e+01    0.4121187    0.2248974  59.92  0.001600807    2.362    0.577
        90  -9.3064     99.7513    151.8734   1.0377267536e+02   3.0814471589e+01    0.2843106    0.1684194  64.24  0.001228305    2.084    0.520
        91  -9.0552     91.9542    152.1514   1.0576003256e+02   3.2030291071e+01    0.2453323    0.1458666  64.36  0.001086608    2.021    0.505
        92  -9.3184     28.7071    150.1593   1.2103555666e+02   4.0553096581e+01    0.3799424    0.1376862  66.34  0.001278792    4.859    0.794
        93  -8.6948    230.1194    149.1511   7.4564072898e+01   5.2704802409e+00    0.1820411    0.1650351 -53.48 0.0004796533    1.330    0.248
        94  -9.6706     40.0414    148.0922   1.1807449028e+02   3.9890532221e+01    0.4154001    0.1756145  57.44  0.001800872    2.784    0.641
        95 -10.9944    108.7451    146.2566   1.0048479812e+02   3.0549262389e+01    0.7942075      0.38237  62.73  0.002598993    3.644    0.726
        96 -10.3062     57.0370    146.4161   1.1363503250e+02   3.8335431048e+01    0.5842353     0.268058  63.12  0.002212523    3.060    0.673
        97  -9.3924     78.6648    147.3516   1.0830096847e+02   3.5192155848e+01    0.2252323    0.1493504  73.99  0.001100595    1.730    0.422
        98  -9.3703     13.5483    146.7270   1.2427002965e+02   4.2663028563e+01    0.2313688    0.1535958  53.08  0.001310844    1.519    0.342
        99 -10.6580     89.3412    144.6244   1.0511145343e+02   3.4200445488e+01    0.4956038    0.2489396  57.13   0.00165936    2.437    0.590
       100 -10.4335    126.6129    144.2337   9.5627626687e+01   2.7676907288e+01     0.594287    0.3352721  63.10   0.00228084    2.468    0.595
       101  -8.6225    219.0349    143.5143   7.5315344153e+01   8.4261951485e+00      0.18903    0.1317775  75.90 0.0008089548    2.450    0.592
       102  -9.1615      4.1442    143.3558   1.2616700910e+02   4.4132309191e+01    0.1532755    0.0893937  46.86 0.0009513721    1.781    0.438
       103  -9.7539     70.5234    141.2987   1.0940559969e+02   3.7780279524e+01    0.4866398    0.2371793  66.40  0.001787252    3.361    0.702
       104  -9.7221    139.7431    145.1642   9.2633998568e+01   2.4860613496e+01    0.4031188    0.1093053  41.21  0.001148488    3.797    0.737
       105  -9.8204     23.6886    138.6811   1.2103197810e+02   4.3650364655e+01    0.4559196    0.1982627  66.39   0.00199149    2.965    0.663
       106 -10.4698    150.0769    146.0933   9.0391907260e+01   2.2536552771e+01    0.5286034    0.3118711  69.16  0.001912497    2.859    0.650
       107  -9.5863     39.3430    136.3729   1.1678372451e+02   4.2701255587e+01    0.2588573    0.1470132  68.13  0.001075716    2.005    0.501
       108  -8.4281     96.6760    136.3099   1.0165001954e+02   3.4952827338e+01    0.1499541    0.1082245  77.62 0.0004455058    1.653    0.395
       109 -10.6566    114.4335    134.3436   9.6610649710e+01   3.2249994662e+01    0.5318283    0.2607198  57.24  0.001921867    2.715    0.632
       110 -11.1078    134.5182    132.8519   9.1183106820e+01   2.8636371935e+01    0.6507297    0.3292524  47.64  0.002562475    1.992    0.498
       111 -10.9890     84.9918    132.4484   1.0400888436e+02   3.7757213103e+01     0.673371    0.3232668  53.37  0.002303344    2.490    0.598
       112  -9.7833    144.6818    132.6584   8.8646570501e+01   2.6556103715e+01    0.3859822    0.2254937  57.26  0.001550234    1.980    0.495
       113  -9.3779    154.3246    130.7637   8.5898663040e+01   2.4887295258e+01    0.3612077     0.231983  72.82  0.001378419    2.448    0.592
       114 -10.9999    100.7995    129.1328   9.9089788540e+01   3.5930025283e+01    0.7142845    0.3965486  61.75  0.002410272    2.499    0.600
       115 -10.6350     74.0670    130.0953   1.0652808134e+02   3.9946761080e+01    0.4040981    0.2332083  61.29   0.00136496    2.160    0.537
       116  -9.8150     13.3622    130.0031   1.2270023787e+02   4.6486632946e+01    0.4035149    0.1771166  64.49  0.001800182    2.787    0.641
       117 -10.9786    120.3769    126.7788   9.3388014236e+01   3.2844154877e+01      0.73485     0.334341  56.63  0.002450158    3.097    0.677
       118 -10.9036     60.3314    125.0746   1.0941648857e+02   4.2991318322e+01    0.6412931    0.3429268  70.94  0.002569784    2.976    0.664
       119 -10.7351     44.8382    123.9114   1.1353074852e+02   4.5072585896e+01    0.6906418    0.3466047  69.55  0.002599531    3.061    0.673
       120 -10.3305     29.0170    122.9209   1.1773680527e+02   4.6854816095e+01    0.7301523    0.3097878  74.73  0.002457799    4.858    0.794
       121  -9.3293    160.1943    122.6905   8.2557090945e+01   2.5284695485e+01     0.327737    0.1398014  54.17  0.001083407    2.721    0.633
       122  -9.9800     71.7912    120.6841   1.0538061401e+02   4.2514847183e+01    0.3508771    0.2456249  71.81  0.001346221    1.717    0.418
       123 -11.0536    144.0229    120.2660   8.5816785201e+01   2.9386776679e+01    0.7393479    0.3720492  49.46  0.002619887    2.039    0.510
       124 -10.5949    132.6679    119.8515   8.8562152964e+01   3.1908581096e+01    0.5792915    0.2720943  57.70  0.001926618    2.970    0.663
       125 -10.1351      4.0737    118.1486   1.2387644439e+02   4.9835620546e+01    0.4194982    0.1779858  59.77   0.00200424    2.896    0.655
       126 -10.9272    110.9117    115.5669   9.3270085502e+01   3.7238906465e+01    0.5878193    0.3861456  76.08  0.002367939    2.382    0.580
       127 -10.8350     80.1706    113.6143   1.0151142098e+02   4.2970755535e+01    0.6108325    0.3848642  75.96  0.002139582    2.451    0.592
       128 -11.1522     94.4958    113.6454   9.7397067287e+01   4.0649569093e+01    0.6709922     0.356851  51.59  0.002172519    2.178    0.541
       129 -10.3077    123.8212    113.4329   8.9262182017e+01   3.5173881147e+01    0.5374193    0.2630542  53.56  0.001974152    2.394    0.582
       130  -8.3684    160.6426    113.3135   8.0062192807e+01   2.7126731994e+01    0.1633404     0.126047 -86.83 0.0007043901    1.743    0.426
       131 -10.7252     67.2545    111.2440   1.0479709425e+02   4.5387935448e+01    0.4137806    0.2593368  63.05  0.001621052    2.078    0.519
       132 -10.5431     14.4254    110.5702   1.2016721442e+02   5.0893899970e+01    0.3868882    0.2281564  80.56  0.001597456    1.814    0.449
       133  -9.6900    134.1793    110.1315   8.5703968705e+01   3.3726976435e+01    0.3012219    0.2090889  75.00  0.001238011    2.059    0.514
       134 -10.0331     59.6951    109.9453   1.0678138859e+02   4.6679165671e+01    0.1980537    0.1608835 -69.09 0.0006666738    1.107    0.096
       135 -10.8185     46.0439    102.8877   1.0954205676e+02   4.9929645829e+01    0.7740659    0.3973761  70.79  0.002850302    3.969    0.748
       136 -10.3565    141.4118    105.7737   8.2705485764e+01   3.3078929883e+01    0.5324009    0.2757661  60.76  0.001852589    2.666    0.625
       137  -9.7894    112.0481    106.4548   9.0677054591e+01   3.9095560179e+01    0.2530294    0.2103845 -24.15 0.0007987089    1.361    0.265
       138 -11.8326    111.0834    100.3518   8.9338531885e+01   4.0652712845e+01     1.084168     0.491639  57.76  0.003422466    3.629    0.724
       139 -10.8672     23.1011    102.7957   1.1653583316e+02   5.2058505353e+01     0.693085    0.3239735  69.92  0.002759649    3.775    0.735
       140  -9.4818    150.7740    104.5067   8.0054690877e+01   3.1222069214e+01     0.294546     0.206985 -78.11  0.001129086    2.135    0.532
       141 -10.8649    130.5014    103.1339   8.4795290759e+01   3.6040898838e+01    0.5753193    0.2723242  54.76  0.002031777    2.536    0.606
       142  -9.6687    249.7553    103.0026   6.0756784493e+01   8.8074116250e+00    0.1937531    0.1072358 -33.98 0.0008878458    1.608    0.378
       143  -9.2733      6.6965    103.3500   1.2146730151e+02   5.3056188862e+01    0.1838011    0.1163841  72.10  0.001097719    1.724    0.420
       144 -10.4977     83.0414    100.8878   9.7710805961e+01   4.5507793831e+01     0.455253    0.2845822  61.83  0.001991673    2.214    0.548
       145 -10.8340     96.6258     97.9270   9.2878424603e+01   4.3900949671e+01    0.6228142    0.2812853  49.13  0.002150553    2.592    0.614
       146 -10.9163     64.2346     96.3598   1.0245541867e+02   4.9292729360e+01     0.599445     0.375822  77.00  0.002277749    2.691    0.628
       147  -9.8478    140.4421     93.3636   7.9496788507e+01   3.5897570747e+01    0.4992952    0.2702966  67.87  0.001615873    3.274    0.695
       148 -10.8089    126.4763     92.1258   8.2785725632e+01   3.9264116624e+01    0.6810268     0.347012  58.35  0.002441378    2.591    0.614
       149  -9.3955      6.0037     92.8181   1.2028510155e+02   5.5495853340e+01    0.1889479      0.11053  59.41  0.001074819    2.104    0.525
       150  -9.4236    107.4974     92.4792   8.8197803880e+01   4.3090603384e+01    0.1504139    0.1432542 -33.49 0.0001680389    1.029    0.028
       151  -9.0197     43.7967     92.3773   1.0814111833e+02   5.2622519745e+01    0.1698211    0.1257344   3.33 0.0009580597    1.754    0.430
       152 -10.2798     35.0544     90.0690   1.1052647119e+02   5.4006006652e+01    0.4804305    0.2632717 -89.79   0.00210641    2.785    0.641
       153 -11.3260     88.0987     87.8163   9.2727552836e+01   4.7647131571e+01    0.6758596     0.387518  58.07  0.002618213    2.522    0.603
       154  -9.1462    142.2466     84.1638   7.6345676444e+01   3.7334290432e+01    0.3080537    0.1963349  62.14  0.001269185    1.847    0.458
       155 -10.1103      9.2027     82.4378   1.1769198241e+02   5.7660081268e+01     0.351989     0.307504 -25.06  0.001759446    1.349    0.259
       156 -10.2162     25.0785     81.1751   1.1209623283e+02   5.6878309518e+01    0.4347522    0.2581492  73.12  0.002143398    2.591    0.614
       157  -9.7608    120.9204     81.5012   8.1149777806e+01   4.2665674836e+01    0.3420368    0.2178979  62.92  0.001306385    2.044    0.511
       158  -9.9277     75.2224     81.2991   9.5026814002e+01   5.1153399612e+01    0.3479995    0.2327582 -80.04  0.001262833    2.363    0.577
       159 -10.4163     48.9532     84.7301   1.0472387534e+02   5.3828469846e+01    0.5464253    0.3250658  71.36  0.002315352    3.127    0.680
       160  -9.1939     36.5061     81.0259   1.0812756545e+02   5.5939279266e+01    0.1998587   0.07268804 -44.45 0.0008097662    2.596    0.615
       161 -10.6443    130.1691     77.1038   7.7286793135e+01   4.1501574234e+01    0.4756401    0.3210153  68.86  0.002006119    1.979    0.495
       162  -9.6902     61.8362     76.6127   9.8229565545e+01   5.4083438042e+01    0.4405702    0.1770476 -61.61  0.001581442    3.136    0.681
       163  -8.7287    142.0158     76.5260   7.4078747497e+01   3.8866395773e+01    0.2195372    0.1410155  78.29 0.0007440447    2.539    0.606
       164 -10.5515     83.6253     73.8092   9.0055110228e+01   5.1427555143e+01    0.5734944    0.3630999  68.58  0.002292113    3.005    0.667
       165 -10.3407     95.9078     72.1743   8.5605672006e+01   4.9596467607e+01    0.4543793    0.3219084 -70.79  0.001623256    2.052    0.513
       166  -9.5357    116.1852     73.1927   7.9879651208e+01   4.5341255349e+01    0.2078455    0.1829566 -81.42 0.0006495239    1.369    0.269
       167 -10.0606    106.5453     72.2847   8.2391826876e+01   4.7515319599e+01    0.3213355    0.2485154  59.98  0.001013069    1.527    0.345
       168 -11.1730    106.2909     84.3849   8.6208209277e+01   4.5071369358e+01    0.6485477     0.418777  70.29   0.00226646    2.557    0.609
       169 -10.0008     51.6970     70.0383   9.9978025728e+01   5.6782129369e+01    0.4870266    0.2710225 -74.40  0.001993104    3.043    0.671
       170  -9.5228     16.5768     70.1538   1.1285188547e+02   5.9945628251e+01    0.2347817    0.1403588 -82.40  0.001277229    1.924    0.480
       171  -9.2319    140.5077     67.6792   7.1663607971e+01   4.0862576009e+01    0.3170027    0.1987395  55.90  0.001359991    1.649    0.393
       172  -9.6357    122.5060     66.9962   7.6105391371e+01   4.5152058335e+01    0.3238776    0.2033302  70.52  0.001265461    2.465    0.594
       173  -9.9397    110.9456     64.6064   7.8570069934e+01   4.8100069244e+01    0.3687528     0.259869  77.71  0.001576558    2.294    0.564
       174  -9.2013     37.8491     64.7068   1.0362621782e+02   5.9416074528e+01    0.2240262    0.1593799 -86.75  0.001044391    2.005    0.501
       175  -9.0268     17.5378     62.9276   1.1091313909e+02   6.1457913560e+01    0.1906661   0.05765199 -46.31  0.000808434    2.600    0.615
       176 -10.2197    100.8104     60.8852   8.0337717654e+01   5.0864724708e+01    0.4011237    0.2645593 -75.29  0.001527194    3.159    0.683
       177  -9.7786     73.4440     59.8660   8.9023788385e+01   5.5920897139e+01    0.3636515    0.2250026 -56.15  0.001141762    1.853    0.460
       178  -8.9582      9.9384     74.4748   1.1606538760e+02   5.9396870545e+01    0.1411544    0.1185767   4.80 0.0003552882    1.493    0.330
       179  -9.6038    120.8539     57.3846   7.3315505310e+01   4.7254696324e+01    0.3604864     0.236498  73.19  0.001487722    2.313    0.568
       180 -10.6164      7.3811     57.6843   1.1366379496e+02   6.3189811588e+01    0.2263301    0.1706939  79.05  0.001486041    1.715    0.417
       181  -9.1161     43.9367     55.4327   9.8578037564e+01   6.0733228813e+01    0.2363986    0.1678907 -75.32  0.001267662    2.001    0.500
       182  -9.4749     54.5925     54.8553   9.4264011362e+01   5.9590487810e+01    0.3190561    0.1978065 -70.06  0.001433431    2.697    0.629
       183  -9.1406    107.2876     54.7195   7.6226358234e+01   5.0665519500e+01    0.3272437    0.2111777 -78.16  0.001129643    3.852    0.740
       184  -9.7274    100.4819     54.2857   7.8122309660e+01   5.2135703434e+01    0.2423142    0.2329969 -13.21 0.0002510906    1.074    0.069
       185  -9.6341     62.9675     55.0627   9.1179406394e+01   5.8425733939e+01    0.2513756    0.2139506 -81.44  0.001062456    1.653    0.395
       186  -9.1489     25.4082     54.7894   1.0577013554e+02   6.2611950882e+01    0.1843933   0.08688495 -48.90 0.0009513114    1.640    0.390
       187  -9.6918     30.9075     51.7718   1.0267314173e+02   6.2771793510e+01    0.2799374    0.1922643  76.08  0.001315164    2.770    0.639
       188 -10.2139     92.6958     50.9281   7.9356024837e+01   5.4252256369e+01    0.4001573    0.2592887 -57.16  0.001570093    2.112    0.527
       189  -8.7168     45.7937     49.1705   9.5804938821e+01   6.1778720988e+01    0.1795295    0.1304967 -21.59  0.000542032    1.343    0.255
       190 -10.0338     22.4331     46.4917   1.0462594612e+02   6.4546421583e+01    0.3040971    0.1062536  26.80  0.001407166    3.233    0.691
       191  -9.3733     81.9615     47.1702   8.1527793340e+01   5.6881981338e+01    0.1989052    0.1869682 -54.56 0.0005319437    1.285    0.222
       192  -8.8617     58.5112     43.4853   8.8731863223e+01   6.1242370670e+01    0.2307269     0.117336 -53.23  0.001026662    2.349    0.574
       193 -10.2866      5.2596     41.9463   1.1075912279e+02   6.6563546679e+01    0.3483116    0.1850026 -78.91  0.001784289    2.627    0.619
       194  -9.3394    106.4788     41.9758   7.1789286038e+01   5.2952329253e+01    0.2671172    0.1794962 -83.31 0.0009627824    3.305    0.697
       195  -9.0116     69.5001     41.8210   8.3921437907e+01   5.9902491914e+01    0.2291734    0.1802907  84.66  0.001166094    2.367    0.577
       196  -8.6973     37.1878     41.4040   9.6679220043e+01   6.4217323092e+01    0.1515529    0.1136481  36.33 0.0008318152    1.652    0.394
       197  -9.2029     83.9492     39.8533   7.8034308461e+01   5.7765538922e+01    0.2135419    0.1695346   3.91 0.0004994663    1.269    0.212
       198  -9.1970     95.9745     38.7293   7.3692363688e+01   5.5635283368e+01    0.2377692    0.1465522 -64.54 0.0008878594    3.508    0.715
       199  -8.9517    106.0169     36.9624   7.0006136739e+01   5.3813226640e+01     0.174338    0.1542984 -13.65 0.0003837719    1.099    0.090
       200  -9.1470     26.0476     36.5407   9.9838959161e+01   6.6198830559e+01    0.1442538   0.09678496  50.65 0.0007626358    2.421    0.587
       201  -8.7641    119.8234     33.8343   6.5080624563e+01   5.1172654978e+01    0.1912665     0.173549 -68.84  0.001065559    1.318    0.241
       202  -8.5471     60.5216     33.0214   8.3820516628e+01   6.2771612448e+01    0.1694307    0.1097039 -58.26 0.0008092942    2.463    0.594
       203  -8.5475     50.3070     33.6334   8.8199926565e+01   6.4094311745e+01    0.1163551    0.1008294 -70.61 0.0007036733    1.750    0.429
       204  -9.1373      6.9740     33.7623   1.0766383419e+02   6.8090097059e+01    0.1295101    0.0909612   3.82 0.0007007821    1.620    0.383
       205  -8.5979    222.4959     32.5447   4.6914644837e+01   2.5454693840e+01    0.1397202    0.1236609 -69.76 -0.0001657374    1.020    0.020
       206  -8.6257     72.2997     31.6314   7.8781713637e+01   6.1123216158e+01     0.124883    0.1051297 -62.99  0.000700781    1.736    0.424
       207  -9.2899     13.0275     31.4551   1.0408943478e+02   6.8160117450e+01     0.171021    0.1098814 -49.49 0.0008900274    1.249    0.200
       208  -9.6794      2.7652     28.0145   1.0788437399e+02   6.9418094913e+01    0.1992695     0.112071  20.53  0.001263299    2.134    0.531
       209  -8.6252     81.3461     27.6549   7.3921458435e+01   6.0113273119e+01    0.1278326    0.1077545 -68.83 0.0007044298    1.800    0.444
       210  -9.1465    110.4861     24.8466   6.4021939943e+01   5.4485673828e+01    0.1986258      0.13445 -25.14 0.0008198835    1.509    0.337
       211  -8.2920     91.5453     26.5438   7.0140331290e+01   5.8299291356e+01    0.1338698    0.1229142   6.47 0.0003102136    1.070    0.066
       212  -8.6320     43.9861     25.5278   8.7516056319e+01   6.6258957506e+01    0.1623382    0.1138372  22.40  0.000377528    1.471    0.320
       213  -8.5300     58.6483     22.2227   7.9901920153e+01   6.4739541299e+01    0.1705784    0.1034536 -24.15 0.0002646658    1.535    0.349
       214  -9.5876     12.7784     21.2890   1.0055232000e+02   7.0041318297e+01    0.2044161    0.1528402 -19.32  0.000789901    1.179    0.152
       215  -7.9517     84.6477     21.3212   7.0100659946e+01   6.0351795885e+01    0.1254461    0.1070333 -69.21 0.0007047586    1.750    0.429
       216  -8.7099     63.4765     21.0001   7.7453892022e+01   6.4158904068e+01    0.1664645    0.1046736 -51.92 0.0005555245    2.459    0.593
       217  -9.1371    107.6271    248.8183   1.1481576758e+02   1.0380778934e+01    0.1908475    0.1307062  41.01 0.0007192065    1.314    0.239
       218  -9.2077     40.8705     13.8714   8.3599939114e+01   6.8450038558e+01    0.1850426    0.1319064  -8.19 0.0002710371    1.236    0.191
