#   1 NUMBER                 Running object number                                     
#   2 MAG_AUTO               Kron-like elliptical aperture magnitude                    [mag]
#   3 X_IMAGE                Object position along x                                    [pixel]
#   4 Y_IMAGE                Object position along y                                    [pixel]
#   5 X_WORLD                Barycenter position along world x axis                     [deg]
#   6 Y_WORLD                Barycenter position along world y axis                     [deg]
#   7 A_WORLD                Profile RMS along major axis (world units)                 [deg]
#   8 B_WORLD                Profile RMS along minor axis (world units)                 [deg]
#   9 THETA_WORLD            Position angle (CCW/world-x)                               [deg]
#  10 FWHM_WORLD             FWHM assuming a gaussian core                              [deg]
#  11 ELONGATION             A_IMAGE/B_IMAGE                                           
#  12 ELLIPTICITY            1 - B_IMAGE/A_IMAGE                                       
         1  -8.7568     40.4989      1.6526   7.3418889979e+01   7.0160921080e+01    0.2602819     0.164045  11.94  0.001306858    1.484    0.326
         2  -9.8921     39.1639      8.5217   7.7632314580e+01   6.9503440294e+01    0.5647944    0.3153609  -9.78  0.003051489    1.967    0.492
         3 -10.5196     39.6844     29.6944   8.7176741947e+01   6.6276608393e+01    0.5847271     0.319966 -42.85   0.00251323    1.687    0.407
         4 -12.0462     44.5159     22.0133   8.1659128201e+01   6.6891728430e+01     1.220801     0.873399 -51.20  0.007167574    1.952    0.488
         5 -12.1716    129.0067     15.4791   5.2226731825e+01   5.1056263279e+01     1.404162     1.216355  67.41  0.008315972    1.135    0.119
         6 -11.8492     81.3512      4.3583   5.9465194275e+01   6.2795033475e+01     1.967368    0.3671064  52.15  0.006613421    4.013    0.751
         7 -11.6440    142.8018      4.0849   4.5770102375e+01   4.8739908846e+01     1.184439    0.9757842  82.35  0.007036313    1.195    0.163
         8 -10.7698    131.2545      3.7900   4.7612865329e+01   5.1605507297e+01    0.9073356    0.3271168  56.06  0.003484535    2.210    0.548
         9 -11.8657    115.6246      4.3891   5.0849947101e+01   5.5291128865e+01     1.988201    0.4021568  61.02   0.00635284    3.885    0.743
        10 -11.9622    155.7208     20.9924   4.9191516232e+01   4.3824606484e+01     1.117923    0.6596881  63.12  0.003457727    1.532    0.347
        11 -13.6363    168.7553     12.0180   4.4443664219e+01   4.1471317262e+01     2.696266     1.808023  60.43   0.01192972    1.348    0.258
        12 -10.7569    116.3989     16.3612   5.5276177063e+01   5.3966957972e+01    0.9436258    0.3992673 -38.39   0.00391938    2.641    0.621
        13  -9.1060    111.5754     16.2395   5.6363733252e+01   5.5095849486e+01    0.3355091    0.2397919  42.10  0.001403416    1.258    0.205
        14  -9.4964     94.0911     17.7689   6.1592226841e+01   5.8783818635e+01    0.4586783    0.3862345 -33.66  0.002092657    1.344    0.256
        15  -9.0349    229.2454     16.4631   3.8926481251e+01   2.6186062504e+01     0.322188    0.1545498 -57.71  0.001504769    2.045    0.511
        16  -8.7946     20.3426     14.3927   8.9935250229e+01   7.0813858310e+01    0.4958863    0.2109395 -27.08  0.002420866    2.442    0.591
        17  -9.6408     70.1868     14.2654   6.7711976324e+01   6.3882373346e+01    0.3710501    0.2882312 -26.17  0.002297905    1.341    0.254
        18 -10.0330    104.2063     12.3764   5.6638142265e+01   5.7162817850e+01    0.4741436    0.3361898 -27.72  0.001990908    1.518    0.341
        19  -7.8573     54.3295      7.6852   7.0577838872e+01   6.7363478471e+01    0.2117276    0.1523341  59.00  0.001214638    2.173    0.540
        20  -8.6478     49.1405      6.7537   7.2266717023e+01   6.8287301641e+01    0.3336785    0.1647645  23.20  0.001644618    2.258    0.557
        21 -10.7141     60.9060      2.5860   6.5457278960e+01   6.6813503917e+01     1.065216    0.4678411 -20.77  0.005188649    2.328    0.571
        22  -8.9300     53.3705      2.2152   6.8181380669e+01   6.8125801527e+01    0.4721387    0.1796566  38.19  0.002216908    2.397    0.583
        23  -9.9641    249.5224      4.0269   3.4600497593e+01   2.3081264569e+01    0.4561348    0.2294234 -74.92  0.002360579    1.969    0.492
        24 -11.3513     78.0172     15.3544   6.5514723877e+01   6.2296940351e+01    0.8808435    0.6414739  -6.04  0.005166207    1.344    0.256
        25  -9.1708    222.2385      3.0460   3.6404188962e+01   2.9274492408e+01    0.3137549     0.205973 -20.16  0.001571579    1.908    0.476
        26 -10.3309    204.4965      3.9910   3.8178898198e+01   3.3385229004e+01    0.7107715    0.2377872  86.22  0.002295346    4.289    0.767
        27  -8.8825     17.2110      2.0547   8.5541230560e+01   7.2939939860e+01    0.2079796    0.1923728 -43.42  0.001584047    1.790    0.441
        28  -7.7151     26.8226      3.0996   8.0897434777e+01   7.1760587735e+01    0.1653289     0.107589  -7.94  0.001064983    1.336    0.251
        29  -9.2837    217.4696      2.0787   3.6568553503e+01   3.0486308124e+01     0.286869    0.1405618  69.31  0.001427404    1.854    0.461
        30  -8.6649     45.0580     62.6508   9.6613471171e+01   5.9409282103e+01    0.2736739    0.1709691 -44.78  0.001447924    1.359    0.264
        31  -8.0324     70.3104     62.1038   8.6852117694e+01   5.6157013762e+01    0.2334079    0.1608888 -27.86  0.001194004    1.446    0.308
        32  -8.5430     50.0306     61.4734   9.4302766279e+01   5.9076444890e+01    0.2787917    0.1545475 -36.72  0.001201148    1.685    0.407
        33  -8.0027     75.5967     60.2148   8.4310565792e+01   5.5686078094e+01    0.2031083    0.1208407 -33.77 0.0007302301    1.643    0.391
        34 -10.3866      3.9483     75.9659   1.1555355152e+02   5.9711817532e+01     0.455503    0.3804195  50.98  0.002387154    1.508    0.337
        35  -9.0764    199.1549     55.8057   5.2480535610e+01   2.8202392188e+01    0.2724593    0.2385585  76.54 0.0005446424    1.126    0.112
        36  -8.8230     66.0377     53.1815   8.5345650824e+01   5.8539586592e+01    0.4305754     0.177086 -49.97  0.001704132    2.642    0.622
        37  -8.0170     35.3389     53.0103   9.7584552935e+01   6.2415675958e+01    0.1841245    0.1407999 -42.35  0.000707445    1.101    0.092
        38  -8.0427     23.4975     52.4598   1.0243844388e+02   6.3578448587e+01    0.1254489   0.09791635 -38.73 0.0001434054    1.032    0.031
        39  -9.9567     84.4849     47.9617   7.6789235013e+01   5.6378995216e+01    0.6504413     0.510878  71.28  0.003351042    1.923    0.480
        40  -8.6952     82.2190     40.0607   7.4522655228e+01   5.8100645343e+01    0.3597803    0.2397855  28.88  0.001854362    1.518    0.341
        41  -9.3017     92.2554     44.4698   7.2893767490e+01   5.5479073940e+01    0.3352578    0.2549164 -80.72   0.00159335    2.302    0.566
        42 -10.3153      3.5693     40.7177   1.0797816393e+02   6.7236651844e+01    0.4390824    0.4268003  48.30  0.003440955    1.410    0.291
        43  -8.6137      5.9400     35.0951   1.0521862304e+02   6.8216364621e+01    0.2323671    0.1832217   5.30  0.001073038    1.432    0.302
        44  -8.9375    111.3528     41.8125   6.6183644380e+01   5.1880334792e+01    0.2955792     0.118077 -40.55  0.001101918    2.658    0.624
        45  -8.0598    143.7695     41.4205   5.8150970483e+01   4.4262985327e+01    0.2146301     0.126796  48.38 0.0009495308    1.613    0.380
        46  -9.7391     52.3954     38.8407   8.5364081975e+01   6.3097940285e+01    0.5218577    0.3808508 -41.50  0.003086981    1.347    0.257
        47 -10.3117    181.8321    245.7207   9.7308770204e+01  -1.6808363478e+00    0.3621688    0.1133916  39.74  0.001529822    2.587    0.613
        48  -9.8966    171.5955    243.4317   9.8919291557e+01   2.5569189415e-01    0.2944467    0.1209108 -45.43  0.001398657    2.978    0.664
        49  -9.5063    160.6961    240.9843   1.0066773795e+02   2.3601922181e+00    0.1683664    0.1522807  35.43  0.001165148    1.116    0.104
        50  -7.6602    105.4586    238.5510   1.1108511294e+02   1.1462796562e+01    0.1236894   0.09819786  55.16  0.000198879    1.017    0.017
        51  -9.0848     12.0482     33.9778   1.0190423429e+02   6.8058707858e+01    0.3862278      0.15672 -51.59  0.001314981    1.903    0.475
        52  -8.8277     68.5565     36.2020   7.7892326605e+01   6.1104879481e+01    0.3640035    0.2061202  37.96  0.001828023    1.780    0.438
        53 -10.1541     86.2024     31.3411   6.9674454875e+01   5.8655910646e+01    0.3506301    0.2844621 -13.94  0.001777558    1.183    0.155
        54  -9.3269     90.5167     28.9489   6.7311914176e+01   5.8131600016e+01    0.3406515       0.2708  25.23  0.001957077    1.168    0.144
        55 -10.6254    203.0282    225.1852   9.0159337032e+01  -2.1177319563e+00    0.5576795    0.1436267  34.38   0.00183115    4.186    0.761
        56 -10.7690    101.0000    175.9982   1.0396280645e+02   2.4855946459e+01    0.1998531    0.1812871  73.40  0.001162914    1.004    0.004
        57 -10.4928      9.2777    141.5757   1.2229552548e+02   4.4143228003e+01    0.2796427    0.2088679  53.36  0.001214869    1.413    0.292
        58  -9.0434     40.8326    141.9881   1.1419156128e+02   4.1241596822e+01    0.1769617    0.1468391 -23.24  0.001059673    1.604    0.377
        59 -12.6279    241.3797    131.9125   6.4566108663e+01   6.0810523556e+00     1.457762     1.204293  42.78  0.005825734    1.339    0.253
        60  -8.3017     58.2051    124.3595   1.0657505059e+02   4.3556145128e+01    0.2004607    0.1642345 -58.13  0.001141299    1.119    0.107
        61  -8.1647     54.4810    143.5074   1.1076126363e+02   3.9328262056e+01    0.1356799    0.1183372 -74.27 6.310226e-05    1.055    0.052
        62  -9.9646    225.0134     29.0906   4.2325083737e+01   2.5643447250e+01     0.525602    0.3079658  67.98  0.002390054    1.671    0.401
        63  -8.3918     22.2218     23.6796   9.3019305479e+01   6.9120804711e+01    0.2692096    0.1612578 -33.05  0.001648142    1.347    0.258
        64  -8.4318     22.9944    125.6740   1.1691690171e+02   4.6850119378e+01    0.1827457   0.09241508 -16.83 0.0007051082    4.330    0.769
        65  -7.7631    158.4774    113.5540   7.6401904548e+01   2.7563119915e+01    0.1561702    0.1539859 -72.83 0.0003223933    1.028    0.027
        66  -9.2285    103.8119     26.1428   6.2270065644e+01   5.5695749894e+01    0.4157312    0.2691776  59.46  0.001971393    1.645    0.392
        67  -7.9590     10.6631     23.3361   9.8802143816e+01   7.0105007224e+01   0.09798539   0.09003072  82.56 -0.0003619056    1.749    0.428
        68  -9.0241     16.9694    104.3619   1.1574942300e+02   5.2389952523e+01    0.2857018    0.2367356   2.33  0.001896813    1.534    0.348
        69  -8.5418     46.3950    102.9170   1.0611552302e+02   5.0133033249e+01     0.242595    0.2091282   2.50  0.001466712    1.382    0.277
        70  -8.9855     29.9021    102.2794   1.1132055458e+02   5.1880120335e+01    0.3336129     0.150162 -37.78  0.001432942    2.710    0.631
        71  -9.1607      2.2481     88.0684   1.1807251753e+02   5.7055451413e+01    0.4888257    0.1739899 -76.60  0.002126192    2.618    0.618
        72  -9.3843     64.8652     16.1430   7.0534128417e+01   6.4591801784e+01    0.3759876    0.1816116  55.62  0.001616063    3.121    0.680
        73  -9.5019    248.5715     15.0626   3.7012586292e+01   2.2043438753e+01    0.2503957    0.1492568 -76.87  0.001383557    1.615    0.381
        74 -11.6822     41.7913     83.5228   1.0343735409e+02   5.5165884077e+01    0.9242343    0.8351347  67.76  0.005883544    1.325    0.245
        75  -7.4343     11.9672     14.3026   9.4400941044e+01   7.1549477896e+01    0.1553101   0.07231309  42.14 0.0007036935    4.184    0.761
        76  -8.9848     97.1879     28.9257   6.5271606378e+01   5.6760006504e+01    0.4527552    0.1859412 -19.41  0.001590653    3.513    0.715
        77 -11.2330     46.5023     81.0388   1.0114050313e+02   5.5232743443e+01    0.9119729    0.3465892 -56.03  0.003779586    2.229    0.551
        78  -9.0542    228.0859     79.0373   5.4170467245e+01   1.7696799241e+01    0.4637667    0.3018543  -6.63  0.001974253    2.482    0.597
        79 -10.0119     25.2103     65.4050   1.0523740183e+02   6.0707211150e+01    0.6086413    0.2470117 -47.52   0.00214323    1.940    0.485
        80 -11.3377     14.4901     73.0437   1.1111957082e+02   5.9779074917e+01    0.7399167    0.6985185  63.88  0.005382538    1.314    0.239
        81  -8.6391     77.4008     78.1938   8.9455939022e+01   5.1703419830e+01    0.2023977    0.1309609 -57.83 0.0009432568    1.667    0.400
        82  -9.3961     66.6677     29.4117   7.5772269905e+01   6.2466264402e+01    0.3514069    0.1987792 -19.61  0.001364514    1.933    0.483
        83  -8.0790     63.9302     77.5031   9.3938387353e+01   5.3861920184e+01     0.198894    0.1379197  29.89  0.001030026    1.581    0.368
        84 -10.4965     73.8840     26.2655   7.1754557945e+01   6.1672297123e+01    0.4931868    0.4357014  87.82  0.002956568    1.771    0.435
        85  -8.7477     83.2534     69.4545   8.4738600127e+01   5.2563744197e+01    0.3375458    0.1995182 -37.12  0.001545904    1.639    0.390
        86  -9.1942     75.1613     67.9621   8.7047058043e+01   5.4212220793e+01    0.5780933    0.3453377   6.39  0.002318022    2.827    0.646
        87  -8.3620    138.8374     79.2940   7.1503871289e+01   3.9105811559e+01    0.3624395    0.2060849 -27.91  0.001137578    2.087    0.521
        88  -8.2849      9.4948     80.5167   1.1436751841e+02   5.8393788809e+01    0.2066681    0.1708804 -43.79 0.0007374016    1.173    0.147
