#   1 NUMBER                 Running object number                                     
#   2 MAG_AUTO               Kron-like elliptical aperture magnitude                    [mag]
#   3 X_IMAGE                Object position along x                                    [pixel]
#   4 Y_IMAGE                Object position along y                                    [pixel]
#   5 X_WORLD                Barycenter position along world x axis                     [deg]
#   6 Y_WORLD                Barycenter position along world y axis                     [deg]
#   7 A_WORLD                Profile RMS along major axis (world units)                 [deg]
#   8 B_WORLD                Profile RMS along minor axis (world units)                 [deg]
#   9 THETA_WORLD            Position angle (CCW/world-x)                               [deg]
#  10 FWHM_WORLD             FWHM assuming a gaussian core                              [deg]
#  11 ELONGATION             A_IMAGE/B_IMAGE                                           
#  12 ELLIPTICITY            1 - B_IMAGE/A_IMAGE                                       
         1 -10.9717     56.9830    237.4773   1.3077532540e+02   1.8245229440e+01    0.1617958    0.1108282  36.88 0.0002492191    1.138    0.121
         2 -21.2382    141.5479    165.6496   1.0112268943e+02   2.0339984057e+01     10.89884     8.390167  40.00   0.04898143    1.236    0.191
         3 -11.1299     44.8948    237.7230   1.3349733670e+02   1.9553100016e+01    0.1581608    0.1343012  44.95 0.0003766456    1.133    0.117
         4 -11.8378    214.6889    234.6398   9.7709219928e+01  -1.2822680184e+00    0.2292256      0.21003 -56.49  0.001185581    2.145    0.534
         5  -7.9973    170.8654    237.2410   1.0612379896e+02   3.6697388548e+00    0.1741517    0.1039258   6.28 0.0009820231    1.783    0.439
         6 -10.8876    115.2367    237.0790   1.1769719482e+02   1.1008093008e+01    0.1417084    0.1301096  23.09 0.0008994702    1.175    0.149
         7  99.0000     98.9492    235.0734   1.2110235872e+02   1.3496382751e+01    0.6337585    0.3225142 -75.31  0.003037622    3.164    0.684
         8  -9.1982     97.2757    231.6929   1.2114122863e+02   1.4315164969e+01    0.3678288    0.1491535 -59.38  0.001720009    3.005    0.667
         9 -11.6067    195.0259    235.5778   1.0132329921e+02   8.9808840294e-01    0.1576237    0.1207471   6.35 0.0003554764    1.039    0.037
        10 -10.0856     74.5405    235.0210   1.2662043562e+02   1.6609591844e+01    0.1607858    0.1262118  -5.19 0.0008615303    1.679    0.404
        11  99.0000     84.0387    233.1692   1.2429742551e+02   1.5761057110e+01    0.3577085    0.1154746 -52.05  0.001479718    3.861    0.741
        12 -10.4972     87.8862    230.6601   1.2318498626e+02   1.5727507812e+01    0.1906532    0.1178637  36.50  0.001081317    1.262    0.208
        13 -10.5587    207.9437    244.6057   1.0028714057e+02  -1.7120164355e+00    0.1442783     0.111828  11.54 0.0004103887    1.175    0.149
        14 -10.7374     79.1569    230.5510   1.2518387370e+02   1.6862979744e+01    0.1632187     0.107799  33.36 0.0003015694    1.211    0.174
        15 -10.8280    161.9916    230.7821   1.0701368941e+02   5.7509051906e+00    0.1224601   0.08082768  25.76 0.0002825939    1.219    0.180
        16 -10.9172    213.9707    227.0523   9.6714431530e+01  -2.7150686698e-01    0.1588634     0.121035   4.38            0    1.045    0.043
        17 -10.6807     76.5997    227.0713   1.2547085944e+02   1.7842037965e+01    0.1280307   0.04816028  34.86 0.0001629747    1.992    0.498
        18 -10.5298     64.4704    227.1021   1.2830900779e+02   1.9334751105e+01    0.1498325    0.1283362  48.80 0.0009985062    1.095    0.086
        19 -12.5658     70.7649    224.5065   1.2661882179e+02   1.9067327989e+01    0.2962912    0.1696413  43.49  0.001622326    1.401    0.286
        20  -9.9331     57.2542    220.1810   1.2948440083e+02   2.1566441831e+01    0.1931766    0.1074685 -73.30  0.001026266    2.075    0.518
        21  -9.2938     46.6412    220.8411   1.3206435369e+02   2.2655956356e+01      0.11374   0.08036458  17.91  0.000259018    1.547    0.354
        22 -10.1973     45.2209    216.6234   1.3212575067e+02   2.3677680541e+01    0.3404499    0.1386023  45.42  0.001615601    1.913    0.477
        23 -11.3479     47.4546    213.6730   1.3138140580e+02   2.4039268856e+01    0.2252486    0.1754375  36.32 0.0005935048    1.135    0.119
        24  -9.6908     39.7146    210.0321   1.3303772114e+02   2.5666134218e+01    0.1577664    0.1406296  60.82  0.001051087    1.130    0.115
        25 -11.3039     39.4896    205.0434   1.3276606801e+02   2.6763145168e+01    0.2441221    0.1847538  62.17 0.0009832324    1.167    0.143
        26 -10.4163     43.9170    200.8214   1.3134285730e+02   2.7198732383e+01    0.1929672     0.163437  69.25 0.0003041359    1.127    0.113
        27 -11.3456     23.5018    172.2348   1.3485573785e+02   3.5956038999e+01    0.3296585    0.1879581  67.43  0.001080411    1.659    0.397
        28 -11.9269    180.8813    246.2676   1.0540746647e+02   1.2209099725e+00    0.2694997     0.190657  40.87  0.001800968    1.718    0.418
        29 -10.8143    158.8386    248.4253   1.0992978856e+02   3.6318563161e+00   0.08885753   0.08514952  89.42 0.0006562504    1.648    0.393
        30 -11.3026    124.2305    246.8262   1.1682085318e+02   8.2653895463e+00     0.188135    0.1232355   8.63  0.001103205    1.674    0.402
        31 -10.8805     20.9972    148.9713   1.3392062187e+02   4.1994452760e+01    0.2503841    0.1776023 -77.07 0.0004633075    1.350    0.259
        32 -11.0795    138.1255    245.0638   1.1371785329e+02   6.7444389417e+00    0.1255787    0.1018069 -29.59 0.0008604102    1.467    0.318
        33 -10.3303    130.8629    245.5978   1.1529177633e+02   7.6004186411e+00    0.1011842   0.07459023 -26.37 0.0006368459    1.642    0.391
        34 -12.0702     27.2206    137.8555   1.3086129848e+02   4.4322006054e+01    0.3489555    0.2444046 -80.61 0.0007833727    1.358    0.264
        35 -10.3484     24.0581    130.6821   1.3123333393e+02   4.6494592531e+01    0.2610126     0.180958  84.05 0.0006229983    1.398    0.284
        36 -11.9603    170.8764    243.5429   1.0695713615e+02   2.8024261544e+00    0.2491897    0.1513096  40.95   0.00150546    1.781    0.439
        37  -9.3423     19.7479    128.2051   1.3252525179e+02   4.7510281908e+01     0.172244    0.1500812 -46.79 0.0003494382    1.259    0.206
        38 -11.8163    235.6086    126.6529   7.5358027006e+01   1.0707677232e+01    0.3823726    0.1902007  38.37  0.001940189    2.436    0.590
        39 -10.4138    231.2610    121.9184   7.4991262054e+01   1.2100964471e+01    0.1851363    0.1745116  16.37 0.0004615109    1.198    0.165
        40 -11.7661    240.4851    113.4784   7.2040989514e+01   1.1820653946e+01     0.348623    0.2342265   0.63  0.001923807    2.086    0.521
        41  -9.0267     23.2610    112.3242   1.2944956314e+02   5.1442777905e+01    0.1428638   0.09662858 -45.97 0.0004180221    1.556    0.358
        42 -10.8458     84.6167    244.5164   1.2515545417e+02   1.3672405254e+01    0.1202222     0.094749  36.64 0.0001743314    1.034    0.032
        43 -11.1227    187.7275    242.7489   1.0366058561e+02   8.5306157892e-01    0.3485197    0.1303585  35.49  0.001756668    2.344    0.573
        44 -10.5446     29.4890    109.9656   1.2664638489e+02   5.1519467368e+01    0.2428694    0.2059879  24.85  0.001344835    1.243    0.195
        45 -10.6183    249.0614    107.0133   6.9693323594e+01   1.1354994516e+01    0.1841256    0.1500667 -27.53 0.0005157765    1.077    0.071
        46 -10.5045     28.7281    105.7647   1.2633756664e+02   5.2711851968e+01    0.3805203    0.1991606  32.56  0.001506199    1.877    0.467
        47 -10.5476     34.0007    103.8185   1.2384380459e+02   5.2715987152e+01    0.2732635    0.2086578 -50.20 0.0002412866    1.311    0.237
        48 -10.9557    189.5309    238.6561   1.0276527458e+02   1.1632939027e+00    0.2135654    0.1188815 -19.07   0.00124141    1.988    0.497
        49 -10.2585    212.9573     99.0368   7.2620158025e+01   1.8821105696e+01    0.1966804    0.1729261 -42.67            0    1.033    0.032
        50 -10.3553    155.4505    243.4631   1.0998884408e+02   4.7553045350e+00    0.1236377   0.08872862   9.50 0.0007968334    1.252    0.201
        51 -10.0622    223.0655     93.5419   7.0021175212e+01   1.7744195968e+01    0.2411526    0.1825226  51.84  0.001282259    1.524    0.344
        52 -10.0845    219.4907     92.4762   7.0248220863e+01   1.8573511571e+01    0.2257401    0.1804182 -32.64  0.000515805    1.136    0.119
        53 -11.2859    127.1816    242.7820   1.1575198432e+02   8.5142375781e+00    0.1512482    0.1323924 -12.26  0.001065338    1.308    0.235
        54 -11.1785    113.4366    246.0153   1.1903028830e+02   9.7802016994e+00      0.20901    0.1252449 -62.76  0.001216757    2.294    0.564
        55  -9.7155     45.0362     92.7354   1.1699488314e+02   5.4380665846e+01    0.1954706    0.1906053  21.23 0.0003051019    1.060    0.057
        56 -10.2189     59.9144     91.4927   1.1037566741e+02   5.2606058191e+01    0.2771887    0.2206794 -70.94 0.0005681841    1.317    0.241
        57 -10.2574    195.3066    242.3853   1.0222316628e+02   2.2451013093e-03    0.1362157    0.1121464  36.72 0.0009862999    1.649    0.394
        58 -11.1459    152.6704    240.9869   1.1023998078e+02   5.4696560504e+00    0.1759207    0.1086106 -31.88  0.001049693    1.896    0.472
        59 -10.8098    200.6244     89.0784   7.2090871255e+01   2.2834117681e+01    0.3577135    0.2094214  45.56  0.001728601    1.960    0.490
        60 -11.7077    170.5404     86.2863   7.6364846670e+01   2.9865163040e+01    0.5350357     0.359565 -68.83  0.001662934    1.901    0.474
        61 -10.0864     70.7496     88.5939   1.0520922515e+02   5.1531394733e+01    0.3405351    0.2419115  -8.02  0.001182875    2.063    0.515
        62 -11.6586     46.8276     87.8526   1.1508605717e+02   5.5411641701e+01    0.2740143    0.2595841  -3.26 0.0003050095    1.104    0.094
        63  -9.2773    116.6668    242.3235   1.1795122388e+02   9.9579322583e+00    0.1691212   0.09491753 -35.63  0.000894096    2.443    0.591
        64 -11.4040     78.5879     85.4203   1.0125242810e+02   5.0855553904e+01    0.3313408    0.2683036  37.84 0.0001339436    1.219    0.179
        65 -10.9148    176.4775     83.1242   7.4468780320e+01   2.9051491819e+01    0.2993806    0.2593636 -70.03 0.0009363304    1.173    0.147
        66 -11.3986     87.6510     83.1581   9.7220549049e+01   4.9582408560e+01    0.3251247    0.2672446  37.74 0.0006986678    1.208    0.172
        67  99.0000     96.7221    241.0466   1.2217813504e+02   1.2748103734e+01    0.4232047    0.1924089  45.74  0.002121754    1.961    0.490
        68 -10.8595    184.5318     82.9103   7.3060934653e+01   2.7277590432e+01    0.2387146     0.222211  60.35 0.0003626978    1.144    0.126
        69 -10.3925    173.9679     77.5691   7.3430483473e+01   3.0554274658e+01    0.2739926    0.1968328 -48.01 0.0008524127    1.331    0.249
        70 -10.3595     63.0975     77.6249   1.0517359813e+02   5.5508069780e+01     0.242766    0.2039118 -68.62 0.0005413002    1.276    0.216
        71 -10.6018    168.4636     75.6075   7.3863706946e+01   3.2167408792e+01    0.2887302    0.2324295 -70.08 0.0001725653    1.304    0.233
        72 -10.4458    170.4918     71.9489   7.2503815431e+01   3.2292321612e+01    0.2750612    0.2189399  63.88  0.000637745    1.275    0.216
        73 -10.8792    147.4507     73.4591   7.7340607823e+01   3.7597943162e+01    0.4194272    0.2417552 -56.50   0.00170499    2.024    0.506
        74 -11.0566    138.1149    249.1594   1.1419047957e+02   6.1374532172e+00    0.1139742   0.09924973  -7.67 0.0006593048    1.281    0.219
        75  -9.7463    218.4673    241.1000   9.7994304980e+01  -2.4627540018e+00    0.1449737    0.1062759   7.93 0.0004120159    1.070    0.065
        76 -10.6595     86.5504     66.8528   9.2254994267e+01   5.3380159717e+01    0.3494413    0.2694882  15.89 0.0008401656    1.626    0.385
        77  -9.9811    157.1622     65.7867   7.3143723799e+01   3.6519541342e+01    0.2264983    0.1926339 -76.65 0.0006119367    1.184    0.156
        78  99.0000    110.2123    245.3588   1.1965635483e+02   1.0299834753e+01    0.2267531    0.1338414  -3.66 0.0009547668    2.899    0.655
        79  -9.9011     79.5168     65.0260   9.4250537995e+01   5.5254486161e+01     0.225728    0.1992275  42.97   0.00117043    1.097    0.088
        80 -12.4281    137.0302     62.4350   7.6212321623e+01   4.2102108742e+01    0.5274613      0.38957  83.84  0.002476309    1.529    0.346
        81 -11.5317    108.5120     60.3704   8.2768683334e+01   4.9575622631e+01    0.3078721    0.2744142  12.31  0.001032783    1.307    0.235
        82 -11.0643    122.8032    240.4372   1.1642501370e+02   9.4597055754e+00    0.1499674   0.09701098  25.46 0.0003616959    1.259    0.206
        83 -16.7288     12.7982    222.0415   1.4001305555e+02   2.5841496297e+01     4.310638     1.784841 -77.66   0.02220091    2.551    0.608
        84 -11.4293    129.6510     61.4779   7.7591840756e+01   4.4124659828e+01    0.2995987    0.2446029  88.03 0.0006596518    1.314    0.239
        85 -11.1870     76.4297    239.1834   1.2653261257e+02   1.5620141330e+01    0.1578897    0.1282559  36.60 0.0005744234    1.066    0.062
