#   1 NUMBER                 Running object number                                     
#   2 MAG_AUTO               Kron-like elliptical aperture magnitude                    [mag]
#   3 X_IMAGE                Object position along x                                    [pixel]
#   4 Y_IMAGE                Object position along y                                    [pixel]
#   5 X_WORLD                Barycenter position along world x axis                     [deg]
#   6 Y_WORLD                Barycenter position along world y axis                     [deg]
#   7 A_WORLD                Profile RMS along major axis (world units)                 [deg]
#   8 B_WORLD                Profile RMS along minor axis (world units)                 [deg]
#   9 THETA_WORLD            Position angle (CCW/world-x)                               [deg]
#  10 FWHM_WORLD             FWHM assuming a gaussian core                              [deg]
#  11 ELONGATION             A_IMAGE/B_IMAGE                                           
#  12 ELLIPTICITY            1 - B_IMAGE/A_IMAGE                                       
         1 -13.7296    190.0682     26.3784   7.3954297382e+01   3.4374385605e+01     1.401863     1.322461  39.91   0.00581487    1.096    0.088
         2 -13.8604    204.2078      7.6025   6.6617261248e+01   3.2743302984e+01     1.640057     1.119549  39.85  0.008576262    1.623    0.384
         3 -13.5437      5.8341     11.9814   1.3146134945e+02   7.3818808757e+01     1.949425    0.6747395 -55.99  0.009059945    2.052    0.513
         4 -10.2403     32.7575      6.1650   1.1037812746e+02   7.2493733896e+01    0.3826372   0.09867258 -45.51  0.001305549    3.673    0.728
         5  -9.9068     46.5865    248.5402   1.4785465314e+02   2.0380301964e+01    0.2437482    0.1092103  59.64  0.001043865    1.960    0.490
         6 -11.3186    139.7185    250.0169   1.3197162686e+02   9.8151555240e+00    0.3361479    0.1213678  38.23  0.001888753    2.010    0.503
         7 -10.1888     67.2605    250.4733   1.4447608192e+02   1.8041246453e+01    0.1732246    0.1214929  39.58  0.001423432    1.141    0.123
         8 -10.2642     63.6897    250.7015   1.4509223617e+02   1.8376983557e+01    0.3433319    0.2194047 -10.41  0.001929746    4.308    0.768
         9 -14.5604      7.3518    210.0724   1.5320559602e+02   2.9904376025e+01     3.122637    0.9233257 -77.05  0.009406507    3.215    0.689
        10 -15.1728     16.3005    163.8345   1.4950127453e+02   3.7890475785e+01     5.962454     1.728429  85.85   0.02028777    4.479    0.777
        11 -12.5815      3.5890    182.7058   1.5303948476e+02   3.5118411744e+01     1.227655    0.4558982 -81.04  0.004750502    2.421    0.587
        12  -9.9566    171.1945    247.1845   1.2628777673e+02   6.2379396562e+00    0.1375246    0.1005802  37.78 0.0005124962    1.303    0.232
        13  -9.7639    178.3827    228.1788   1.2273380444e+02   7.4654155799e+00    0.1267177    0.1055039 -48.37 0.0009468882    1.806    0.446
        14 -10.4621     66.6344    243.1447   1.4415800918e+02   1.9146550257e+01    0.1934917    0.1367532  57.04 0.0005917092    1.189    0.159
        15 -10.2819     95.2232    241.0562   1.3898595781e+02   1.6298733191e+01    0.2014562    0.1491987 -79.97 0.0003820236    1.726    0.421
        16 -12.0364     11.2500    239.5086   1.5337518833e+02   2.4860974675e+01    0.5142563     0.123262  58.55  0.002772012    3.126    0.680
        17 -10.6585    173.3265    222.0667   1.2283061582e+02   8.8779266800e+00    0.2300842    0.1377541  36.67  0.001476907    1.379    0.275
        18 -11.4531      2.4825    249.5657   1.5500996546e+02   2.4079008246e+01    0.3188995     0.210473 -87.49  0.002885151    1.606    0.377
        19 -10.9118    126.6726    249.9774   1.3421918849e+02   1.1402805840e+01    0.2716202   0.09903973  35.21   0.00152229    2.017    0.504
        20 -11.2929    185.0382    237.8132   1.2281295051e+02   5.5083373231e+00    0.2334689    0.2291298  45.68  0.001434215    1.658    0.397
        21 -11.3398      7.5008    249.5045   1.5422496122e+02   2.3689576017e+01    0.4067812    0.1170288  34.23  0.002535053    2.472    0.596
        22  -9.1616    152.6646    213.0137   1.2545201675e+02   1.2901974119e+01    0.1468115    0.1272195  19.08 0.0004268519    1.109    0.098
        23 -10.0250     32.2754    207.0684   1.4843671225e+02   2.8311129296e+01    0.4115074   0.07756308  49.11  0.001786189    3.629    0.724
        24 -12.3955     24.6838    202.1960   1.4966285105e+02   2.9846529944e+01    0.4243772    0.1561175  48.95  0.002447483    2.050    0.512
        25 -11.6557     66.6415    200.8014   1.4122880575e+02   2.5930136457e+01    0.2555862    0.1974497 -43.62  0.001276444    1.719    0.418
        26 -10.0992    191.8083    192.7170   1.1511124706e+02   9.9706293086e+00    0.4420024    0.2819715 -62.27  0.001908443    4.680    0.786
        27 -11.9759     72.2291    192.5511   1.3936484843e+02   2.6774762100e+01    0.2209871    0.2093134 -59.17 0.0004433903    1.276    0.216
        28 -11.3241    148.6337    229.8383   1.2825724098e+02   1.1197622835e+01    0.5067036    0.1015948  33.32  0.001720847    4.943    0.798
        29  -8.6767    105.6976    181.3650   1.3091668564e+02   2.4559388313e+01    0.1259528   0.08669385  65.45  0.000703551    1.734    0.423
        30 -13.4093     68.8292    177.5123   1.3867709560e+02   3.0004860524e+01    0.4423752    0.2631059 -41.92  0.001826052    2.308    0.567
        31 -11.0419     81.5267    179.4748   1.3604207590e+02   2.8095024094e+01    0.2103824    0.1920678  52.36 0.0002203962    1.056    0.053
        32 -12.1082     88.4696    169.5802   1.3330398731e+02   2.9120107580e+01    0.5733829    0.5523522  51.73  0.004025071    1.086    0.080
        33 -12.0032     32.7914    155.6735   1.4511627854e+02   3.8221349916e+01    0.6440321     0.116993 -72.18  0.002249829    4.616    0.783
        34  -9.2421    195.7076    159.3387   1.0835415268e+02   1.3947899454e+01    0.1760086    0.1599196  84.66 0.0007231577    1.820    0.451
        35 -10.1657    100.1841    153.4295   1.2825365443e+02   3.0731244149e+01    0.2746471    0.2613496 -18.94 0.0008505646    1.153    0.133
        36  -9.3723    102.9813    149.0266   1.2686372263e+02   3.1218988487e+01    0.2512492    0.1863452 -36.82 0.0009452451    1.538    0.350
        37 -12.1869     89.0724    152.9269   1.3091425933e+02   3.2409865705e+01    0.2563471    0.2320995 -19.13  0.000487518    1.291    0.225
        38 -12.7724     67.0357    143.9073   1.3526793789e+02   3.7196516043e+01    0.7461029    0.4793335  66.04  0.003749734    1.728    0.421
        39  -8.6687    192.1779    144.1379   1.0590901743e+02   1.6815755587e+01    0.1669699     0.155578 -26.83  0.000449848    1.301    0.232
        40 -12.4704     25.8930    138.1749   1.4543914179e+02   4.2638944715e+01     0.645085    0.1722843  41.84  0.002724926    3.153    0.683
        41  -9.5276    174.6579    138.0518   1.0811795321e+02   2.0977254217e+01    0.2923324    0.2193945  68.17  0.001433032    2.141    0.533
        42  -9.9414    111.0394    137.7072   1.2285594868e+02   3.2308810169e+01    0.3596839    0.2356583 -19.16  0.001166647    2.311    0.567
        43 -11.4375     33.2491    133.0447   1.4301669348e+02   4.3175692023e+01    0.3137443    0.1685366 -76.71  0.001676292    1.679    0.405
        44 -11.5002     56.5076    128.4754   1.3603705963e+02   4.1902849953e+01     0.525839    0.2754977 -60.69  0.002613551    1.765    0.433
        45  -9.3796    107.9430    124.5240   1.2107176835e+02   3.5604292486e+01    0.1850338    0.1822205  -2.13 0.0003646892    1.013    0.013
        46  -8.5447     70.5106    124.5098   1.3146651619e+02   4.1134869647e+01    0.1323209    0.1230847  89.13 0.0008104141    1.023    0.022
        47 -10.7454     32.6859    120.4858   1.4185855473e+02   4.6133171399e+01    0.3588075   0.09504787 -72.21  0.001311562    3.336    0.700
        48 -13.0153     41.9376    235.9195   1.4806609463e+02   2.2693182784e+01    0.3976389    0.2786103 -43.52 0.0008020271    2.292    0.564
        49 -14.9373     47.7039    227.8500   1.4664488814e+02   2.3387982831e+01     4.765912     1.456122  31.10  0.007912984    2.865    0.651
        50 -10.4391    168.1924    113.1954   1.0367242893e+02   2.6489889743e+01    0.3199843    0.2787665 -73.26  0.000975285    1.582    0.368
        51  -9.6887    203.2932    111.5759   9.6293064734e+01   1.9666770881e+01    0.2433233    0.1576927  -6.46 0.0007194933    1.689    0.408
        52 -10.8245     98.4761    135.4745   1.2569296890e+02   3.4749993826e+01    0.2520897    0.2170035 -16.75 0.0007331209    1.346    0.257
        53 -10.2397     34.5364     93.1423   1.3762643654e+02   5.2548924209e+01    0.4376637    0.2101751  43.46  0.002055911    2.278    0.561
        54 -10.1668    237.5146     83.4817   8.3785892676e+01   1.6760295300e+01    0.1377319    0.1147603 -12.46 8.844311e-05    1.005    0.005
        55  -8.7797    184.5433     77.4843   9.0603030959e+01   2.8887451215e+01    0.1527647    0.1347468  -1.06  4.91479e-05    1.066    0.062
        56  -9.6949    155.9716     75.3149   9.5799724050e+01   3.5797910850e+01     0.215801    0.1967483  27.72 0.0004564149    1.099    0.090
        57 -10.0747     16.7931     66.1821   1.3981283565e+02   6.0485177799e+01    0.2469851    0.1581771  41.54 0.0009060917    1.824    0.452
        58 -10.9571      6.0834     62.8314   1.4372545062e+02   6.1867361560e+01    0.2413322    0.1764933  50.11 0.0008420613    1.594    0.373
        59 -11.2083      1.9887     61.5284   1.4525568556e+02   6.2353385266e+01    0.4140066    0.1583545 -74.44  0.001913049    2.041    0.510
        60  -9.0882     32.5739     62.0723   1.3233614667e+02   6.0322785794e+01     0.203687    0.1132891 -63.61 0.0004561795    1.534    0.348
        61 -11.4535      6.9160     53.6329   1.4189675908e+02   6.4067686425e+01    0.3819403    0.2053607  22.21  0.002066693    2.232    0.552
        62 -11.2444      2.0341     51.7770   1.4380977087e+02   6.4716259362e+01    0.3945868    0.1733765 -70.27  0.001521416    1.732    0.423
        63 -11.5465      2.6222     45.6991   1.4250354511e+02   6.6159560581e+01    0.4891187    0.1502106 -78.82  0.001844296    3.218    0.689
        64 -10.5864    247.9971    249.5121   1.1428522630e+02  -3.1922830515e+00    0.2647589    0.0720903  35.14  0.001389939    2.839    0.648
        65 -10.2628     81.8594    249.0889   1.4189937270e+02   1.6681344564e+01    0.1596669      0.10178  50.18  0.000800708    1.249    0.199
        66 -10.0454     32.5919     24.7461   1.2016413697e+02   6.8892781477e+01    0.2695805    0.1026934 -48.44   0.00114032    2.123    0.529
        67  -8.8871     52.3607    249.2831   1.4692387735e+02   1.9713164276e+01   0.08361585   0.06931272  11.88 0.0007017961    1.677    0.404
