#   1 NUMBER                 Running object number                                     
#   2 MAG_AUTO               Kron-like elliptical aperture magnitude                    [mag]
#   3 X_IMAGE                Object position along x                                    [pixel]
#   4 Y_IMAGE                Object position along y                                    [pixel]
#   5 X_WORLD                Barycenter position along world x axis                     [deg]
#   6 Y_WORLD                Barycenter position along world y axis                     [deg]
#   7 A_WORLD                Profile RMS along major axis (world units)                 [deg]
#   8 B_WORLD                Profile RMS along minor axis (world units)                 [deg]
#   9 THETA_WORLD            Position angle (CCW/world-x)                               [deg]
#  10 FWHM_WORLD             FWHM assuming a gaussian core                              [deg]
#  11 ELONGATION             A_IMAGE/B_IMAGE                                           
#  12 ELLIPTICITY            1 - B_IMAGE/A_IMAGE                                       
         1 -13.1734    184.9550     23.0682   7.3226518259e+01   3.6129338427e+01     1.674353     1.110296  -6.35  0.005923336    1.638    0.390
         2 -13.3527    191.8738     16.4365   7.0322708722e+01   3.5071760072e+01      1.45797     1.295974 -19.88  0.007258419    1.093    0.085
         3 -13.2119    197.6365      9.0309   6.7463468515e+01   3.4335937487e+01      1.61958    0.6965889  49.86  0.001433757    2.443    0.591
         4 -11.9142     32.6942      6.6445   1.0902952755e+02   7.2536445013e+01     1.169459     0.173713 -42.96  0.003199398    5.876    0.830
         5 -11.3151    146.0863    240.6585   1.2898867265e+02   1.0831265002e+01     0.279089    0.2043197  35.97 0.0006187808    1.092    0.084
         6 -10.8197    135.2381    249.5849   1.3178339815e+02   1.1094237286e+01    0.4965126    0.1317457  41.21  0.002379553    2.840    0.648
         7 -10.2826    143.3976    248.7292   1.3029334016e+02   1.0190401530e+01    0.2709535     0.194807  63.72  0.001970517    1.992    0.498
         8 -11.0386    135.8604    241.2140   1.3084829400e+02   1.2057312651e+01     0.294791    0.1503354  39.98  0.001294361    1.505    0.335
         9 -10.4540    127.0376    249.0471   1.3315102309e+02   1.2162909411e+01    0.2943492    0.1640978  43.51  0.001900485    1.439    0.305
        10 -10.3422    121.0374    244.0830   1.3374334626e+02   1.3527988274e+01    0.2935191    0.1427563  52.62  0.001726748    2.272    0.560
        11 -12.0023    125.8923    240.3713   1.3253299884e+02   1.3414034713e+01    0.4239183    0.3211389 -51.94  0.002904013    1.741    0.426
        12 -12.0514     95.9633    239.6928   1.3782780019e+02   1.7126036562e+01    0.6224175    0.4398483  16.00   0.00347684    1.716    0.417
        13 -12.5753    110.2364    229.8041   1.3436556423e+02   1.6812320036e+01    0.6654373    0.4642795  29.28  0.004781641    1.274    0.215
        14 -12.2714     86.1733    237.3827   1.3940882760e+02   1.8586757388e+01    0.6867613    0.3922327  16.82  0.004068049    2.534    0.605
        15 -11.7595     99.9884    247.3278   1.3771942434e+02   1.5606366620e+01     0.520075    0.4072181  25.84  0.004252483    1.289    0.224
        16 -12.1155    108.7211    248.1267   1.3625801984e+02   1.4478235909e+01    0.8950023    0.3383549  40.53  0.005236234    1.911    0.477
        17 -10.9367     87.6963    249.4759   1.4001871572e+02   1.6714751578e+01    0.3565569    0.2628505  55.32  0.002190855    1.217    0.178
        18 -11.5075     81.9645    246.4771   1.4080729084e+02   1.7765372829e+01    0.4356912    0.2773241 -59.71  0.002488133    2.033    0.508
        19 -15.2962     61.5716    215.4124   1.4240042340e+02   2.4742387593e+01     3.684641     2.728226  69.87   0.02792369    1.270    0.212
        20 -10.4868    142.5545    228.3510   1.2826497383e+02   1.2860985862e+01    0.2395682    0.1909435 -89.37  0.001565863    1.990    0.498
        21 -11.4099    142.1303    221.1992   1.2751373690e+02   1.3880776580e+01    0.3134481    0.2831667  75.29  0.002431057    1.469    0.319
        22  -9.3052    190.8899    227.9534   1.1965435180e+02   6.4647607021e+00    0.1617948     0.122349  21.89 0.0002963898    1.046    0.044
        23 -10.1975    164.2441    226.2225   1.2408942225e+02   1.0238530965e+01     0.189179    0.1611474   3.87 0.0005897144    1.219    0.179
        24 -10.3065    132.4010    224.7235   1.2972829332e+02   1.4691369391e+01    0.1887951    0.1175241  40.54 0.0009559808    1.298    0.229
        25 -10.5003    117.5038    224.1992   1.3245866300e+02   1.6702961807e+01    0.2536839    0.1723135  41.49 0.0009847162    1.181    0.153
        26 -10.3943     91.2270    219.7738   1.3703190689e+02   2.0646341296e+01    0.2629216    0.1391274  48.89  0.001031654    1.624    0.384
        27 -10.9311     98.3865    222.4181   1.3590218392e+02   1.9367859150e+01    0.3833504     0.260276  56.79 0.0009172763    1.430    0.301
        28  -9.6643    150.0096    222.2116   1.2617659770e+02   1.2678667272e+01    0.1622263    0.1416898  12.04 0.0002431652    1.175    0.149
        29  -8.6510     93.6510    216.3108   1.3625108360e+02   2.0896572772e+01    0.2160072    0.1268886  71.22  0.001256004    2.302    0.566
        30 -10.9335     98.6003    230.9664   1.3662237216e+02   1.8065908611e+01    0.3154335    0.2479206  -6.93 0.0008934779    1.822    0.451
        31  -8.7454    163.7751    221.2049   1.2353545134e+02   1.0933566036e+01    0.1514794    0.1105993  12.77 0.0005314282    1.319    0.242
        32  -9.3335    177.9058    218.3283   1.2061161955e+02   9.3481587999e+00    0.1751211    0.1173152  40.06 0.0006525227    1.402    0.287
        33  -9.2541    134.0603    217.8797   1.2863942396e+02   1.5433533801e+01    0.1731749     0.127816  48.02 0.0006530001    1.312    0.238
        34  -9.0914    233.0847    216.3105   1.1101028929e+02   2.1394644259e+00    0.1513559    0.1062065  18.85 0.0005540526    1.092    0.084
        35 -10.7347    101.3454    212.4306   1.3437334446e+02   2.0552844466e+01     0.413306    0.2413373  48.29  0.002368874    1.501    0.334
        36  -8.8972    118.9586    236.2598   1.3338224116e+02   1.4825748610e+01    0.1938948    0.1212935  73.70      0.00117    2.665    0.625
        37  -8.9792    182.8220    213.8033   1.1910220429e+02   9.2188410777e+00    0.1468777    0.1168665  36.28 0.0005754441    1.297    0.229
        38  -9.3308    151.6173    212.7929   1.2469216648e+02   1.3734628486e+01    0.2559575    0.1750048 -22.16  0.001034569    1.839    0.456
        39  -8.2681     89.2213    214.6161   1.3695958600e+02   2.1706197687e+01    0.1059809   0.07127579  66.66 0.0006866581    1.612    0.380
        40  -9.3442    141.1327    212.6335   1.2666097148e+02   1.5217087070e+01    0.1783318    0.1535603  27.35 0.0009146115    1.076    0.071
        41 -11.6163    134.3465    235.3718   1.3051692238e+02   1.3002501751e+01    0.2728554     0.229614  77.74  0.002137364    1.630    0.387
        42  -8.7281    134.8381    208.1825   1.2732040885e+02   1.6740827396e+01    0.2633297     0.146107 -23.38  0.001265047    3.328    0.700
        43 -11.2886     42.0680    202.6930   1.4539294865e+02   2.8938059181e+01    0.5026126    0.4384858  62.33  0.004092225    1.130    0.115
        44  -9.3805    126.2268    205.2864   1.2865625040e+02   1.8374672367e+01    0.2193462    0.1586433  38.17 0.0007129289    1.143    0.125
        45  -9.3621     89.0301    204.5008   1.3605074991e+02   2.3393855375e+01      0.24443    0.1093092  38.47 0.0007199702    1.809    0.447
        46  -9.8291    247.2384    205.5790   1.0710983959e+02   1.3625819529e+00    0.1597345   0.07875209  25.64 0.0009610324    1.681    0.405
        47  -9.1809    174.9927    205.3206   1.1929513620e+02   1.1409970044e+01    0.1653286    0.1214325  27.80 0.0003814217    1.096    0.087
        48  -9.3980    171.5732    205.2465   1.1991675289e+02   1.1914650283e+01    0.1669764    0.1169263  15.96 0.0004529091    1.335    0.251
        49  -8.8615    163.3432    205.1444   1.2144155143e+02   1.3119631610e+01    0.1668766    0.1204054  24.36  0.000422216    1.168    0.144
        50  -8.4676    148.4813    205.4563   1.2432016780e+02   1.5214948611e+01     0.118561   0.09516367  24.37 0.0001538326    1.071    0.067
        51  -8.4725    107.4302    205.4309   1.3242927362e+02   2.0889441740e+01    0.1144467   0.09362638  43.62  0.000137285    1.034    0.033
        52  -9.8004    102.8998    203.3278   1.3311550768e+02   2.1826617019e+01    0.2256606    0.1856134  10.51 0.0008639322    1.430    0.301
        53  -9.5186    166.8407    202.7774   1.2044240246e+02   1.2935898311e+01    0.1652591    0.1342396  55.76  0.000554606    1.608    0.378
        54  -8.8010    169.7800    200.2133   1.1951135906e+02   1.2855818941e+01    0.2124003    0.1531763  11.95 0.0002726921    1.354    0.261
        55  -8.9545    133.2788    202.3453   1.2688752093e+02   1.7842346322e+01    0.1730139    0.1433217 -41.10 0.0005165568    1.433    0.302
        56 -10.2940    197.0682    200.2482   1.1452903523e+02   8.8496250174e+00    0.3047201    0.1839764  30.82  0.001020736    1.362    0.266
        57  -9.8666    141.4543    198.4142   1.2474056861e+02   1.7272502739e+01    0.2980745    0.1877331  13.98  0.001048842    1.969    0.492
        58 -10.7665    135.5150    230.5099   1.2978828320e+02   1.3495615597e+01    0.1714054    0.1576692  45.78   0.00108786    1.248    0.199
        59 -12.8128     43.1230    237.1958   1.4706416466e+02   2.3160830084e+01    0.4191632      0.31911  60.13 0.0003493106    1.096    0.088
        60  -9.8729     52.9486    197.8619   1.4286753664e+02   2.8696456655e+01    0.1800655    0.1679766 -76.02 0.0007799663    1.289    0.224
        61 -10.2001    155.4745    232.1801   1.2637778276e+02   1.0665420075e+01    0.2056361    0.1430375  32.32 0.0004072197    1.098    0.089
        62  -9.1523     79.4709    182.1260   1.3579662773e+02   2.8566307175e+01    0.2018134    0.1456377  40.88 0.0004113652    1.223    0.183
        63 -11.0511     75.7932    194.5460   1.3783486457e+02   2.6733343143e+01    0.3390965      0.24486 -39.56   0.00219219    1.879    0.468
        64 -11.1479     79.9424    187.5031   1.3625702481e+02   2.7509009624e+01     0.272984    0.2337525 -25.59  0.000821379    1.537    0.349
        65  -8.2160    217.9520    194.9807   1.1006314394e+02   6.4597841607e+00    0.1392054    0.1037626  15.84 0.0003453513    1.041    0.039
        66 -10.4251    159.7795    193.9195   1.2048475346e+02   1.5234023499e+01    0.3286227    0.2060554  44.50  0.001000656    1.551    0.355
        67  -8.9243    135.5115    195.0669   1.2547457657e+02   1.8654407309e+01    0.1521939    0.1201079 -47.47 0.0003509455    1.497    0.332
        68 -10.0815     71.1977    202.1115   1.3946326730e+02   2.5933587107e+01    0.3185883    0.1470773  49.98 0.0005034622    1.904    0.475
        69  -8.3783    107.5755    195.4958   1.3127053724e+02   2.2514368249e+01    0.1167524   0.09966284  43.53 7.040308e-05    1.019    0.019
        70  -9.8699     41.1802    194.7798   1.4507729309e+02   3.0450989677e+01    0.2559846    0.1661038  35.58  0.001747778    1.422    0.297
        71 -15.0352     17.9724    238.8947   1.5144714451e+02   2.5188938255e+01     1.121024    0.6988834  14.42  0.008085825    2.396    0.583
        72  -9.9722    191.5933    191.2308   1.1405653832e+02   1.0798601107e+01    0.2293742    0.1932268   9.89 0.0005884477    1.094    0.086
        73  -9.3624    175.2016    190.9972   1.1706519425e+02   1.3316222187e+01     0.166264    0.1393799  16.07 0.0004809706    1.041    0.040
        74 -15.2637     25.7607    248.3489   1.5046689409e+02   2.3105571621e+01     1.445759    0.5168998  28.89  0.008587874    2.699    0.629
        75  -9.4524     41.2878    189.9470   1.4473809099e+02   3.1334502796e+01    0.1777127    0.1375654 -61.59 0.0005002464    1.512    0.339
        76  -9.4855     45.2351    187.8171   1.4375577749e+02   3.1341462931e+01    0.2961929    0.1818183  49.07   0.00193261    1.360    0.265
        77  -9.5970    250.2760    187.7638   1.0363924281e+02   2.7320871946e+00    0.2390836    0.1111861  -6.65  0.001181192    2.615    0.618
        78  -9.8507     93.2357    204.5197   1.3519997974e+02   2.2866293277e+01    0.3064505    0.2491968 -12.17  0.002113601    1.695    0.410
        79  -9.2043     67.5158    186.2110   1.3882633065e+02   2.9232588173e+01    0.1972311    0.1354991  37.32  0.000492393    1.317    0.241
        80  -9.2613     89.2891    184.4495   1.3389315752e+02   2.6889095003e+01    0.3157346    0.1748462  66.27  0.000640486    2.425    0.588
        81  -9.8332     46.9080    180.1596   1.4282068950e+02   3.2635458734e+01    0.2916709    0.1990647  -0.57  0.001697317    2.397    0.583
        82  -9.1109    134.8533    180.2080   1.2347793400e+02   2.1168600106e+01    0.1885109    0.1556365  51.06 0.0005715876    1.257    0.204
        83  -9.1134    129.0716    179.2150   1.2455966236e+02   2.2214621314e+01    0.1791824    0.1514697  17.18 0.0002809842    1.186    0.157
        84 -10.9108     87.4992    176.0035   1.3330812746e+02   2.8701041135e+01    0.3311124    0.2483726  15.63  0.001546411    1.606    0.377
        85 -10.1742    181.9776    176.6908   1.1337849042e+02   1.4277205342e+01    0.3480479     0.189856  27.27  0.001582885    1.766    0.434
        86 -10.4018     75.3642    173.7689   1.3581225610e+02   3.0675096551e+01    0.3505487    0.2200855 -49.44  0.001561987    1.861    0.463
        87 -17.1487      4.6165    183.3078   1.5201734957e+02   3.5741504581e+01     16.66716     1.058573 -81.15   0.03816795   14.547    0.931
        88 -11.7649     30.9803    170.6993   1.4568548677e+02   3.6042889453e+01    0.3791126    0.2976018 -52.04  0.002226151    1.564    0.361
        89 -11.1618     36.2329    170.0966   1.4444944566e+02   3.5678084638e+01    0.3541798    0.1870922  56.37 0.0003557921    1.711    0.416
        90 -10.8225    249.1400    171.7419   1.0091936461e+02   4.5732979128e+00    0.2802804    0.2001346  27.47  0.001893582    1.326    0.246
        91 -10.0956     48.0677    170.3600   1.4175593260e+02   3.4453099695e+01    0.2432558    0.1936265 -38.66  0.001624723    1.659    0.397
        92 -11.4976     93.8043    166.9306   1.3070809545e+02   2.9601814859e+01    0.5662935    0.4042432 -28.53  0.002275398    1.920    0.479
        93  -9.6519     96.9344    159.0558   1.2886243935e+02   3.0713699137e+01    0.2866151    0.1649828 -46.28 0.0009052405    1.951    0.488
        94  -8.0554    122.6363    168.7684   1.2438129782e+02   2.5037079114e+01    0.1251285   0.09307208  11.94 0.0001959234    1.587    0.370
        95  -9.4902    107.6901    168.1714   1.2767241339e+02   2.7389872816e+01    0.2266986    0.1655041  31.01 0.0003068922    1.315    0.239
        96  -8.9874     58.9021    167.3008   1.3894980642e+02   3.3903130489e+01    0.1590245    0.1403426  54.98 0.0003550822    1.067    0.063
        97  -9.3463    175.9061    166.1673   1.1266372115e+02   1.6820106607e+01    0.1825779    0.1640976  34.39 0.0002779935    1.220    0.180
        98  -8.5546    128.7750    165.6138   1.2250822098e+02   2.4650859211e+01    0.1734096    0.1097782  45.11 0.0002290428    1.502    0.334
        99 -11.1478     37.4988    162.1063   1.4353726186e+02   3.7191517447e+01    0.3648356    0.1625153  26.14  0.001301884    2.419    0.587
       100  -8.8866    202.7565    161.8251   1.0674761123e+02   1.2968289983e+01    0.2653452    0.1261004  28.94  0.001219456    2.170    0.539
       101 -10.8628    244.9481    162.1622   9.9743495447e+01   6.2456967356e+00    0.2644468     0.148585 -17.75  0.001514761    1.590    0.371
       102  -9.8810    249.4751    160.5000   9.8730615383e+01   5.7586421887e+00    0.2197588    0.1333115 -20.01  0.001027658    1.431    0.301
       103 -10.4544    247.7910    157.3698   9.8374200143e+01   6.3615892823e+00     0.284181    0.1620316  35.93  0.001653548    1.701    0.412
       104  -8.4164    171.4603    159.4141   1.1228532016e+02   1.8616346224e+01    0.1307315    0.1145199  19.49 0.0001114881    1.042    0.041
       105  -9.4706     82.5661    159.0748   1.3233147591e+02   3.2688582409e+01    0.2046408    0.1694668  30.84 0.0003391785    1.234    0.190
       106  -9.0765     52.2443    158.3994   1.3965077704e+02   3.6470552502e+01      0.17309   0.09509708  43.59 0.0009495015    1.650    0.394
       107 -10.4672     42.6662    156.0917   1.4177258762e+02   3.7948452036e+01    0.2455054    0.1362299  46.02 0.0006727267    1.635    0.389
       108  -8.6387    115.7614    157.4334   1.2414384700e+02   2.8215983023e+01    0.1711718    0.1194165  26.19 0.0003754876    1.486    0.327
       109  -9.1817     88.9522    156.9712   1.3049057973e+02   3.2254258477e+01    0.1839908     0.171609  59.74 0.0003035605    1.013    0.013
       110  -9.4580     72.3385    156.2829   1.3447425037e+02   3.4579353700e+01    0.3506192     0.208035  21.04   0.00175879    2.073    0.518
       111  -8.9092    134.5635    155.7048   1.1951161434e+02   2.5511551866e+01    0.2246215    0.1273325 -42.77 0.0006406142    1.902    0.474
       112 -10.6277    243.0407    154.6047   9.8554230261e+01   7.4026774984e+00    0.2897986    0.1420972  43.68  0.001510406    2.184    0.542
       113  -9.2324    114.0381    152.2413   1.2368557136e+02   2.9491723160e+01    0.2169005     0.189483 -51.81 0.0006723654    1.219    0.180
       114  -9.8482    104.2806    150.7318   1.2579393853e+02   3.1298977474e+01    0.3367791    0.2536373 -25.71  0.001855565    1.679    0.405
       115  -9.0991    107.0478    146.0000   1.2431838296e+02   3.1829235058e+01    0.2741293    0.1898328 -14.83  0.001327503    2.187    0.543
       116 -10.9713     46.2872    150.9631   1.4037955431e+02   3.8676513059e+01    0.2845721    0.2072183  21.68  0.001757787    1.598    0.374
       117  -9.2602     93.2947    150.4821   1.2846421899e+02   3.2971358422e+01    0.2597755    0.2040124  30.42  0.001528768    1.287    0.223
       118 -10.7334     55.8056    149.3001   1.3778708268e+02   3.8015780694e+01     0.304865    0.2530836  -5.91  0.001372284    1.604    0.376
       119  -9.9474     59.4707    145.4960   1.3639378066e+02   3.8424455060e+01    0.1897069    0.1705876  27.45 0.0007719939    1.241    0.194
       120 -10.0547    249.4429    149.4964   9.6557204547e+01   7.0064801585e+00    0.2362947    0.1100026  41.48  0.001218655    2.193    0.544
       121  -9.5219    142.9333    148.1100   1.1620459547e+02   2.5472519361e+01    0.3229081    0.2695851 -87.71  0.001141073    1.669    0.401
       122 -12.2865     67.7626    144.0277   1.3404509394e+02   3.7755138961e+01    0.7134919    0.4467536  61.22  0.003670224    1.730    0.422
       123 -11.8881     71.4015    138.8236   1.3235545995e+02   3.8434635542e+01    0.7507758    0.4785143  50.66   0.00396719    1.566    0.362
       124 -10.0806    133.1391    140.3519   1.1694066028e+02   2.8621684482e+01    0.3374745    0.2654019 -43.22  0.001118707    1.328    0.247
       125 -10.9410     32.9413    135.9174   1.4236313012e+02   4.3270609772e+01    0.2370405    0.1858434 -69.94 0.0006625067    1.216    0.178
       126 -11.5514     32.6500    140.7802   1.4290298622e+02   4.2214116657e+01    0.3647409    0.1713288 -80.59   0.00183468    2.038    0.509
       127 -10.4355     41.2825    146.1535   1.4117406829e+02   4.0221305984e+01    0.2146116       0.1492   2.57  0.001225457    2.080    0.519
       128 -10.9712     46.2093    143.5036   1.3962181506e+02   4.0306674785e+01    0.2971174    0.2177273  73.75  0.001832132    1.307    0.235
       129  -9.9438    134.0000    145.5085   1.1774826682e+02   2.7496278595e+01    0.4592936    0.1942895 -51.30  0.001857915    2.678    0.627
       130 -11.0438    249.1078    140.6152   9.4787557277e+01   8.0850029862e+00    0.5256693    0.2408289  29.44  0.002532032    2.359    0.576
       131 -12.0710    248.5500    134.2308   9.3527979018e+01   8.9237703014e+00     0.845591    0.4166702 -12.50  0.004051509    2.153    0.535
       132  -8.6108    194.2185    140.1998   1.0390268872e+02   1.7549149217e+01    0.1633333    0.1597204 -21.64 0.0003723776    1.315    0.239
       133 -11.0969     59.1470    134.4102   1.3504715526e+02   4.0911312420e+01    0.5630734    0.2059793 -68.22  0.002299357    2.748    0.636
       134 -11.9330     44.8566    130.3879   1.3848611285e+02   4.3379956049e+01    0.5938823     0.340238  71.58  0.001756101    1.997    0.499
       135 -11.6643     49.5044    138.0702   1.3813261668e+02   4.1165582850e+01    0.5404607    0.2640291  24.29  0.002607372    2.365    0.577
       136  -9.6851     51.5468    132.9357   1.3694398793e+02   4.2098378680e+01    0.3160301    0.1680956 -55.54 0.0008872949    1.850    0.459
       137  -8.4405     97.8217    134.4025   1.2461778720e+02   3.5667122781e+01    0.1726053    0.1277533  23.96 0.0002198983    1.489    0.329
       138 -10.7021     27.9525    142.4873   1.4427873045e+02   4.2249955570e+01    0.2042392    0.1438657  71.65 0.0007085353    1.286    0.223
       139 -11.2077     66.1001    127.2471   1.3206584308e+02   4.1687518680e+01    0.4880204    0.2819659 -84.78   0.00227656    2.168    0.539
       140  -8.8741    118.6627    128.6615   1.1810470144e+02   3.3450737425e+01    0.1450381    0.1087857  -7.32 0.0007051159    1.756    0.431
       141 -10.1444    113.7434    136.2064   1.2086015304e+02   3.2745611370e+01    0.3254646    0.2834425  50.59  0.001550687    1.153    0.132
       142 -12.2851     31.2193    126.1516   1.4184755059e+02   4.5637272839e+01    0.5219201    0.3752787  34.92  0.003103806    1.467    0.318
       143  -9.5877    209.8913    125.6173   9.7807137132e+01   1.6787230151e+01    0.2415117    0.1765254 -26.11 0.0004728966    1.283    0.221
       144  -9.5449     50.5136    122.8974   1.3589429864e+02   4.4503115341e+01    0.1970381    0.1173698 -71.09  0.001024839    1.574    0.365
       145  -8.9447    160.4652    126.4609   1.0770607291e+02   2.6137782765e+01    0.1415829    0.1301731   8.09 0.0001422371    1.006    0.006
       146  -8.2634    238.6479    121.7091   9.2264960453e+01   1.2110530842e+01    0.1358478    0.0862855  11.70  0.000702804    1.675    0.403
       147  -9.7707    130.9633    119.0370   1.1288799737e+02   3.3167531053e+01     0.207059     0.199166   7.66  0.001201184    1.006    0.006
       148 -11.0439     32.6098    115.8582   1.4027844402e+02   4.7901201298e+01    0.4627168    0.1468858 -67.75  0.001910383    2.623    0.619
       149  -9.9178    249.5237    117.4903   8.9745683961e+01   1.0754991943e+01    0.2134245    0.1375919 -27.81 0.0006271644    1.375    0.272
       150 -11.2033    248.7401    112.4415   8.8722544249e+01   1.1495146522e+01    0.4849964     0.279649 -17.49  0.001981063    1.530    0.346
       151  -9.1698     70.3131    117.0276   1.2913879347e+02   4.3477411995e+01    0.1888271    0.1647361 -66.14 0.0004315771    1.091    0.084
       152  -9.2742    168.3732    113.2185   1.0283435518e+02   2.6873151184e+01    0.2670935    0.2202486 -71.76  0.001022695    1.725    0.420
       153 -10.6259     62.5432    112.9378   1.3074329551e+02   4.5418732431e+01    0.3506235    0.2029197 -58.68  0.001067666    1.600    0.375
       154 -10.3161     59.2000    111.1880   1.3146150672e+02   4.6235508797e+01    0.4255793    0.2457081  83.79  0.001853747    2.503    0.601
       155  -8.7793    149.5077    111.4797   1.0659224472e+02   3.1007055240e+01    0.1452254    0.1371814   2.98 4.833462e-05    1.015    0.014
       156  -9.4970    102.6593    110.6043   1.1844238850e+02   4.0010658243e+01    0.2351429    0.2253814  87.75  0.000359665    1.096    0.088
       157 -10.6353     70.2089    110.7072   1.2800166195e+02   4.4947328798e+01    0.3377496    0.2586752  66.38  0.001228345    1.455    0.313
       158  -8.1742     80.0000    108.9759   1.2469139089e+02   4.3972082834e+01    0.2190078   0.07550225 -57.02 0.0005140476    2.788    0.641
       159  -9.9592    114.7093    107.0372   1.1426128593e+02   3.8636468327e+01    0.2026791    0.1809776 -39.55 0.0003080216    1.107    0.096
       160  -9.8618    134.7077    105.4461   1.0863377944e+02   3.5122143792e+01    0.3821623    0.1759441 -44.46  0.001496655    2.184    0.542
       161  -8.5121     76.4956     99.0438   1.2362692713e+02   4.6761521638e+01    0.2022343    0.1305983 -56.16 0.0003641164    1.462    0.316
       162  -8.9051     63.7992     98.1235   1.2751598937e+02   4.8727605179e+01     0.200796    0.1740937  77.35 0.0005557928    1.230    0.187
       163 -10.0287     33.1481     94.4363   1.3715104742e+02   5.2946179368e+01    0.2277462    0.1356118 -75.17 0.0007827056    1.531    0.347
       164 -10.8526    248.5192     99.6160   8.5808123218e+01   1.3077995714e+01    0.4892774    0.2740399 -10.33  0.002435194    1.820    0.450
       165  -8.5368    102.0105     87.7428   1.1284703593e+02   4.5067043953e+01    0.1907575    0.1886723   2.66 0.0002284188    1.047    0.045
       166  -8.5254     99.9798     83.5054   1.1225955928e+02   4.6345788105e+01    0.2061143    0.1455131  40.57 0.0003333635    1.471    0.320
       167 -10.3381    115.6192    239.6942   1.3430396750e+02   1.4772427584e+01    0.1987367    0.1734154  57.26 0.0005217384    1.257    0.204
       168  -8.9628    173.0658    239.2659   1.2414547505e+02   7.5290181100e+00    0.1670117    0.1517059 -24.74 0.0009262083    1.473    0.321
       169  -9.2955    204.8488    249.4036   1.2012488582e+02   2.4799283695e+00     0.145765   0.06960326  26.14 0.0003167546    1.619    0.382
       170 -10.2852    152.5733    243.2006   1.2812999199e+02   9.6980581813e+00    0.2008215    0.1057867 -53.55  0.001259281    2.838    0.648
       171 -10.7968    249.6704    242.1649   1.1225654503e+02  -2.1902116842e+00    0.2540772     0.114012 -35.79  0.001552819    3.255    0.693
