#   1 NUMBER                 Running object number                                     
#   2 MAG_AUTO               Kron-like elliptical aperture magnitude                    [mag]
#   3 X_IMAGE                Object position along x                                    [pixel]
#   4 Y_IMAGE                Object position along y                                    [pixel]
#   5 X_WORLD                Barycenter position along world x axis                     [deg]
#   6 Y_WORLD                Barycenter position along world y axis                     [deg]
#   7 A_WORLD                Profile RMS along major axis (world units)                 [deg]
#   8 B_WORLD                Profile RMS along minor axis (world units)                 [deg]
#   9 THETA_WORLD            Position angle (CCW/world-x)                               [deg]
#  10 FWHM_WORLD             FWHM assuming a gaussian core                              [deg]
#  11 ELONGATION             A_IMAGE/B_IMAGE                                           
#  12 ELLIPTICITY            1 - B_IMAGE/A_IMAGE                                       
         1 -13.9631    248.3240     72.3677   4.9340686660e+01   1.4397483683e+01     7.322595     1.773058 -31.19  0.006336307    4.950    0.798
         2 -13.8262    223.8871     57.3530   4.8803146967e+01   2.2060217653e+01     10.76311          nan -39.25   0.02322772    7.698    0.870
         3 -13.5016    153.8075     46.2625   5.6953889464e+01   4.1074656090e+01     3.687729     1.984058  77.71   0.01366248    2.713    0.631
         4 -12.5406    235.4813     50.4516   4.5721912618e+01   2.0411490564e+01    0.8796764    0.5419862  51.70  0.004449397    1.867    0.464
         5 -13.1405    181.1311     82.0386   6.2255713878e+01   2.8364013943e+01     6.227373    0.8716052 -40.42  0.005452885    5.938    0.832
         6 -11.0828    184.8534     37.0772   4.8796861800e+01   3.4450710388e+01    0.7264355    0.5288799 -43.99  0.002417416    1.367    0.268
         7 -13.7619    232.4129     25.7187   4.0217809809e+01   2.4374997450e+01     4.398592    0.9749562  61.48   0.01536398    3.930    0.746
         8 -10.1043    131.8851     19.3496   5.2269139520e+01   4.9936874131e+01    0.3932053    0.2335309 -34.54 0.0004809223    1.804    0.446
         9  -9.8509    195.3767      9.2737   3.9829133224e+01   3.5054604158e+01      0.49219    0.3483209 -82.52  0.001065299    1.341    0.254
        10  -8.8553    151.5493     10.9643   4.5931153912e+01   4.5889825582e+01    0.2482779    0.1624405  49.78 0.0006218726    1.434    0.302
        11  -9.0832    141.3146     10.1372   4.7317694407e+01   4.8529013527e+01    0.4685019    0.2412487 -63.85  0.001832671    3.114    0.679
        12  -9.0510    221.0224      7.7123   3.7021406903e+01   2.9063763248e+01    0.2173802    0.1479966 -39.44 0.0008901255    1.435    0.303
        13  -8.6038    124.0243      4.9998   4.8605181177e+01   5.3218340424e+01    0.1620409    0.1379852  53.51  0.000343399    1.028    0.028
        14 -10.9486    249.1261      3.0100   3.3879751188e+01   2.3297693767e+01    0.2361313    0.1769586 -55.80 0.0004125286    1.123    0.110
        15  -8.9482    180.5116      1.8185   3.9405653055e+01   3.9458659244e+01    0.2851287    0.1549773 -84.92  0.001324894    1.999    0.500
        16  -7.7296    118.6874      1.2985   4.8247141156e+01   5.4794939634e+01    0.1261367   0.09821405 -70.29 0.0002528148    1.604    0.376
        17  -7.6841    128.4636    191.4120   9.9688718330e+01   1.6772989675e+01    0.1399751    0.1269763  50.91 0.0001018518    1.015    0.015
        18  -9.9055    107.0452    250.5199   1.1176454928e+02   9.0994801084e+00    0.1698927    0.1157475  42.23  0.001074418    1.226    0.185
        19 -13.4833     28.4197    171.6564   1.2029710922e+02   3.5540525995e+01     1.360245     1.003712   8.78  0.002114572    2.070    0.517
        20 -12.7675     41.5326    164.0167   1.1643581875e+02   3.5951318562e+01    0.9467793    0.7769334 -82.58  0.002683928    1.059    0.056
        21  -9.3491     60.9880    185.2450   1.1427598606e+02   2.8678112156e+01     0.207958    0.1678232 -73.23 0.0002426682    1.205    0.170
        22  -9.3158    235.7096    179.6393   7.5246023838e+01  -6.4568672732e-01    0.2246615    0.2068385   4.66 0.0005464325    1.173    0.147
        23  -8.2617    197.4669    176.5124   8.1897118050e+01   6.7414222815e+00    0.1420828    0.1302147   7.14 5.972988e-05    1.011    0.011
        24  -8.3887     61.8719    169.8205   1.1220632086e+02   3.2130724541e+01    0.1807914    0.1605247 -75.45 0.0003296108    1.135    0.119
        25  -8.7772    249.0036    239.2698   8.3838575711e+01  -1.0728665958e+01    0.1601139     0.119655  11.45 0.0004468844    1.041    0.040
        26  -8.1303    109.6697    237.2563   1.0986143002e+02   1.0990963574e+01    0.1264299   0.07816009  59.50            0    1.560    0.359
        27  -7.9886    222.8128    145.1399   7.0218860345e+01   7.4454300876e+00    0.1930257    0.1567051  -2.18 0.0003583252    1.286    0.222
        28  -9.9814    192.5317    143.7676   7.5784878033e+01   1.3882364251e+01     0.339525    0.2468737  19.31  0.001172127    1.638    0.390
        29  -9.9316    177.1713    140.4499   7.8283138150e+01   1.7826912695e+01    0.2963047    0.2094331 -78.40  0.001203657    2.299    0.565
        30 -10.1146    183.7265    146.7360   7.8322086396e+01   1.5157987604e+01     0.309054    0.2491704 -68.28 0.0008418728    1.561    0.359
        31  -9.7247    156.8373    137.6216   8.2255597823e+01   2.2820890917e+01    0.3827486    0.2457054  60.54  0.001573332    1.915    0.478
        32  -9.1936    228.2070    135.7999   6.7139636590e+01   8.0194144517e+00    0.2003652    0.1595201  -4.85 0.0003428377    1.350    0.259
        33 -12.8435    144.7613     61.5180   6.3816354384e+01   4.0942385304e+01     1.854821     1.130964 -48.37  0.007960386    1.796    0.443
        34  -8.5387    220.0518    229.0122   8.7239231079e+01  -5.3391438212e+00    0.1814436    0.1462198  14.53            0    1.024    0.024
        35 -10.2129    212.1924    115.5643   6.5198367291e+01   1.4974125994e+01    0.5566104    0.3500577 -89.21  0.001955497    3.529    0.717
        36 -10.7505    161.3544    118.6967   7.6503644670e+01   2.5872882777e+01    0.5224298    0.3352315 -65.26   0.00203337    2.187    0.543
        37  -8.9055    205.0587    119.4760   6.7478103596e+01   1.5819364902e+01    0.2308247    0.1481327  45.49  0.001033477    1.636    0.389
        38  -9.0953     85.5011    227.4995   1.1359523074e+02   1.6392647623e+01    0.1250623    0.1008573  61.76 -0.0002830666    1.006    0.006
        39 -10.1619    167.9989    113.4953   7.3623494359e+01   2.5431329834e+01    0.4405425    0.3329659 -49.87   0.00104383    1.347    0.257
        40  -9.0747    135.2397    107.5225   7.9996074801e+01   3.4150882105e+01    0.4175042    0.3871692  49.28  0.002145224    1.099    0.090
        41 -10.3381    195.8754    111.7200   6.7302415904e+01   1.9342684051e+01    0.4455253    0.2578216  69.16  0.001663437    2.616    0.618
        42  -9.1151    134.3853    147.6554   9.0018134137e+01   2.5270859846e+01    0.4349559    0.1482881 -54.99  0.001289557    3.546    0.718
        43  -9.6661    221.4652    104.3006   6.0829004302e+01   1.4955916829e+01    0.2433154    0.1844584 -88.42  0.001032832    1.763    0.433
        44 -10.5256    203.1834    103.8032   6.3898071351e+01   1.9145651477e+01    0.4164922    0.2828712  53.47  0.001447952    1.555    0.357
        45 -10.0769     69.6528    145.3110   1.0661790970e+02   3.6992995743e+01    0.3402089    0.2821024  86.06  0.001291919    1.173    0.148
        46  -9.6481    150.6256     99.4560   7.3874734968e+01   3.2371514296e+01    0.4378123    0.3041737  54.20  0.001928408    1.501    0.334
        47  -8.1639    143.8282    104.1653   7.6869119112e+01   3.2952432548e+01    0.2181806    0.1888069   7.78 0.0005169709    1.327    0.246
        48 -12.4547    180.9169     67.5373   5.8188126488e+01   3.0916207515e+01    0.6497135    0.5453327  17.82  0.003278201    1.438    0.305
        49  -8.9481      4.3202     99.3255   1.1868868794e+02   5.4492817923e+01    0.1287278   0.06949811 -47.90 0.0007046598    1.680    0.405
        50  -8.9281    136.3773     96.1864   7.6525656385e+01   3.6329753053e+01    0.2757865    0.2250407 -79.19 0.0005712311    1.520    0.342
        51 -10.9633    163.0091     92.5110   6.9017634532e+01   3.0825047632e+01    0.7427787    0.4113022  35.29  0.002777492    2.265    0.559
        52  -9.8507    168.0294     90.4973   6.7339436098e+01   3.0000640534e+01    0.2492891     0.215109 -66.16 0.0006246537    1.253    0.202
        53  -9.9136      2.6804     93.0189   1.1834000358e+02   5.6044299875e+01    0.1833498    0.1278261 -66.57  0.001173326    1.097    0.088
        54  -9.9753    145.1685     89.1981   7.2260444470e+01   3.5733305114e+01    0.3273975    0.2895455 -49.34 0.0006663338    1.142    0.124
        55 -11.4278    161.5491     82.8107   6.6548742075e+01   3.3032550794e+01    0.4740468    0.3717861 -42.36 0.0007516486    1.265    0.209
        56  -8.8182      1.6549     84.3284   1.1739579146e+02   5.8092012617e+01    0.1180987   0.08101954  72.31 -8.275284e-05    1.750    0.429
        57 -10.1299     66.3979    144.1972   1.0731579809e+02   3.7711314431e+01    0.4846038    0.2843809 -75.88  0.001439081    1.763    0.433
        58 -10.0711    106.4266     78.2688   7.9508268565e+01   4.6515566556e+01    0.2528472    0.2402516   0.16 0.0003359509    1.037    0.035
        59  -8.6473    202.5106     74.9510   5.6474719344e+01   2.4370113632e+01    0.3583191    0.2179112 -39.04  0.001167034    1.556    0.357
        60 -10.8650    199.5261     71.0448   5.5921385190e+01   2.5737863228e+01    0.3527585    0.2786562  40.25  0.001265528    1.428    0.299
        61 -11.0313    205.3814     67.8152   5.4120095833e+01   2.4840260784e+01     0.458059    0.3086284  41.15  0.002142194    1.750    0.429
        62  -9.1538    218.7975    211.6123   8.4457448799e+01  -2.7060662066e+00    0.2592496    0.2044272  65.35  0.001067518    2.156    0.536
        63  -8.3637    210.2947    125.3266   6.7917291307e+01   1.3594132136e+01    0.1511551    0.1149873   1.05 0.0002171995    1.626    0.385
        64  -9.3763      6.0155    208.4911   1.2749205864e+02   2.9670511620e+01    0.1489717   0.09684874  42.52  0.001018099    1.566    0.362
        65 -10.4021    200.4935    122.6390   6.9132189640e+01   1.6230819711e+01    0.3595175    0.2650711 -40.92 0.0003242192    1.300    0.231
        66  -9.7722    123.9743     59.1860   6.8192195363e+01   4.6289660136e+01     0.258683    0.1646321  26.38 0.0008118193    1.977    0.494
        67  -8.1498    222.3599    206.0992   8.2793693518e+01  -2.4690165073e+00    0.1608268    0.1153243 -42.15 0.0003707685    1.656    0.396
        68 -10.8748    188.2543     77.4748   5.9638096859e+01   2.7415720169e+01    0.4132568    0.3333784  56.08  0.001339266    1.261    0.207
        69  -8.7861    108.0740     46.9636   6.8255497256e+01   5.1865071875e+01    0.2121723     0.199651   1.62 0.0003400504    1.035    0.034
        70  -8.7684    206.4571     44.0518   4.7682574384e+01   2.8126123628e+01    0.3944812    0.1449953 -48.17  0.001420011    2.824    0.646
        71 -10.2294    161.2266    128.5994   7.9036908957e+01   2.3800107635e+01    0.3751503    0.3069808  79.41  0.001764263    1.512    0.338
        72 -10.2796     57.6584    158.8218   1.1179627924e+02   3.5291632467e+01    0.3708208    0.2344304  43.40  0.001949643    1.605    0.377
        73  -8.9331    144.0975    123.9860   8.2033107483e+01   2.8576131786e+01    0.2292859    0.2235109 -30.20 0.0003207153    1.029    0.028
        74  -9.1137    248.1608     34.7782   4.0816236957e+01   1.9742370229e+01    0.4205016    0.1941528 -56.63  0.001933265    2.130    0.531
        75 -11.6676    204.2433    111.9346   6.5758993764e+01   1.7405154588e+01    0.7035785    0.5347309  13.47  0.002762835    1.689    0.408
        76  -9.9888    215.0554    120.8353   6.5962554842e+01   1.3395414006e+01    0.4020147    0.2952253  71.04   0.00160364    1.787    0.440
        77  -9.8180    179.1902     24.0174   4.5861501001e+01   3.7501394223e+01    0.4161019    0.3352914  84.47  0.001890599    1.176    0.150
        78  -8.0404    164.2444     22.7112   4.7663981803e+01   4.1449915416e+01    0.1346939    0.1001523 -64.45 0.0006833631    1.468    0.319
        79  -9.0288    206.9270    206.0300   8.5703098620e+01   8.9436438775e-02    0.1939066    0.1707788  16.01 0.0003453972    1.073    0.068
        80 -10.8367    248.9311    142.5816   6.5182444245e+01   2.9758340224e+00    0.4651166    0.2480509 -25.73  0.002130293    1.881    0.468
        81  -8.1565    235.4142     13.5113   3.7160436806e+01   2.5136602094e+01    0.1271931    0.1044199 -67.65 0.0001412727    1.016    0.016
        82  -8.2204    231.4882     13.0464   3.7378332288e+01   2.6074332420e+01    0.1789863     0.114762 -37.56 0.0008749515    1.504    0.335
        83 -10.3462    238.3264    204.5547   7.9608323512e+01  -4.7642130061e+00    0.2244787    0.1877467   1.56 0.0002585762    1.060    0.057
        84  -9.6271     10.7342    205.5513   1.2645076947e+02   2.9836483809e+01    0.1826718    0.1074399  30.32  0.001139566    2.068    0.517
        85  -9.4688    207.9470    201.3596   8.4649976402e+01   6.5135181369e-01    0.2208254     0.178104 -19.19 0.0003442957    1.222    0.182
        86  -8.1457    195.3204    199.6429   8.6814888359e+01   3.1213031796e+00    0.1287783    0.1098001  80.58 0.0007045164    1.761    0.432
        87  -8.8702    208.6238    197.0016   8.3704280657e+01   1.2315583771e+00    0.2119419     0.174127  37.84 0.0005501153    1.253    0.202
        88  -9.0354    191.5433    192.3156   8.6208380566e+01   5.0448004303e+00    0.4374828    0.2592946 -66.74  0.001568432    4.164    0.760
        89 -10.1773    176.2261    192.1507   8.9347104871e+01   7.8817127176e+00    0.2389131    0.2262682   2.14 0.0003408914    1.071    0.067
