#   1 NUMBER                 Running object number                                     
#   2 MAG_AUTO               Kron-like elliptical aperture magnitude                    [mag]
#   3 X_IMAGE                Object position along x                                    [pixel]
#   4 Y_IMAGE                Object position along y                                    [pixel]
#   5 X_WORLD                Barycenter position along world x axis                     [deg]
#   6 Y_WORLD                Barycenter position along world y axis                     [deg]
#   7 A_WORLD                Profile RMS along major axis (world units)                 [deg]
#   8 B_WORLD                Profile RMS along minor axis (world units)                 [deg]
#   9 THETA_WORLD            Position angle (CCW/world-x)                               [deg]
#  10 FWHM_WORLD             FWHM assuming a gaussian core                              [deg]
#  11 ELONGATION             A_IMAGE/B_IMAGE                                           
#  12 ELLIPTICITY            1 - B_IMAGE/A_IMAGE                                       
         1  -7.3913      9.1392     56.9652   1.1930176722e+02   6.2998217391e+01     1.275944     0.606226 -52.96  0.007244819    1.683    0.406
         2 -13.1675     28.2602     60.5012   1.1276282663e+02   6.0918660205e+01     1.553787    0.8437706  54.78   0.00565591    2.569    0.611
         3 -13.1007    204.7115     21.2675   5.2164031822e+01   3.1009223538e+01    0.8824161     0.532167 -79.13  0.003810315    2.046    0.511
         4 -12.6687    216.1872     15.0031   4.9038649483e+01   2.8702363980e+01    0.8895699    0.6632122  11.66  0.003454237    1.654    0.396
         5 -12.3699     42.7201     20.1060   9.3550850924e+01   6.7729937675e+01    0.6535335    0.3885948  24.55  0.001985068    1.926    0.481
         6 -13.3118    189.4637      7.8077   4.9857695290e+01   3.6483040636e+01     1.135323    0.5990748 -74.39   0.00444302    2.515    0.602
         7  -9.3754     93.4321      9.7763   6.9125636671e+01   6.0667265648e+01    0.1808179    0.1241797  -8.38 0.0004564418    1.493    0.330
         8 -12.1611     57.4048      7.1164   8.0648440772e+01   6.7766100657e+01    0.6589564    0.5346784 -53.10  0.003971396    1.683    0.406
         9  -9.9334    109.4584      8.4895   6.4129982663e+01   5.7229947178e+01    0.1391892     0.129013  18.32  2.28797e-05    1.027    0.026
        10 -11.9547     43.9784      8.2428   8.7263926473e+01   6.9563085107e+01     0.281357    0.2570356 -17.26  0.001025381    1.216    0.178
        11  -9.8526    153.1396      4.1886   5.3596076843e+01   4.6611176037e+01    0.1951742    0.1653377 -69.55 0.0003608752    1.293    0.227
        12  -9.1296     13.5262      4.4301   1.0156737020e+02   7.3417520412e+01    0.1155511   0.08562983 -33.59 0.0002505988    1.046    0.044
        13 -12.0208    166.9805      1.9986   5.0783562520e+01   4.3095403080e+01    0.6854481    0.1987997  70.45  0.002183591    3.304    0.697
        14  -9.7480     83.3088    220.6446   1.1993429508e+02   2.1333042230e+01    0.1174886   0.06376402  65.39 0.0007042835    1.726    0.421
        15 -10.8978    238.9102    213.7930   9.1845789918e+01  -1.9449250996e+00    0.4899083    0.1914479 -41.17   0.00228336    4.006    0.750
        16 -11.7178    223.1315    213.5127   9.4360621641e+01   5.4164080597e-01    0.4166914      0.17497  35.35  0.002151942    1.958    0.489
        17 -10.6658    116.5186    209.3316   1.1279978331e+02   1.8419228035e+01    0.3019481    0.1543029 -67.68  0.001631562    2.541    0.606
        18 -10.2529     41.4270    201.4153   1.2605712820e+02   2.9735968961e+01    0.2142841    0.1086373 -71.84  0.001366395    1.956    0.489
        19 -11.0945      4.8376    199.4386   1.3243766589e+02   3.3670802204e+01    0.2911547   0.09966472  51.44  0.001189787    2.059    0.514
        20 -10.1048    112.7601    198.1597   1.1224306896e+02   2.0847704529e+01    0.2100136    0.1086999  69.66 0.0009548836    2.852    0.649
        21 -12.5004    160.8124    192.2069   1.0215817606e+02   1.3850269539e+01    0.6690447    0.4494213  64.34  0.003018702    1.814    0.449
        22  -9.9842     34.4915    187.5101   1.2645622214e+02   3.3024235707e+01    0.1117434    0.0792189  70.04 0.0001374784    1.060    0.056
        23 -10.7237     49.2061    201.7433   1.2465683010e+02   2.8804903412e+01    0.3020417    0.1401623  74.37  0.001692874    2.197    0.545
        24 -10.2119    183.3296    184.6627   9.6694937521e+01   1.0970263520e+01    0.2206158    0.1609522 -76.88  0.001151149    2.423    0.587
        25 -10.5017    224.3883    183.2441   8.9088709081e+01   3.8330395867e+00    0.1591716    0.1141312 -37.89 0.0009524466    1.696    0.410
        26  -9.8298     66.4968    194.9926   1.2088409428e+02   2.7939585390e+01    0.1623011   0.07801556  78.61 0.0008103934    2.535    0.605
        27  -9.3059    198.3260    189.3223   9.4724006211e+01   7.6318860465e+00    0.1301793   0.08667804  16.94 0.0006439518    1.686    0.407
        28 -10.1658    191.9767    178.1827   9.3965357304e+01   1.0332248238e+01    0.2067536      0.14353  64.97  0.001073483    2.007    0.502
        29  -9.8059     14.0369    178.1791   1.2981326042e+02   3.6762768066e+01     0.189382   0.07547563  58.40  0.001092291    2.030    0.507
        30  -9.9109    128.9600    177.7751   1.0632439188e+02   2.1780894639e+01    0.1810307   0.09347242  42.82  0.000884408    1.694    0.410
        31  -9.3969     28.6484    176.7107   1.2688465090e+02   3.5675660757e+01   0.09381822   0.08069482 -53.03 0.0003738254    1.670    0.401
        32  -9.4528    129.3163    188.6582   1.0778976315e+02   1.9817751709e+01    0.1292358   0.08684848  69.75 0.0003614348    1.710    0.415
        33 -10.7245     38.5037    174.5347   1.2475763393e+02   3.5090401126e+01    0.1827102    0.1209339  84.20 0.0008281257    1.259    0.206
        34 -11.1647     34.7248    173.9702   1.2548059565e+02   3.5596121156e+01     0.315315     0.121714  61.89  0.001575383    2.507    0.601
        35 -10.4745     45.1349    172.4759   1.2323780353e+02   3.4776298150e+01    0.3411835    0.1347184  67.49  0.001534431    3.019    0.669
        36 -10.3685    176.5940    171.9095   9.5780044513e+01   1.4145871476e+01    0.2420016    0.2088336  68.33  0.001467427    1.357    0.263
        37 -10.6307    121.6401    169.4449   1.0661965546e+02   2.4551520101e+01    0.3509357    0.2145053  77.21  0.001638611    2.399    0.583
        38 -11.4941     55.7796    167.7078   1.2057613232e+02   3.4501485684e+01    0.4571303    0.2212833  84.39  0.002257787    2.425    0.588
        39  -9.6646     88.3853    168.2013   1.1360452993e+02   3.0066247400e+01    0.1743034    0.1087372 -82.19 0.0007958891    1.751    0.429
        40 -10.4117     99.4092    166.2343   1.1095047941e+02   2.8791220603e+01    0.1762538       0.1149 -79.32 0.0009549913    1.710    0.415
        41 -10.4035     79.2531    162.9833   1.1495530271e+02   3.2418336408e+01    0.5145199     0.221259 -87.28  0.001672915    5.341    0.813
        42  -9.8476    111.9968    167.9451   1.0846308393e+02   2.6446623398e+01    0.2129934    0.1401263  70.04 0.0009251511    1.697    0.411
        43 -10.9302     23.1158    159.7472   1.2686188393e+02   3.9565582430e+01     0.289772    0.1344765  48.15   0.00154911    1.877    0.467
        44 -11.6536    119.4465    157.3865   1.0521072504e+02   2.7236310401e+01    0.4449019     0.280001  53.18  0.001832049    1.488    0.328
        45 -11.3666    106.2291    158.0496   1.0826375089e+02   2.9328770116e+01    0.5184888    0.3023027  71.20  0.002404842    2.273    0.560
        46 -10.7727    168.0397    157.5333   9.4842257300e+01   1.8143136087e+01     0.368056    0.2333861  58.17  0.001786357    1.752    0.429
        47 -10.3536    218.5081    156.5472   8.5020164203e+01   8.4062521304e+00    0.2696114    0.1276888 -33.14  0.001224708    2.216    0.549
        48 -10.1611    128.7217    158.9913   1.0343292393e+02   2.5293951556e+01    0.3271595    0.1559206  61.86  0.001211265    3.228    0.690
        49 -10.2665     23.3410    153.9230   1.2639230970e+02   4.0733869153e+01    0.1593686    0.1123241  89.85 0.0004509435    1.138    0.121
        50 -10.0719    132.9963    152.9963   1.0146037451e+02   2.5666088955e+01    0.2797407    0.1591763  78.44 0.0009561324    4.109    0.757
        51 -10.1158     40.5314    153.0056   1.2251720780e+02   3.9237782436e+01    0.1690626   0.09792271 -79.62 0.0004847109    1.516    0.340
        52 -11.7393    241.5349    150.7439   7.9918367817e+01   4.8454972479e+00    0.3527918    0.2324749  40.09  0.001965855    1.432    0.302
        53 -10.0974    189.8509    150.7410   8.9152047847e+01   1.4921857662e+01    0.2508386    0.1853119 -69.15  0.001234237    2.095    0.523
        54 -11.3262    108.1068    146.0379   1.0591629238e+02   3.1455268013e+01    0.7047623     0.344125  67.90  0.002374997    4.146    0.759
        55 -10.3330     56.2830    146.4010   1.1820677509e+02   3.8864287434e+01    0.2950609    0.1429919  72.46  0.001336797    2.628    0.620
        56 -10.1694    148.9685    145.4784   9.6539085039e+01   2.4050553706e+01    0.2846968     0.177177 -86.86  0.001043947    3.551    0.718
        57 -10.0728     88.3345    144.6788   1.1036718228e+02   3.4900074331e+01    0.1391191   0.09046472  72.05 0.0007049935    1.704    0.413
        58  -9.8288    124.4842    142.9549   1.0156415523e+02   2.9202844619e+01    0.1973984    0.1192713 -79.64 0.0008096888    2.659    0.624
        59 -10.0993    182.2691    142.1398   8.8858472291e+01   1.7880578966e+01    0.2690635    0.1876747  72.26  0.001237914    2.098    0.523
        60  -9.8080      3.0315    140.4824   1.2995357911e+02   4.5158588393e+01    0.1410697    0.1014531  36.88  0.001036862    1.607    0.378
        61 -10.7374     83.4237    131.6096   1.0950250838e+02   3.8448691433e+01     0.508652    0.2866647  84.51  0.002162877    2.695    0.629
        62 -10.1559    131.7392    131.7420   9.7682371388e+01   3.0096595605e+01    0.2885448    0.1753193 -73.77  0.001178289    2.559    0.609
        63 -12.0694     99.0086    128.7296   1.0507045586e+02   3.6630925424e+01    0.6408221    0.3745835  78.61  0.002614055    2.801    0.643
        64 -10.1616    118.7128    126.3983   9.9712644644e+01   3.3667799306e+01    0.4129085    0.2204948  70.14  0.001377487    3.849    0.740
        65 -10.0679     59.2340    124.7996   1.1465461763e+02   4.3230640149e+01    0.3558947    0.1611585  76.98   0.00115006    4.977    0.799
        66 -11.1274     43.7597    123.3174   1.1849260982e+02   4.5320035223e+01    0.6315026    0.2952633  84.11  0.002712688    2.923    0.658
        67 -11.1252     26.3215    119.6663   1.2261175063e+02   4.7799837013e+01    0.3310626    0.1675652  83.25  0.001723298    2.043    0.510
        68 -11.8478    193.6563    118.5754   8.1264006621e+01   1.9381523023e+01    0.5497371    0.4731546 -78.26  0.001635518    1.487    0.328
        69 -11.0917     15.2510    120.5841   1.2555328724e+02   4.8495484113e+01    0.3611798     0.251667 -35.02  0.002328738    2.049    0.512
        70 -10.9734     71.4761    119.3973   1.1056245117e+02   4.2856279220e+01    0.6137775     0.285895 -78.98  0.002363797    3.138    0.681
        71 -11.2916    140.9986    117.5717   9.2388494344e+01   3.1086980421e+01     0.552996    0.2468693 -47.54  0.002139618    2.327    0.570
        72 -10.0848    130.7909    119.1913   9.5208742065e+01   3.2838630348e+01    0.2499459    0.1597184  85.83 0.0009552097    2.848    0.649
        73 -10.4869      2.5195    116.4266   1.2843573658e+02   5.0280971420e+01    0.4211344    0.1463626  80.98  0.001817093    3.298    0.697
        74 -10.5688    108.2978    112.3918   9.9371903463e+01   3.8560183328e+01    0.5210649    0.2411194 -65.29   0.00183669    3.173    0.685
        75 -10.6492     92.2119    111.6805   1.0350895717e+02   4.1480075355e+01    0.5332803    0.2422948 -72.25  0.001722629    4.079    0.755
        76 -10.6931     78.6725    112.8330   1.0743190513e+02   4.3312375430e+01    0.3561138    0.2164108 -84.33  0.001650995    2.095    0.523
        77 -11.0132    174.4733    110.9635   8.3280079401e+01   2.5015617516e+01    0.4381253    0.2885434 -38.32    0.0012255    1.558    0.358
        78 -12.8266    159.8461    110.0536   8.6227165482e+01   2.8478992369e+01    0.8566788    0.5856592 -68.96  0.003686391    2.105    0.525
        79 -11.1184     14.4162    111.0918   1.2486824118e+02   5.0639794081e+01    0.6556067     0.251823 -84.08  0.003105899    2.418    0.586
        80 -10.2064    232.8048    112.1570   7.2759518365e+01   1.1812208962e+01    0.1995882    0.1538596  17.98 0.0005524366    1.334    0.251
        81 -12.8029    141.7989    103.7333   8.8822806169e+01   3.3680177798e+01    0.6847216    0.5337415 -64.42  0.003370333    1.462    0.316
        82 -11.9191     44.9002    101.4754   1.1502867442e+02   5.0126489824e+01    0.6371286    0.3419232  82.66  0.002928244    2.520    0.603
        83 -12.1654    128.0068    101.5614   9.1688795748e+01   3.7037422488e+01    0.5892025    0.3669065 -62.71  0.002425422    1.989    0.497
        84  -9.9759      7.0003    103.5075   1.2614423840e+02   5.2813802102e+01    0.2436374   0.09235556  69.17  0.001040498    3.455    0.711
        85 -11.9714    116.7438    102.4640   9.4833445624e+01   3.9103840852e+01    0.8229516    0.2664124  40.48  0.002666894    3.362    0.703
        86 -11.8862    108.7159     99.8065   9.6329876519e+01   4.1199787413e+01     0.674924    0.4642173  78.28  0.003036265    2.065    0.516
        87 -10.7532     82.0519    100.6716   1.0401051985e+02   4.5537873278e+01    0.2578715    0.2150665 -83.92  0.000781874    1.209    0.173
        88 -11.0473     63.1393     96.2719   1.0865509560e+02   4.9190808386e+01    0.3638961    0.1941883  88.50  0.001373265    3.477    0.712
        89 -10.6268     19.0207    113.0000   1.2383069658e+02   4.9872946789e+01     0.192701    0.1522844  35.65  0.001318095    1.506    0.336
        90 -12.9002    170.4390     91.1013   7.8918553858e+01   2.9516922566e+01    0.4610788    0.4205778 -55.12   0.00126254    1.163    0.140
        91 -10.7994     34.2757     88.8111   1.1616745131e+02   5.4043430081e+01    0.4192223    0.1818127 -79.17  0.001828119    2.578    0.612
        92 -11.4047     87.5874     87.5437   9.9302184473e+01   4.7582426268e+01    0.4930756    0.2742317  60.49   0.00203845    2.566    0.610
        93 -11.6444     42.2090     88.0216   1.1352525550e+02   5.3465152274e+01    0.3662164    0.2581067 -13.35  0.001435375    2.102    0.524
        94 -10.9486     46.8306     83.5268   1.1117555464e+02   5.4006454208e+01    0.6418341    0.3222496  71.86  0.002350554    4.235    0.764
        95 -10.6604    105.3703     84.2886   9.3223482888e+01   4.5145649116e+01    0.3981812    0.2661853  80.60  0.001658861    2.466    0.595
        96 -10.5242      7.1695     84.6157   1.2406803748e+02   5.6986573223e+01    0.1343982    0.1054163 -20.12 0.0006161581    1.697    0.411
        97 -10.6187     24.4899     80.4576   1.1792646913e+02   5.6754295808e+01    0.3994386    0.1979036  85.86  0.001837355    2.699    0.630
        98  -9.6517      1.5204     78.4156   1.2511561862e+02   5.8664753610e+01    0.2142738   0.06524499 -64.05  0.001025894    2.281    0.562
        99  -9.5664    128.3355     76.6602   8.4693148473e+01   4.1996219454e+01    0.1567831    0.1201624 -81.04  0.000705119    1.755    0.430
       100 -11.0996     82.4638     73.1982   9.7044316485e+01   5.1540259814e+01    0.4996413    0.3168412 -87.83  0.001987985    3.053    0.672
       101 -10.4310     62.7142     74.7475   1.0393221306e+02   5.4092599254e+01    0.2705315    0.1560854 -77.73  0.001176218    2.471    0.595
       102 -12.6482    223.8416     70.5067   6.3588054996e+01   1.9806046177e+01    0.3187476    0.2869499  57.72 0.0004589249    1.167    0.143
       103 -10.4768     51.7613     70.4075   1.0658421110e+02   5.6407770002e+01    0.3196659     0.196545 -73.82  0.001379868    1.803    0.445
       104  -9.5932    116.3691     73.6655   8.7016010529e+01   4.5149796698e+01    0.1557234    0.1181732 -85.80  0.000702954    1.836    0.455
       105 -10.3270    196.0334     68.0165   6.7369656838e+01   2.7025222753e+01    0.3847797    0.2103947  49.68  0.001589115    1.815    0.449
       106 -11.2477    224.3637    249.5066   9.9294750230e+01  -3.1986516540e+00    0.3309109   0.07866652  42.90  0.001461759    3.221    0.690
       107 -11.4028     19.3382     59.5100   1.1591763486e+02   6.1808059874e+01    0.4412574    0.2336054 -57.66  0.002220884    1.468    0.319
       108  -9.9911    201.4857    249.5109   1.0288431123e+02   1.0440151406e-01    0.1091136    0.0772665  34.13 6.244718e-05    1.008    0.008
       109 -12.3051     36.1380     57.4858   1.0905413631e+02   6.0890616079e+01    0.7604844    0.5066747  44.09  0.004479892    1.811    0.448
       110 -11.4037     39.1191     53.5169   1.0685591612e+02   6.1463620037e+01    0.4011132     0.282941 -46.09   0.00165985    1.227    0.185
       111 -10.8227    245.3509     65.6919   5.9367455797e+01   1.5454137119e+01    0.2264967    0.1524043 -57.48 0.0007341731    1.747    0.428
       112 -10.8960    103.9438     62.3240   8.7006005958e+01   4.9921258244e+01    0.5714175    0.2465603  57.32   0.00189261    3.576    0.720
       113 -10.3978     73.5301     59.5039   9.5920856799e+01   5.5847320876e+01    0.4560042    0.2689451 -76.70  0.001702065    3.571    0.720
       114  -9.9307    119.0090     56.5104   8.0700864298e+01   4.7867774346e+01    0.2241918    0.1472883  50.17   0.00074438    1.562    0.360
       115 -10.2146     54.1392     53.9245   1.0119973861e+02   5.9703563143e+01    0.4172809    0.1677936 -64.30  0.001465137    3.698    0.730
       116 -12.6978    149.4706     52.0146   7.1554858769e+01   4.1416736687e+01    0.3859293    0.3079971  50.34 0.0004130967    1.236    0.191
       117 -10.4273    162.2319     53.3413   6.9257394763e+01   3.7963758215e+01    0.3549009    0.1891079  62.06  0.001388828    1.987    0.497
       118 -10.5540     81.9131     46.9183   8.8738436451e+01   5.6999234174e+01    0.2325924     0.210458  66.74 0.0006926497    1.337    0.252
       119 -10.6753    156.9149     44.9613   6.7555502363e+01   4.0616179282e+01    0.2935573    0.2168106  61.98 0.0004943971    1.373    0.272
       120 -11.6660      7.0481     43.3105   1.1744367909e+02   6.6067268184e+01    0.4067903    0.2845863  41.81  0.002239736    1.814    0.449
       121 -11.3061     74.8458     43.3753   8.9920308053e+01   5.8862693307e+01    0.3491621    0.2708416 -15.81  0.001312579    1.388    0.280
       122 -11.3373     71.0108     43.0000   9.1176906712e+01   5.9548808455e+01    0.5287125    0.3571596  65.55  0.002516348    2.434    0.589
       123  -9.4213    149.4734     43.4647   6.8613375329e+01   4.2749820034e+01    0.1507428    0.1475946  26.74 0.0001462518    1.006    0.006
       124 -11.9606     41.7436     37.7014   1.0089673992e+02   6.4492512051e+01     0.680606    0.4064343   3.05   0.00232507    2.482    0.597
       125 -11.2606     47.2729     35.7321   9.7848196923e+01   6.4250918648e+01    0.4757236    0.2882339  -3.10  0.002093541    2.561    0.609
       126 -10.4903     83.1956     37.9945   8.4899187357e+01   5.8420191564e+01    0.3654411    0.2079323  49.90  0.001527978    2.021    0.505
       127  -9.7309    205.7086     34.9914   5.6127423516e+01   2.9126496654e+01     0.198651    0.1827167 -38.27 0.0003111883    1.069    0.064
       128 -11.2586    120.1122     34.2418   7.2200205899e+01   5.1344302653e+01    0.3288941    0.3084526  83.96 0.0006924186    1.216    0.178
       129 -10.2297     74.1221     32.7740   8.6023395725e+01   6.0926273469e+01    0.3217718    0.2177097  64.08  0.001547164    2.353    0.575
       130 -11.0617    103.3743     30.1042   7.5195934926e+01   5.5732061045e+01    0.5773491    0.3678862  63.79  0.002650529    1.989    0.497
       131 -12.3807     22.5936    239.7713   1.3110561224e+02   2.5342300398e+01    0.5311434     0.169356  65.41  0.003069236    2.622    0.619
       132 -10.6616     32.9983    242.0432   1.2960016510e+02   2.3929588966e+01    0.1647941   0.07122055  61.26  0.001122577    1.682    0.405
       133 -10.6572    223.0144     15.9893   4.8617343202e+01   2.6855581317e+01    0.3275148    0.2250002  45.25  0.001292247    1.613    0.380
       134 -10.6231      7.9110    240.8222   1.3335197867e+02   2.6594633764e+01    0.1313267    0.1000072  66.56 0.0008206996    1.260    0.206
       135 -11.2049    239.9556     20.6975   4.8249280590e+01   2.2165018389e+01    0.2858965    0.2576501 -73.37 0.0005899181    1.084    0.077
       136 -10.4367    134.1906     17.9530   6.2401842611e+01   5.0104487232e+01    0.2475864    0.2053668  58.60  0.000483304    1.185    0.156
       137  -9.7749     88.9814     18.1806   7.4445863638e+01   6.0488179693e+01    0.2091767    0.1647465 -86.87  0.001072442    2.014    0.504
       138 -10.2971    126.9958     15.4908   6.2978322547e+01   5.2200765035e+01    0.2888168    0.2017756   6.66   0.00114678    1.634    0.388
       139 -10.8185    109.3793     13.2225   6.6261843293e+01   5.6701774410e+01    0.1999153    0.1233386 -34.59 0.0008480711    1.656    0.396
       140 -10.8906     12.6869    227.1711   1.3217424610e+02   2.8284045148e+01    0.1994215    0.1196877  74.72 0.0005833593    1.224    0.183
       141 -10.6383    104.4898    225.5315   1.1661999153e+02   1.7644302701e+01    0.2125867    0.1457402  88.63  0.001461071    1.663    0.399
       142 -10.7865     96.0136    225.1035   1.1807194933e+02   1.8899596160e+01    0.3022295    0.1359816  60.97  0.001613308    2.292    0.564
       143 -11.2547    232.7093    223.8871   9.4391398382e+01  -2.0083367816e+00    0.2122072    0.1155773  31.89  0.001218451    1.418    0.295
       144 -10.4909    185.3748    223.1814   1.0214082115e+02   5.4750538998e+00    0.2560695    0.1258782  42.45 0.0007536908    1.572    0.364
       145  -9.9549    149.3212    223.6529   1.0849012064e+02   1.1166172251e+01     0.116313   0.07714389  64.50 0.0005777694    1.736    0.424
       146 -10.7021    226.1985    221.1927   9.5032698284e+01  -7.4668846039e-01    0.1435871    0.1220877  38.24  0.001054877    1.360    0.265
