#   1 NUMBER                 Running object number                                     
#   2 MAG_AUTO               Kron-like elliptical aperture magnitude                    [mag]
#   3 X_IMAGE                Object position along x                                    [pixel]
#   4 Y_IMAGE                Object position along y                                    [pixel]
#   5 X_WORLD                Barycenter position along world x axis                     [deg]
#   6 Y_WORLD                Barycenter position along world y axis                     [deg]
#   7 A_WORLD                Profile RMS along major axis (world units)                 [deg]
#   8 B_WORLD                Profile RMS along minor axis (world units)                 [deg]
#   9 THETA_WORLD            Position angle (CCW/world-x)                               [deg]
#  10 FWHM_WORLD             FWHM assuming a gaussian core                              [deg]
#  11 ELONGATION             A_IMAGE/B_IMAGE                                           
#  12 ELLIPTICITY            1 - B_IMAGE/A_IMAGE                                       
         1  -8.9581     74.0442     19.6996   9.5864286640e+01   6.2503161849e+01     0.318269    0.1935381 -46.07 0.0007612088    1.804    0.446
         2  -8.0027     29.9944     16.0375   1.1285601748e+02   6.9187361923e+01    0.1727484    0.1398809 -70.72 0.0006203527    1.655    0.396
         3  -7.9376     17.0605     14.0517   1.1847827184e+02   7.0709195905e+01    0.1623988    0.1344445 -81.34 0.0005361069    1.631    0.387
         4  -8.3044     47.4624      9.7850   1.0167797427e+02   6.8244001363e+01    0.2396317    0.1059785 -43.12  0.001114602    2.038    0.509
         5  -8.2850     90.5988      8.8012   8.5011115453e+01   6.0913156189e+01    0.1966139    0.1156581 -34.96 0.0005141415    1.680    0.405
         6  -7.9009     69.3233      7.7802   9.1659710538e+01   6.5129665311e+01    0.1896533    0.1079097 -22.56 0.0007326226    1.611    0.379
         7  -8.5693     55.5460     10.3226   9.8449015462e+01   6.6997479880e+01     0.211141    0.1846951 -23.73 0.0006515259    1.159    0.137
         8  -7.8115    101.0125      7.7900   8.1506592065e+01   5.8806603560e+01    0.1774965    0.1114756  53.19 0.0004128456    1.653    0.395
         9  -8.5937     33.3865      5.1546   1.0593905921e+02   7.0788787480e+01    0.2869888    0.1843568 -61.62  0.001214154    2.570    0.611
        10  -8.4808     79.0271      3.8040   8.6126218949e+01   6.3861422579e+01    0.2940848    0.1565821 -34.55  0.001112162    1.818    0.450
        11  -7.4900     44.6468      3.3066   9.9485942756e+01   6.9668917877e+01    0.1134185   0.09736505 -58.31 0.0004124407    1.714    0.417
        12  -7.6802    115.3333      2.6396   7.5471837180e+01   5.6058119801e+01    0.1482213     0.105768 -52.70 0.0007039754    1.807    0.446
        13  -8.3190     62.1851      1.6099   9.1021710222e+01   6.7214369201e+01    0.1677157    0.1645142  34.93 0.0005305555    1.411    0.291
        14  -7.7527     15.6914      2.6990   1.1413989153e+02   7.2970101948e+01    0.1214739   0.06879722 -29.32 0.0005212692    1.601    0.375
        15  -7.4995     39.4437      1.5224   1.0094927907e+02   7.0643327470e+01    0.1255253   0.09836525 -23.09 0.0001715308    1.031    0.030
        16  -9.7141      9.3039    243.7251   1.4696648531e+02   2.6821004300e+01    0.3440971   0.09139586  76.01   0.00179842    4.343    0.770
        17  -8.0830    191.7296    249.7617   1.2006801010e+02   4.0551093352e+00    0.1332524   0.09509834  47.98  0.001047283    1.377    0.274
        18  -8.4222     93.8372    249.4801   1.3495694977e+02   1.7180996536e+01    0.1692522   0.09978412  75.64 0.0008851365    1.909    0.476
        19  -8.5814    139.4825    244.4563   1.2753858959e+02   1.1888245902e+01    0.1455511   0.09441923 -76.18  0.001023851    2.474    0.596
        20  -8.2218     50.3674    245.0663   1.4116382759e+02   2.2692130276e+01    0.1435982   0.05101749  77.07 0.0007033498    4.457    0.776
        21  -9.0747    241.7086    238.1524   1.1115016111e+02  -1.9462890519e+00    0.4051581    0.1890771   3.11  0.002132073    3.411    0.707
        22  -9.8495    248.6336    242.0637   1.1067980099e+02  -3.1880256032e+00    0.2836437    0.1788911 -14.27  0.001463361    1.758    0.431
        23  -9.0026    247.6295    234.7697   1.0981421781e+02  -2.5017030837e+00    0.2282934    0.1683955  31.00 0.0009816564    1.255    0.203
        24  -9.1042    246.7050    229.5290   1.0920255108e+02  -1.9636775957e+00    0.2141829    0.1703331 -20.20 0.0009066642    1.661    0.398
        25  -8.8048    202.0497    243.5819   1.1778012257e+02   3.1716773784e+00    0.1510798    0.1429916 -63.25 0.0009423457    1.731    0.422
        26  -8.9576    169.1075    243.2192   1.2280212925e+02   7.8956566072e+00    0.1593896    0.1311596  55.84 0.0005954693    1.357    0.263
        27  -9.2656     78.0135    243.2877   1.3693771509e+02   1.9870944968e+01    0.2231852    0.1074522  68.22  0.001479338    2.196    0.545
        28  -7.6474     34.6592    244.3139   1.4340950687e+02   2.4389161166e+01   0.09771348   0.04204885  60.69 0.0004386856    1.702    0.412
        29  -9.5329    160.2210    240.4045   1.2388694345e+02   9.4603614609e+00    0.2606622    0.1799829 -77.73  0.001431187    2.655    0.623
        30  -8.5053     88.2348    242.4586   1.3532154396e+02   1.8767617731e+01    0.1541929   0.09899889  85.57 0.0007837352    1.738    0.424
        31  -9.0062    194.3203    240.0850   1.1853846116e+02   4.6065143682e+00    0.1849804    0.1593139 -59.44  0.001049856    1.893    0.472
        32  -9.3027    183.2201    240.3581   1.2028810555e+02   6.1764132047e+00    0.3190987    0.1909817  62.18  0.001915141    2.696    0.629
        33  -7.9647    153.3877    242.1748   1.2514321057e+02   1.0225875596e+01    0.1127447    0.0950859 -86.67 0.0006108592    1.649    0.393
        34  -8.6677    214.1208    241.1519   1.1565115456e+02   1.6755456663e+00    0.1623696    0.1071085  25.50 0.0005993405    1.197    0.164
        35  -8.6146    146.8065    240.0149   1.2595808210e+02   1.1393323037e+01    0.2512257    0.1487169  73.11   0.00119454    3.109    0.678
        36  -8.5795    170.4501    236.7039   1.2186827318e+02   8.4016802145e+00    0.2485257    0.1774492 -77.42  0.001679553    2.683    0.627
        37  -8.9007    135.6245    239.0263   1.2762784753e+02   1.3060280895e+01    0.1782482     0.105359  51.07 0.0009162065    1.347    0.258
        38  -8.3755    129.5026    239.0133   1.2859536611e+02   1.3898436360e+01    0.2055992   0.09207165  61.60  0.001030863    3.365    0.703
        39  -9.0525    231.1474    237.2702   1.1258948550e+02  -4.0245917167e-01    0.2008149    0.1877651  82.75  0.001016248    2.079    0.519
        40  -8.3989    209.0000    238.3452   1.1607074781e+02   2.6583132208e+00    0.1490624    0.1020732  36.02 0.0005051334    1.097    0.089
        41  -7.8203    189.5278    237.4982   1.1896807683e+02   5.5535460997e+00    0.1064565   0.07706777  36.81 0.0001081644    1.039    0.038
        42  -8.5624     25.5415    237.0038   1.4443679982e+02   2.6290293443e+01    0.1824548   0.07718404  75.08  0.001283294    2.113    0.527
        43  -8.8636    217.0282    235.5359   1.1448315474e+02   1.7572411723e+00     0.230674     0.156487  50.57  0.001065851    1.729    0.422
        44  -9.3399    213.6891    231.7230   1.1448808904e+02   2.5873666428e+00    0.2307965    0.1823361  59.24  0.001559248    1.886    0.470
        45  -8.7451    203.2947    234.9382   1.1651271755e+02   3.8017471035e+00    0.2020046    0.1716496 -81.46  0.001421063    2.243    0.554
        46  -9.7882    175.7450    233.4742   1.2065552211e+02   7.9817565930e+00    0.3283131    0.2305135 -64.92  0.002273922    2.492    0.599
        47  -9.4146    109.2681    234.7138   1.3143042137e+02   1.7145828854e+01    0.4139443    0.1477425  53.03  0.001542186    2.535    0.605
        48  -7.9779     57.9542    237.0000   1.3961083439e+02   2.2996865745e+01    0.1497832    0.0407697  39.43 0.0006787468    2.910    0.656
        49  -8.5052     99.6937    234.6239   1.3294798335e+02   1.8391868043e+01    0.1999601    0.1039661  64.84  0.001246756    2.051    0.513
        50  -8.8154     78.9277    234.5732   1.3622233550e+02   2.0950555689e+01    0.2108782    0.1077516  63.08 0.0009984883    1.769    0.435
        51  -9.9435      8.6735    234.3198   1.4677584788e+02   2.8201523410e+01    0.2005686    0.1287188 -58.72    0.0016883    2.475    0.596
        52  -8.2376    122.8758    234.1813   1.2920485468e+02   1.5403873843e+01     0.158998     0.107751  58.17 0.0007376593    1.298    0.229
        53  -9.4875     68.9392    232.9026   1.3767474328e+02   2.2348310345e+01    0.3543258    0.1216277  62.97   0.00173848    3.701    0.730
        54  -9.1029    235.6860    231.0241   1.1105170540e+02  -5.2744515822e-01    0.3145643    0.1658979  21.73  0.001329529    1.701    0.412
        55  -8.8935    140.0811    230.1887   1.2603283258e+02   1.3522462071e+01    0.2481815    0.1184283  55.01  0.001315329    2.104    0.525
        56  -8.5192    132.6698    233.0709   1.2752342661e+02   1.4201696124e+01    0.1489374    0.1112265  71.27 0.0009924031    1.509    0.338
        57  -8.5717     92.4028    231.9130   1.3389769632e+02   1.9679411037e+01    0.2185486    0.1203156  68.98    0.0010442    1.941    0.485
        58  -9.2543    186.4247    230.6245   1.1861333403e+02   6.7131449496e+00    0.2465744    0.1956033 -82.86  0.001615078    2.347    0.574
        59  -8.3925    157.9682    232.4638   1.2338262427e+02   1.0684083061e+01    0.1453151   0.07140338  56.08 0.0005675926    2.342    0.573
        60  -8.4895      1.9556    231.0283   1.4763904472e+02   2.9249116995e+01    0.1532692   0.05844275  62.36  0.001122311    1.802    0.445
        61  -8.9359    151.5031    229.0205   1.2404890830e+02   1.2028242763e+01    0.2144634    0.1480186  69.03  0.001276928    1.892    0.471
        62  -9.3713    148.8412    224.7418   1.2401139209e+02   1.2940248829e+01    0.2718778    0.1871474  74.80  0.001498157    2.088    0.521
        63  -8.3376    194.5638    232.7451   1.1759435964e+02   5.2943306261e+00    0.1088521    0.1046295 -44.04 0.0005346437    1.545    0.353
        64  -8.6304    162.2933    227.8045   1.2215513668e+02   1.0596274617e+01    0.2377664    0.1471308  59.62  0.001226278    1.907    0.476
        65  -9.0951    128.2302    227.5115   1.2769832600e+02   1.5530648991e+01    0.2565307    0.1479635  63.56  0.001261379    1.985    0.496
        66  -8.2570    120.2593    228.0912   1.2906106494e+02   1.6554049281e+01    0.2038485    0.1007926  58.48 0.0009270608    2.085    0.520
        67  -9.5151    225.2246    221.9893   1.1135643856e+02   1.7839355505e+00    0.2503411    0.1649183 -11.88  0.001209843    1.698    0.411
        68  -8.7023    206.0748    226.1898   1.1493019449e+02   4.2394282461e+00    0.1715401    0.1542816 -48.25 0.0008033527    1.728    0.421
        69  -7.9348    200.1263    226.1982   1.1587018537e+02   5.1281729294e+00    0.1357889    0.1122218  46.54 0.0004859972    1.371    0.271
        70  -8.9160    216.6565    223.7723   1.1294004470e+02   2.8931982356e+00    0.2198822    0.1851926  63.56  0.001073198    1.896    0.473
        71  -8.7336    180.6973    224.5404   1.1876922948e+02   8.2248769711e+00    0.2035784    0.1591753  62.80  0.001029273    1.645    0.392
        72  -8.8094    104.9297    223.9380   1.3120348503e+02   1.9180331926e+01    0.2381047    0.1379826  68.85  0.001558127    1.932    0.482
        73  -8.7841     93.7303    224.1718   1.3306909440e+02   2.0598316726e+01    0.2458827     0.132712  68.50  0.001525303    2.044    0.511
        74  -8.3099     38.6324    224.6952   1.4193249250e+02   2.6809913257e+01    0.1828964   0.07730252  74.68  0.001156206    2.366    0.577
        75  -7.8197     12.3284    225.3318   1.4595288539e+02   2.9196374445e+01   0.07256615   0.06518765 -73.83 0.0007051656    1.715    0.417
        76  -8.7514    172.9913    223.2523   1.1986294452e+02   9.5310061790e+00    0.1871912    0.1526427 -77.35 0.0008502354    1.926    0.481
        77  -9.3529    160.7424    221.5235   1.2166987145e+02   1.1575687662e+01    0.5357896    0.2187938  57.09  0.002181155    4.348    0.770
        78  -7.8209    113.6287    223.8604   1.2975619437e+02   1.8027897908e+01    0.1260043   0.09067632 -89.36  0.000529388    1.674    0.403
        79  -7.8442     59.7456    223.9866   1.3856854650e+02   2.4679000841e+01    0.1852457   0.05601095  59.16 0.0008823483    3.529    0.717
        80  -9.3755    192.5428    221.3700   1.1643978274e+02   6.7759452830e+00    0.2678033     0.213089  69.69  0.001120204    1.932    0.482
        81  -7.9732    140.0887    222.9761   1.2526780946e+02   1.4435922019e+01    0.1632459    0.1069655  62.40 0.0006657814    1.654    0.395
        82  -7.6974     67.6640    223.3715   1.3725762569e+02   2.3874427135e+01    0.1091222   0.05370079  64.08 0.0007025142    1.849    0.459
        83  -9.0505    239.0822    221.2852   1.0913471607e+02  -1.9306588547e-01    0.1909654    0.1414503  -3.73 0.0007780374    1.370    0.270
        84  -7.8794      8.7017    222.6413   1.4640141811e+02   2.9914962548e+01   0.07415537    0.0626807 -72.26 0.0007034998    1.708    0.414
        85  -8.5088    202.6224    220.4326   1.1469197044e+02   5.3391473508e+00    0.1668555    0.1310753 -26.75 0.0006250205    1.595    0.373
        86  -9.3719    120.4741    219.4176   1.2818225175e+02   1.7700276774e+01    0.3415286     0.171135  62.04  0.001683407    2.420    0.587
        87  -8.7030     82.8723    220.6302   1.3457621280e+02   2.2469810103e+01    0.2331914    0.1149277  63.93  0.001201435    2.030    0.507
        88  -8.1715     73.0568    220.7714   1.3620136525e+02   2.3631671484e+01    0.1977241   0.09392671  75.14  0.001073158    2.633    0.620
        89  -7.7292     27.5154    221.4865   1.4350337254e+02   2.8382769647e+01   0.09395342   0.06445982  65.07 0.0008103391    1.001    0.001
        90  -7.8828    249.7934    219.0161   1.0718655409e+02  -1.5524281942e+00    0.1407168    0.1048234  43.06  0.001029776    1.605    0.377
        91  -8.4894    210.0283    218.9318   1.1330099552e+02   4.3636435330e+00    0.1682687    0.1430918   6.22   0.00067201    1.261    0.207
        92  -7.9438    135.3601    218.6746   1.2559310034e+02   1.5684852819e+01    0.1982541   0.08147018  49.58 0.0006770549    2.063    0.515
        93  -8.9040    132.1721    215.4345   1.2578060693e+02   1.6584894554e+01    0.2217115    0.1610335  78.36 0.0008867247    1.712    0.416
        94  -8.5476     62.1448    217.5443   1.3776819070e+02   2.5379659733e+01    0.2161761    0.1099738  69.66 0.0009613332    1.895    0.472
        95  -9.1121     51.7576    217.4747   1.3945777552e+02   2.6536762860e+01    0.2258947    0.1230004  70.94  0.001064833    1.617    0.381
        96  -8.9331    169.2546    216.3468   1.1961211011e+02   1.0912629781e+01    0.2266376    0.1798866  87.70 0.0009791285    1.961    0.490
        97  -8.7654    143.0262    216.6960   1.2407518470e+02   1.4825840692e+01    0.2085107    0.1573536  71.32  0.001190298    1.570    0.363
        98  -7.9990    111.5631    217.0721   1.2945831310e+02   1.9260414746e+01    0.1388305   0.08119425  82.52 0.0008070435    2.547    0.607
        99  -8.4781     18.6336    216.0581   1.4464993963e+02   3.0040665713e+01    0.1881099   0.07192785 -81.52  0.001237298    2.431    0.589
       100  -8.4497    246.5091    215.5264   1.0714333503e+02  -7.8451526242e-01    0.2003234   0.09861461 -22.46  0.001232239    2.242    0.554
       101  -8.6612    232.4342    214.9783   1.0920638114e+02   1.3496272215e+00    0.1869084    0.1785435  81.62  0.001031212    1.887    0.470
       102  -8.4694    185.8126    214.3111   1.1658719159e+02   8.5922294553e+00    0.1562855    0.1528948 -84.02 0.0007990226    1.435    0.303
       103  -8.1542    154.2525    215.2272   1.2199884176e+02   1.3337834002e+01    0.1451651    0.1119516  60.09 0.0005166556    1.367    0.268
       104  -8.9553     93.5828    214.4020   1.3226819603e+02   2.2043663996e+01    0.3295608    0.1334301  57.47  0.001376056    2.530    0.605
       105  -9.3848    214.0749    212.2687   1.1168934880e+02   4.4135008434e+00    0.3251326    0.2071192  56.32  0.001572854    2.187    0.543
       106  -9.3281     73.0724    211.9797   1.3555245206e+02   2.4965215452e+01    0.4891551    0.1570422  59.21  0.002149202    3.940    0.746
       107  -8.3636    224.7870    212.4678   1.1001895767e+02   2.7443058766e+00    0.1741373    0.1427972 -41.43  0.001040885    1.876    0.467
       108  -8.5951    161.6441    212.3099   1.2038128159e+02   1.2581296216e+01    0.1854348    0.1416879  55.07 0.0006658967    1.311    0.237
       109  -7.8742    106.6059    212.8572   1.2989849018e+02   2.0546384594e+01    0.1335528   0.09231434 -89.48 0.0005723829    1.708    0.414
       110  -8.0180     32.4618    210.4912   1.4220215599e+02   2.9610640991e+01   0.09940546   0.06617127  65.75 0.0001208519    1.083    0.076
       111  -8.8194    204.5207    211.1906   1.1307341897e+02   6.0138143099e+00     0.211563    0.1762708 -45.19 0.0009754396    1.747    0.428
       112  -9.2865    175.4976    210.2342   1.1775871296e+02   1.0684056875e+01     0.290645    0.2121972  80.63  0.001517546    2.457    0.593
       113  -8.2288    192.2850    210.4648   1.1497931089e+02   8.0156497559e+00      0.15386    0.1381226 -82.71 0.0006689503    1.736    0.424
       114  -8.6920    147.9248    210.4886   1.2250483983e+02   1.4916724602e+01    0.2214431     0.153101  65.55   0.00093968    1.714    0.416
       115  -8.9687    116.4731    210.5246   1.2795978854e+02   1.9523538900e+01    0.2887338    0.1565462  62.42   0.00106629    2.058    0.514
       116  -8.5595     85.7888    209.8783   1.3321182316e+02   2.3726901342e+01    0.2378627    0.1227566  63.20  0.001150337    1.918    0.479
       117  -9.1350    236.4072    207.7762   1.0747814967e+02   1.4127940580e+00    0.2586868    0.1848991 -27.66  0.001250777    1.725    0.420
       118  -8.0838    126.5335    208.7353   1.2601518830e+02   1.8342469529e+01    0.1295486    0.1004396  89.99 0.0009244265    1.557    0.358
       119  -9.4138    246.3431    207.3446   1.0588286480e+02  -4.9542152076e-02    0.2282826    0.1698606   1.30 0.0008864645    1.248    0.199
       120  -9.4622    250.1050    201.7914   1.0440795422e+02  -1.2163016904e-01    0.3293703    0.1516657 -23.07  0.001608511    2.315    0.568
       121  -7.9071    156.4151    208.1810   1.2075095019e+02   1.3921412311e+01    0.1311172    0.1076771 -74.48 0.0007113194    1.665    0.399
       122  -8.1489    139.2078    208.0813   1.2372723350e+02   1.6561022644e+01    0.2123427    0.1207143  60.67  0.001069454    2.039    0.509
       123  -8.6572      5.6984    207.7645   1.4635540953e+02   3.2469376009e+01    0.1875519   0.06665576  73.62  0.001045064    2.435    0.589
       124  -9.1287     99.4861    206.1552   1.3049019229e+02   2.2515074958e+01    0.2865384    0.1552384  72.08  0.001285283    2.402    0.584
       125  -8.2027     11.7567    206.9999   1.4537154811e+02   3.2075531193e+01    0.1166397    0.0620013 -87.94 0.0008638431    1.614    0.380
       126  -8.2008    109.2626    205.4340   1.2869552319e+02   2.1288771542e+01    0.1715687    0.1154036  78.74 0.0006386201    1.727    0.421
       127  -8.5720     56.6921    205.6273   1.3787836988e+02   2.7859518697e+01    0.2637051     0.101474  61.49  0.001395581    2.592    0.614
       128  -9.5054    194.9342    203.3697   1.1350476380e+02   8.4042593432e+00    0.2960189     0.247092 -39.90  0.001390464    1.581    0.367
       129  -9.2662    192.3928    197.3436   1.1302434373e+02   9.5269674101e+00    0.2423019     0.225292 -83.33  0.001055677    1.575    0.365
       130  -9.0311    183.7800    203.9014   1.1546851191e+02   1.0135934055e+01    0.2537154    0.1928454  61.60 0.0009188274    1.673    0.402
       131  -8.6742    131.2154    204.0551   1.2465643785e+02   1.8327743025e+01    0.2490612     0.162697  71.57  0.001046343    1.958    0.489
       132  -8.4956    227.5754    203.2394   1.0814569752e+02   3.2137999843e+00    0.2142098    0.1339497  11.80 0.0007295993    1.594    0.373
       133  -9.5788    163.8292    203.0147   1.1878245723e+02   1.3437739442e+01    0.3795263      0.19121  54.49 0.0008833907    2.188    0.543
       134  -8.4432     48.3929    202.0892   1.3906232987e+02   2.9338640025e+01    0.2446924    0.1103305  68.47  0.001156167    2.177    0.541
       135  -7.9763     41.6583    203.2062   1.4027827992e+02   2.9861274508e+01     0.199226   0.06898049  64.25  0.001009349    3.076    0.675
       136  -7.6148     17.3364    203.6707   1.4433826912e+02   3.2120726872e+01    0.1048582   0.04660761  63.12 0.0007052016    1.729    0.422
       137  -9.2186    243.0075    200.8647   1.0534244459e+02   1.0441157881e+00    0.2246663    0.1544323 -22.91 0.0008669287    1.636    0.389
       138  -7.9620    210.9686    201.9944   1.1063237963e+02   5.9787063667e+00     0.151289    0.1367356  67.07 0.0004708591    1.669    0.401
       139  -8.9523    140.6064    201.1022   1.2262856427e+02   1.7332270027e+01     0.302982    0.1881295  69.39  0.001295692    2.274    0.560
       140  -8.3812     80.0632    201.4046   1.3348351085e+02   2.5782035335e+01    0.2615349   0.09738304  62.94  0.001090993    4.125    0.758
       141  -7.9664    222.1583    201.2358   1.0869302928e+02   4.2711316114e+00    0.1414637    0.1250775  34.32 0.0005433609    1.354    0.262
       142  -9.4096    149.6353    198.7946   1.2072046041e+02   1.6255852282e+01      0.34081    0.2256957  75.71  0.001460859    2.398    0.583
       143  -8.8374    123.8266    199.1345   1.2540056380e+02   2.0151668837e+01     0.258144    0.1606847  69.57  0.001427686    2.001    0.500
       144  -9.3620    112.9896    198.5364   1.2729176515e+02   2.1819490353e+01    0.3541813    0.1925927  70.40  0.001532934    2.665    0.625
       145  -9.0540     88.6287    198.7046   1.3170984771e+02   2.5124766397e+01    0.2917801     0.168541  78.67  0.001509293    2.074    0.518
       146  -8.8919    236.9435    198.3443   1.0587108714e+02   2.2243311159e+00     0.211236    0.1494701 -30.68  0.001425931    1.768    0.434
       147  -8.6550    177.2218    198.8712   1.1586707388e+02   1.1819595568e+01    0.1912721    0.1646526  67.49 0.0007301093    1.476    0.323
       148  -8.5914    202.4060    197.5205   1.1135553102e+02   7.8644039152e+00    0.2244821    0.1794556 -26.45 0.0008919596    1.484    0.326
       149  -9.0271     61.5448    197.4011   1.3643974318e+02   2.8657584076e+01    0.3075342    0.1440005  65.47  0.001572337    2.143    0.533
       150  -8.9369     12.7649    197.5095   1.4482370336e+02   3.3532572518e+01    0.2335738   0.08676182  77.02  0.001373885    2.516    0.603
       151  -8.5847    215.8365    195.7490   1.0883916862e+02   5.8679593121e+00    0.1705119    0.1519421 -68.84 0.0007122395    1.920    0.479
       152  -9.4896    184.7827    195.3956   1.1403673950e+02   1.1018653407e+01     0.252056    0.1871034  32.74 0.0008308853    1.102    0.092
       153  -8.0377    133.0146    196.0735   1.2336513349e+02   1.9230250482e+01    0.1747999     0.121301  67.87 0.0006090911    1.646    0.392
       154  -8.6150    224.3662    194.4014   1.0722483038e+02   4.6260751885e+00    0.2017041    0.1695877 -41.82 0.0009744042    1.758    0.431
       155  -8.9584    160.9947    194.4798   1.1809712682e+02   1.5040594572e+01    0.2583385     0.175639  63.74 0.0009282154    1.841    0.457
       156  -8.8656     44.1307    193.6534   1.3925325135e+02   3.1195178623e+01    0.3252163    0.1281115  66.00  0.001747203    2.662    0.624
       157  -9.4873    245.8447    192.5714   1.0351027771e+02   1.3825800473e+00    0.3550202    0.1961176  -8.04  0.001321147    1.949    0.487
       158  -8.7337     77.1001    194.0757   1.3337008699e+02   2.7352438913e+01    0.1956672    0.1197179  59.17 0.0006105291    1.386    0.278
       159  -8.5259    172.5343    192.2334   1.1571044287e+02   1.3452963812e+01    0.1833659     0.166361  81.94  0.001079458    1.438    0.304
       160  -8.3457    230.6613    194.2047   1.0617819474e+02   3.6314862901e+00    0.1549465   0.09669483  -9.96 0.0009468512    1.716    0.417
       161  -8.0950    198.9855    191.9727   1.1105528169e+02   9.0788176088e+00    0.1660163    0.1396819  65.07  0.000570115    1.655    0.396
       162  -8.1395    178.9982    191.9268   1.1451966329e+02   1.2420208078e+01    0.1718453    0.1367332  66.80 0.0005358197    1.649    0.393
       163  -9.1924    139.5553    190.6564   1.2146582070e+02   1.9026943204e+01    0.3181854    0.2189907  83.57  0.001185508    2.179    0.541
       164  -7.7221    205.3030    191.6663   1.0993196324e+02   8.0619040469e+00    0.1059042   0.09222969  66.56 0.0005237741    1.659    0.397
       165 -10.4130     91.9048    188.6191   1.3010858549e+02   2.6350752255e+01    0.7631175    0.2072076  50.30  0.003117454    3.555    0.719
       166  -8.0469      6.6639    191.3107   1.4558331356e+02   3.5083458066e+01    0.1039826   0.04686304  63.07 0.0003582521    1.683    0.406
       167  -8.4902    148.6705    189.3861   1.1961347167e+02   1.7761653744e+01    0.1834693    0.1447745 -72.54 0.0006871971    1.657    0.396
       168  -8.0651    236.9897    188.4985   1.0419684299e+02   3.1908461279e+00     0.172062    0.1342706  -1.09 0.0005643881    1.217    0.178
       169  -8.8331    216.5788    187.7280   1.0738503981e+02   6.6302254271e+00    0.2412489     0.188526 -27.56 0.0009927313    1.506    0.336
       170  -9.3162    156.0030    187.2917   1.1796613875e+02   1.6871951720e+01    0.2801913    0.1933278 -61.81 0.0009033805    1.975    0.494
       171  -8.8644    129.2698    188.6136   1.2310501225e+02   2.0943912719e+01    0.2360976    0.1607994  68.91 0.0008831008    1.714    0.417
       172  -9.8732    121.0610    187.0050   1.2443898875e+02   2.2450945976e+01    0.4256998    0.2408977 -79.36  0.002135378    2.971    0.663
       173  -8.5531     34.1598    187.9664   1.4065901450e+02   3.3180136559e+01    0.2472167    0.1097811  74.87  0.001016223    2.233    0.552
       174  -8.9641    242.5860    188.2343   1.0326774137e+02   2.3176760879e+00    0.1529314   0.09699691  -5.03  0.000864794    1.563    0.360
       175  -8.7943    191.3645    187.2714   1.1161413335e+02   1.0937771222e+01    0.2274015     0.204769 -82.92 0.0009528979    1.647    0.393
       176  -8.7752    164.9813    186.9233   1.1627000154e+02   1.5435729016e+01    0.2342939     0.190653 -85.66 0.0009951227    1.770    0.435
       177  -9.2604    109.7129    186.3199   1.2649808711e+02   2.4243202617e+01    0.3358845    0.1985327  73.72  0.001484741    2.272    0.560
       178  -8.9663     54.7095    186.9518   1.3686981948e+02   3.1206994951e+01    0.3112353    0.1482468  71.60  0.001584931    2.257    0.557
       179  -7.7101    230.5084    187.4939   1.0506083267e+02   4.3491669494e+00    0.1188709   0.09470861  23.18 4.476688e-05    1.080    0.074
       180  -8.4797    249.2815    185.6350   1.0176808037e+02   1.5037136166e+00    0.1858125    0.1293909 -29.14 0.0006566597    1.725    0.420
       181  -8.8798    183.0082    185.2006   1.1275415417e+02   1.2625665469e+01    0.2298044    0.1776705 -34.47 0.0009581698    1.525    0.344
       182  -8.5386    210.2942    184.5429   1.0789853974e+02   8.0532450263e+00    0.1922658    0.1512652 -18.07 0.0003257527    1.384    0.278
       183  -8.3389    202.8733    184.6013   1.0917587230e+02   9.3093555667e+00    0.2002507    0.1589169 -51.94 0.0008196664    1.850    0.459
       184  -8.9411    174.3026    183.8023   1.1409431998e+02   1.4297172461e+01    0.2314915    0.1931769  84.67 0.0008906599    1.719    0.418
       185  -8.8507     66.7283    184.3742   1.3442409008e+02   3.0273082537e+01    0.2894847    0.1422051  65.47 0.0009756861    2.121    0.528
       186  -8.9376    224.2151    182.9840   1.0530117691e+02   5.8781518422e+00    0.3054556    0.1542786 -24.00  0.001437653    2.195    0.544
       187  -8.0198    197.2237    183.7908   1.1001782574e+02   1.0375031241e+01    0.1719298    0.1304185  84.15 0.0007778222    2.635    0.620
       188  -8.8582     44.4059    182.5304   1.3843770298e+02   3.3094378103e+01    0.2629089    0.1332501  67.00   0.00115355    1.805    0.446
       189  -8.0971      2.1159    183.6868   1.4605114593e+02   3.6750509583e+01    0.1754599   0.05394291  41.76  0.001067932    2.481    0.597
       190  -9.1684    147.6170    180.6514   1.1855047216e+02   1.9243840813e+01    0.3014423    0.2183255  80.56  0.001056409    1.980    0.495
       191  -8.3495     21.4762    191.4519   1.4307417043e+02   3.3778799932e+01    0.2257186   0.06027998  55.67  0.001159517    2.990    0.666
       192  -9.5307     25.6784    179.0790   1.4165344952e+02   3.5550674618e+01    0.5342113    0.1744917  74.61  0.002270962    4.366    0.771
       193  -8.0263     19.2409    182.2616   1.4299198979e+02   3.5568863440e+01    0.1557557     0.061907  86.17 0.0008842296    2.403    0.584
       194  -8.1581    240.3817    181.2257   1.0237341047e+02   3.3785698381e+00     0.148757    0.1044717 -28.52 0.0005527088    1.650    0.394
       195  -8.4771    137.6732    179.4499   1.2026574820e+02   2.1057281635e+01    0.2273687    0.1665513  79.65 0.0009655463    1.784    0.440
       196  -9.3755    191.5753    178.4620   1.1011123455e+02   1.2032200992e+01    0.2670558    0.1974607  55.90  0.000636822    1.569    0.363
       197  -8.2703    169.4789    178.5733   1.1413985200e+02   1.5856352764e+01     0.185912     0.118218 -56.15 0.0008298004    2.200    0.546
       198  -9.1336     35.8970    176.7036   1.3961161383e+02   3.5001772030e+01    0.4077969    0.1497274  78.94  0.001801367    3.891    0.743
       199  -9.3479    248.5463    176.6761   1.0026008608e+02   2.5021709769e+00    0.3746254    0.2261332 -31.62  0.002227471    1.918    0.479
       200  -8.5846    250.5090    172.8610   9.9244268918e+01   2.5637325118e+00    0.2088918    0.1074842 -22.62 0.0006622557    1.939    0.484
       201  -8.3591    205.1646    177.9073   1.0762842508e+02   9.7319790812e+00      0.17269    0.1592461  40.13 0.0006300186    1.297    0.229
       202  -8.5214    129.1757    177.5018   1.2162575642e+02   2.2732918931e+01    0.2501583    0.1659932  75.20  0.001200538    2.043    0.511
       203  -8.0894     97.2280    177.9599   1.2791290564e+02   2.7441310964e+01      0.16623    0.1319238 -28.21  0.001072735    1.941    0.485
       204  -8.4687    231.1353    176.8344   1.0306541586e+02   5.3852725680e+00    0.1880254    0.1513384 -25.40 0.0006021419    1.459    0.314
       205  -8.1903    217.6454    177.1623   1.0536253859e+02   7.6563149839e+00    0.1641578    0.1498885 -29.30 0.0006101587    1.436    0.304
       206  -9.2421    183.1340    176.0994   1.1122653216e+02   1.3825919282e+01    0.2530723    0.1938709 -43.60 0.0005050538    1.591    0.372
       207  -9.3142    159.0133    174.9277   1.1551109644e+02   1.8193294318e+01    0.3732241    0.2804713 -85.13  0.001338868    2.060    0.515
       208  -9.4042    104.5845    174.9955   1.2610840554e+02   2.6905677659e+01    0.4571081    0.2196952  65.42  0.001776004    3.237    0.691
       209  -9.0645     88.9268    177.0101   1.2942796610e+02   2.8749869066e+01    0.2277532    0.1428611  68.61 0.0008494647    1.640    0.390
       210  -9.9678     57.3697    173.2626   1.3523135260e+02   3.3351442776e+01    0.6699759    0.2720133  76.08  0.002679808    4.475    0.777
       211  -8.4623     12.8000    176.8777   1.4387028272e+02   3.7077331800e+01    0.1947292   0.09693847  74.84  0.001030804    1.648    0.393
       212  -7.5982    211.5191    176.5224   1.0628872191e+02   8.7940252623e+00    0.1252801    0.1014173  24.44 6.626293e-05    1.012    0.012
       213 -10.6373     75.9406    170.5900   1.3129814390e+02   3.1607960264e+01     0.922434    0.3561904 -79.94  0.003522363    4.714    0.788
       214  -8.5937     79.2251    158.6171   1.2926504673e+02   3.3423090205e+01    0.3728865    0.1518412  27.94  0.001471104    4.171    0.760
       215  -8.4022    224.5090    174.5109   1.0373204471e+02   6.7770996566e+00    0.1800205    0.1114169 -38.09  0.000639577    2.015    0.504
       216  -8.4883    193.7944    172.7959   1.0872950434e+02   1.2386328746e+01    0.2100276    0.1193181  12.95  0.000937915    2.734    0.634
       217  -9.6486    175.6896    172.3497   1.1195477077e+02   1.5662415364e+01    0.2828951    0.2227861 -31.30  0.001006574    1.445    0.308
       218  -8.3305    143.0054    172.9475   1.1827203037e+02   2.1216497602e+01    0.1882579    0.1386601  69.89 0.0005953506    1.635    0.388
       219  -8.8392    134.8655    172.0744   1.1972991396e+02   2.2705411769e+01    0.1900704    0.1520478  68.44 0.0007349368    1.332    0.249
       220  -9.4960    121.4924    170.4969   1.2214757164e+02   2.5119691099e+01    0.3157347    0.2190724  85.20 0.0009915124    1.898    0.473
       221  -9.2596     45.0666    170.6785   1.3741261407e+02   3.5170414239e+01      0.37241    0.1621266 -88.16  0.001676499    2.532    0.605
       222  -9.0479    230.2238    170.4376   1.0203048364e+02   6.2501889375e+00    0.2111003     0.156721 -11.65 0.0006948671    1.326    0.246
       223  -8.1897    205.8530    170.5107   1.0618238604e+02   1.0533502867e+01    0.2182283    0.1611087 -50.85 0.0009108438    1.971    0.493
       224  -8.6830    198.3605    170.4951   1.0750211870e+02   1.1874398076e+01    0.2409917    0.1905941  69.78 0.0009323281    1.881    0.468
       225  -8.1563    237.1399    169.8721   1.0079665300e+02   5.1218500175e+00    0.1716377    0.1536485  17.79 0.0005410952    1.269    0.212
       226  -9.0729    167.1967    168.7115   1.1292831550e+02   1.7699809750e+01    0.2726947    0.2050719  73.82  0.001006433    1.886    0.470
       227  -8.4923    149.8175    169.5880   1.1641867020e+02   2.0599035387e+01    0.2153562    0.1636303 -76.22 0.0007699784    1.805    0.446
       228  -7.6315    244.4879    169.4626   9.9544748533e+01   3.9167668676e+00    0.1229554   0.09828987  16.24 0.0001829303    1.060    0.056
       229  -8.1115    218.9423    168.4999   1.0355202904e+02   8.4521779840e+00    0.1802651    0.1506346  -3.17 0.0004031586    1.177    0.150
       230  -8.0133     88.5976    168.7368   1.2854121454e+02   3.0278796057e+01    0.1947793    0.1344043 -83.90 0.0006951861    1.524    0.344
       231  -7.6580    211.3023    168.6306   1.0488666617e+02   9.7960828498e+00    0.1130279    0.1021434 -86.25 0.0007032938    1.745    0.427
       232  -8.6057    111.5707    167.5359   1.2372775618e+02   2.7172774351e+01    0.2643195     0.159638  74.62  0.001028991    2.330    0.571
       233  -8.7879    191.9095    166.6908   1.0797059213e+02   1.3545471157e+01    0.2158514    0.1827002 -37.43 0.0006052448    1.402    0.287
       234  -8.8989    185.1114    166.6281   1.0920440834e+02   1.4786979112e+01    0.1995733    0.1698938 -42.97 0.0005985759    1.420    0.296
       235 -10.0238     95.0402    163.0381   1.2651335662e+02   3.0426117885e+01    0.7411488    0.3553955  71.19   0.00280021    4.336    0.769
       236  -9.0244     20.6871    166.3998   1.4182430968e+02   3.8308454636e+01    0.3047627    0.1050884  59.44  0.001219078    2.674    0.626
       237  -8.1306     13.3218    167.6986   1.4329694391e+02   3.8695794828e+01    0.1077878   0.05426415  65.14 0.0004556066    1.629    0.386
       238  -9.9160    136.7475    164.5093   1.1818984941e+02   2.3652348169e+01    0.5223243    0.2467861  57.35  0.002250749    2.714    0.632
       239  -8.3504    233.8596    165.0721   1.0041160889e+02   6.2212412771e+00    0.1736277    0.1578547  -4.15 0.0006081581    1.298    0.230
       240  -8.7324    159.6524    164.4436   1.1364685833e+02   1.9693308850e+01    0.2365171    0.2027025  84.88 0.0007358362    1.479    0.324
       241  -9.1576     33.3260    163.2839   1.3914901072e+02   3.7733309650e+01    0.4379487    0.1419745  58.32  0.002049726    3.205    0.688
       242  -9.2588    245.9905    162.7874   9.8017874276e+01   4.3692817513e+00    0.3392668     0.155494 -31.22  0.001696595    2.287    0.563
       243  -8.1260    239.7630    164.3246   9.9309790060e+01   5.2765077351e+00    0.1636092    0.1335001   1.96 0.0005385918    1.124    0.111
       244  -8.5595    213.0239    163.7709   1.0367090604e+02   1.0091953569e+01    0.2055386    0.1720646 -17.96 0.0006148356    1.275    0.216
       245  -8.6732     58.6759    163.6377   1.3407625714e+02   3.4995256271e+01    0.2864932    0.1444201  22.94  0.001389878    3.409    0.707
       246  -8.7687     60.6692    160.5793   1.3336233221e+02   3.5347009858e+01    0.2889662    0.1556411  64.60  0.001512243    1.874    0.466
       247  -8.4701    204.9418    163.1188   1.0496333083e+02   1.1646901601e+01    0.1817373    0.1683338  43.64  0.000541151    1.290    0.225
       248  -9.2907      3.3755    162.4053   1.4489967974e+02   4.0460385628e+01    0.3193497    0.1128767  56.79  0.001748535    2.317    0.568
       249  -7.7434    222.0000    161.9627   1.0178270986e+02   8.6912071248e+00    0.1849521   0.06951699 -30.31 0.0003515647    2.819    0.645
       250  -9.1385    177.4425    160.6735   1.0955280076e+02   1.7047726666e+01    0.2527083    0.2168406 -71.53 0.0009546793    1.598    0.374
       251  -8.8540    151.8552    161.2252   1.1462656646e+02   2.1589046934e+01    0.2523324    0.1834148 -68.70  0.001103833    1.872    0.466
       252  -8.6262    227.4416    159.1766   1.0031957866e+02   8.0432319547e+00    0.2505736    0.1938579 -49.57  0.001004125    1.954    0.488
       253  -9.5638    250.2123    157.8484   9.6377191054e+01   4.1707506976e+00    0.2819499    0.1573723 -22.41 0.0008561413    1.737    0.424
       254  -8.1131    237.0371    159.0636   9.8715887758e+01   6.3405629889e+00    0.1679362    0.1560546 -50.36 0.0006635416    1.641    0.391
       255  -8.4038    196.5566    158.2679   1.0554005746e+02   1.3845866165e+01    0.1998215    0.1878546 -56.91  0.000703192    1.408    0.290
       256  -8.5620    127.9401    159.0920   1.1911984746e+02   2.6056784742e+01     0.196159    0.1579717  70.57 0.0006499886    1.320    0.242
       257  -9.5709    105.6827    158.0086   1.2360020801e+02   2.9791308443e+01    0.3728622    0.2434481  75.58   0.00109089    1.897    0.473
       258  -7.9605    188.1464    158.1019   1.0705743190e+02   1.5438315599e+01    0.1618492    0.1536464  62.53 0.0004024642    1.295    0.228
       259  -8.9600    167.5904    157.4876   1.1086144434e+02   1.9345128634e+01    0.2705727     0.219156  71.76  0.001062577    1.576    0.365
       260  -8.6006    217.9771    156.5863   1.0141096996e+02   1.0086207151e+01    0.2261185    0.1729535 -42.26 0.0008598498    1.688    0.408
       261  -9.0529    157.7139    156.1983   1.1257395702e+02   2.1356213772e+01     0.266452    0.1986909 -70.96 0.0009550886    1.892    0.471
       262  -9.3778    119.6244    155.5357   1.2028878926e+02   2.8056558347e+01    0.3646195    0.2389779 -89.46  0.001850338    2.251    0.556
       263  -8.4715     23.1607    156.3989   1.4068663953e+02   3.9980969054e+01    0.2261021    0.1164302 -41.52  0.001145443    3.941    0.746
       264  -9.2693     81.6657    154.7598   1.2826863360e+02   3.3839406389e+01    0.3912209    0.2082376  71.43  0.001446628    2.535    0.606
       265  -9.2757     49.4203    155.1815   1.3517481768e+02   3.7652486742e+01    0.3074093    0.1565588  71.31  0.001661802    2.118    0.528
       266  -9.3446    241.7197    154.4234   9.7027889645e+01   6.0328087070e+00    0.3048138    0.2212292  66.82  0.001626702    2.420    0.587
       267  -7.7714    204.8143    155.5759   1.0352137267e+02   1.2666836811e+01    0.1701938    0.1171657  51.94 0.0004431276    1.582    0.368
       268  -8.6405    144.4751    154.8106   1.1500169408e+02   2.3962201949e+01    0.2372861    0.1788352 -79.74  0.000886549    1.813    0.449
       269  -9.6297    132.8102    153.1996   1.1713725359e+02   2.6274916969e+01    0.3864733    0.2764374  75.70   0.00114504    1.820    0.450
       270  -9.2559    133.5665    148.2736   1.1612360805e+02   2.7022052995e+01    0.2528075     0.227576 -27.71 0.0008381102    1.271    0.213
       271  -9.5407     67.8231    153.7599   1.3111653485e+02   3.5810127153e+01    0.3769341    0.1935778  70.19  0.001505213    2.408    0.585
       272  -8.1192    151.5966    152.7690   1.1318380174e+02   2.3031779578e+01    0.1680062    0.1251507 -58.96 0.0007960369    1.612    0.380
       273  -8.4719     20.0628    152.7119   1.4106096298e+02   4.0960368311e+01    0.1450451    0.1093483  71.20  0.001118924    1.088    0.081
       274  -8.2988    182.4684    151.6063   1.0686857203e+02   1.7458362433e+01    0.2301173    0.1795935 -75.90 0.0008778411    2.063    0.515
       275  -9.5742     29.3173    150.6136   1.3899306911e+02   4.0552164153e+01    0.4079364    0.1604593  68.88  0.001870368    2.993    0.666
       276  -9.3346    248.6793    149.4046   9.4896087215e+01   5.3548777759e+00    0.2658533    0.1876224 -16.98 0.0008002779    1.338    0.253
       277  -8.8246    189.4174    150.3415   1.0530172607e+02   1.6318699840e+01    0.2618044    0.2200266 -58.18 0.0008944702    1.594    0.373
       278  -8.2533    162.5099    150.9473   1.1064335232e+02   2.1325666419e+01    0.1839816    0.1313739 -44.14  0.001013101    1.556    0.357
       279  -8.6890     98.3275    150.8438   1.2413333056e+02   3.2243087118e+01    0.2329025    0.1656023  80.48 0.0008612093    1.577    0.366
       280  -8.2906    243.0523    150.0279   9.5913733597e+01   6.2903448356e+00    0.1944886     0.161113   1.31 0.0006543644    1.103    0.093
       281  -8.1294    212.9648    149.9689   1.0094399323e+02   1.1871898146e+01     0.177469    0.1650219 -75.87 0.0004798916    1.574    0.365
       282  -9.8524     39.9330    147.9926   1.3651561394e+02   4.0054374000e+01    0.4828918    0.2030478  65.13  0.002247117    2.762    0.638
       283  -8.3780    198.8943    149.1182   1.0329563115e+02   1.4675216819e+01    0.1856023    0.1773067  54.83 0.0005110171    1.296    0.229
       284  -9.9358     89.2039    146.3385   1.2548445999e+02   3.4441008972e+01    0.5820769    0.3107408  82.28  0.002418837    3.408    0.707
       285  -9.0148    233.2012    147.7216   9.7031126155e+01   8.3558904939e+00     0.209883    0.1628746 -24.45  0.000663246    1.358    0.264
       286 -10.1586     55.0078    144.7924   1.3289651280e+02   3.9097526627e+01    0.6854007    0.3001043  72.07  0.002850783    3.636    0.725
       287  -8.0960    223.2825    146.9746   9.8537093852e+01   1.0302608082e+01    0.1789529    0.1513304   0.36 0.0003028611    1.099    0.090
       288  -7.9404    206.7720    146.7405   1.0137666645e+02   1.3487361970e+01    0.1636551    0.1576388  51.59 0.0006672573    1.316    0.240
       289 -10.2095    149.0004    145.0859   1.1228867920e+02   2.4814258361e+01    0.4746891    0.3353871  83.88  0.001835069    2.272    0.560
       290  -9.9022    139.1275    145.0093   1.1435257810e+02   2.6623059772e+01    0.4228565    0.2868411 -77.87  0.001379028    2.262    0.558
       291  -9.4467    138.4781    139.0098   1.1335969206e+02   2.7819881128e+01    0.3572385    0.2322302   8.36  0.001522451    2.908    0.656
       292 -10.1525    106.6134    144.0298   1.2126086907e+02   3.2290184090e+01    0.6511167    0.3911378 -89.74  0.002248694    2.713    0.631
       293  -9.0190     77.8502    146.7748   1.2806587880e+02   3.5909329727e+01    0.2342307    0.1515292 -84.62 0.0008796977    1.636    0.389
       294  -9.0035     13.4431    146.3715   1.4199896930e+02   4.2740633784e+01     0.308702    0.1169493  57.74  0.001305753    2.431    0.589
       295  -9.3393    240.3215    145.2633   9.5355066807e+01   7.3331779574e+00    0.2443859    0.1756524  -3.29 0.0005751241    1.276    0.216
       296  -9.8286    125.2673    143.1421   1.1699879260e+02   2.9394480828e+01    0.4625205    0.3078409  83.35  0.001718193    2.319    0.569
       297 -10.9066     68.5756    139.9635   1.2925740761e+02   3.8469415163e+01    0.8022369    0.3777462 -64.22  0.003269643    1.989    0.497
       298  -9.7820     73.1343    128.9527   1.2664385327e+02   4.0160263855e+01    0.4793023    0.2120541 -67.43   0.00156669    2.278    0.561
       299  -9.5448    247.0585    143.9887   9.4014936833e+01   6.2503420448e+00     0.198054    0.1564049   5.27 0.0005114506    1.054    0.051
       300  -8.0080    194.4805    143.9894   1.0305398653e+02   1.6262560108e+01    0.1660235    0.1170644 -60.10 0.0005532244    2.255    0.556
       301  -8.6503    165.5845    144.0259   1.0867821962e+02   2.1872366610e+01    0.2391686    0.1795106  60.64 0.0007773235    1.525    0.344
       302  -9.1592      2.7106    141.7902   1.4395106224e+02   4.4442179262e+01    0.3273793    0.1266952  74.08  0.001603613    2.462    0.594
       303  -8.4360    182.1389    141.6993   1.0492558856e+02   1.9026340091e+01    0.2108621    0.1847525 -47.91 0.0005633843    1.352    0.260
       304  -8.3288    175.6533    146.2625   1.0712449711e+02   1.9580168592e+01    0.1855854    0.1693911 -62.93 0.0006409581    1.354    0.261
       305  -9.7167     23.4685    138.4414   1.3926717548e+02   4.3497973193e+01    0.4475589    0.1820344  66.32  0.002078213    2.714    0.632
       306  -8.6148    172.2357    138.2964   1.0616707062e+02   2.1512620820e+01    0.2494322    0.1827512 -50.95 0.0005751832    1.626    0.385
       307  -7.5549    218.5579    138.5143   9.7543290833e+01   1.2299060057e+01    0.1348814    0.1171891  13.37 5.137791e-05    1.041    0.039
       308  -8.4393    207.4609    138.0992   9.9415104393e+01   1.4540641108e+01    0.1925275    0.1889808  38.71 0.0006289834    1.278    0.218
       309  -8.5862    197.4930    137.7430   1.0116353180e+02   1.6574655887e+01    0.2304138    0.2096429 -80.68 0.0007638264    1.522    0.343
       310 -10.2917     83.3350    133.0496   1.2484132085e+02   3.7937020382e+01     0.552013    0.2966711 -64.14  0.001348434    1.824    0.452
       311  -8.5472     85.0329    122.9153   1.2277324253e+02   3.9798641345e+01    0.3351583    0.2228477  10.34  0.001605178    2.697    0.629
       312  -9.4373     39.0277    136.3485   1.3558749953e+02   4.2499701552e+01    0.2644801    0.1496008  69.20 0.0007665961    1.761    0.432
       313  -8.9234    248.2637    135.3571   9.1966878495e+01   7.0130191453e+00    0.2360398    0.1803801 -21.93 0.0007158166    1.307    0.235
       314  -8.3730    246.9084    130.4025   9.1082131632e+01   7.8407050277e+00    0.2746246    0.1648101 -36.20 0.0005625347    1.860    0.462
       315  -8.1087    162.6541    136.4065   1.0772027434e+02   2.3704512367e+01    0.1953903    0.1607462  80.53 0.0006306351    1.599    0.375
       316  -7.7561    187.6978    135.7022   1.0257444763e+02   1.8840973934e+01    0.1404813   0.09995468  14.65 0.0002554595    1.581    0.368
       317  -7.6389    231.3972    134.1709   9.4411528510e+01   1.0355064190e+01    0.1719948    0.1176987 -33.12 0.0003688364    1.569    0.363
       318  -8.5742    179.2663    133.6695   1.0377707554e+02   2.0853929939e+01    0.2679178    0.2098978 -65.66 0.0008915408    1.802    0.445
       319  -9.0647    112.9844    133.4469   1.1799918520e+02   3.3321653154e+01    0.2978158    0.2026888  70.97 0.0008758738    1.837    0.456
       320  -7.4103    237.3401    133.6903   9.3332135038e+01   9.2690933082e+00    0.1201689    0.1076916 -61.93 0.0007044542    1.690    0.408
       321  -9.2359    143.0114    131.5888   1.1089381230e+02   2.8329647822e+01    0.3175277    0.2201102 -61.48 0.0008088582    1.758    0.431
       322 -10.1696    132.4734    131.4118   1.1318906680e+02   3.0317142966e+01    0.5365103    0.3721867 -88.64  0.002094689    2.251    0.556
       323  -8.7652    129.9219     97.5220   1.0608180246e+02   3.7345751836e+01     0.285829    0.1804141  32.51  0.001195206    1.817    0.450
       324  -9.9116    130.6911    118.6118   1.1091425207e+02   3.3087317796e+01    0.4501726    0.3079824 -81.24  0.001393272    2.298    0.565
       325 -10.4447    133.2264    109.3154   1.0819800795e+02   3.4400827519e+01    0.7024913      0.32008 -43.32   0.00227752    2.215    0.548
       326  -9.5336    128.4052    102.1164   1.0761332117e+02   3.6743220331e+01    0.3148066     0.253042  89.14 0.0007863791    1.599    0.375
       327 -10.6403     98.5560    130.9932   1.2091612146e+02   3.6122315763e+01    0.5655423    0.3046758 -64.85  0.001553339    2.020    0.505
       328  -8.9406     98.8467    120.9654   1.1902654073e+02   3.8126571416e+01     0.393483     0.262286  -9.16  0.001678095    3.230    0.690
       329  -8.9808    250.6648    129.9175   9.0394232088e+01   7.1910408029e+00    0.4075338    0.1116349 -26.32  0.001396541    3.462    0.711
       330  -8.1318    204.6501    130.5093   9.8243646999e+01   1.6174224136e+01    0.2151796    0.1601409 -48.52 0.0006199244    1.717    0.418
       331  -8.5108    193.0394    130.5674   1.0041887139e+02   1.8536381393e+01    0.2502038    0.1901525 -48.58  0.001323217    1.614    0.380
       332  -9.6489    152.8579    128.5470   1.0811619949e+02   2.6981970489e+01    0.5378599    0.2425108 -43.95  0.001276204    2.335    0.572
       333  -9.6229     13.0740    129.5923   1.4088583203e+02   4.6135713008e+01    0.3709551    0.1639479  66.69  0.001780064    2.263    0.558
       334  -7.4826    220.6324    130.2592   9.5353157940e+01   1.2979149405e+01    0.1232257    0.1108172  87.64 0.0006975377    1.642    0.391
       335  -9.5741    168.4660    129.6077   1.0506518198e+02   2.3693135065e+01    0.2954777    0.2417239  86.10 0.0008078519    1.698    0.411
       336  -7.8906      1.8160    130.5813   1.4347095623e+02   4.6733945887e+01    0.1424143   0.07639094  49.36 0.0009486883    1.763    0.433
       337  -8.0553    211.4457    129.2189   9.6726093548e+01   1.4973258814e+01    0.1841646    0.1251549 -39.98 0.0005679986    1.672    0.402
       338  -7.5338    186.3389    129.6608   1.0150280830e+02   2.0046750412e+01     0.136145      0.11348 -83.35 0.0007050527    1.763    0.433
       339 -10.6543     44.9682    123.7018   1.3276753706e+02   4.4547745350e+01    0.9662662    0.4225694  74.66  0.003807098    3.949    0.747
       340 -10.3661     60.0490    125.1802   1.2927158481e+02   4.2574707640e+01    0.6580568    0.3401179  76.44  0.002614598    2.819    0.645
       341  -9.9652    118.0129    125.3689   1.1529211091e+02   3.4056950272e+01    0.4853704    0.3202627  76.92  0.001543807    2.264    0.558
       342  -8.8333    179.0979    124.7618   1.0181831197e+02   2.2315383460e+01    0.2566479    0.2262138 -60.70 0.0008412678    1.401    0.286
       343 -10.0606     28.3961    122.4706   1.3665932071e+02   4.6378250613e+01    0.6204417    0.2550479  75.77  0.002651649    3.486    0.713
       344  -8.5368     26.8376    114.3875   1.3618486603e+02   4.8232137313e+01     0.220396    0.1460844  17.83  0.001242919    2.114    0.527
       345  -9.4230    239.4102    123.5452   9.0707099757e+01   1.0106742104e+01    0.2270974    0.1900578   2.87 0.0001981602    1.029    0.028
       346  -8.2290    188.5034    124.0440   9.9800597211e+01   2.0471514312e+01    0.2016027    0.1370337 -31.86 0.0004295766    1.509    0.337
       347  -7.7187    203.0000    122.0355   9.6593310827e+01   1.7738967492e+01     0.219531   0.07811768 -32.14  0.000468595    2.847    0.649
       348  -7.8782    194.8485    121.8316   9.8067297083e+01   1.9480868227e+01      0.18531    0.1673404 -53.20 0.0004776289    1.364    0.267
       349  -8.9519    171.9128    121.6377   1.0255374421e+02   2.4320151014e+01    0.2534283    0.2036504 -41.92 0.0005353726    1.334    0.250
       350  -9.0319    158.7224    121.6937   1.0533575122e+02   2.7022538536e+01    0.2839593    0.2381056  77.20 0.0008747086    1.488    0.328
       351  -9.4846     71.0397    119.9348   1.2575604072e+02   4.2334896734e+01     0.336181    0.2023988  85.50 0.0009485554    2.145    0.534
       352 -10.0213    141.4055    118.0734   1.0833121800e+02   3.1136833423e+01    0.5783666    0.3081809 -56.43  0.001636022    2.385    0.581
       353  -7.9131    228.4143    125.2893   9.2900143584e+01   1.2070328867e+01    0.1818637    0.1209275 -33.71 0.0007502676    1.581    0.368
       354  -9.5190      2.9943    117.4754   1.4231126497e+02   4.9340655724e+01    0.4294956    0.1647727  70.15  0.002133806    2.820    0.645
       355  -8.1650     17.5100    118.5251   1.3891155141e+02   4.8100961428e+01    0.1610185    0.1109062   2.19  0.001033103    2.364    0.577
       356  -7.4832    231.4902    117.5198   9.0576540684e+01   1.2448840535e+01     0.137869    0.1221804   3.08 0.0008091785    1.074    0.069
       357  -7.9413    219.2942    116.6898   9.2422539722e+01   1.5077981964e+01    0.1294991    0.1117357 -58.84 0.0002578391    1.590    0.371
       358  -8.2174    185.6175    115.8412   9.8419357857e+01   2.2370298862e+01    0.1926844    0.1307342 -43.75 0.0004025296    1.635    0.388
       359  -7.9490    153.2697    115.9465   1.0518841405e+02   2.9155895577e+01    0.1812862    0.1241087 -41.60 0.0008837778    1.502    0.334
       360  -9.7882    109.2107    114.2673   1.1513355489e+02   3.7803871087e+01     0.449085    0.2923047 -73.53  0.001225981    1.995    0.499
       361  -8.8718    109.2513    107.8455   1.1373056659e+02   3.9114271789e+01    0.2564209    0.1858909   7.70  0.001231647    2.117    0.528
       362  -8.6109     58.6407    115.6526   1.2823332253e+02   4.4777167400e+01    0.1820271    0.1346837 -39.70 0.0006420615    1.672    0.402
       363  -8.1418    192.9822    115.3228   9.6865478353e+01   2.0871181082e+01    0.1947388    0.1784762  22.20 0.0004474515    1.048    0.045
       364  -9.8860     78.8441    112.6973   1.2252264742e+02   4.2837524149e+01    0.4897498    0.3069814  85.70  0.001930973    2.179    0.541
       365  -8.6358     78.3782    105.5782   1.2130147603e+02   4.4435766573e+01    0.3194657    0.2338241 -18.75  0.001255832    2.069    0.517
       366 -10.0433     92.6790    112.4166   1.1890974624e+02   4.0871947799e+01    0.4497794    0.2801962 -74.30  0.001301009    1.939    0.484
       367  -8.4509    174.9841    112.3854   9.9710901950e+01   2.5214645478e+01    0.2716363    0.1965145 -51.21 0.0006093219    1.639    0.390
       368  -9.8111    121.9262    112.6419   1.1167051691e+02   3.5883035560e+01    0.2882758    0.2330691 -72.07 0.0007293644    1.394    0.283
       369  -8.5090    167.2954    114.8961   1.0191928119e+02   2.6427781100e+01    0.2011646    0.1861407 -21.74  0.001141828    1.094    0.086
       370  -8.9142    159.3717    111.8594   1.0287655218e+02   2.8623704354e+01    0.2630076    0.2251353  86.14 0.0007905947    1.485    0.327
       371 -10.1721     66.2906    109.7278   1.2528012453e+02   4.5136581211e+01    0.5625266    0.2856924 -66.73  0.002085289    1.858    0.462
       372  -9.6469     13.8135    111.0656   1.3912855278e+02   4.9957033166e+01    0.3306956    0.1745106  77.11  0.001377925    1.844    0.458
       373  -7.8078    149.6749    110.2981   1.0463794550e+02   3.0919731820e+01    0.1413979    0.1152177  90.00 0.0002863019    1.630    0.386
       374  -8.7647     42.7125    109.6062   1.3149428718e+02   4.7810697991e+01    0.2660295    0.1593015   3.21  0.001303094    3.292    0.696
       375 -10.1452    248.8247    108.0439   8.5604646826e+01   1.0120034191e+01    0.4402122    0.2252942 -17.48  0.002008573    1.889    0.471
       376  -7.5714    182.7376    109.3695   9.7394407005e+01   2.4029137105e+01    0.1420962    0.1141363 -62.94 0.0006982363    1.653    0.395
       377  -8.4356    189.2739    108.0355   9.5773730875e+01   2.2809437797e+01    0.2053992    0.1768819 -24.74 0.0005185655    1.161    0.139
       378  -9.2160    139.7642    104.6186   1.0551617576e+02   3.4003221619e+01    0.3280199    0.2597477 -73.41 0.0007865531    1.607    0.378
       379 -10.4016     45.7466    102.4892   1.2963131957e+02   4.9064094941e+01    0.7109302    0.3560594  74.41  0.003084667    3.132    0.681
       380 -10.5891     22.9253    102.9141   1.3589450802e+02   5.1031808204e+01    0.6473404    0.2972848  73.12  0.003011189    2.799    0.643
       381  -9.4440    150.5261    103.0488   1.0264000702e+02   3.2071524517e+01    0.4303745    0.2752533 -59.12  0.001119783    2.075    0.518
       382  -8.8079     93.3694    104.6999   1.1713971739e+02   4.2398086282e+01    0.2782048    0.1965905  -7.96  0.001186688    2.429    0.588
       383  -8.5511    166.6700    104.2974   9.9415221828e+01   2.8384931446e+01    0.2380372    0.2201592 -66.02  0.000703712    1.261    0.207
       384  -8.8882      6.7085    103.3287   1.4022505423e+02   5.2090414860e+01    0.1958937    0.1324636  75.88   0.00084938    1.324    0.245
       385  -7.7642    175.5118    102.4989   9.7101674457e+01   2.6745528033e+01    0.1460246    0.1400203   9.07 0.0003078719    1.048    0.046
       386  -8.3567    159.8508    101.1403   1.0007031082e+02   3.0419632779e+01    0.2155519    0.1989038 -68.46 0.0004190224    1.253    0.202
       387 -10.2184    108.7547     98.7951   1.1176104538e+02   4.1067887031e+01    0.5380974    0.3522377  73.81  0.001141574    2.383    0.580
       388  -8.9286    108.2062     92.4568   1.1033847224e+02   4.2474807020e+01    0.5196573    0.2653423  26.29  0.001905466    3.281    0.695
       389  -9.0572     82.1718    100.0843   1.1916119283e+02   4.5083302849e+01    0.3156865    0.2084245 -79.86 0.0007695334    1.845    0.458
       390  -9.0556     95.0120     96.9457   1.1497318217e+02   4.3783174103e+01    0.3288826    0.2010093 -60.93 0.0006300811    1.677    0.404
       391  -9.9477     63.8250     95.8258   1.2340713706e+02   4.8489877495e+01    0.4894808    0.2791435 -89.92  0.001471064    2.674    0.626
       392  -8.7245     66.2652     87.2448   1.2092767200e+02   5.0074754963e+01    0.5360689    0.2947041  11.03  0.002094774    4.012    0.751
       393  -8.1236    151.3309     95.3346   1.0043531652e+02   3.3308231002e+01    0.1552015    0.1147191   8.37 0.0007052167    1.729    0.422
       394  -8.3557    176.7777     93.4955   9.4443239453e+01   2.7950896786e+01    0.2934388    0.1834832 -48.74 0.0008080624    1.882    0.469
       395 -10.0721    123.5543     91.5295   1.0610373885e+02   3.9782208566e+01    0.5537553    0.4103831  21.50  0.001450588    1.657    0.396
       396  -8.8975     46.2894     92.7454   1.2787573778e+02   5.1165500222e+01    0.3304738     0.179047  18.94  0.001653595    2.709    0.631
       397  -9.6033      5.1958     92.1855   1.3955340563e+02   5.4586509358e+01    0.3324518    0.1513472  57.22  0.001222753    2.436    0.590
       398  -8.1859    157.7961     91.5664   9.7954212567e+01   3.2565918213e+01     0.237776    0.1745403 -39.82 0.0005916962    1.369    0.270
       399  -9.4624     34.7559     89.9259   1.3077476695e+02   5.2904224252e+01    0.4055755    0.2191073  84.58  0.001702888    2.331    0.571
       400  -8.9376     22.9350     90.2053   1.3427056070e+02   5.3822792981e+01    0.2495252    0.1911078 -50.62  0.001134145    1.366    0.268
       401  -7.9641    150.9223     89.2982   9.8873859598e+01   3.4492534608e+01    0.2039979     0.191848  25.13 0.0003616707    1.050    0.047
       402  -9.7781     86.3436     86.6978   1.1493982746e+02   4.7346947944e+01    0.4347275     0.303751 -85.97   0.00113618    1.976    0.494
       403  -8.3353     86.9607     80.8694   1.1328228214e+02   4.8498793098e+01    0.2663281    0.1742806  10.56  0.001183074    2.549    0.608
       404  -9.7877     48.5381     84.4877   1.2568216124e+02   5.2769158100e+01    0.4804989    0.2740822  76.90  0.001785221    2.700    0.630
       405  -9.4078    138.9812     91.8177   1.0236997170e+02   3.6593564986e+01      0.44908    0.2763263 -48.71   0.00135087    1.707    0.414
       406  -9.6382    104.7276     83.2230   1.0885266851e+02   4.5004751891e+01    0.4167831     0.292655 -71.09 0.0009750301    1.848    0.459
       407  -8.3487    157.8861     84.0830   9.5820512581e+01   3.3861359610e+01     0.222729    0.2032999 -60.19 0.0004462577    1.241    0.194
       408  -7.8348    185.3089     82.6599   8.9717064514e+01   2.7704437113e+01    0.1522836    0.1187504 -62.86 0.0004342941    1.688    0.408
       409  -8.1563     35.3221     82.3252   1.2932992892e+02   5.4548004705e+01    0.1246705   0.07881439 -43.37 0.0003014856    1.684    0.406
       410  -9.6662     24.6314     80.4519   1.3232057229e+02   5.5858543793e+01    0.4103569      0.21278  87.38  0.001167486    2.313    0.568
       411  -9.3124      9.8897     81.1322   1.3693222812e+02   5.6723887545e+01    0.2845576     0.151366  62.99  0.001123965    2.171    0.539
       412  -8.2704    150.2464     80.5790   9.6525080962e+01   3.6209341510e+01    0.2762434    0.1726714 -46.61 0.0006303373    1.704    0.413
       413  -8.7724    119.3781     80.4902   1.0412698262e+02   4.2790580961e+01    0.2971028    0.2333476 -67.86 0.0007056935    1.538    0.350
       414  -8.8357     74.5487     80.3995   1.1685717195e+02   5.0457748115e+01    0.3129672    0.1989292 -72.13  0.001281416    1.854    0.461
       415  -8.2631    166.7138     79.9038   9.2684401809e+01   3.2536230512e+01      0.21309    0.1884539 -24.30 0.0004455223    1.103    0.094
       416  -9.2187     65.4684     77.9674   1.1904443288e+02   5.2220680543e+01    0.2909189    0.2010304 -66.39  0.001513309    1.390    0.281
       417  -9.7504     63.3954     73.6315   1.1863477158e+02   5.3439285888e+01      0.42867    0.2099337 -64.92  0.001355429    2.177    0.541
       418  -7.9724    184.4286     78.5096   8.8689943620e+01   2.8558941105e+01    0.1520118    0.1420039  -2.55 9.899808e-05    1.019    0.018
       419  -8.2777    164.8622     94.1436   9.7116748567e+01   3.0537725811e+01    0.2193073    0.2023636 -72.09 0.0005073447    1.278    0.218
       420  -9.0628    140.7646     82.8661   9.9425607864e+01   3.7890349637e+01    0.3573094    0.2478283 -46.80 0.0009398875    1.487    0.327
       421  -8.3653    140.4119     75.2998   9.7260820559e+01   3.9357510321e+01    0.2592194    0.1780023 -45.35 0.0007594028    1.490    0.329
       422  -9.2896    128.0254     75.2987   1.0034214997e+02   4.2031733936e+01    0.3394525    0.2574976 -64.21 0.0008341846    1.640    0.390
       423  -8.7229     84.4855     64.5310   1.0941443095e+02   5.2338258303e+01    0.4364672    0.2541886  -4.08  0.001333511    5.412    0.815
       424  -8.2769    163.3106     73.5882   9.1517748042e+01   3.4390570405e+01    0.2796801    0.1707509 -41.97 0.0008415977    1.684    0.406
       425  -7.9772    151.4875     73.5003   9.4107390701e+01   3.7172483624e+01    0.1507671    0.1458198 -22.77 0.0001375998    1.060    0.057
       426  -8.5412    115.5909     72.9238   1.0289891589e+02   4.5028391157e+01    0.2759571    0.1699378 -53.02 0.0007046756    1.763    0.433
       427  -8.2080     42.5985     72.7962   1.2516560057e+02   5.5987195491e+01    0.1787548    0.1049148 -73.15 0.0005693042    1.662    0.398
       428  -7.7551    175.4899     72.5395   8.8674722173e+01   3.1642686247e+01      0.15275    0.1450846  -0.89 0.0001018788    1.026    0.025
       429  -9.0301    105.8871     71.6859   1.0521380082e+02   4.7141988875e+01    0.2820359    0.1952248 -52.90 0.0006252826    1.470    0.320
       430  -9.1087     95.1862     71.1937   1.0816245521e+02   4.9169501458e+01    0.3392487    0.2212835 -62.29 0.0007582672    1.803    0.445
       431  -9.2711     30.1305     69.7091   1.2865639460e+02   5.7814790961e+01    0.4886303    0.2395026 -28.16  0.002140739    3.534    0.717
       432  -7.5813    170.4563     71.4781   8.9372870229e+01   3.3026476127e+01    0.1524825    0.1456272  -9.06 0.0001760895    1.042    0.040
       433  -9.5169     51.3975     69.6404   1.2155362822e+02   5.5757543170e+01    0.4004759    0.2123777 -73.85  0.001363603    2.302    0.566
       434  -9.0988     16.5799     69.7276   1.3316674537e+02   5.8824616058e+01    0.4018644    0.1689349 -79.94   0.00189319    2.391    0.582
       435  -9.7268     82.3005     72.5712   1.1243840054e+02   5.0995294876e+01     0.489475    0.2829058 -65.26  0.001003685    2.131    0.531
       436  -7.8664    157.2898     69.6819   9.1620024002e+01   3.6468341840e+01    0.1512505    0.1202325 -64.58 0.0002251804    1.597    0.374
       437  -8.9052    147.0645     68.2897   9.3498106614e+01   3.9097634432e+01     0.317797    0.2055199 -39.09 0.0004415466    1.520    0.342
       438  -8.6578    138.9195     66.4970   9.4862121632e+01   4.1272424920e+01    0.2920694    0.2004671 -51.41 0.0007519509    1.651    0.394
       439  -8.7118    121.5875     66.1320   9.9155639330e+01   4.5111667661e+01    0.3108853    0.2307502 -62.49 0.0007493357    1.689    0.408
       440  -7.3422    163.6436     65.7318   8.9003573019e+01   3.5595830630e+01    0.1609656      0.11331  23.02 0.0006992431    1.636    0.389
       441  -8.6060     64.4250     63.7356   1.1567828138e+02   5.5456461016e+01    0.3932878    0.2211696 -20.99  0.001556896    3.387    0.705
       442  -8.6994     37.3516     64.4518   1.2509508437e+02   5.8347814702e+01      0.25226    0.1816008 -88.18 0.0008347034    1.559    0.359
       443  -9.0387    110.0113     63.7032   1.0153978991e+02   4.7922703168e+01    0.2760495    0.2007192 -47.41 0.0006368723    1.356    0.262
       444  -7.4343    187.4955     63.5360   8.3630220891e+01   3.0061519496e+01    0.1526958    0.1448758  -6.07 0.0002522897    1.038    0.037
       445  -8.2751    157.9749     61.9479   8.9002066457e+01   3.7577712276e+01    0.2303486    0.2175247 -10.14 0.0003425147    1.024    0.023
       446  -7.7901     18.6576     62.6784   1.3122937121e+02   6.0250741103e+01    0.1245723   0.07038525 -44.50 0.0007050301    1.725    0.420
       447  -8.2768    164.5161     59.9697   8.6971386378e+01   3.6295759599e+01     0.218603    0.2001262 -13.17 0.0003934901    1.046    0.044
       448  -9.2903     97.4682     60.7308   1.0422097698e+02   5.0878903541e+01    0.2590642    0.2511557  49.93  0.001000725    1.153    0.132
       449  -8.2224    147.1634     59.1953   9.0509372061e+01   4.0617418128e+01    0.2108779    0.1746268 -51.88 0.0004620425    1.348    0.258
       450  -9.4650     73.4132     59.7211   1.1150549990e+02   5.5051612360e+01    0.3509895    0.2340127 -63.60  0.001038989    1.674    0.403
       451  -9.8677     23.3635     56.5341   1.2831422070e+02   6.1275356387e+01    0.4438375    0.2435832  88.22  0.002169742    2.574    0.611
       452  -8.4002    130.6726     57.9575   9.4074717521e+01   4.4630417609e+01    0.2187959     0.182295 -34.37 0.0005486099    1.157    0.135
       453  -9.4929      7.4431     57.2100   1.3422067972e+02   6.2149565930e+01    0.2948878    0.1694272  78.33  0.001239012    2.085    0.520
       454  -8.9503    119.1807     56.0784   9.6435533041e+01   4.7471102035e+01     0.337142    0.2203377 -50.04 0.0008168385    1.682    0.405
       455  -9.5511     54.3258     55.7067   1.1685960810e+02   5.8456563329e+01    0.3437971     0.207776 -66.90  0.001105003    1.813    0.448
       456  -8.2037    139.9262     56.1594   9.1179849490e+01   4.2824452968e+01    0.2326272    0.2016779 -57.28 0.0005639131    1.322    0.244
       457  -8.5466     44.0670     55.5666   1.2051044062e+02   5.9638139666e+01    0.2367196    0.1567714 -70.58 0.0007876926    1.554    0.356
       458  -8.5087    105.8916     53.4297   9.9238422024e+01   5.0683073451e+01     0.274381    0.1893414 -52.11  0.000675871    1.589    0.371
       459  -9.3565     92.3929     50.8273   1.0239813730e+02   5.3728055729e+01    0.3905976    0.2279375 -52.11  0.001055396    1.858    0.462
       460  -8.3193     75.1612     51.6753   1.0832202881e+02   5.6445029509e+01    0.2861315    0.1730147   8.08  0.001169828    3.045    0.672
       461  -8.0529    144.9759     49.1806   8.7568435500e+01   4.2759326734e+01    0.2253822    0.1516305 -44.83 0.0005480151    1.595    0.373
       462  -8.2212    129.6575     49.1642   9.1242376643e+01   4.6362068177e+01    0.2113651    0.1362123 -22.84  0.000355032    1.594    0.373
       463  -8.8804    248.5637     47.7425   7.0095128892e+01   1.7273058007e+01    0.2270996    0.1890999  54.96 0.0003840751    1.314    0.239
       464  -7.3708    149.7187     48.6804   8.6326944364e+01   4.1683897875e+01    0.1579477    0.1148511  14.55 0.0002505211    1.584    0.369
       465  -8.8354    120.9377     47.3875   9.2854740931e+01   4.8614463062e+01    0.2722672    0.2052256 -23.62 0.0004918865    1.285    0.222
       466  -8.5620    112.3579     47.0757   9.5086042089e+01   5.0512692034e+01    0.2409576    0.2054897 -74.42 0.0005414564    1.529    0.346
       467  -8.9183     82.1544     46.5934   1.0418521741e+02   5.6325910615e+01    0.2974875    0.2166564 -52.57 0.0006772839    1.420    0.296
       468  -8.3570     45.0284     45.0043   1.1706637299e+02   6.1799108838e+01    0.1943956    0.1587232 -55.83 0.0005470479    1.115    0.103
       469  -8.9583     16.7564     44.7715   1.2817476573e+02   6.4321734719e+01    0.2354603    0.1381174 -74.50 0.0007273128    1.602    0.376
       470  -8.6922    132.9945     43.3564   8.8286188804e+01   4.6530042101e+01    0.3295289    0.1937222 -39.40  0.001059522    1.693    0.409
       471  -8.8140     58.1665     42.6234   1.1126217723e+02   6.0709039758e+01     0.321799    0.1917666 -64.82 0.0009377031    2.189    0.543
       472  -8.4084     31.9897     44.5188   1.2203188202e+02   6.3195155876e+01      0.16527   0.09428882 -18.57 0.0007232607    2.591    0.614
       473  -8.4467     92.6336     42.7042   9.9322996056e+01   5.5203348621e+01     0.228575    0.1628752  -5.54  0.001105244    1.723    0.420
       474  -9.2910     69.4919     41.4172   1.0666207275e+02   5.9349146986e+01    0.3833275    0.2268514 -57.38  0.001359817    1.975    0.494
       475  -9.6763      5.2191     42.0419   1.3221072858e+02   6.5589559594e+01    0.3348252    0.1695209 -83.27  0.001503229    2.099    0.524
       476  -8.5254    105.9761     41.4060   9.4762898675e+01   5.2820925642e+01    0.2709547    0.1869964 -46.58 0.0005872489    1.533    0.348
       477  -8.2397    140.3927     41.2595   8.5755250152e+01   4.5086506076e+01    0.2180908     0.134153 -37.99 0.0007465557    1.617    0.382
       478  -8.6894     36.7989     40.9217   1.1903419858e+02   6.3512167286e+01    0.2233133     0.155566 -69.71  0.000688446    1.538    0.350
       479  -8.6929     95.3067     37.8838   9.6595982959e+01   5.5555852710e+01    0.3153858    0.1986019 -51.81  0.001167307    1.890    0.471
       480  -8.2857     80.5334     36.9505   1.0105719509e+02   5.8415205790e+01    0.2151061    0.1232169 -40.04  0.000465178    1.557    0.358
       481  -9.5050     26.1473     35.6734   1.2182609323e+02   6.5579015940e+01    0.3058056    0.1926688 -69.85 0.0007384553    1.635    0.388
       482  -8.0617    125.9496     35.5418   8.7045791399e+01   4.9382205607e+01    0.2146137    0.1469208  51.33 0.0003537325    1.511    0.338
       483  -8.5935    111.8521     34.6612   9.0416639779e+01   5.2692946942e+01    0.2801511    0.1975619 -37.11  0.000581934    1.378    0.274
       484  -8.0092     88.5525     34.5209   9.7389552455e+01   5.7418294589e+01    0.1413234    0.1256529 -27.04 0.0001215256    1.063    0.060
       485  -9.0977     48.4351     33.2174   1.1164385993e+02   6.3824795880e+01    0.3228764    0.1888013 -52.23 0.0008537804    1.533    0.348
       486  -8.4372    119.0993     33.0734   8.7820333874e+01   5.1329229156e+01    0.2296313    0.1752497 -57.31  0.000590692    1.666    0.400
       487  -8.5369     60.3818     32.6710   1.0668394900e+02   6.2366672538e+01    0.2151453    0.1827541 -51.68 0.0007778424    1.258    0.205
       488  -8.5226     72.1752     31.1049   1.0161484975e+02   6.0869021660e+01    0.2780705     0.157512 -51.24 0.0008842745    1.985    0.496
       489  -9.1228     12.8635     30.2852   1.2605036307e+02   6.7682784806e+01    0.3248172    0.1467061 -68.91  0.001350458    2.088    0.521
       490  -7.9988     42.0999     30.1625   1.1312005172e+02   6.5167239508e+01    0.1625023    0.1405331 -62.90 0.0004693484    1.321    0.243
       491  -8.2623    101.4332     29.2999   9.1184658947e+01   5.5751060209e+01    0.2115583    0.1820775 -85.30 0.0005915542    1.628    0.386
       492  -7.4226    161.3300     28.7291   7.6782766124e+01   4.1512552418e+01    0.1509288    0.1173838 -63.47 0.0001941864    1.586    0.369
       493 -10.5039    143.2830     27.1039   7.9735161134e+01   4.6351916630e+01    0.3090655    0.2525362  16.61  0.000360693    1.223    0.183
       494  -8.8018     81.4893     27.6233   9.6831408860e+01   5.9886369933e+01     0.273417     0.215032 -53.65 0.0008051274    1.542    0.351
       495  -8.8995      3.6388     27.8044   1.2957322923e+02   6.8725744446e+01    0.2057539    0.1465808  88.52 0.0008161998    1.659    0.397
       496  -8.7885     91.7276     26.3100   9.2872834673e+01   5.8179771790e+01    0.3224286     0.160676 -44.73  0.001154306    2.203    0.546
       497  -7.7558    104.3930     23.1676   8.7668269100e+01   5.6049864843e+01    0.2016678     0.123725 -37.29 0.0005379885    1.608    0.378
       498  -8.1409     34.6753     23.3261   1.1370930933e+02   6.7310761725e+01    0.1700044    0.1410985 -84.84  0.001067837    1.740    0.425
       499  -8.9022     63.5403     21.0318   1.0044077659e+02   6.4008675832e+01    0.2952927    0.2027613 -55.40 0.0009130866    1.892    0.472
       500  -8.8700     48.4422     21.7687   1.0696615758e+02   6.6017308295e+01    0.2292372    0.1809873 -48.72 0.0005991614    1.296    0.228
       501  -8.8631     19.6173     21.6973   1.2012959924e+02   6.8989476955e+01    0.2060962    0.1253065 -61.23 0.0004344918    1.492    0.330
       502  -7.4847    120.7046     21.3403   8.2540893620e+01   5.2618839264e+01    0.1479661    0.1117051 -54.05 0.0007030899    1.657    0.397
       503  -9.3783    175.7361    247.6066   1.2225740681e+02   6.5076185293e+00    0.2432851    0.1862074  72.47  0.001243225    1.984    0.496
       504  -8.0642     88.0740     17.8553   9.0194842129e+01   6.0186799282e+01    0.2012396    0.1798622 -37.87 0.0005227586    1.261    0.207
       505  -7.8005     38.8584     18.5952   1.0980900921e+02   6.7763608862e+01    0.1446248    0.1182534  41.79 0.0005505398    1.620    0.383
       506  -7.9950    112.5491     17.0295   8.2724187246e+01   5.5073300210e+01    0.2163116    0.1340728 -24.81 0.0003760015    1.521    0.342
       507  -8.7313    156.3173    248.5458   1.2533281156e+02   9.1169187631e+00    0.1761107    0.1184086  60.89 0.0005162056    1.674    0.403
       508  -8.1650    113.1702    248.7433   1.3197020191e+02   1.4860411876e+01    0.1560764   0.09977364  88.61  0.000967383    2.121    0.528
       509  -7.3883     76.3280     10.6510   9.0616788401e+01   6.3461710036e+01    0.1321511    0.1033554 -54.61 0.0007049052    1.759    0.432
       510  -9.1861    104.0317    247.2632   1.3325073350e+02   1.6202055175e+01    0.2588298    0.1439593  88.80  0.001518533    2.701    0.630
       511  -8.2913      7.6050     15.7444   1.2399121114e+02   7.1014616013e+01    0.1574351   0.09154617 -66.36 0.0004760764    1.597    0.374
       512  -8.9260    243.2275    246.5741   1.1206363163e+02  -2.7930879560e+00    0.2592021    0.1430553 -12.25  0.001862363    2.093    0.522
       513  -9.4356    233.2748    246.0686   1.1344040780e+02  -1.4039792366e+00    0.3443457    0.1888415  -0.48  0.001875792    2.274    0.560
       514  -8.6832    218.5746    247.1543   1.1574121966e+02   5.3610625345e-01    0.2303813   0.09680516 -27.05  0.001405583    3.175    0.685
       515  -8.6176    132.0752    247.7624   1.2898851529e+02   1.2503095300e+01    0.1482877    0.1151299  68.81 0.0005382344    1.401    0.286
       516  -8.5624     62.9973    248.2797   1.3947600914e+02   2.0904757848e+01    0.1324824   0.08762575  52.96 0.0007018547    1.097    0.088
       517  -9.9203    223.9698    244.2898   1.1457953022e+02   2.3462404812e-02    0.3253671    0.1993657 -38.48  0.002124704    2.473    0.596
       518  -9.2027    210.6826    246.3081   1.1681174103e+02   1.7095479501e+00    0.1738834    0.1605485  73.92 0.0009243008    1.836    0.455
       519  -8.9162    147.3572    246.3794   1.2650066088e+02   1.0589911680e+01    0.2164245    0.1214049  63.87  0.001350798    2.445    0.591
       520  -9.1215    120.1758    245.4286   1.3062250123e+02   1.4357347558e+01    0.2601944    0.1349572  63.20  0.001577374    2.238    0.553
       521  -8.2135     67.7497    245.5027   1.3861701928e+02   2.0748106036e+01    0.1723037   0.09217858  84.75  0.001270276    2.073    0.518
