#   1 NUMBER                 Running object number                                     
#   2 MAG_AUTO               Kron-like elliptical aperture magnitude                    [mag]
#   3 X_IMAGE                Object position along x                                    [pixel]
#   4 Y_IMAGE                Object position along y                                    [pixel]
#   5 X_WORLD                Barycenter position along world x axis                     [deg]
#   6 Y_WORLD                Barycenter position along world y axis                     [deg]
#   7 A_WORLD                Profile RMS along major axis (world units)                 [deg]
#   8 B_WORLD                Profile RMS along minor axis (world units)                 [deg]
#   9 THETA_WORLD            Position angle (CCW/world-x)                               [deg]
#  10 FWHM_WORLD             FWHM assuming a gaussian core                              [deg]
#  11 ELONGATION             A_IMAGE/B_IMAGE                                           
#  12 ELLIPTICITY            1 - B_IMAGE/A_IMAGE                                       
         1 -13.6407     29.6192     59.5670   1.1548932521e+02   6.0064823603e+01     1.352263    0.8491112  52.36   0.00600073    2.008    0.502
         2 -13.0303     42.4726     20.8202   9.8568859701e+01   6.6636170935e+01    0.5733261    0.3809035  12.73  0.002100288    1.857    0.461
         3 -12.4721    216.2104     14.5577   5.4049944002e+01   2.8635765173e+01    0.6454323    0.5695381  23.21  0.001744503    1.199    0.166
         4 -13.1105    190.0095      9.0447   5.5432843734e+01   3.6117584760e+01    0.6663111    0.4177637  85.55  0.002983713    1.808    0.447
         5 -11.8218     57.8519      7.9489   8.6233950953e+01   6.6726355280e+01    0.4583454    0.3655609  15.97   0.00292885    1.274    0.215
         6 -11.3113     54.8005      2.6474   8.4738765399e+01   6.7964770231e+01    0.3716618    0.2643614  67.58  0.001964754    2.745    0.636
         7 -12.0436     43.8402      8.6076   9.2475943549e+01   6.8579240172e+01    0.2717785    0.2345807  13.08 0.0008322924    1.268    0.211
         8  -9.5797    109.3613      8.7033   6.9950898298e+01   5.6792962693e+01    0.1381186    0.1085892 -62.55 0.0007032992    1.710    0.415
         9 -10.3999     67.6962      6.8724   8.1908037747e+01   6.5303988633e+01    0.4125857    0.1323079  38.93  0.001553238    3.573    0.720
        10 -12.0845    167.1533      1.9688   5.6079203290e+01   4.2923321298e+01    0.6508112    0.2054636  67.85   0.00216472    3.001    0.667
        11 -10.2070     30.4834      2.3514   9.5607985323e+01   7.1175536373e+01     0.198105    0.1116815  23.20  0.001146193    2.093    0.522
        12  -9.9374    211.0363    218.0135   1.0203207537e+02   3.6605024633e+00    0.1586077    0.1289901  62.59  0.001130913    1.706    0.414
        13 -10.9300    222.4985    213.7578   9.9601942825e+01   2.2725753632e+00    0.2203862    0.1390839  15.97  0.001411099    1.632    0.387
        14 -10.4028    116.0162    209.7021   1.1691164668e+02   1.9643247982e+01    0.2016394    0.1128721 -76.12  0.001175299    2.482    0.597
        15  -9.9036     56.5002    205.5139   1.2678548025e+02   2.8115669008e+01    0.1051622   0.07409268  66.23 0.0002558244    1.053    0.050
        16  -9.5087     41.4982    201.5385   1.2906234664e+02   3.0428574958e+01    0.1002153   0.07406969  69.01  0.000155589    1.041    0.040
        17 -11.0552      5.0247    199.5442   1.3497004393e+02   3.4243909565e+01    0.2553415   0.09737176  52.42  0.001005751    1.876    0.467
        18  -9.8372    133.4301    196.2308   1.1228869864e+02   1.9017825326e+01    0.1450468    0.1075156 -79.82 0.0009438341    1.670    0.401
        19 -12.3989    160.2625    192.0940   1.0689837138e+02   1.5222756421e+01    0.5760757    0.3957979  71.72  0.002566932    1.968    0.492
        20 -10.9428    224.1653    183.5067   9.4467596826e+01   5.2018103514e+00    0.1931541    0.1411908 -53.50  0.001132873    2.248    0.555
        21  -9.5991    217.6539    188.3155   9.6362300121e+01   5.7830608528e+00    0.1102085   0.09286779  67.87 0.0007047859    1.719    0.418
        22  -9.3134     28.0418    177.0022   1.2989432482e+02   3.6042772888e+01    0.1231969   0.09056532  72.20  0.000428108    1.026    0.025
        23 -11.1851     34.7266    173.9754   1.2845383098e+02   3.5932633085e+01    0.2663362    0.0997336  62.83  0.001377484    2.652    0.623
        24  -9.6167    176.3210    171.6775   1.0077517155e+02   1.5338232600e+01    0.1229514   0.09656706  74.57 0.0004396975    1.675    0.403
        25 -11.2964     55.5896    167.6791   1.2392666249e+02   3.4843204418e+01    0.3816603    0.2052024  89.37  0.002252676    1.890    0.471
        26 -10.6637     98.7458    165.5144   1.1501038168e+02   2.9541947957e+01    0.2473084    0.1412325 -79.13  0.001299194    2.171    0.539
        27 -11.4763    120.8127    167.6813   1.1085946112e+02   2.5712103085e+01    0.3539243    0.1434488 -61.05  0.001531545    3.132    0.681
        28 -11.4908     24.2887    159.5408   1.2944241224e+02   3.9625469041e+01    0.2109663    0.1845335  32.31  0.001036149    1.583    0.368
        29 -11.4425    106.3711    158.0414   1.1242004449e+02   2.9758469190e+01    0.5092707     0.287472  68.00  0.002505528    2.239    0.553
        30 -10.6334    167.6489    157.3912   9.9902178458e+01   1.9127723404e+01    0.2827686     0.189207  83.22  0.001275436    2.788    0.641
        31 -11.2875    119.1347    156.8425   1.0958511334e+02   2.7923471433e+01    0.3768119    0.2296594  52.42  0.002054901    1.509    0.337
        32 -10.5865    218.1021    155.6474   9.0322854318e+01   9.6704366387e+00    0.2203196    0.1744416 -32.67  0.001327239    1.428    0.300
        33 -10.0767     23.4195    153.7606   1.2920287046e+02   4.0809422157e+01    0.1378837   0.08165228 -72.76 0.0003934555    1.502    0.334
        34 -11.5381    243.3190    151.1632   8.5248156865e+01   5.4732551517e+00    0.3537793   0.09653228  52.67  0.001132845    4.714    0.788
        35 -10.1673    189.4042    150.2228   9.4393240873e+01   1.6011985094e+01    0.1781288    0.1262652 -48.02 0.0009418682    1.704    0.413
        36 -10.7614    106.8110    145.1740   1.1037856082e+02   3.2124615596e+01    0.3838145    0.2183416  82.58  0.001613621    3.115    0.679
        37 -10.3169     55.9816    146.1735   1.2166965326e+02   3.8959644805e+01    0.2044857     0.102952  62.80  0.001085125    2.076    0.518
        38  -9.8461    124.5084    143.0056   1.0616378324e+02   2.9567090412e+01    0.1839625    0.1119408 -79.68 0.0008106118    2.595    0.615
        39 -10.8230     83.1837    132.1994   1.1367076395e+02   3.8293063393e+01    0.1818288    0.1344697  78.89 0.0007560534    1.370    0.270
        40 -12.0818     99.5122    128.9836   1.0932274873e+02   3.6492020459e+01    0.6863876    0.3864396  79.51  0.002768105    3.249    0.692
        41  -9.9257    117.3190    125.6415   1.0455715068e+02   3.4177411675e+01    0.1409324      0.10122  83.37 0.0007044282    1.761    0.432
        42 -11.1245     43.7709    123.3148   1.2179951229e+02   4.4991116265e+01    0.5699533    0.2491988  87.31   0.00238652    3.409    0.707
        43 -11.2025     27.4833    121.4961   1.2550025692e+02   4.6930933988e+01    0.5273008    0.2034304  80.24  0.002029921    4.333    0.769
        44 -11.6925    193.2039    118.2630   8.6759845781e+01   2.0114413968e+01    0.5532341    0.4390084 -70.79  0.002125858    1.769    0.435
        45 -10.4380     71.6842    120.6107   1.1460358819e+02   4.2279588437e+01    0.2897153    0.1624082  80.25  0.001333331    2.560    0.609
        46  -9.9921     98.3105    120.3227   1.0803794468e+02   3.8451305525e+01    0.1254819    0.1040928 -20.58 0.0005872887    1.651    0.394
        47 -10.3219     59.8154    125.2623   1.1818937709e+02   4.2793188540e+01    0.3857716    0.1674176  70.68  0.001307652    5.087    0.803
        48 -11.2248    140.8616    115.4199   9.6999273778e+01   3.1719690068e+01    0.5751555    0.1905125 -45.60  0.002008777    3.118    0.679
        49 -10.7601      2.0184    115.9766   1.3104124788e+02   5.0015666862e+01    0.2790675    0.1246249 -78.39   0.00138567    1.710    0.415
        50  -9.8254    232.4464    115.4740   7.9193847299e+01   1.2055139533e+01    0.1382145    0.1237449   7.85 0.0001015607    1.027    0.026
        51 -10.5707    108.3876    112.5513   1.0403673972e+02   3.8370105340e+01    0.5664192     0.224758 -63.72  0.001796369    4.327    0.769
        52 -10.6308     78.6876    112.6912   1.1150646846e+02   4.3000758786e+01    0.4090335    0.2222876  83.63  0.001606429    3.469    0.712
        53 -12.1010    160.9546    112.2849   9.1846333530e+01   2.8122363788e+01    0.4942594    0.3432702  59.93  0.002392057    1.572    0.364
        54 -10.6154     91.7743    111.1664   1.0789642780e+02   4.1385404024e+01    0.4205528    0.1510214 -62.49  0.001490903    3.442    0.709
        55 -10.6795    174.3506    111.2138   8.8788063350e+01   2.5397283968e+01    0.3428709    0.2455781 -47.03 0.0009347672    1.525    0.344
        56 -11.7690     15.2952    110.1977   1.2732250276e+02   5.0288157515e+01    0.5656548      0.28228  79.33  0.003194842    2.030    0.507
        57 -10.1519    133.2999    106.3213   9.6634740719e+01   3.4972781842e+01    0.1399773    0.1132607   0.10 0.0002719524    1.625    0.385
        58 -11.9889     44.7292    101.2219   1.1851151224e+02   4.9610307974e+01    0.6524771    0.3280819  85.69  0.002932425    2.879    0.653
        59 -12.1357    151.0608    103.8230   9.1947175394e+01   3.1771484120e+01    0.3599972    0.2387105  74.04  0.001540793    2.228    0.551
        60 -11.9507    127.6642    100.5110   9.6580093603e+01   3.7224461632e+01    0.6204316    0.2973366 -55.20  0.002442779    2.451    0.592
        61 -11.7504    115.3967    102.3712   1.0004523357e+02   3.9192446546e+01    0.9429862    0.2598125  40.75   0.00294163    4.046    0.753
        62 -11.6370    107.5793     98.4758   1.0111300348e+02   4.1400246844e+01    0.6567855    0.4165305 -80.48  0.002823653    2.503    0.600
        63 -10.1762     66.4885    110.9858   1.1433665926e+02   4.4998232413e+01    0.1824067   0.09938332 -88.16 0.0008105098    2.576    0.612
        64 -10.5929     82.1803    100.5369   1.0825122453e+02   4.5087853551e+01    0.2462951    0.1908358  86.41 0.0008743497    1.414    0.293
        65 -10.9306     62.9003     95.6909   1.1255382652e+02   4.8748228692e+01    0.4000846    0.1689506 -77.70  0.001262498    5.025    0.801
        66 -12.6348    170.3996     90.8941   8.4389414112e+01   2.9748296277e+01    0.4147121    0.3870954 -83.53  0.001217459    1.212    0.175
        67 -11.7870     42.1696     87.8909   1.1703549242e+02   5.2767817082e+01    0.5956093    0.3519785   1.78  0.002883432    3.330    0.700
        68 -10.4693     45.3740     82.1509   1.1503031008e+02   5.3693866498e+01    0.2845103    0.1745527 -80.91  0.001166833    1.722    0.419
        69 -11.5246     87.2243     87.0292   1.0385557686e+02   4.7196949935e+01    0.4731693    0.2939561  68.73  0.002153507    2.389    0.581
        70 -12.6439    141.2448    105.1620   9.4505044829e+01   3.3584157861e+01    0.5762589    0.3703896  68.65  0.002521305    2.126    0.530
        71 -10.8494    104.8830     84.0277   9.8224722375e+01   4.4847440357e+01    0.3929005    0.2606634 -88.91  0.001669695    2.593    0.614
        72  -9.7603      1.6135     78.1604   1.2758922353e+02   5.7963170755e+01    0.1678193   0.07015183 -64.69  0.000946434    1.764    0.433
        73 -11.0908     82.0392     72.7852   1.0172731235e+02   5.1001059770e+01    0.4561586    0.2796346 -82.87  0.001853017    3.083    0.676
        74 -10.7609     62.3781     70.2000   1.0711513041e+02   5.4320531610e+01    0.2589254     0.104854 -52.36 0.0009929506    2.098    0.523
        75 -10.7127     24.2940     80.6598   1.2113822833e+02   5.5930941550e+01    0.3891351    0.1701913 -88.22  0.001679067    3.166    0.684
        76 -11.4067    223.5447     71.5040   6.9445550236e+01   1.9970446445e+01    0.2797587    0.2592882   0.11 0.0005456855    1.014    0.014
        77 -10.1080     95.2974     71.9632   9.7595048863e+01   4.9000920960e+01    0.2246739    0.1063779 -64.66  0.000703054    4.144    0.759
        78 -10.7983     51.9482     70.2890   1.1046241041e+02   5.5556636777e+01     0.282024    0.1731618 -64.04 0.0009448485    1.457    0.313
        79 -10.3576    196.1827     67.9194   7.2914984149e+01   2.7165127137e+01    0.3635937    0.2094275  51.43  0.001556715    1.700    0.412
        80 -11.5988      9.4077     57.4587   1.2211452300e+02   6.1952006392e+01    0.5267142    0.3054132  70.01  0.003073273    2.218    0.549
        81 -11.6957     39.7725     51.8848   1.1002271478e+02   6.0770934409e+01    0.6032039    0.1340438 -51.63  0.001716108    3.243    0.692
        82 -11.4547    222.2059    248.9051   1.0443271420e+02  -8.8672149926e-01    0.3570694    0.1479491  40.93  0.002209684    1.687    0.407
        83 -11.4874     19.4805     59.4796   1.1898905619e+02   6.0868009648e+01    0.3258781    0.2337395 -67.03  0.001612596    1.099    0.090
        84 -12.1613    238.9601     64.6835   6.5390750601e+01   1.7210953207e+01    0.4061872    0.2618277  86.39  0.001796799    2.317    0.568
        85 -10.0295      4.3455     62.4969   1.2465523965e+02   6.1159005800e+01    0.1959874   0.07988369 -70.70 0.0006090115    1.828    0.453
        86 -10.2463    161.9780     53.4741   7.4977527356e+01   3.7922568185e+01    0.2368255    0.1500941  56.58 0.0006959841    1.595    0.373
        87 -11.6367    149.6085     52.3621   7.7259470059e+01   4.1145442046e+01    0.3314421    0.2674477  61.29 0.0005238293    1.318    0.241
        88  -9.6044    205.8658     47.1128   6.5172945716e+01   2.7580118908e+01    0.1982574    0.1662652  21.45 0.0002749048    1.246    0.197
        89 -10.3648     82.3007     47.0776   9.3733317096e+01   5.6121390826e+01    0.2263286    0.1925202  87.29 0.0008650259    1.567    0.362
        90 -10.5492    157.0251     45.0002   7.3176217161e+01   4.0441768989e+01    0.2772733    0.2115456  53.40 0.0004629763    1.306    0.234
        91 -11.6961     71.6698     42.5905   9.5713028562e+01   5.8664222936e+01    0.5787199    0.3135424  49.47  0.002639222    2.340    0.573
        92 -11.2023      7.3784     43.1930   1.2013039548e+02   6.5090293640e+01    0.4430338    0.2346874  43.59  0.002638006    2.457    0.593
        93 -12.1447     42.1518     37.1711   1.0475110250e+02   6.3545985047e+01    0.6407206    0.4015669  -5.47  0.001051803    2.391    0.582
        94 -12.0127     46.3922     35.8813   1.0265339141e+02   6.3331388758e+01    0.3581822    0.2563863  -5.26 0.0006588256    1.761    0.432
        95 -10.5465     82.7679     38.0600   9.0298617077e+01   5.7712031090e+01    0.3722374    0.1701433  54.05  0.001461284    3.171    0.685
        96 -10.8803    119.9127     34.2449   7.7876452162e+01   5.0952070729e+01    0.3012919    0.2910444  86.30 0.0008113611    1.195    0.163
        97 -10.4785     74.1807     32.8434   9.1190697030e+01   6.0072642870e+01    0.2554293    0.1897575  55.30 0.0009677338    1.741    0.426
        98 -11.2941    104.4738     30.3188   8.0536905969e+01   5.4894763109e+01    0.6019998    0.3454665  60.20  0.002280925    2.206    0.547
        99 -12.5077    203.4378     21.1162   5.7565552700e+01   3.1301857669e+01    0.5315096    0.3005024  81.54  0.002211142    2.101    0.524
       100 -12.2884     22.7689    239.8609   1.3382982280e+02   2.6423872879e+01    0.4209099     0.148903  70.94  0.002690149    2.525    0.604
       101 -10.3712      7.8802    240.8205   1.3595357186e+02   2.7675757669e+01     0.124082   0.09039844  67.19 0.0006375804    1.212    0.175
       102 -10.1235     89.1839     18.9289   8.0303713752e+01   5.9683791564e+01    0.2123344    0.1825916 -47.15  0.001237718    1.347    0.258
       103 -10.1327    134.2879     18.0757   6.8073849271e+01   4.9777803157e+01    0.1993487    0.1880077  -6.46 0.0004932312    1.055    0.052
       104 -11.0998    239.9172     20.5674   5.3284057021e+01   2.2041882834e+01    0.2743859     0.238609  62.87 0.0005212871    1.200    0.167
       105 -10.4337      6.1802    235.6877   1.3603461185e+02   2.8562572304e+01    0.1427418    0.0788837  72.56  0.000480452    1.267    0.211
       106 -10.7959     12.6195    227.4196   1.3483878503e+02   2.9196537124e+01    0.1573354    0.1114711  72.19 0.0005987646    1.133    0.117
       107 -10.3589    104.5312    225.1938   1.2033019225e+02   1.9013970272e+01    0.1662636   0.09853239 -73.59  0.001135802    2.061    0.515
       108 -10.6282     95.9999    225.1701   1.2172122529e+02   2.0166915543e+01    0.1856737   0.08439676  59.37  0.001090997    2.036    0.509
       109  -9.9764    184.8973    223.2104   1.0692706294e+02   7.2382830163e+00    0.2587157   0.06877729  48.24  0.001050618    3.369    0.703
       110 -10.5835    149.1397    222.7225   1.1272236237e+02   1.2864899700e+01     0.170439    0.1442214  82.15 0.0009923775    1.416    0.294
       111 -11.6168    226.5365    220.4098   9.9949084384e+01   9.9744516498e-01    0.2771334    0.1580978   0.24  0.001549855    2.380    0.580
