#   1 NUMBER                 Running object number                                     
#   2 MAG_AUTO               Kron-like elliptical aperture magnitude                    [mag]
#   3 X_IMAGE                Object position along x                                    [pixel]
#   4 Y_IMAGE                Object position along y                                    [pixel]
#   5 X_WORLD                Barycenter position along world x axis                     [deg]
#   6 Y_WORLD                Barycenter position along world y axis                     [deg]
#   7 A_WORLD                Profile RMS along major axis (world units)                 [deg]
#   8 B_WORLD                Profile RMS along minor axis (world units)                 [deg]
#   9 THETA_WORLD            Position angle (CCW/world-x)                               [deg]
#  10 FWHM_WORLD             FWHM assuming a gaussian core                              [deg]
#  11 ELONGATION             A_IMAGE/B_IMAGE                                           
#  12 ELLIPTICITY            1 - B_IMAGE/A_IMAGE                                       
         1 -13.6926     24.7354     49.4926   1.0371395784e+02   6.3929639692e+01     3.916492     1.561247 -24.32   0.01384231    4.805    0.792
         2 -14.6930     37.1209     81.9055   1.0737546496e+02   5.5807511045e+01      3.27352    0.9487936 -49.83   0.01276836    2.714    0.631
         3 -14.5320     79.1415     70.5903   8.9627287145e+01   5.2944343340e+01     2.920922     1.547987 -24.45    0.0109177    2.972    0.664
         4 -14.4459     70.3000     56.2912   8.7962901928e+01   5.7233417340e+01     2.156951      1.72061 -79.23   0.01146386    1.902    0.474
         5 -14.7907      7.6328     22.0171   1.0251479962e+02   7.0446426203e+01     1.874775     0.664372 -45.00  0.009082017    1.996    0.499
         6 -14.6202     96.4987     71.6385   8.4307868059e+01   4.9681527157e+01     1.621697     1.225685  11.14  0.002314555    1.610    0.379
         7 -13.0803     83.6530     22.6705   6.9892628943e+01   6.0454780809e+01    0.5821986    0.4764043  37.53 0.0004792385    1.209    0.173
         8 -12.8511    115.6262     12.0402   5.6572778199e+01   5.4805385192e+01     1.506279    0.7710487 -50.11  0.006230328    2.854    0.650
         9 -12.6375    123.6876     10.2808   5.4126104965e+01   5.3068601392e+01    0.7269147    0.3338328  43.88 0.0003956344    2.040    0.510
        10 -12.3557     75.7802     13.5345   6.8390196009e+01   6.3088133177e+01    0.4063218    0.3009294 -21.51 0.0008495493    1.307    0.235
        11 -13.0135     95.6538      3.5898   5.7897267616e+01   6.0104128479e+01    0.8146783    0.4240148  54.36  0.003888329    1.740    0.425
        12 -13.8645     86.1211     12.0582   6.4385571583e+01   6.1249545356e+01     2.271552     0.450378  47.58  0.007440759    3.996    0.750
        13 -13.4985     86.2999      3.4744   6.0405804756e+01   6.2085703426e+01     2.080597    0.4592727  54.56  0.007150476    3.819    0.738
        14 -12.7333    185.9630     11.5502   4.4610967241e+01   3.7179160120e+01    0.6190553    0.4763198  57.43  0.002765594    1.271    0.213
        15 -12.1120    192.8855      6.0403   4.2258197084e+01   3.5975346263e+01    0.4978275    0.3783303 -32.73  0.001917454    1.396    0.284
        16 -11.6523     64.7881     17.8787   7.4373642691e+01   6.4486601608e+01    0.4058255    0.2725357  20.01  0.001488225    1.466    0.318
        17 -10.5978     33.4853     10.3741   8.4199695944e+01   7.0012922731e+01    0.2747076    0.1890352  -9.41  0.001116646    1.268    0.212
        18 -11.3920     32.0915      3.8124   8.1476899262e+01   7.1085656091e+01    0.5134767    0.2277351  24.86  0.002440837    2.485    0.598
        19 -11.6299     30.0228     16.7792   8.8979850390e+01   6.9438677249e+01    0.3939851    0.3001409 -21.26   0.00242822    1.026    0.026
        20 -11.4908     28.3927     10.6335   8.6843612611e+01   7.0556363135e+01    0.3867372    0.2041245 -35.53  0.001155528    1.595    0.373
        21 -11.9063    175.7117     13.3306   4.6446680694e+01   3.9629390260e+01    0.4008687    0.3185704  10.54  0.001800178    1.553    0.356
        22 -11.1593    150.3219      8.7932   4.8718775571e+01   4.6600582983e+01    0.3239398     0.251866  72.76  0.001052566    1.215    0.177
        23  -9.6465    170.0000     10.9296   4.6488834098e+01   4.1347410719e+01    0.2140744   0.08003812 -23.77 0.0007999478    2.925    0.658
        24 -12.0331    137.5673      5.1102   4.9561926857e+01   5.0147675750e+01    0.5777649    0.3529916  61.73  0.001881634    1.449    0.310
        25 -10.7158    142.9538      2.4816   4.7733451948e+01   4.9029695994e+01    0.3432918    0.2272217  85.05  0.001219696    1.645    0.392
        26  -9.4754     49.5080      4.4642   7.3842696063e+01   6.8610413410e+01    0.1211827   0.09768805   1.10 0.0008092401    1.039    0.037
        27 -11.7389     73.1870      1.5327   6.3495605803e+01   6.4860241635e+01    0.2456872    0.1400335  47.71 0.0005346954    1.636    0.389
        28 -11.3639    188.3034      5.3758   4.2575019954e+01   3.7203343695e+01    0.2907348    0.2316728  25.98 0.0009500338    1.553    0.356
        29 -12.3075     22.0439     22.3258   9.5352354092e+01   6.9302143300e+01    0.5791353    0.3153899  -4.01  0.002958776    2.273    0.560
        30 -13.3282    217.8276    121.4257   6.9504724123e+01   1.2498048373e+01    0.8011788    0.4336042  52.79  0.003397601    2.010    0.502
        31 -10.0343    124.0038    206.0072   1.0607880847e+02   1.4997879538e+01    0.1817979    0.1588662  54.88            0    1.026    0.025
        32 -13.5458     36.8847     56.8974   1.0094862919e+02   6.1317690768e+01     1.027478    0.7372712 -64.59  0.006045296    1.498    0.332
        33  -9.3492    178.6556    184.6955   9.1148707714e+01   9.0479047977e+00    0.1441781    0.1054752   9.71 0.0004542791    1.688    0.408
        34  -9.5730    246.4496    183.5209   7.8073664967e+01  -3.0091612893e+00    0.1302247    0.1076543   0.22 0.0002606687    1.009    0.009
        35 -10.9390    135.3203     92.6525   7.9690481949e+01   3.7229669965e+01    0.3172113    0.2451258  73.60  0.001057844    1.609    0.379
        36 -12.0271    141.7934     96.3644   7.9105023982e+01   3.4985445311e+01    0.5145931    0.3639695 -28.32   0.00158245    1.571    0.363
        37 -10.1588    133.1979     99.3890   8.2166607920e+01   3.6275346515e+01    0.2888877    0.2557801  42.89  0.001192517    1.156    0.135
        38 -11.1709    136.9541     97.7626   8.0734066691e+01   3.5787353625e+01    0.2951803     0.218561  35.17  0.000968292    1.461    0.315
        39 -11.0649    114.2645     97.1865   8.6697927137e+01   4.0758921908e+01    0.3436703    0.2650642 -47.56  0.000999385    1.249    0.199
        40 -14.4311     60.6522     71.1688   9.6233847948e+01   5.5548215817e+01     1.328238     1.085847   5.17  0.002227419    1.374    0.272
        41 -11.3943    188.7559     94.4161   6.8039034692e+01   2.4139097647e+01    0.4598443    0.3606243 -73.64  0.001943583    1.555    0.357
        42 -11.9498     81.0119     95.2279   9.6087813749e+01   4.7202182413e+01    0.6137854    0.2969736  22.41  0.002171914    3.459    0.711
        43 -10.5841     33.7915    177.5026   1.2197088810e+02   3.3793375323e+01    0.2352751    0.1844346  28.02  0.001550419    1.683    0.406
        44  -9.0482    152.6724     88.3250   7.4116478109e+01   3.4071455440e+01    0.1635472     0.125671 -77.83 0.0005686118    1.697    0.411
        45 -13.2447      5.8031     82.5712   1.1823090384e+02   5.7944155555e+01     1.085314      0.39708 -55.72  0.005408048    1.972    0.493
        46 -11.6809      3.2800     74.1657   1.1771155242e+02   5.9960279355e+01    0.4979957    0.2341903 -60.38   0.00278581    1.531    0.347
        47 -12.2288      2.4128     66.9031   1.1673684615e+02   6.1606617000e+01    0.4788456    0.2887002 -74.29  0.002840394    1.455    0.313
        48 -10.2066    248.9464     85.9787   5.5991219488e+01   1.1713676148e+01    0.3136482    0.2119127  74.11  0.001569032    1.854    0.461
        49 -12.2794    128.2381     81.8199   7.8318891102e+01   4.1045575656e+01    0.4173624     0.365868 -37.85  0.001606328    1.117    0.105
        50 -12.6676    121.4804     81.0262   7.9914677665e+01   4.2693321487e+01    0.5433083    0.4591561  30.66  0.001202364    1.246    0.197
        51 -12.2323    113.6737     80.7297   8.2026787222e+01   4.4410292664e+01     0.701605    0.5184551 -13.52  0.003211948    1.703    0.413
        52 -13.5489    122.2432     72.5936   7.7037963669e+01   4.4205360589e+01      1.20865    0.4371624  46.93  0.004010271    2.798    0.643
        53 -11.5638    118.5784     63.4888   7.5039234981e+01   4.6735035713e+01    0.3014105    0.2325731 -26.14 0.0006547797    1.320    0.243
        54  -9.8807    148.2473     80.8786   7.2950289659e+01   3.6584327306e+01    0.2312976     0.211746 -73.29 0.0007891515    1.181    0.153
        55 -12.4750    143.9707     75.7342   7.2403651901e+01   3.8590186406e+01    0.5438096    0.3988605 -32.63  0.001772497    1.383    0.277
        56 -11.9846      8.3726     65.5157   1.1425062222e+02   6.1608924914e+01    0.3875447    0.2360894 -53.80  0.001628537    1.243    0.196
        57 -12.7062    116.9907     68.4597   7.7149656651e+01   4.6150554726e+01    0.5147753    0.4122337   8.28  0.001915537    1.459    0.314
        58 -11.2252    152.4248     72.1879   6.9297215842e+01   3.7196569923e+01    0.5105606    0.3082767 -53.18  0.002065322    1.924    0.480
        59  -9.4245    182.9423     72.0008   6.2860929302e+01   2.9585649753e+01    0.1831364    0.1715918  65.78 0.0004764503    1.076    0.071
        60 -10.4644    146.2178     66.6767   6.9003287171e+01   3.9707184483e+01     0.269612    0.2310371 -28.08 0.0006557563    1.185    0.156
        61 -10.6760    214.4141     60.9003   5.4514284969e+01   2.3527459353e+01    0.3534233    0.2548527 -18.15  0.001259629    1.615    0.381
        62 -10.1846    170.0201     63.0448   6.2706201748e+01   3.4372588937e+01    0.2320535    0.2210018  56.12 0.0003695739    1.049    0.047
        63  -9.7733    132.7725     61.5551   7.0612822151e+01   4.3840585660e+01     0.203934    0.1492438  64.40 0.0002689503    1.545    0.353
        64 -12.0390    124.7449     57.3308   7.1256999273e+01   4.6444218584e+01    0.4067499    0.3147544  41.24 0.0006793265    1.287    0.223
        65  -9.7932    227.2177     56.9909   5.1727141358e+01   2.1035922132e+01    0.1982769    0.1737408 -51.59 0.0004147193    1.041    0.040
        66 -11.2499    174.6546     56.4556   5.9808347262e+01   3.4252130282e+01    0.2602525    0.2521451 -75.93 0.0004707871    1.017    0.017
        67 -12.1185    133.7445     53.9789   6.7803863513e+01   4.4899255830e+01    0.5381483    0.3351711  61.87  0.001128156    1.778    0.438
        68 -11.3888    153.7838     52.9233   6.2856104223e+01   4.0132328947e+01    0.5321993    0.2820102  36.74  0.001798216    2.337    0.572
        69 -13.2827      3.3272     46.7590   1.1208012651e+02   6.5860967691e+01    0.7860712    0.6246029  72.01  0.003658253    1.744    0.427
        70 -10.2472    100.9906    176.0063   1.0674722131e+02   2.5038326699e+01    0.1913809    0.1704265  74.29            0    1.001    0.001
        71 -11.3951    145.4384     50.5046   6.3877455117e+01   4.2602516495e+01    0.3481049    0.2928577 -31.51 0.0007709585    1.210    0.173
        72 -11.5804     99.1731     50.2987   7.6062799712e+01   5.3185121450e+01    0.5190586    0.2613268  31.73  0.002046243    2.460    0.593
        73 -10.7480    137.7542     48.6059   6.4992858155e+01   4.4791085044e+01    0.3811775    0.2865548  88.58   0.00177183    1.766    0.434
        74 -13.2365     42.3327     47.8566   9.5840259705e+01   6.2582967193e+01    0.6290256     0.431057  21.27  0.001175443    1.625    0.385
        75 -10.4646    176.0609     45.2426   5.6138750589e+01   3.5578156402e+01    0.3849971    0.3090073 -22.10  0.001956978    1.350    0.259
        76 -11.4317    157.4861     43.5082   5.9025610631e+01   4.0611685597e+01    0.3726972    0.2649583  48.90  0.000899167    1.372    0.271
        77 -11.1672    122.3099     43.9150   6.7136884106e+01   4.9192340210e+01    0.2898512    0.2641536  -3.63 0.0008355676    1.088    0.081
        78 -10.5768    181.8118     43.4544   5.4628296027e+01   3.4346723626e+01    0.2699721     0.261788 -81.01 0.0003978642    1.023    0.023
        79 -10.4518    139.8475     43.6223   6.2790041260e+01   4.5033183597e+01    0.4260811    0.2366903  66.77  0.001728111    2.096    0.523
        80 -10.0033    204.1474     43.5962   5.1287119560e+01   2.8615151467e+01    0.2088087     0.124869  53.23 0.0009421431    1.718    0.418
        81 -12.2102    216.3965     39.0424   4.8449875139e+01   2.6189068115e+01    0.6334303    0.3065811  56.61  0.002732629    2.082    0.520
        82 -10.4104    196.9882     41.0093   5.1580001978e+01   3.0787822947e+01    0.2242965    0.2067958 -82.46 0.0007259624    1.027    0.026
        83 -10.5290    203.8313     37.6580   4.9693082175e+01   2.9505750875e+01     0.441469    0.2273707  48.39    0.0018535    2.147    0.534
        84 -11.4509    202.9597    172.3397   8.3810810104e+01   6.5487690571e+00    0.4228991    0.2121065 -36.06  0.001834539    2.058    0.514
        85 -11.0275     24.7343     33.0033   9.8244234364e+01   6.7153371125e+01     0.486132    0.2162053 -30.67  0.002354218    2.305    0.566
        86 -10.1798    159.9506     36.3244   5.6211327296e+01   4.0977975755e+01    0.2039418    0.1741199  58.43 0.0003266591    1.118    0.105
        87 -11.9462     82.7764     33.4205   7.4765255908e+01   5.9097306493e+01    0.4805996    0.3097964  22.22  0.001402211    1.715    0.417
        88 -12.4229     79.5186     30.9786   7.4858430818e+01   6.0063951559e+01    0.5264764    0.4233918   1.33  0.001424557    1.172    0.147
        89  -9.7862    240.5025     34.4834   4.4610127543e+01   2.1058822962e+01    0.1343398    0.1180515 -62.19 0.0001388397    1.024    0.023
        90 -10.9184    176.5696     33.5166   5.2469905264e+01   3.7048715091e+01    0.2711745    0.2495365  62.11 0.0006160454    1.065    0.061
        91  -9.8056     97.0102     34.0014   7.0433207288e+01   5.6221741811e+01     0.223124    0.1567786  14.30 0.0006617124    1.596    0.373
        92 -10.1667    151.8845     31.7758   5.6223328116e+01   4.3640444651e+01    0.2842831    0.2406398 -71.24  0.001512132    1.314    0.239
        93 -13.6177     42.5611     42.2906   9.3776920738e+01   6.3629365916e+01     1.062848    0.5425056  11.91  0.003604839    2.827    0.646
        94 -10.1209    185.5939    167.2180   8.6264459247e+01   1.0882633372e+01    0.1987763    0.1361359 -28.57 0.0005764717    1.604    0.377
        95 -11.8862    215.8742    161.6302   7.9071630401e+01   5.8760294792e+00    0.4780196     0.283478  -2.46  0.001870273    2.838    0.648
        96 -11.0844    239.8401    156.6949   7.3677718642e+01   2.1525629792e+00    0.5414888    0.1744178 -39.69  0.001970674    3.003    0.667
        97 -11.4358    199.1918    155.1000   8.0901318801e+01   1.0354415873e+01     0.463854    0.2504892 -55.14   0.00179282    2.657    0.624
        98 -12.1181    233.0207    154.2855   7.4346098342e+01   3.8057215490e+00    0.4661222    0.3334092  31.39  0.002291828    1.419    0.295
        99 -11.0375    190.5021    153.8229   8.2386868220e+01   1.2384231361e+01    0.4032845    0.2945207 -73.31  0.001806682    2.117    0.528
       100 -10.5579     29.8241    153.5698   1.2057261622e+02   3.9602798365e+01    0.2148413    0.1261741 -80.97  0.001206787    1.429    0.300
       101 -11.6193    240.8196     22.5518   4.1744896510e+01   2.2484752889e+01    0.6593935    0.2906948  84.47   0.00246929    2.701    0.630
       102 -10.6402    153.6730     21.3055   5.2374542918e+01   4.4445260325e+01    0.2176899    0.1782003  58.75 0.0006263388    1.131    0.116
       103 -11.2708    149.5437     21.1502   5.3053986845e+01   4.5516741700e+01    0.5836197    0.2538491  49.14  0.001599756    2.149    0.535
       104  -9.9580    139.3354     21.0885   5.4956999087e+01   4.8098574348e+01    0.2513725    0.1748171  50.16 0.0006765751    1.323    0.244
       105 -10.5058    208.7525     18.8949   4.4016427052e+01   3.0604007994e+01    0.3171451    0.2142205 -51.75  0.001516212    1.415    0.293
       106  -9.9997    186.8126     18.7351   4.6583996815e+01   3.6184558989e+01    0.2471447    0.2011864 -40.30  0.001374256    1.258    0.205
       107 -11.7242     19.1377    153.6940   1.2307907748e+02   4.0560597912e+01    0.2773592     0.259482  45.77  0.002060754    1.379    0.275
       108 -12.4800    248.2954    144.2142   6.9540490594e+01   2.5613427083e+00     1.179934    0.3792032 -37.10  0.004375111    2.789    0.641
       109 -10.0780    138.9432    152.4899   9.3582686882e+01   2.3323673461e+01    0.2316639    0.1443694  43.23 0.0009384368    1.569    0.363
       110 -11.5315     58.4799    144.5911   1.1237541207e+02   3.8541510403e+01    0.5064201    0.3304822  77.63  0.002602611    1.665    0.399
       111 -12.9313     49.2602    141.9909   1.1437523317e+02   4.0268429844e+01     0.800029    0.5800752  37.09  0.004472368    1.553    0.356
       112 -10.1069     90.6300    145.7906   1.0428320867e+02   3.3657885988e+01    0.1932562    0.1863197  77.19  0.001140039    1.109    0.098
       113 -11.8312    213.7728    142.0568   7.5126776256e+01   9.6944175309e+00    0.8684723    0.3634166  52.11  0.003199212    2.739    0.635
       114  -9.6743    143.2919     17.9318   5.3083561746e+01   4.7454866083e+01    0.1858677    0.1759279  28.62 0.0002321437    1.076    0.070
       115 -12.2469     76.1862    138.7695   1.0681230103e+02   3.7544089611e+01    0.8319567     0.267188 -64.89   0.00274578    3.381    0.704
       116 -10.0581    155.9952     10.4788   4.8388933364e+01   4.4991160886e+01    0.2162872    0.1281802  69.51 0.0008921042    1.572    0.364
       117 -10.9181    193.2246    138.4039   7.8316561880e+01   1.4729444916e+01    0.2639776     0.200443  47.64  0.001286338    1.343    0.256
       118 -11.5843     33.6660    135.7648   1.1758227359e+02   4.3399976120e+01    0.2684187    0.2043076  49.31  0.001351262    1.416    0.294
       119 -11.8340     82.6521    133.9235   1.0419977182e+02   3.7743383216e+01    0.2998223    0.2656395  15.62  0.001692616    1.392    0.282
       120 -10.8349    223.8128    133.9259   7.1399560781e+01   9.0415717729e+00    0.4136932    0.2066755  47.51  0.001739767    2.101    0.524
       121 -13.0269    204.0597    124.6687   7.2863044902e+01   1.4933652529e+01    0.7643809    0.6482207 -18.82  0.003963576    1.193    0.162
       122 -10.2410     64.6676    129.6830   1.0833827452e+02   4.1331061212e+01     0.308288    0.1663867 -71.67  0.001392954    1.849    0.459
       123 -11.0889    122.3223    127.3741   9.2209872038e+01   3.2291329884e+01    0.4067707    0.3743297  61.94  0.001616953    1.098    0.090
