#   1 NUMBER                 Running object number                                     
#   2 MAG_AUTO               Kron-like elliptical aperture magnitude                    [mag]
#   3 X_IMAGE                Object position along x                                    [pixel]
#   4 Y_IMAGE                Object position along y                                    [pixel]
#   5 X_WORLD                Barycenter position along world x axis                     [deg]
#   6 Y_WORLD                Barycenter position along world y axis                     [deg]
#   7 A_WORLD                Profile RMS along major axis (world units)                 [deg]
#   8 B_WORLD                Profile RMS along minor axis (world units)                 [deg]
#   9 THETA_WORLD            Position angle (CCW/world-x)                               [deg]
#  10 FWHM_WORLD             FWHM assuming a gaussian core                              [deg]
#  11 ELONGATION             A_IMAGE/B_IMAGE                                           
#  12 ELLIPTICITY            1 - B_IMAGE/A_IMAGE                                       
         1  -7.7195     83.4115     11.2275   6.5672088015e+01   6.2729329891e+01    0.1850712    0.1171576 -34.07 0.0005961716    1.610    0.379
         2  -8.6582     55.6048     10.0417   7.5254781982e+01   6.8121859931e+01    0.1974373    0.1867735  60.14 0.0007105963    1.500    0.333
         3  -8.4390     90.8418      9.1003   6.2369824803e+01   6.1377853488e+01    0.2001586    0.1800737 -39.09 0.0006098807    1.282    0.220
         4  -7.5380    178.2994      8.7215   4.5918861058e+01   3.9296328074e+01    0.1462088    0.1002069 -61.70 0.0002422797    1.540    0.351
         5  -8.7789    137.0987      7.3592   5.1291011432e+01   5.0327995221e+01    0.2282428     0.188886   5.16 0.0001927903    1.274    0.215
         6  -7.7812    101.4145      8.1839   5.9084709070e+01   5.9084544701e+01    0.1846521    0.1208317 -33.95 0.0004329427    1.598    0.374
         7  -8.4695     33.3418      5.2111   8.3044884513e+01   7.2115228806e+01    0.2744729     0.192888 -61.38  0.001438363    2.833    0.647
         8  -8.5174     79.1097      4.1641   6.3345024222e+01   6.4410853497e+01    0.3158057     0.142959 -35.34  0.001060915    2.305    0.566
         9  -8.4243     62.3617      1.6262   6.7711000914e+01   6.7974304630e+01    0.1911396    0.1559625  56.83 0.0006180806    1.546    0.353
        10  -7.5569     15.5324      2.5461   9.1753419475e+01   7.4539856710e+01    0.1163399   0.09031221 -26.46  0.000112303    1.062    0.058
        11  -8.8642    213.9533    241.8125   9.6032217006e+01  -2.8553612988e+00    0.1780416    0.1427925   6.38 0.0007267065    1.201    0.167
        12  -8.5505    249.0078    249.0252   9.1499243954e+01  -8.3317562146e+00    0.2882859    0.1444968  -6.52  0.001730032    2.381    0.580
        13  -9.5675    248.6473    242.4788   9.0593478326e+01  -7.6980247732e+00    0.2724122    0.1765191 -31.39  0.001283602    1.955    0.489
        14  -8.5444     93.7381    249.0535   1.1736873310e+02   1.3647087810e+01    0.2331269    0.1265562  68.62  0.001215189    2.002    0.501
        15  -8.5983    132.2523    247.9571   1.1067938477e+02   8.4212422858e+00      0.19684    0.1183284  55.65 0.0006388476    1.539    0.350
        16 -10.0644    224.0243    244.0078   9.4704375145e+01  -4.5065353373e+00    0.3604071    0.2085484 -41.90   0.00228217    2.554    0.609
        17  -9.1369    146.9443    245.9298   1.0792870853e+02   6.5467693756e+00    0.2426144     0.180298 -84.49  0.001367777    1.993    0.498
        18  -8.4739    146.2979    240.0226   1.0737791085e+02   7.4447122432e+00    0.2245955    0.1577022  75.93 0.0006915783    2.021    0.505
        19  -9.0430    120.1684    245.6482   1.1253787881e+02   1.0486331050e+01    0.2739215    0.1641277  81.16  0.001585947    2.551    0.608
        20  -8.2644    191.9838    245.6352   1.0020145268e+02  -8.6297493460e-02    0.1618423    0.1087845  35.06 0.0004658442    1.130    0.115
        21  -8.2285     67.4803    245.0941   1.2150594451e+02   1.7645743480e+01    0.1372028   0.09284934 -84.70 0.0007108196    1.545    0.353
        22  -8.2814     50.2436    244.4697   1.2432918133e+02   1.9812361593e+01      0.20489   0.06978164 -89.41 0.0009010757    4.507    0.778
        23  -8.6203    201.9843    242.5465   9.8115882167e+01  -1.2024089610e+00    0.2572497    0.1517799 -31.46  0.001239579    2.059    0.514
        24  -8.5539    169.1627    242.9434   1.0374138641e+02   3.6230625817e+00    0.1930693    0.1682606 -39.24 0.0008335789    1.490    0.329
        25  -9.2273     77.7710    243.1936   1.1963397170e+02   1.6646598410e+01    0.2584098    0.1207094  68.38  0.001428438    2.403    0.584
        26  -8.4380      9.4985    243.4579   1.3077861756e+02   2.4292078590e+01    0.1746234   0.06275021  80.71  0.001025499    2.513    0.602
        27  -9.3905    160.1940    240.4248   1.0498969335e+02   5.2967084466e+00    0.2967726    0.2138506  89.14  0.001459424    2.414    0.586
        28  -8.9554    194.0632    239.6960   9.9060096405e+01   2.8934010322e-01     0.266873    0.1580363 -46.58  0.001522069    2.388    0.581
        29  -8.7326    195.0753    233.7044   9.8060519507e+01   8.4374819248e-01    0.3015783    0.2366711 -65.83  0.001991342    2.238    0.553
        30  -9.2800    183.1063    239.5764   1.0091343182e+02   1.9440473973e+00    0.3186239    0.2807769 -63.42  0.001859137    1.674    0.403
        31  -7.8994    153.5132    242.0353   1.0634627623e+02   6.0888136801e+00    0.1369683   0.09506773  86.52 0.0008095536    2.501    0.600
        32  -8.3102     88.2744    242.0675   1.1774517145e+02   1.5446739192e+01    0.1466985     0.114189  75.86 0.0006536187    1.229    0.186
        33  -8.9443    240.6108    240.1750   9.1503702358e+01  -6.4114852183e+00    0.2570362   0.09432176 -26.10  0.001335061    3.147    0.682
        34  -8.6203    135.5089    238.9552   1.0916237702e+02   9.2088173796e+00    0.2182047    0.1235277  52.78 0.0009929107    1.580    0.367
        35  -8.3516    129.4260    238.7661   1.1021911542e+02   1.0138604076e+01    0.1741068    0.1113797 -67.47  0.001109469    2.075    0.518
        36  -9.0810    230.6540    236.8338   9.2591943707e+01  -4.7101340389e+00    0.2157044    0.2047822  84.57  0.001495356    1.979    0.495
        37  -9.9910    214.9503    233.3887   9.4654521566e+01  -2.0891157302e+00    0.4345051    0.3390931 -88.83  0.002456462    3.491    0.714
        38  -8.2734     25.7502    237.1650   1.2796555596e+02   2.3707203707e+01    0.1849237   0.05737974  63.20 0.0009463482    2.785    0.641
        39  -9.2315    203.5418    234.1179   9.6676388499e+01  -4.7953534742e-01    0.4043535    0.2226828 -28.70  0.002126082    2.181    0.542
        40  -9.7256    175.7343    233.3654   1.0137173645e+02   3.8448055527e+00     0.368063    0.2114064 -56.52  0.002066235    2.780    0.640
        41  -7.9877    170.2202    236.1042   1.0269716017e+02   4.3369526894e+00    0.1465274    0.1203862  56.47 0.0005794552    1.372    0.271
        42  -9.3794    108.7254    234.4698   1.1347329755e+02   1.3806419156e+01    0.3159754    0.1820454  63.05   0.00103247    1.774    0.436
        43  -8.0788     57.9584    237.0000   1.2258931090e+02   2.0121435246e+01    0.1718172   0.04832413  38.51 0.0008041987    2.955    0.662
        44  -9.0901    247.9425    234.7982   8.9540527060e+01  -6.8875675845e+00    0.1965953    0.1330862  -5.17  0.000839802    1.352    0.261
        45  -9.6349    246.5360    228.7724   8.8822879331e+01  -6.1107246871e+00     0.393191    0.1878491 -23.95  0.001911679    2.191    0.544
        46  -8.3232     99.7945    234.6334   1.1508591390e+02   1.5045886012e+01    0.2103433    0.1193078  73.45  0.001207492    2.143    0.533
        47  -8.9930     78.7635    234.4840   1.1880321119e+02   1.7921605417e+01     0.232818    0.1312485  86.06  0.001325282    2.023    0.506
        48  -9.0637      8.2489    235.0052   1.3068720589e+02   2.5807033182e+01    0.1423886   0.09211314  71.80 0.0007159456    1.089    0.082
        49  -8.1624    122.9560    234.0712   1.1087747731e+02   1.1794249520e+01    0.1805465    0.1138197  64.37 0.0006742103    1.708    0.415
        50  -9.1874     68.4185    232.5921   1.2047877939e+02   1.9566651630e+01    0.3807484    0.1407325  61.39  0.001811392    2.919    0.657
        51  -9.3668    186.5636    230.8455   9.9132796189e+01   2.4954562018e+00    0.3123638    0.2348044 -78.49   0.00130879    2.657    0.624
        52  -8.4881    158.2497    232.4204   1.0434691320e+02   6.6726185898e+00    0.1723866    0.1371592  83.01 0.0006137692    1.769    0.435
        53  -7.9781    145.0291    233.2375   1.0681468105e+02   8.5916626385e+00    0.2443878    0.1149366  56.74  0.001167138    2.652    0.623
        54  -8.5242    140.0098    230.1875   1.0736048729e+02   9.8050186305e+00    0.2157859    0.1305792  54.20 0.0008538069    1.557    0.358
        55  -7.9893     37.6910    233.3621   1.2580941174e+02   2.3070787052e+01     0.115338   0.05329636  64.29 0.0007040059    1.744    0.426
        56  -9.1094    236.2022    231.0899   9.0829066272e+01  -4.9053237876e+00    0.1977108     0.162288 -16.55  0.000732813    1.421    0.296
        57  -8.2972     92.2575    231.7754   1.1617838042e+02   1.6553499873e+01    0.2435111    0.1232158  63.55    0.0012025    2.055    0.513
        58  -8.8840      1.7580    230.9523   1.3158125843e+02   2.7094549102e+01    0.1887724   0.08756558  71.05 0.0009036096    1.573    0.364
        59  -9.0091    230.0815    229.2647   9.1538527791e+01  -3.8446815438e+00    0.1685525    0.1511509 -63.44  0.001210484    2.106    0.525
        60  -9.9738    149.7986    226.3392   1.0510818018e+02   8.8532856620e+00    0.5145741     0.319076 -89.78  0.002400319    3.760    0.734
        61  -8.8285    162.0624    227.8154   1.0307160213e+02   6.7178659732e+00    0.2222942    0.1761549  66.17  0.001050077    1.541    0.351
        62  -9.0868    127.7895    227.2148   1.0924928963e+02   1.2122810161e+01     0.274128    0.1710167  66.22  0.001131521    1.886    0.470
        63  -8.2862    120.0332    227.7935   1.1073801637e+02   1.3201058456e+01    0.1989927    0.1052114  59.60  0.001063707    2.031    0.508
        64  -8.4709    206.0526    226.4086   9.5120614782e+01   4.2726297965e-02    0.1778342    0.1620448 -46.30 0.0007243638    1.592    0.372
        65  -8.4300     49.6530    227.2864   1.2340808183e+02   2.2757560693e+01     0.190156   0.08850691  63.44  0.001122006    1.838    0.456
        66  -9.2525    216.3430    224.2865   9.3049297414e+01  -1.2711759502e+00    0.2830918    0.2065509 -26.95  0.001301646    1.553    0.356
        67  -8.4182    200.0836    225.8001   9.6057062041e+01   1.0323734767e+00    0.2464406    0.1496713 -26.34  0.001207654    1.946    0.486
        68  -8.7670    180.6651    224.5424   9.9286544948e+01   4.2297157977e+00    0.2412399     0.170385  57.56  0.001094033    1.736    0.424
        69  -8.7234     94.1194    224.2570   1.1515392850e+02   1.7544575429e+01    0.3101985    0.1532104  65.69  0.001575309    2.375    0.579
        70  -8.1029     38.4458    224.9305   1.2522067316e+02   2.4445710189e+01    0.1499737   0.06290464  72.89 0.0008051557    2.360    0.576
        71  -9.4623    225.4387    222.0333   9.1173744538e+01  -2.3784893589e+00    0.2505704    0.1990416   4.62   0.00120273    1.141    0.124
        72  -9.0290    173.0114    223.2188   1.0047321520e+02   5.6227921686e+00    0.2317232    0.1802093  82.71 0.0008823379    2.062    0.515
        73  -7.8461    113.9428    223.9632   1.1145057684e+02   1.4723970096e+01    0.1843214    0.1162136  64.49 0.0006455841    1.635    0.388
        74  -8.8918    104.6602    223.4198   1.1311931679e+02   1.6178735266e+01    0.3001871    0.1860414  82.35  0.001603602    2.027    0.507
        75  -8.3178     59.7988    224.0036   1.2139054752e+02   2.2115318295e+01    0.1880978   0.09155308  69.80 0.0008088068    2.035    0.509
        76  -9.4023    239.3134    221.9654   8.8889892190e+01  -4.3997796881e+00    0.2264664    0.2207915  72.14   0.00110386    1.835    0.455
        77  -9.4321    192.4586    221.3505   9.6728457403e+01   2.7814984633e+00    0.2962527    0.2410338 -75.74  0.001105631    2.131    0.531
        78  -8.6888    140.0786    222.9648   1.0647673565e+02   1.0882483572e+01    0.1813907    0.1265486  65.57 0.0009759457    1.639    0.390
        79  -9.0206    160.0745    221.2344   1.0255729059e+02   7.9699918617e+00    0.4229101    0.1831624  53.92  0.001841758    2.918    0.657
        80  -8.2297     27.4774    221.5265   1.2693796957e+02   2.6229094018e+01    0.1667484   0.07810897 -67.75  0.001030596    2.269    0.559
        81  -7.9266      9.3206    222.3132   1.3005124666e+02   2.7891030221e+01   0.08437631   0.07271594 -72.06 0.0003467655    1.653    0.395
        82  -9.2147    120.2653    219.2192   1.0974037353e+02   1.4548189367e+01    0.3637885     0.193637  66.70   0.00175862    2.643    0.622
        83  -8.9749     82.8545    220.7585   1.1691918897e+02   1.9702186395e+01    0.2757289    0.1219787  60.79  0.001250986    2.345    0.574
        84  -8.2934     72.9271    220.7671   1.1875573092e+02   2.1022474699e+01    0.2200048    0.1132984  72.72 0.0008548755    2.122    0.529
        85  -8.2387      5.7508    220.7435   1.3058570149e+02   2.8500775006e+01    0.1591022   0.05784943  81.82 0.0008841956    2.419    0.587
        86  -8.3335    210.2794    219.3906   9.3321356003e+01   2.3306701638e-01    0.1607872    0.1437972 -55.29 0.0005568871    1.717    0.418
        87  -8.2067    202.6849    220.1589   9.4754586678e+01   1.3223977422e+00    0.1539845    0.1470637 -28.26 0.0007761683    1.410    0.291
        88  -9.1062    248.8963    218.4128   8.6778291835e+01  -5.3915984948e+00    0.2704568    0.1958152  56.62  0.001648441    2.564    0.610
        89  -9.2875    132.8141    215.9565   1.0697125658e+02   1.3130791371e+01     0.414295    0.2497842  77.09  0.002024957    2.804    0.643
        90  -8.5099     62.2509    217.4755   1.2046301626e+02   2.2973520323e+01    0.2641789    0.1197851  61.96  0.001426742    2.052    0.513
        91  -8.7727     51.6045    217.7164   1.2243110842e+02   2.4226178218e+01    0.2248664    0.1178894  67.24 0.0008716285    1.669    0.401
        92  -8.7283    169.4485    216.3747   1.0015303164e+02   7.1592089704e+00    0.2336031    0.1785209  76.65 0.0009709677    1.962    0.490
        93  -8.8152    142.7836    216.3690   1.0513410435e+02   1.1478363843e+01    0.2387942    0.1609776 -76.61  0.001156218    2.203    0.546
        94  -8.1216    111.7842    216.9882   1.1109637507e+02   1.6206559418e+01    0.1926601    0.1192784  73.97  0.001069405    1.988    0.497
        95  -8.1340     18.4935    216.0358   1.2822737646e+02   2.8130709161e+01     0.152416   0.08264385 -87.69  0.000783628    1.584    0.369
        96  -8.4880    232.4380    215.0075   8.8877837893e+01  -2.6340671786e+00     0.201598    0.1467986  43.59 0.0007799613    1.572    0.364
        97  -8.0643    196.0194    214.9845   9.5127899276e+01   3.0402222864e+00    0.1965303    0.1247542  17.33 0.0008803579    1.704    0.413
        98  -8.4822    185.3876    214.2848   9.6928984958e+01   4.8550182742e+00    0.1772395    0.1531029 -49.40  0.000643151    1.509    0.337
        99  -8.0560    154.4057    215.1803   1.0278504332e+02   9.7859598793e+00    0.1482873    0.1165741 -72.80 0.0004836382    1.713    0.416
       100  -7.4523     41.3547    215.6815   1.2415648266e+02   2.5781171634e+01    0.1217694   0.05801221  63.04 0.0007046216    1.749    0.428
       101  -9.5687    213.9933    212.1586   9.1525794601e+01   5.3551844439e-01    0.3001996    0.2827794  56.13  0.001537612    1.529    0.346
       102  -8.8230     92.9188    213.9527   1.1437805274e+02   1.9500520012e+01     0.248895    0.1443392  66.27  0.001069797    1.762    0.433
       103  -9.4023     73.4490    212.1016   1.1792352363e+02   2.2511885025e+01    0.6446478    0.2011113  57.52  0.002459543    3.948    0.747
       104  -8.2478    224.8926    212.8836   8.9785874018e+01  -1.2470757646e+00    0.1580962    0.1458589  63.16  0.001112977    1.720    0.419
       105  -8.8238    161.5309    212.6145   1.0108641631e+02   9.0095910303e+00    0.2190745    0.1865904  66.89 0.0007422597    1.372    0.271
       106  -8.0909    106.1870    212.8574   1.1171188389e+02   1.7756280917e+01    0.1855744     0.134453  66.46 0.0006899848    1.300    0.231
       107  -8.9564    204.3225    211.0780   9.3038060124e+01   2.2122253388e+00    0.2289868    0.2103289 -61.63 0.0007575566    1.615    0.381
       108  -9.5828    175.6727    210.3339   9.8109485104e+01   7.0092244455e+00    0.3510241    0.2460821  72.65  0.001545968    2.427    0.588
       109  -8.7487      8.5111    212.0319   1.2978150711e+02   2.9816152378e+01    0.2702593   0.06164364  61.87  0.001149017    3.877    0.742
       110  -8.2072      5.5359    207.2690   1.3010585981e+02   3.0967153280e+01    0.1906768   0.07781289  89.00  0.001120675    2.055    0.513
       111  -8.2597    192.3071    210.4562   9.5083146435e+01   4.2468470246e+00    0.1810088    0.1489234 -64.10 0.0007689993    1.847    0.459
       112  -8.8183    147.9163    210.5251   1.0337425681e+02   1.1571271343e+01    0.2508493    0.1802859  68.74 0.0009219533    1.721    0.419
       113  -8.9259    116.3399    210.4669   1.0947069310e+02   1.6628933426e+01    0.2994323    0.1842293  67.66  0.001295926    1.881    0.468
       114  -8.2597     32.4585    210.1881   1.2543846582e+02   2.7773266615e+01    0.2765741    0.1053971  81.24  0.001330547    2.944    0.660
       115  -9.1824    236.4867    208.8626   8.7180130395e+01  -2.5458480816e+00    0.2857584    0.2540978  -3.52  0.001310059    1.314    0.239
       116  -8.7597     85.6080    209.2516   1.1532010688e+02   2.1381203590e+01    0.2785512    0.1525735  82.41  0.001034079    2.311    0.567
       117  -8.2593     46.7904    209.9465   1.2278197329e+02   2.6221906011e+01    0.2852002   0.08838673  55.74  0.001300677    2.860    0.650
       118  -9.5032    246.3845    207.4923   8.5335643108e+01  -3.8654338059e+00     0.243262    0.1810307 -19.15 0.0006904053    1.357    0.263
       119  -8.1823    126.6222    208.5579   1.0723183773e+02   1.5343215455e+01    0.1950199    0.1406912  84.72 0.0007283625    1.734    0.423
       120  -8.1897    156.6508    208.1351   1.0136566248e+02   1.0505655626e+01    0.1750579    0.1494707  82.89 0.0008567693    1.467    0.318
       121  -8.5509    139.1875    208.1119   1.0472699079e+02   1.3391174447e+01    0.2287568    0.1386818  61.26 0.0008668183    1.920    0.479
       122  -9.3368     99.2368    205.8978   1.1229897361e+02   2.0033215183e+01    0.3525003    0.2082229  81.21  0.001415376    2.186    0.543
       123  -8.5224     56.4267    205.2596   1.2061062976e+02   2.5959606720e+01    0.2696588     0.131337  73.60 0.0009100994    2.170    0.539
       124  -9.1349    183.8740    204.1888   9.5628416362e+01   6.5277862805e+00    0.2883909    0.2004876  62.87 0.0009969652    2.039    0.510
       125  -8.7978    131.2932    204.1094   1.0573372033e+02   1.5353206456e+01    0.3010115    0.1913532  80.39  0.001152902    2.441    0.590
       126  -8.0102    109.1882    205.2466   1.1025494193e+02   1.8651405318e+01    0.1727115     0.122365  66.88 0.0006106326    1.386    0.278
       127  -8.0730     92.1755    205.1678   1.1361533390e+02   2.1200184724e+01    0.1758494    0.1195677  69.66  0.001067398    1.408    0.290
       128  -8.5204     24.7658    204.9851   1.2654959786e+02   2.9556158127e+01    0.1363783   0.07425594 -84.04  0.000381804    1.607    0.378
       129  -9.4493    195.1590    203.2133   9.3395271307e+01   4.7700385356e+00    0.3391147    0.2520719 -20.29  0.001302378    1.480    0.324
       130  -9.3205    192.3850    197.2819   9.2910837552e+01   6.0800462775e+00     0.284421    0.2090652 -41.91  0.001019269    1.604    0.376
       131  -9.7218    163.7874    202.9480   9.9226498194e+01   1.0118476150e+01    0.3533531    0.2523126  62.12  0.001164141    1.693    0.409
       132  -9.4367    250.0820    202.0873   8.3799942081e+01  -3.8119014882e+00     0.305715    0.1559121 -26.30  0.001314197    1.920    0.479
       133  -8.5226    210.9514    202.2661   9.0406233736e+01   2.2811636529e+00    0.1911184    0.1756919 -64.20 0.0006414436    1.646    0.392
       134  -7.7472     66.6786    203.3628   1.1846239841e+02   2.5032754053e+01    0.1293803    0.0699634  67.09 0.0007041252    1.779    0.438
       135  -8.0116     17.2994    203.6460   1.2784362931e+02   3.0551232029e+01    0.1181755   0.05537984  66.03 0.0007036721    1.699    0.411
       136  -9.2035    243.0591    200.7702   8.4698368382e+01  -2.6123172298e+00    0.2753718    0.1558891 -30.69  0.001036944    1.830    0.454
       137  -7.8763    227.4920    202.4800   8.7584098930e+01  -4.0627990997e-01    0.1231359   0.09709435  14.87 0.0008102306    1.018    0.018
       138  -8.7933    140.5150    201.1125   1.0349564028e+02   1.4345617388e+01    0.3277733    0.2143774  78.69  0.001269454    2.404    0.584
       139  -8.5605     80.1363    201.4625   1.1562345534e+02   2.3597689903e+01    0.2668593    0.1415552  68.44  0.001379527    2.062    0.515
       140  -8.5411     48.4096    202.1503   1.2191504909e+02   2.7516003864e+01    0.2286916    0.1003388  63.87  0.001179591    2.172    0.540
       141  -9.5224    236.4482    198.0179   8.5295764139e+01  -1.2719519984e+00    0.3135207    0.2447219 -46.58  0.001523413    1.931    0.482
       142  -9.5510    149.4769    198.4968   1.0134008081e+02   1.3275882412e+01    0.4118865    0.2820107  87.12  0.001433828    2.434    0.589
       143  -9.1126    123.7713    199.1433   1.0656943422e+02   1.7447457346e+01    0.2938286    0.2051571  82.28  0.001114437    1.810    0.448
       144  -9.2831    112.9115    198.5083   1.0868224931e+02   1.9298843966e+01     0.396401    0.2217432  66.32  0.001531399    2.243    0.554
       145  -9.0838     88.6904    198.5632   1.1360185492e+02   2.2945232588e+01    0.3697374    0.2097842  80.54  0.001754892    2.208    0.547
       146  -8.6006    176.9072    198.9504   9.6089873855e+01   8.4919227980e+00    0.1929546    0.1754513 -53.87 0.0004832057    1.361    0.265
       147  -8.7810    132.9659    196.9373   1.0441132528e+02   1.6328981891e+01    0.3653194    0.1649979 -52.59  0.001710043    2.527    0.604
       148  -8.4402    202.6276    198.1631   9.1188912819e+01   4.2154771389e+00    0.2064354    0.1553365  44.21  0.000719259    1.346    0.257
       149  -9.4944     61.5592    196.8906   1.1890364181e+02   2.6941840783e+01     0.424434    0.2095675  71.29   0.00180947    2.195    0.544
       150  -9.0764     12.7406    197.4295   1.2837268741e+02   3.2176976226e+01    0.2717432    0.1005336  78.11  0.001377043    2.562    0.610
       151  -8.8119    215.9404    195.6544   8.8378421579e+01   2.3284100656e+00    0.2317234    0.1733065 -48.01 0.0008792821    1.860    0.462
       152  -9.7921    245.8091    193.4504   8.2934959094e+01  -2.1802548488e+00    0.3083896     0.236741 -25.59   0.00145684    1.402    0.287
       153  -8.4314    223.4148    191.4831   8.6326180631e+01   1.6387537480e+00     0.202281     0.161997  29.76 0.0006293028    1.165    0.141
       154  -8.7960    185.2223    194.8344   9.3832989345e+01   7.6761086811e+00    0.2082667    0.1888686  79.49 0.0006923016    1.474    0.322
       155  -9.0968    160.9899    194.4664   9.8444222817e+01   1.1960673677e+01    0.2965965    0.1992448  63.74 0.0009589166    1.923    0.480
       156  -9.0652     43.8342    193.6637   1.2217120310e+02   2.9710955304e+01      0.37267     0.159638  72.01  0.001790892    2.573    0.611
       157  -8.3844    231.0048    194.2748   8.5535169353e+01   4.7079380339e-02    0.1722557    0.1399793  16.89 0.0007094753    1.053    0.051
       158  -8.8280     77.0933    193.9287   1.1547238081e+02   2.5477824427e+01    0.2266812    0.1588446  69.86 0.0006880754    1.276    0.216
       159  -8.7452    224.6521    194.3345   8.6628772488e+01   1.0673258843e+00    0.2180793    0.1777104 -47.09  0.001313717    1.743    0.426
       160  -7.9903    205.3622    191.7581   8.9572355725e+01   4.6423553195e+00     0.162063    0.1130174 -19.48 0.0003602376    1.534    0.348
       161  -8.1490    198.9829    191.9453   9.0769837038e+01   5.7140496414e+00     0.178546    0.1560556  71.72 0.0006247852    1.624    0.384
       162  -8.2573    179.1065    191.7168   9.4466425913e+01   9.2229965331e+00    0.2021069    0.1784008 -55.09 0.0007018789    1.404    0.288
       163  -8.5090    172.2921    191.7983   9.5796409213e+01   1.0411201415e+01    0.2220345     0.192881  84.83 0.0007512532    1.521    0.342
       164  -9.3132    139.6274    190.7310   1.0214763481e+02   1.6304858507e+01    0.3586729    0.2453483  85.18   0.00105179    2.206    0.547
       165  -8.8566     21.6380    191.8734   1.2639539183e+02   3.2418753728e+01     0.303367   0.08808839  58.16  0.001362438    3.077    0.675
       166 -10.5149     92.3254    188.7593   1.1172948286e+02   2.4322398487e+01    0.9020628    0.2610711  50.11  0.003301037    3.455    0.711
       167  -8.5154      6.4757    190.9672   1.2923176151e+02   3.4004902833e+01    0.1633909   0.05850214  73.45 0.0008099319    2.547    0.607
       168  -8.8680    148.2937    189.3957   1.0017542467e+02   1.5038554782e+01    0.2337596    0.2039274 -86.89 0.0007089952    1.347    0.258
       169  -8.4277    237.2635    188.1608   8.3363092529e+01  -1.9562411460e-01    0.2787295    0.1483585 -26.66  0.001121691    1.859    0.462
       170  -9.4444    156.0329    187.5143   9.8305684727e+01   1.4001562366e+01    0.3067543     0.237858 -68.00 0.0009372492    1.641    0.391
       171  -9.0163    129.3203    188.5911   1.0395053158e+02   1.8450910868e+01    0.2638702    0.1965786  74.20 0.0009493821    1.542    0.351
       172  -9.8380    120.9856    186.9415   1.0545155924e+02   2.0156709933e+01    0.4894502    0.2736955 -77.55  0.002158603    2.823    0.646
       173  -8.7752     34.1840    188.1270   1.2368835268e+02   3.1889161365e+01    0.2982368     0.138457  73.80  0.001003489    2.087    0.521
       174  -8.1300    230.8232    187.7001   8.4360283012e+01   9.0845714487e-01    0.2005798    0.1629117 -57.03 0.0008051599    2.029    0.507
       175  -9.0332    216.5628    187.7127   8.6833797297e+01   3.2895226591e+00     0.222462    0.2063158   9.53 0.0007683615    1.209    0.173
       176  -8.8562    191.2907    187.3725   9.1389640274e+01   7.7362656040e+00    0.2656131    0.2256919 -75.68  0.001178794    1.751    0.429
       177  -9.1629     54.6896    186.9278   1.1941382382e+02   2.9793937115e+01    0.3814468     0.179171  72.80  0.001604675    2.424    0.587
       178  -8.8825    249.3498    186.1002   8.1000856669e+01  -1.8560318065e+00    0.2389191    0.1827769 -24.60 0.0008913748    1.357    0.263
       179  -8.8304    164.8839    186.7067   9.6396439252e+01   1.2560819478e+01     0.225523    0.1927675 -64.64 0.0007660275    1.435    0.303
       180  -9.2418    109.7425    186.2598   1.0772897492e+02   2.2122506878e+01    0.3897175    0.2205252  65.71  0.001542545    2.166    0.538
       181  -9.1586    224.0810    184.5851   8.4935092360e+01   2.4384158398e+00     0.354464    0.1746971 -30.67  0.001352704    2.076    0.518
       182  -8.7791    210.0831    184.0476   8.7312587253e+01   4.9154685052e+00    0.2282415    0.1719459 -29.06  0.000651888    1.390    0.281
       183  -8.8577    202.8632    184.6395   8.8738101623e+01   6.0962324696e+00    0.2237022    0.1707597 -54.41 0.0006679887    1.830    0.454
       184  -8.6185    183.0182    185.0011   9.2543372203e+01   9.5802536561e+00     0.196132    0.1813895  48.35 0.0006295417    1.196    0.164
       185  -9.2054     66.6942    184.4348   1.1666164699e+02   2.8788642641e+01    0.3859844    0.2046157  67.69  0.001121607    1.967    0.492
       186  -9.0137    174.2477    183.4097   9.3970286618e+01   1.1420581091e+01    0.2598509    0.2211286 -67.29  0.000770077    1.519    0.342
       187  -8.2724      1.8257    183.7883   1.2978404407e+02   3.5827501173e+01    0.1592717   0.08802959  63.11  0.001060772    1.396    0.284
       188  -9.1527    241.4371    182.0060   8.1510778893e+01  -9.8276001672e-02     0.313269    0.2404165 -67.08   0.00165676    2.883    0.653
       189  -9.0278     44.3022    182.3731   1.2117708458e+02   3.1957053918e+01     0.328463     0.165199  72.51  0.001117886    1.968    0.492
       190  -9.5194    146.9408    180.4609   9.9001413375e+01   1.6873296045e+01    0.4440537    0.2728519  64.89  0.001537159    2.216    0.549
       191  -8.0110     83.4008    182.3061   1.1285794458e+02   2.6930111092e+01    0.1681752    0.1103375 -84.53 0.0005187546    1.579    0.367
       192  -9.6694     25.5758    178.9624   1.2479547552e+02   3.4658769108e+01     0.593248    0.1984137  74.97  0.002233128    4.239    0.764
       193  -8.2977    235.2322    181.0114   8.2352385973e+01   1.0443289429e+00    0.1803755    0.1459783  -3.36 0.0008244144    1.087    0.080
       194  -8.7597    137.4211    179.3295   1.0081469699e+02   1.8778227463e+01    0.2775186    0.2019349  72.13 0.0009830277    1.666    0.400
       195  -9.5004    191.4414    178.4216   8.9723051305e+01   9.0884904150e+00    0.2601086    0.2362439  68.79 0.0005339949    1.401    0.286
       196  -8.2025    169.2153    178.6931   9.4131352979e+01   1.3128945797e+01     0.204136    0.1568568  56.56 0.0006471575    1.409    0.290
       197  -9.1820     36.0070    177.1099   1.2248716916e+02   3.3973936578e+01     0.448903    0.1680129  79.16  0.001751381    3.775    0.735
       198  -9.6046    248.5148    176.6904   7.9332445739e+01  -5.7495582297e-01    0.3968183    0.2623512 -43.69  0.001979554    2.041    0.510
       199  -8.7246    250.5116    172.9126   7.8271016354e+01  -4.2464842511e-01    0.2182058     0.162951  -5.80 0.0004812041    1.150    0.130
       200  -8.7546    231.1435    176.8027   8.2230772840e+01   2.2841664502e+00    0.2574961    0.1630993 -41.96 0.0007973248    1.912    0.477
       201  -8.5109    217.3914    177.2606   8.4713867704e+01   4.5987953838e+00    0.2087954    0.1534686 -36.37 0.0007169396    1.496    0.331
       202  -8.7053    204.9857    177.5143   8.7009122774e+01   6.7694112398e+00    0.2310907    0.1792856 -47.66 0.0006953366    1.611    0.379
       203  -8.6884    129.2279    177.4466   1.0226010174e+02   2.0575341701e+01    0.2858818    0.1909456  89.01 0.0009680107    2.192    0.544
       204  -8.5874     97.5007    177.7043   1.0920689196e+02   2.5767323776e+01    0.2497634    0.1578055  26.79  0.001186529    2.058    0.514
       205  -9.5347    183.1310    175.7323   9.0825340190e+01   1.1049788808e+01    0.3888474    0.2310489 -36.34 0.0006757122    1.821    0.451
       206  -9.2033     89.2641    176.8037   1.1089891848e+02   2.7207740926e+01    0.2828419    0.1737066  68.24  0.001009093    1.746    0.427
       207 -10.6410     76.0826    171.4285   1.1315487355e+02   3.0252126551e+01    0.9888141    0.3977758 -82.25  0.003253883    4.742    0.789
       208  -8.9071     74.3523    160.3154   1.1213435797e+02   3.2920765175e+01    0.2257962    0.1805595  -7.55  0.001202273    2.045    0.511
       209  -8.7134     79.2562    158.5742   1.1073776178e+02   3.2610720509e+01    0.3051217    0.1304434  34.24  0.001288989    2.583    0.613
       210  -9.5031     81.7211    155.0880   1.0964946431e+02   3.3029903856e+01    0.4393564    0.2490098  68.15   0.00123195    2.131    0.531
       211  -9.9767     57.3493    173.4018   1.1754695891e+02   3.2301336007e+01    0.7798873    0.3230904  77.73  0.002747964    4.379    0.772
       212  -8.7007     13.0154    176.8052   1.2722132324e+02   3.6288389256e+01    0.2529376    0.1011013  64.24  0.001165389    2.216    0.549
       213  -7.9165    211.5014    176.5084   8.5625226387e+01   5.7498279759e+00    0.1315874    0.1146057  14.21  1.51071e-05    1.027    0.026
       214  -9.4159    158.8609    175.1844   9.5613195039e+01   1.5653542742e+01    0.3578441    0.2667521  80.35  0.001401712    1.936    0.483
       215  -9.6626    104.2388    174.5246   1.0727686043e+02   2.5356347693e+01    0.4770618    0.2887431  75.87  0.001700922    2.196    0.545
       216  -8.6401    224.3922    173.8937   8.2824123381e+01   3.8446562670e+00    0.2763931    0.1507859 -33.33   0.00106816    1.846    0.458
       217  -9.7574    175.8200    171.9791   9.1566143752e+01   1.3043668335e+01    0.3828403     0.235384 -35.73  0.001432772    1.778    0.438
       218  -8.2758    142.9949    172.9581   9.8558750953e+01   1.8980500206e+01     0.217262    0.1600906  74.07  0.000661333    1.712    0.416
       219  -8.7394    134.8490    171.7920   1.0011472612e+02   2.0678081611e+01    0.2508515    0.1750203 -89.99  0.001160132    2.040    0.510
       220  -9.5711    121.4361    170.4501   1.0283690740e+02   2.3312476244e+01      0.41237    0.2672812 -81.09  0.001361824    2.094    0.522
       221  -9.1080     45.0329    170.6831   1.1999072346e+02   3.4350921458e+01    0.4058284    0.1820453 -87.85  0.001259151    2.379    0.580
       222  -8.7867    230.5001    170.2333   8.1042973585e+01   3.2862934532e+00    0.2088739    0.1739468 -17.44 0.0007019273    1.170    0.145
       223  -8.5214    205.7462    170.3509   8.5473308997e+01   7.7103808353e+00    0.2230906    0.1573213 -43.71 0.0004833004    1.638    0.389
       224  -8.3083    237.1440    169.6799   7.9809481806e+01   2.2161797808e+00    0.2061796    0.1632869 -31.10 0.0007203811    1.362    0.266
       225  -8.4644    198.6490    170.1757   8.6766438327e+01   9.0523966919e+00    0.2166599    0.1784328  49.72 0.0006251438    1.333    0.250
       226  -9.3233    167.4275    168.8565   9.2678911445e+01   1.5175266063e+01    0.3649027    0.2448201  69.73  0.001262767    2.272    0.560
       227  -9.0754    149.8719    169.5500   9.6486734674e+01   1.8356444131e+01    0.2904679    0.2372681 -76.20  0.001147328    1.486    0.327
       228  -8.0081    244.4829    169.4809   7.8559420608e+01   1.0034442669e+00    0.1271105    0.1068451   1.34 1.117725e-05    1.054    0.051
       229  -8.7973    218.9122    168.5102   8.2716661462e+01   5.5831419322e+00    0.2188568    0.1802099 -40.10  0.000638735    1.426    0.299
       230  -8.6618     88.7234    168.8363   1.0995960474e+02   2.8970411726e+01      0.24677    0.1640555  88.53 0.0007739646    1.653    0.395
       231  -8.7130    111.6829    167.4837   1.0454579884e+02   2.5587475120e+01    0.3261801    0.2002461  72.54  0.001286196    2.180    0.541
       232  -9.0948    191.9360    166.4093   8.7303107649e+01   1.0919624321e+01    0.3248408    0.1880628 -40.06 0.0007605982    1.829    0.453
       233  -8.7981    184.9681    166.5024   8.8683943637e+01   1.2233512787e+01    0.2449938    0.1908257 -55.29 0.0006854007    1.590    0.371
       234 -10.0375     95.1097    162.8335   1.0762990481e+02   2.9278679949e+01     0.868304    0.4608091  81.47  0.003120832    3.501    0.714
       235  -9.0094     20.7793    166.3296   1.2492239575e+02   3.7795332019e+01    0.3419691    0.1186094  57.05   0.00121962    2.702    0.630
       236 -10.0169    136.6837    164.3069   9.8405364505e+01   2.1815505422e+01    0.6230367    0.3307102  60.31  0.002313439    2.524    0.604
       237  -8.6603    233.8553    165.0943   7.9433434756e+01   3.4086876521e+00    0.1874753    0.1673182 -27.85 0.0006168992    1.297    0.229
       238  -8.7190    159.6625    164.3698   9.3442272945e+01   1.7471686092e+01    0.2682932    0.2158956  85.67 0.0007310098    1.643    0.391
       239  -9.6138     33.3948    163.3018   1.2190935478e+02   3.7219353937e+01    0.5012298    0.1940844  62.34  0.002220123    2.807    0.644
       240  -8.2891    239.9988    164.0559   7.8195233240e+01   2.4828775783e+00     0.182615    0.1573537 -53.13 0.0005701941    1.677    0.404
       241  -8.8225    212.7986    163.4083   8.2777555506e+01   7.4599034258e+00    0.2795422    0.1835655 -40.21 0.0007056809    1.650    0.394
       242  -8.2721     57.2390    163.8726   1.1655192086e+02   3.4389262696e+01    0.2786991    0.1803609  12.82   0.00139103    2.746    0.636
       243  -9.3870    246.0531    162.9986   7.6990426840e+01   1.5894007621e+00    0.2179043    0.1650489 -20.44 0.0004987192    1.207    0.171
       244  -8.6456    204.9131    162.8998   8.4124734881e+01   9.0177827424e+00    0.2265594     0.180825 -39.57 0.0005671068    1.376    0.273
       245  -9.5127      3.5653    162.5524   1.2836477163e+02   4.0080067097e+01    0.3430044    0.1291468  51.72  0.001507484    2.254    0.556
       246  -8.9462    196.9195    158.2545   8.4675071172e+01   1.1296747922e+01    0.3035772    0.1958315 -52.14 0.0007244945    1.998    0.500
       247  -9.1219    177.4464    160.7232   8.9033778918e+01   1.4681313308e+01     0.287144    0.2336968 -67.60 0.0008935679    1.606    0.377
       248  -9.0337    151.6274    161.2887   9.4570573204e+01   1.9593294782e+01    0.2963077    0.2314948 -73.95  0.000885631    1.607    0.378
       249  -8.5177     60.4585    160.3663   1.1540301986e+02   3.4763427547e+01    0.2950872    0.1485805  69.78  0.001091708    2.376    0.579
       250  -9.9293    250.1742    157.9075   7.5279814367e+01   1.5631283952e+00    0.3540784     0.163049 -30.29   0.00083092    1.988    0.497
       251  -8.2514    242.1364    160.1396   7.7036506431e+01   2.6431026369e+00    0.1634224    0.1451418 -26.76 0.0003916545    1.293    0.227
       252  -8.7593    227.5210    159.2374   7.9303345853e+01   5.3662984665e+00    0.2886895    0.1992862 -51.73 0.0009000846    2.056    0.514
       253  -8.5677    128.2697    159.2440   9.9380653618e+01   2.4382990799e+01    0.2749298    0.1886691  79.05 0.0008087248    1.993    0.498
       254  -9.8193    105.9673    157.9341   1.0431797688e+02   2.8573828911e+01    0.5138569    0.3518848 -89.58  0.001271271    1.772    0.436
       255  -8.5759    237.0102    159.0033   7.7645590915e+01   3.6966492696e+00    0.1858674    0.1622636 -56.90 0.0006094656    1.653    0.395
       256  -8.0952    188.1366    158.0932   8.6351882750e+01   1.3040511204e+01     0.179232     0.170065 -87.73  0.000410968    1.296    0.228
       257  -9.3156    167.5634    157.2245   9.0365538697e+01   1.7253653281e+01    0.3265723    0.2546541  89.85  0.001099952    1.855    0.461
       258  -8.3808    217.9590    156.5167   8.0408909695e+01   7.5382296856e+00    0.2489592    0.1766853 -45.66 0.0008946839    1.673    0.402
       259  -9.1943    157.6012    155.7389   9.2186983834e+01   1.9496440162e+01    0.3804618    0.2424378 -55.79  0.001153667    1.829    0.453
       260  -8.0371    140.5228    157.0524   9.6205054384e+01   2.2545360611e+01    0.2074126    0.1401582 -49.41 0.0006726229    1.557    0.358
       261  -9.6471    119.5226    155.2444   1.0067568163e+02   2.6800551991e+01    0.4450015    0.2808036 -83.77  0.001602824    2.357    0.576
       262  -9.4829     49.6027    155.2885   1.1737757575e+02   3.7227710967e+01    0.3625197    0.1848788  67.48  0.001526446    2.137    0.532
       263  -9.0230    242.7502    155.0712   7.5875020067e+01   3.2271426687e+00    0.1870912    0.1661391 -25.03  0.000443042    1.255    0.203
       264  -8.9257    239.7315    153.3352   7.5999808687e+01   4.0022687375e+00    0.1985958    0.1775407 -38.10 0.0004573759    1.370    0.270
       265  -8.3995    204.6725    155.1814   8.2556035743e+01   1.0288449682e+01    0.2085486    0.1689488 -47.30 0.0008130168    1.446    0.308
       266  -8.5966    144.6354    154.9232   9.4872944749e+01   2.2183938568e+01    0.3145018    0.2169185  65.61  0.001316711    1.775    0.437
       267 -10.3360    133.2355    151.7097   9.6831271848e+01   2.5017961514e+01    0.7250481    0.3710312 -51.21  0.002179378    2.032    0.508
       268  -9.8227     68.0470    153.8472   1.1277689271e+02   3.5237967115e+01    0.4411116    0.2319402  68.37  0.001441756    2.322    0.569
       269  -7.9281    232.8014    154.0232   7.7300111670e+01   5.1551345660e+00    0.1994595     0.144145 -51.59 0.0007080873    1.919    0.479
       270  -8.6737    151.7580    152.9674   9.2902847321e+01   2.1182848748e+01    0.2232544    0.1639358 -78.89 0.0009536806    1.910    0.476
       271  -9.7949     29.5681    150.9186   1.2168058976e+02   4.0361056301e+01     0.413543    0.1770994  69.02  0.001861557    2.654    0.623
       272  -9.7343    248.8110    149.5226   7.3724236888e+01   2.9217586703e+00     0.344016    0.1887732 -28.33 0.0009276626    1.648    0.393
       273  -8.7481    247.0194    144.0016   7.2812793197e+01   3.9977591423e+00     0.249592    0.1617185 -25.50 0.0004806329    1.382    0.277
       274  -8.9637    243.1481    150.1195   7.4755721514e+01   3.8403416650e+00    0.2333716    0.1602732 -31.22 0.0006876076    1.388    0.280
       275  -8.8562    189.3759    150.3327   8.4460863369e+01   1.4124723203e+01    0.2987946    0.2278518 -53.82 0.0008511223    1.578    0.366
       276  -7.6224    182.4811    151.5276   8.6098029140e+01   1.5304419172e+01    0.1396502    0.1353686  36.46 0.0008078073    1.100    0.091
       277  -8.6022    162.7923    150.5589   9.0002514699e+01   1.9452545364e+01    0.2769252    0.1882041 -60.92 0.0009965569    1.861    0.463
       278  -8.7940     98.2071    150.6762   1.0496145799e+02   3.1453719457e+01    0.2915255    0.1969715  87.29  0.001259427    1.784    0.439
       279  -8.3747    213.0863    149.8676   7.9857512858e+01   9.4967395466e+00    0.1956028    0.1889002 -49.52 0.0004649895    1.277    0.217
       280  -9.0059      2.7331    149.7546   1.2779238344e+02   4.2913261141e+01     0.242326   0.09381086  77.30  0.001159398    2.467    0.595
       281  -8.3594    198.8230    149.0549   8.2342566572e+01   1.2444912185e+01     0.204642    0.1902834 -61.06 0.0005830379    1.313    0.239
       282 -10.1258     89.1917    146.3305   1.0645337362e+02   3.3875469929e+01    0.6643474    0.3601156  85.13  0.002472029    3.274    0.695
       283 -10.2357     39.7931    146.6365   1.1878873144e+02   4.0295420488e+01    0.7029267    0.3845598 -77.80  0.003156194    1.587    0.370
       284  -9.0562    233.2830    147.6132   7.5836255408e+01   5.9925934703e+00    0.2506977    0.1664517 -28.39 0.0006905067    1.405    0.288
       285 -10.2780    149.0848    145.2285   9.1898270109e+01   2.3252643492e+01    0.5354236    0.3705284  88.82  0.001766247    2.370    0.578
       286  -9.0144     78.0719    147.1530   1.0935546785e+02   3.5363907913e+01    0.3054338    0.1894727  79.78  0.001043603    1.922    0.480
       287 -10.4666     54.4119    143.8972   1.1482904414e+02   3.9267569913e+01    0.8853588    0.4242751  83.24  0.003218126    2.971    0.663
       288  -8.5672     57.2054    135.6043   1.1297588645e+02   4.0868365569e+01    0.2673893    0.1389516  26.04  0.001225519    2.543    0.607
       289  -8.3247    223.2941    147.0076   7.7412390449e+01   7.9673781600e+00      0.19384    0.1601975 -21.21  0.000414608    1.138    0.121
       290 -10.0142    139.0160    144.7956   9.4108862647e+01   2.5339404195e+01    0.5016901    0.3034278 -66.67  0.001226916    2.249    0.555
       291 -10.4977    106.8151    143.7925   1.0163228983e+02   3.1539766485e+01    0.8202945    0.5298888 -74.69  0.002426098    1.815    0.449
       292  -9.7021     13.3000    146.2144   1.2511655505e+02   4.2877294912e+01    0.3681091    0.1389259  59.34  0.001268101    2.654    0.623
       293 -10.1615    241.0447    144.5171   7.3880035814e+01   5.0071575086e+00    0.3935116    0.2510585   2.91  0.001480089    1.840    0.457
       294  -8.2738    175.6550    146.1959   8.6344503905e+01   1.7653836199e+01    0.2151076    0.1807993 -61.77 0.0006444252    1.412    0.292
       295  -8.9972    165.6091    144.2315   8.8040295448e+01   2.0087143497e+01    0.2665197    0.2220748  60.90 0.0006398615    1.310    0.237
       296 -10.0227    125.1406    142.3508   9.6882763454e+01   2.8531648716e+01    0.6847045     0.415594 -70.39  0.002280819    2.198    0.545
       297  -7.9309    194.1679    144.1566   8.2159820213e+01   1.4216666505e+01    0.1889119    0.1704252 -60.84 0.0006190822    1.336    0.251
       298 -11.0019     68.6532    139.3721   1.1055454892e+02   3.8493405561e+01    0.9503264    0.4841091 -70.83  0.003064787    1.908    0.476
       299 -10.1362     73.0017    129.1748   1.0774117847e+02   4.0293624924e+01    0.4793342    0.2876364 -81.87  0.001322537    1.882    0.469
       300  -9.5155      2.6543    141.4798   1.2727670902e+02   4.4751097182e+01    0.4280376    0.1613966  83.47  0.002000955    2.521    0.603
       301  -7.9908    206.7825    146.5348   8.0284628739e+01   1.1270742614e+01    0.1833546    0.1357126  57.12 0.0009289914    1.618    0.382
       302  -8.5471    182.1135    141.7237   8.4020271219e+01   1.7134527374e+01    0.2441075    0.1953063 -50.38 0.0005769207    1.382    0.276
       303  -8.3858    250.4871    140.9591   7.1605275295e+01   3.7981552171e+00    0.1982632    0.1153936 -29.19 0.0005787983    1.533    0.348
       304  -9.3360    140.0158    137.0211   9.2220404764e+01   2.6763469096e+01    0.3591152    0.2461528  -0.79   0.00116758    2.639    0.621
       305 -10.0275     23.4757    138.1160   1.2195074365e+02   4.3853567032e+01    0.5314459    0.2230745  68.84  0.002038967    2.813    0.644
       306  -8.6687    172.3753    138.4233   8.5297920636e+01   1.9782658092e+01    0.3063823    0.2209859 -82.44 0.0008468299    2.288    0.563
       307  -7.7201    218.5818    138.5246   7.6341338889e+01   1.0200782822e+01    0.1399869    0.1264606  -8.22 0.0001741439    1.035    0.034
       308  -8.3113    207.2374    137.8885   7.8250071402e+01   1.2596136986e+01    0.2100077    0.1911847 -49.01 0.0006570263    1.269    0.212
       309  -8.8268    197.5794    137.4033   7.9963901178e+01   1.4673014631e+01     0.307886    0.1992816 -47.00 0.0008386915    1.712    0.416
       310 -10.4745     83.2342    133.3379   1.0574286086e+02   3.7800666226e+01    0.6238037    0.3771608 -63.64  0.001727769    1.561    0.359
       311  -8.8188    162.3047    136.4043   8.7010544267e+01   2.2289935839e+01      0.24134    0.2358667 -15.20  0.000622929    1.030    0.029
       312  -9.2875     39.4528    136.2586   1.1768835737e+02   4.2741123719e+01    0.3089483    0.1792105  64.02  0.001020017    1.762    0.432
       313  -9.3287    250.6836    130.0893   6.9152565172e+01   5.2770881192e+00    0.4563984    0.1197433 -31.11  0.001310542    3.421    0.708
       314  -9.0500    248.5710    135.3852   7.0666565360e+01   4.9205634587e+00    0.3015215    0.1840282 -35.90 0.0006537774    1.561    0.359
       315  -8.5924    246.8964    130.3433   6.9788399041e+01   5.9443160939e+00    0.2546539    0.1757575 -33.97 0.0006123865    1.360    0.265
       316  -7.8089    192.3029    136.6778   8.0823780191e+01   1.5902714108e+01    0.1413514    0.1176815 -75.84 0.0007029089    1.633    0.388
       317  -8.1416    187.6411    135.7781   8.1540884071e+01   1.7044826754e+01    0.2005163     0.133322 -45.72  0.000355055    1.596    0.374
       318  -8.7970    151.9771    135.6847   8.9156420040e+01   2.4592456868e+01    0.3807066    0.1683628  39.56  0.001213657    2.385    0.581
       319  -8.8923    179.4028    134.0055   8.2805581267e+01   1.9118565125e+01    0.3007977    0.2173666 -57.43 0.0008502068    1.681    0.405
       320  -9.2752    113.0812    133.4058   9.8024538953e+01   3.2750960084e+01    0.4187339    0.2994037 -88.63   0.00137773    1.781    0.439
       321  -8.4208    237.4302    133.7365   7.2056269067e+01   7.2436486377e+00    0.2524538    0.1183946 -35.48 0.0007748205    1.973    0.493
       322  -7.8875    231.3959    134.2069   7.3154507123e+01   8.3391358361e+00    0.1895411    0.1192876 -39.15 0.0004477854    1.595    0.373
       323 -10.8527    132.4759    130.2273   9.2515318188e+01   2.9724610626e+01    0.8710849    0.4240533 -45.00  0.002247493    2.087    0.521
       324 -10.5736    131.1915    118.6846   9.0127147415e+01   3.2490703288e+01    0.6935642    0.4526532 -82.80   0.00200767    2.623    0.619
       325 -10.4543    133.7335    109.4513   8.7159842432e+01   3.3959762734e+01    0.7590871    0.3289185 -51.36   0.00246416    2.465    0.594
       326 -10.4976     98.2668    130.2863   1.0120681859e+02   3.6083014783e+01    0.6787241    0.3443836 -60.50  0.001508657    1.977    0.494
       327  -9.3535    142.8783    131.4093   9.0291347393e+01   2.7357374206e+01    0.3890653    0.3066049 -75.09  0.001143172    1.530    0.346
       328  -9.4416    168.3442    129.5169   8.4085910056e+01   2.2344285057e+01    0.3474191    0.2478913 -59.07 0.0008779807    1.685    0.407
       329  -9.7231    153.0787    129.2636   8.7424116656e+01   2.5666599783e+01    0.4261059    0.2741061 -61.91 0.0008699111    1.980    0.495
       330  -9.8767     12.9551    129.4775   1.2380734960e+02   4.6720521314e+01    0.4436637    0.2005908  69.46   0.00190175    2.337    0.572
       331  -8.0035    220.5076    130.0018   7.4032086751e+01   1.1159746170e+01    0.1884352    0.1148112 -53.33 0.0005748576    2.267    0.559
       332  -8.1183    204.4456    130.2446   7.6984435533e+01   1.4452909986e+01    0.2035753    0.1319391 -44.68 0.0009405994    1.641    0.391
       333  -9.0373    161.7531    129.9184   8.5625151965e+01   2.3684370801e+01    0.2859689    0.2146851 -61.56  0.001353386    1.575    0.365
       334  -8.1160    211.6886    129.1086   7.5384277099e+01   1.3122567182e+01    0.2247289    0.1674864 -48.68 0.0007013533    1.524    0.344
       335 -10.7301     44.8730    123.5723   1.1456594709e+02   4.5170640445e+01     1.084755    0.4899719  76.29  0.003832941    3.971    0.748
       336 -10.3397     60.0435    125.2080   1.1061509790e+02   4.2985615298e+01     0.700573    0.3699147  76.72  0.002686416    2.847    0.649
       337 -10.0740    117.8971    124.9277   9.4965097471e+01   3.3753097168e+01    0.6038401    0.4105845 -75.64  0.001677127    1.885    0.469
       338  -7.9526    228.5291    125.5418   7.1616896171e+01   1.0229995960e+01    0.1413659    0.1265792 -11.77 9.151293e-05    1.021    0.021
       339  -9.0078    179.0099    124.8135   8.0685011577e+01   2.0913816121e+01    0.2850027    0.2589045 -80.10 0.0007494602    1.297    0.229
       340 -10.1485     28.5567    122.5651   1.1893560603e+02   4.7040550054e+01    0.6446649    0.2843321  77.95  0.002624454    3.102    0.678
       341  -8.0002    243.6510    124.2380   6.8886709055e+01   7.4407547186e+00    0.1957188     0.116124 -21.46 0.0006569438    1.610    0.379
       342  -8.0338    188.4529    124.2451   7.8622805667e+01   1.8944368675e+01    0.2031903    0.1390244 -46.77 0.0005670239    1.547    0.354
       343  -8.7659     85.1095    122.9047   1.0326948378e+02   3.9967975837e+01    0.4945923    0.3065209  13.34   0.00200157    2.988    0.665
       344  -9.5424    158.7361    121.7378   8.4319782223e+01   2.5969332893e+01    0.4005093    0.2878152 -75.48 0.0009273123    2.020    0.505
       345  -8.1227    192.7146    130.2030   7.9220904632e+01   1.6955905803e+01    0.2213722    0.1729006 -48.56 0.0004851203    1.397    0.284
       346  -7.9845    194.6468    121.8502   7.6814667646e+01   1.8012672616e+01    0.2143107    0.1307825 -44.92 0.0004224935    1.707    0.414
       347  -8.8137    171.8936    121.6563   8.1405733303e+01   2.3083164159e+01    0.2770877    0.2136104 -45.64 0.0004115768    1.320    0.242
       348  -9.6702     71.0836    120.0107   1.0661923406e+02   4.2752015040e+01    0.3735207    0.2346995 -87.61  0.001114083    1.907    0.476
       349 -10.0239    141.5837    118.5650   8.7540792424e+01   3.0337352075e+01    0.5033134    0.3037793 -63.83  0.001151259    2.243    0.554
       350  -8.8201    141.3354    113.3276   8.6279608621e+01   3.1499319997e+01    0.3001953    0.1940409  -2.35  0.001028715    3.260    0.693
       351  -9.4809      2.9865    117.4411   1.2535952364e+02   5.0204391649e+01    0.4686204    0.1820586  71.40  0.001741376    2.996    0.666
       352 -10.3254    109.4918    113.1605   9.4443094207e+01   3.8019762147e+01    0.9319788     0.415962 -53.37  0.002250972    2.205    0.546
       353  -7.9203    185.6422    116.1984   7.7173976127e+01   2.1031190442e+01    0.2073877    0.1398165 -26.65 0.0004105886    1.552    0.356
       354  -8.7407     59.2811    115.4279   1.0915776673e+02   4.5434898619e+01    0.2769296    0.1778949 -24.27   0.00125143    2.622    0.619
       355  -8.2892    192.9256    115.1801   7.5475161497e+01   1.9577264713e+01    0.2233709    0.2003319 -57.97 0.0004597657    1.245    0.197
       356 -10.0322     79.0959    112.7259   1.0288003002e+02   4.3321415585e+01    0.5509464    0.3423151  82.29  0.001666304    2.378    0.580
       357  -8.2046    167.4563    114.4912   8.0548144285e+01   2.5462895498e+01    0.1518828    0.1489939 -34.57 0.0001634799    1.029    0.028
       358 -10.0318    121.8799    112.5842   9.1004018942e+01   3.5732067188e+01    0.3759802    0.3459717 -23.93  0.001408057    1.187    0.158
       359 -10.8732    109.3264     99.1246   9.0917616900e+01   4.1242781443e+01    0.8794925    0.4732848  64.95  0.001850061    3.299    0.697
       360  -9.3714    107.6369     92.7317   8.9637067917e+01   4.3007824267e+01    0.5258862     0.286901  26.99  0.001923083    2.806    0.644
       361 -10.3752     92.9123    111.0714   9.8552735796e+01   4.1483818574e+01    0.9761566    0.4327657 -55.08  0.002798192    2.122    0.529
       362 -10.1887     66.2712    110.3498   1.0614783485e+02   4.5742572593e+01    0.4867667    0.2897613 -79.60  0.002226875    1.924    0.480
       363  -8.7216    174.7707    111.8725   7.8297490780e+01   2.4304340914e+01    0.3372809    0.1958153 -46.55 0.0008492839    1.783    0.439
       364  -8.7910     27.5793    113.5895   1.1807584260e+02   4.9267291464e+01    0.1984619    0.1294405  17.35   0.00112018    2.087    0.521
       365  -9.6387    157.7717    111.7314   8.1990265896e+01   2.8195072122e+01    0.3793627    0.2740142  50.40 0.0006257978    1.415    0.293
       366  -9.7823     14.1836    111.3390   1.2164893844e+02   5.0875227263e+01    0.3625893    0.1702231  66.68  0.001279279    2.465    0.594
       367 -11.1469    248.2762    108.6253   6.4514533325e+01   8.8081072148e+00      0.98763    0.2562321 -30.96  0.003216255    3.413    0.707
       368  -7.5606    182.7170    109.3549   7.5993286034e+01   2.2953000871e+01     0.155973    0.1196543 -66.66 0.0007017801    1.663    0.399
       369  -8.5843     43.5382    109.4399   1.1276595044e+02   4.8718673135e+01    0.2514565    0.1328923  28.64   0.00122901    2.268    0.559
       370  -9.6333    213.3093    107.2666   6.9710746432e+01   1.6374763273e+01    0.2659411    0.2359607  -2.89 0.0002813788    1.112    0.100
       371  -9.7267    119.0467    107.5386   9.0472171091e+01   3.7427042705e+01    0.4946931    0.2248387 -53.44  0.001768589    2.296    0.564
       372 -10.0301    140.0235    104.4378   8.4256452988e+01   3.3663198146e+01    0.5086539    0.3464322 -55.04  0.001398716    1.567    0.362
       373  -9.0483     78.2983    105.3556   1.0150653576e+02   4.5203165467e+01    0.2950157    0.2229663 -27.26 0.0008885876    1.693    0.409
       374 -10.5163     45.7153    102.5252   1.1090000250e+02   5.0157250496e+01    0.7880887    0.3994915  72.05  0.003052092    3.349    0.701
       375  -8.9128     45.7698     92.6491   1.0897683653e+02   5.2536583370e+01    0.3560962    0.2337021 -10.69  0.001736429    2.436    0.589
       376 -10.6505     22.8536    102.6909   1.1799624496e+02   5.2274191211e+01    0.7242468    0.3408582  75.58  0.002608587    2.928    0.659
       377  -8.6279    166.7123    104.1241   7.7961025198e+01   2.7649017930e+01    0.3111617     0.197685 -49.61 0.0007322434    1.667    0.400
       378  -9.5249    150.6034    103.1897   8.1362108150e+01   3.1548160121e+01    0.4544389    0.2896143 -59.84  0.001139961    1.954    0.488
       379 -10.0100    128.4881    102.2453   8.6582852909e+01   3.6635088050e+01    0.3684909    0.2801974 -75.93 0.0008275476    1.653    0.395
       380  -9.1031    130.0362     97.4875   8.4864658118e+01   3.7326088191e+01    0.3292621    0.2269724  17.70  0.001349577    2.138    0.532
       381  -9.0288      6.7505    102.8665   1.2287396886e+02   5.3374719522e+01    0.2941571    0.1490621  63.71  0.001239021    2.177    0.541
       382  -7.8467    175.5220    102.0753   7.5521624771e+01   2.5979095623e+01     0.229532    0.1489324 -39.02  0.000588763    1.495    0.331
       383  -8.6447    160.2346    101.3337   7.8631110149e+01   2.9701450788e+01    0.2994064    0.2502954  61.68  0.001465539    1.288    0.224
       384  -9.3527     82.1158     99.6445   9.9020195811e+01   4.5962555341e+01    0.4904543    0.2377439 -63.22  0.001594629    2.227    0.551
       385  -9.5131     94.9399     96.9533   9.4491738731e+01   4.4424683455e+01    0.4261725     0.262802 -60.69 0.0006399786    1.669    0.401
       386 -10.2882     63.8371     95.9044   1.0382593260e+02   4.9548680284e+01    0.5861353    0.3560495  86.58  0.001626733    2.534    0.605
       387  -8.2762    189.2800    108.0548   7.4343053907e+01   2.1680149066e+01    0.2225386    0.1880395 -36.68 0.0005547557    1.149    0.130
       388  -8.1985    176.4956     93.4380   7.2918008590e+01   2.7350921217e+01    0.2700201    0.1361382 -46.35 0.0005573328    2.077    0.518
       389  -8.2351    164.9107     94.2075   7.5588467343e+01   2.9982654491e+01    0.2394229    0.2094205 -65.51 0.0004539607    1.258    0.205
       390  -9.7960    139.1578     92.0583   8.0984052818e+01   3.6436618493e+01    0.5823241    0.3239892 -53.41  0.001432763    2.030    0.507
       391  -7.6971    188.5058     93.5320   7.0564462063e+01   2.4452326642e+01    0.1549346    0.1464878 -47.30 7.149043e-05    1.078    0.072
       392  -8.9243    126.9627     84.4990   8.1860224259e+01   4.0740908264e+01    0.5482877    0.3045309  19.68  0.001571362    4.513    0.778
       393 -10.0105    124.4055     90.8904   8.4455448985e+01   3.9953897886e+01    0.4382992     0.351413 -53.89 0.0009751148    1.248    0.199
       394  -9.4184    120.4806     92.5194   8.5987963443e+01   4.0440172528e+01      0.28645    0.2537448   1.57  0.001280657    1.302    0.232
       395  -9.3705      5.1115     92.1507   1.2214082528e+02   5.5995732161e+01    0.3636547     0.156898  59.74  0.001287102    2.933    0.659
       396  -8.3162    157.7869     91.7838   7.6473923002e+01   3.2146873325e+01    0.2778249     0.188582 -36.21 0.0004680253    1.446    0.309
       397  -9.5697     34.7378     90.1110   1.1213599535e+02   5.4267195738e+01    0.4547549    0.2330385 -87.00  0.001472629    2.517    0.603
       398  -9.0631     22.8460     90.2327   1.1611345038e+02   5.5258436691e+01    0.2493051    0.2101487 -33.67 0.0008736277    1.399    0.285
       399  -8.1980    150.8834     89.1458   7.7289771451e+01   3.4300508633e+01    0.2455987    0.2091004 -65.07 0.0005385145    1.297    0.229
       400 -10.1350     86.4411     85.9345   9.4090367872e+01   4.8441903237e+01    0.6651825    0.3818668 -58.45  0.001896636    1.758    0.431
       401  -9.0351     64.8921     87.8164   1.0155978564e+02   5.1331514008e+01    0.3658119    0.2084159  14.54  0.001503353    2.948    0.661
       402  -7.7127    164.2780     87.3028   7.3721489421e+01   3.1443446450e+01    0.1556552    0.1235749   7.94  0.000215301    1.545    0.353
       403  -9.8498     48.5930     84.3837   1.0623420788e+02   5.4201343881e+01    0.5292343      0.31677  79.75   0.00195483    2.654    0.623
       404  -7.3689    179.3025     85.6582   7.0121309824e+01   2.8077526508e+01    0.1624148    0.1202099 -65.45 0.0007038882    1.677    0.404
       405  -9.7337    104.8419     83.2782   8.7691002919e+01   4.5647185866e+01    0.4689893    0.3263707 -77.76  0.001062235    2.116    0.527
       406  -8.8347    105.0011     77.4753   8.5848957949e+01   4.6869498088e+01    0.4239697    0.2516557  19.20  0.001523867    3.026    0.670
       407  -8.2593    157.8663     84.1259   7.4187851295e+01   3.3597861239e+01    0.2376186    0.2061208 -57.98 0.0004297631    1.217    0.178
       408  -9.2113    140.8473     82.5323   7.7701507444e+01   3.7971267670e+01    0.3863534    0.2154523 -46.04 0.0008590386    1.792    0.442
       409  -9.4381      9.9190     81.1766   1.1905623437e+02   5.8300984481e+01    0.3564581    0.1811223  66.90  0.001435469    2.584    0.613
       410  -9.2514    249.7977     81.4039   5.7659724446e+01   1.2409412507e+01    0.2848735   0.09055958 -32.92  0.001031098    2.578    0.612
       411  -9.1288     74.5511     80.4042   9.6377889236e+01   5.1646910516e+01    0.3718816     0.232683 -69.18 0.0009742597    1.915    0.478
       412  -7.9057     35.3440     82.3060   1.1038077851e+02   5.6077853329e+01    0.1352478   0.08537252 -39.42 0.0002782816    1.690    0.408
       413  -9.7460     24.7288     80.5562   1.1376967840e+02   5.7417416880e+01    0.4625731     0.252784  87.22  0.001451393    2.333    0.571
       414  -8.3627    150.1082     80.5688   7.4874241703e+01   3.6151394646e+01    0.3085743    0.2085773 -52.84 0.0007584892    1.611    0.379
       415  -8.8910    119.3855     80.3792   8.2636635877e+01   4.3257104798e+01    0.3074893    0.2463666 -79.33 0.0008066098    1.573    0.364
       416  -8.1764    166.8313     79.6295   7.0879201526e+01   3.2233927645e+01    0.2645841    0.2041643 -23.58 0.0005415486    1.349    0.259
       417 -10.0346     63.4774     73.9887   9.8343855441e+01   5.4749937663e+01    0.6609871    0.3052499 -66.37  0.002424026    2.963    0.663
       418  -7.7590    157.2690     76.6408   7.2024984441e+01   3.5142430427e+01    0.1632035    0.1201475 -63.37  0.000422914    1.643    0.391
       419  -8.7623    140.3349     75.5962   7.5645392180e+01   3.9447387746e+01    0.2690133     0.235495 -72.98 0.0006380749    1.289    0.224
       420  -9.2364    128.1747     75.3278   7.8651512137e+01   4.2334238151e+01    0.3627988      0.24641 -56.97 0.0005923482    1.688    0.407
       421  -9.8265     82.3221     72.3363   9.1369450449e+01   5.2198567266e+01    0.5383502    0.2996901 -60.70  0.001234702    2.111    0.526
       422  -8.2920     83.3369     65.3421   8.8744014365e+01   5.3535122935e+01    0.1522098    0.1103005 -13.84 0.0007050187    1.765    0.433
       423  -8.2461    163.4443     73.0599   6.9569084495e+01   3.4255924570e+01    0.2449772    0.1501482 -36.40 0.0008618169    1.574    0.364
       424  -8.3667    151.3673     73.2387   7.2278263006e+01   3.7221561552e+01    0.2294954    0.1394632 -45.15 0.0006733605    1.654    0.395
       425  -9.1206    115.4545     72.8360   8.1310814527e+01   4.5660484706e+01    0.2925443    0.2059579 -54.01  0.000781625    1.509    0.337
       426  -9.1789    116.0357     68.0096   7.9529268313e+01   4.6502596304e+01    0.2671591    0.2335801 -27.90  0.001374895    1.120    0.108
       427  -9.3059    105.8650     71.4763   8.3647823188e+01   4.7957011199e+01    0.4571921    0.2013036 -47.43  0.001323118    2.232    0.552
       428  -9.4439     95.0089     71.0204   8.6829063554e+01   5.0196268913e+01    0.4408094    0.2355479 -57.76  0.001105475    2.277    0.561
       429  -7.6736    175.4821     72.5431   6.6964899219e+01   3.1320470639e+01    0.1554177    0.1508171 -31.19 0.0001009034    1.004    0.004
       430  -9.5825     51.4625     69.8832   1.0152443650e+02   5.7259564655e+01    0.4370669    0.2293396 -70.26  0.001354964    2.371    0.578
       431  -9.1130     32.9877     68.5116   1.0813582678e+02   5.9545533491e+01    0.2976336    0.1369933  15.70  0.001309783    3.151    0.683
       432  -9.0994     16.6681     69.9649   1.1467540031e+02   6.0504590707e+01    0.3224669    0.1740437 -88.14  0.001004689    2.177    0.541
       433  -7.7720    157.0355     69.9679   6.9965446491e+01   3.6408931078e+01    0.1900789    0.1786982 -33.53 0.0003742991    1.036    0.034
       434  -8.7943    146.9981     68.4293   7.1725261552e+01   3.9175848709e+01    0.3018748    0.2054144 -49.61 0.0005662862    1.548    0.354
       435  -8.7666    138.4498     66.2441   7.3033953038e+01   4.1659539994e+01    0.2946211    0.2213696 -65.27  0.001090275    1.639    0.390
       436  -8.8146    121.6049     66.0119   7.7302426128e+01   4.5651555811e+01    0.3969084    0.2352451 -53.11  0.001219461    1.941    0.485
       437  -7.3655    163.6807     65.6942   6.7184241565e+01   3.5479166021e+01    0.1611381    0.1217156  18.99  0.000568751    1.633    0.388
       438  -9.0488    110.0204     63.7749   7.9791600734e+01   4.8640215655e+01    0.3207734    0.2118284 -50.05 0.0007520543    1.571    0.363
       439  -8.4991     42.4260     72.7001   1.0562089910e+02   5.7635348646e+01    0.2569206    0.1169822 -64.98  0.000955085    2.065    0.516
       440  -8.7958     64.4894     63.6425   9.4825656418e+01   5.6926307308e+01    0.5037417    0.2936637 -10.26  0.001842406    3.673    0.728
       441  -8.9139     37.2374     64.3023   1.0541448061e+02   6.0109838062e+01    0.2846558    0.1948741  83.63 0.0008625385    2.061    0.515
       442  -7.5506    187.7001     63.3446   6.1912126949e+01   2.9733931704e+01    0.1635325    0.1138129 -60.63 0.0005188191    1.678    0.404
       443  -8.0832    158.3500     62.0983   6.7125748571e+01   3.7444679132e+01    0.2245584    0.1345681 -43.57 0.0003785459    1.669    0.401
       444  -9.2888     97.6791     60.6600   8.2427589528e+01   5.1809323855e+01    0.2877998    0.2555801  61.70 0.0008488169    1.294    0.227
       445  -9.6543     73.2854     59.3635   9.0188734201e+01   5.6494617576e+01     0.494148    0.2333869 -54.00   0.00112315    2.217    0.549
       446  -8.5227    212.4288     58.7641   5.6684599314e+01   2.4220266293e+01    0.2953064    0.1286509 -33.96  0.001133617    2.048    0.512
       447  -8.6097    146.9848     59.2226   6.8641940678e+01   4.0804248008e+01    0.2345321    0.1590758 -50.95  0.000466952    1.602    0.376
       448  -9.8769     23.4209     56.6145   1.0897194300e+02   6.3088349984e+01    0.4543813    0.2650468  86.95  0.002037499    2.726    0.633
       449  -8.9790    130.8387     57.5465   7.1913259556e+01   4.5060873762e+01    0.3546882    0.1915048 -43.71  0.001227122    1.867    0.464
       450  -9.5157      7.5185     57.1167   1.1570224313e+02   6.4023468894e+01    0.2732055    0.1708362  83.14 0.0009703739    1.934    0.483
       451  -9.3489    119.1111     55.6465   7.4303091802e+01   4.8152897022e+01    0.5071702    0.2327645 -45.48  0.001475305    2.287    0.563
       452  -9.4435     54.3491     55.5746   9.6015320433e+01   6.0083599300e+01    0.3679996    0.2149146 -63.81  0.001232831    2.004    0.501
       453  -8.4358    139.9029     56.1631   6.9215235245e+01   4.3091043383e+01    0.2428864    0.2031912 -56.80 0.0004881648    1.297    0.229
       454  -8.9794     43.9287     55.0935   1.0003693831e+02   6.1464656526e+01     0.359613    0.1762514 -64.30  0.001559261    2.313    0.568
       455  -8.4965    105.5077     53.1135   7.7243534673e+01   5.1634447346e+01    0.2304345    0.2064036 -69.59  0.000655129    1.309    0.236
       456  -9.4879     92.3848     50.6351   8.0390663588e+01   5.4798405759e+01    0.4250272    0.2360123 -49.02  0.001236446    1.923    0.480
       457  -7.9423    144.9764     49.0380   6.5537152609e+01   4.2991257360e+01    0.1918169    0.1715071 -28.75 0.0005350467    1.101    0.092
       458  -8.2892    129.8644     49.1060   6.9091918920e+01   4.6740370886e+01    0.2330361    0.2065573 -57.59 0.0004824288    1.228    0.185
       459  -8.6504    120.9494     47.6322   7.0816012125e+01   4.9118757245e+01    0.2601719    0.2073017 -30.65  0.000589405    1.218    0.179
       460  -8.4728    112.2481     47.1035   7.2983468054e+01   5.1216166797e+01    0.2679816    0.1915924 -50.94 0.0006976263    1.559    0.358
       461  -8.9036     82.0540     46.3870   8.2205390982e+01   5.7564883202e+01    0.2679339     0.193161 -47.42 0.0006646785    1.402    0.287
       462  -8.5478     45.0393     44.8500   9.6063733523e+01   6.3521319328e+01    0.1862965    0.1653905 -64.02 0.0004561693    1.285    0.222
       463  -9.2671     16.5938     44.3572   1.0861396512e+02   6.6318833851e+01    0.3260419    0.1662352 -71.37  0.001405696    2.060    0.515
       464  -8.8184    132.8796     43.5974   6.6306625463e+01   4.6883444605e+01    0.2988704    0.1842659 -47.89 0.0007279974    1.786    0.440
       465  -8.8048     58.2784     42.7960   8.9742149419e+01   6.2177935996e+01    0.3577822    0.1916194 -57.49  0.001177071    2.328    0.570
       466  -9.5652      5.3101     42.3162   1.1328529775e+02   6.7447910927e+01    0.3343241    0.1797734 -81.96  0.001056805    2.171    0.539
       467  -9.3596     69.6037     41.5458   8.4776265620e+01   6.0652456849e+01    0.4090051    0.2472721 -56.29  0.001186355    2.102    0.524
       468  -8.5512    105.9503     41.4282   7.2534423337e+01   5.3577921551e+01    0.2750615    0.1920761 -46.79 0.0005868165    1.540    0.351
       469  -7.7285    140.4307     41.5330   6.3814913122e+01   4.5301890555e+01    0.1500211    0.1467847 -24.66 0.0002500428    1.027    0.027
       470  -8.5309     36.7956     40.8675   9.8223739468e+01   6.5282581517e+01    0.2256366    0.1633541 -66.57 0.0007444296    1.600    0.375
       471  -7.4788    160.6974     40.2886   5.9275851457e+01   4.0231193276e+01    0.1548661    0.1149946 -64.37 0.0002971232    1.564    0.361
       472  -8.5349     95.2332     37.7510   7.4255304448e+01   5.6491444079e+01    0.2529045    0.1815947 -42.92 0.0009842495    1.430    0.301
       473  -8.2560     80.5368     36.5839   7.8654984210e+01   5.9607256505e+01    0.2497922    0.1205054 -46.32 0.0008171356    2.246    0.555
       474  -9.4847     26.1170     35.5461   1.0124792426e+02   6.7433623009e+01    0.3096465    0.2157106 -70.99 0.0009019841    1.750    0.429
       475  -8.4340     92.8239     42.8485   7.7146656056e+01   5.6122664307e+01    0.3146135    0.1937347 -22.78  0.001405144    1.773    0.436
       476  -8.2824    125.9917     35.5483   6.4848962448e+01   4.9794167333e+01    0.2201719     0.196654 -23.47 0.0003007361    1.102    0.093
       477  -8.4252    111.8535     34.7389   6.8131216365e+01   5.3292523011e+01    0.2710532    0.1750018 -53.59 0.0007129902    1.960    0.490
       478  -9.0235     48.4993     33.4806   9.0024178188e+01   6.5337947884e+01    0.2422698     0.213356 -59.78 0.0007172976    1.394    0.283
       479  -8.3983    119.0541     33.0659   6.5561618823e+01   5.1837946003e+01    0.2275341     0.174355 -59.44 0.0004955937    1.602    0.376
       480  -8.7172     60.8061     32.6728   8.4431131014e+01   6.3697065468e+01    0.2520828    0.1737536 -42.72 0.0005607505    1.372    0.271
       481  -7.6922    139.6408     32.3010   6.0523344380e+01   4.6816789854e+01    0.1567567    0.1145917 -67.10 0.0007036942    1.716    0.417
       482  -8.4627     72.0696     31.0826   7.9291200590e+01   6.2086481275e+01    0.2083151    0.1836336 -28.40 0.0005320892    1.112    0.101
       483  -8.8842     12.8216     30.1389   1.0594957690e+02   6.9599313572e+01    0.3359381    0.1546563 -65.94  0.001516874    2.252    0.556
       484  -8.2517    101.4333     29.3325   6.8751625397e+01   5.6457109474e+01    0.2173328    0.1815336 -88.23 0.0005786279    1.618    0.382
       485  -9.0081     81.4474     27.4653   7.4241757643e+01   6.0916923540e+01    0.3020386    0.2149962 -47.13 0.0008904443    1.613    0.380
       486  -9.0622      3.5313     27.5981   1.0997342140e+02   7.0682838199e+01    0.2548732    0.1667647 -82.38  0.001170614    1.915    0.478
       487  -7.5196    109.5728     27.5070   6.5694135155e+01   5.4862637608e+01    0.1437603    0.1354828  -2.51 0.0001239058    1.033    0.032
       488  -8.7713     91.8563     26.3126   7.0287023879e+01   5.8971206802e+01    0.3004852    0.1774833 -43.04  0.000886173    1.845    0.458
       489  -8.7190    104.2916     22.9458   6.5123204834e+01   5.6695002528e+01    0.2014534    0.1751779  -9.71 0.0004314197    1.100    0.091
       490  -8.2051     34.6622     23.3299   9.1961195191e+01   6.8941864627e+01    0.1673242    0.1485621 -85.25  0.001029024    1.731    0.422
       491  -9.0391     63.5678     21.2051   7.7873039172e+01   6.5155200104e+01      0.30842    0.2043542 -49.01  0.001019805    1.861    0.463
       492  -8.9155     48.3794     21.7459   8.4645996424e+01   6.7451675686e+01    0.2280106    0.1955344 -55.57  0.000631557    1.531    0.347
       493  -8.0393    120.5925     20.7586   6.0084269027e+01   5.3090312622e+01    0.2045009    0.1272836 -36.89 0.0006462779    1.648    0.393
       494  -8.3927     19.7310     21.5847   9.8943304490e+01   7.0772099497e+01    0.1385674    0.1121747  29.52 0.0003096799    1.558    0.358
       495  -9.0618     73.9780     19.2731   7.2937187548e+01   6.3565086976e+01     0.300949     0.170133 -40.37 0.0007652757    1.848    0.459
       496  -7.5381    139.7228     19.3546   5.5528224782e+01   4.8405020627e+01    0.1520917     0.107047 -55.78   0.00070087    1.650    0.394
       497  -7.0973    127.3155     19.7039   5.8157900521e+01   5.1540570733e+01    0.1457014    0.1109543 -63.00 0.0002612389    1.605    0.377
       498  -8.3619     87.7381     17.6180   6.7485056399e+01   6.1031645604e+01    0.2282069    0.1541226 -43.59  0.000590519    1.696    0.410
       499  -8.2180     38.7480     18.1767   8.7420681194e+01   6.9355579219e+01    0.1934674     0.141936 -47.54 0.0009636031    1.479    0.324
       500  -7.9384    112.8223     16.8331   6.0221495829e+01   5.5445088598e+01    0.1901719    0.1648044 -51.02 0.0004070714    1.319    0.242
       501  -8.1191     29.9829     16.0038   9.0798624958e+01   7.0777636313e+01    0.1668238    0.1457597 -63.14  0.000532506    1.620    0.383
       502  -8.0245      7.5983     15.7391   1.0328411402e+02   7.2819783132e+01    0.1553473    0.0955125 -60.83    0.0005198    1.604    0.376
       503  -8.0564     17.1232     14.1845   9.7009123414e+01   7.2381673219e+01    0.1496363    0.1294622 -50.20 0.0004960232    1.343    0.255
       504  -9.2612    233.5355    246.4889   9.3540849530e+01  -6.0561824777e+00    0.3952218    0.2131601  -7.74  0.002412071    2.260    0.558
       505  -8.3378    218.7297    248.4117   9.6174050332e+01  -4.2105951192e+00    0.1538029    0.1260148 -28.70 0.0006386464    1.621    0.383
       506  -8.1945    191.3780    249.5979   1.0081447865e+02  -4.4404884508e-01    0.2119765   0.07744628  48.95 0.0009460426    3.214    0.689
       507  -9.1183    175.6512    247.8446   1.0323502146e+02   2.0574902705e+00    0.2505861    0.1876373  67.31  0.001212168    1.945    0.486
       508  -8.6337    156.4266    248.3351   1.0656731287e+02   4.8331596355e+00    0.2555833    0.1446895  55.26  0.001401506    1.901    0.474
       509  -8.2773    113.1475    248.7492   1.1403722381e+02   1.1032666844e+01    0.1727235    0.1299991  81.17  0.001276243    1.492    0.330
       510  -9.3518    103.8167    246.9195   1.1547393606e+02   1.2597067834e+01    0.3680156    0.1943864 -89.13  0.001914208    3.076    0.675
       511  -9.1756    242.7884    246.8457   9.2142717939e+01  -7.3258790858e+00     0.286764    0.1499401 -20.92  0.001587713    2.070    0.517
       512  -7.5679     47.6602     10.3202   7.8927319721e+01   6.9348321114e+01    0.1149606   0.09991451 -58.03 0.0007050014    1.715    0.417
       513  -9.1232    211.0961    246.6223   9.7167684848e+01  -2.9538058118e+00    0.2137363    0.1616302 -26.00 0.0009421132    1.602    0.376
