#   1 NUMBER                 Running object number                                     
#   2 MAG_AUTO               Kron-like elliptical aperture magnitude                    [mag]
#   3 X_IMAGE                Object position along x                                    [pixel]
#   4 Y_IMAGE                Object position along y                                    [pixel]
#   5 X_WORLD                Barycenter position along world x axis                     [deg]
#   6 Y_WORLD                Barycenter position along world y axis                     [deg]
#   7 A_WORLD                Profile RMS along major axis (world units)                 [deg]
#   8 B_WORLD                Profile RMS along minor axis (world units)                 [deg]
#   9 THETA_WORLD            Position angle (CCW/world-x)                               [deg]
#  10 FWHM_WORLD             FWHM assuming a gaussian core                              [deg]
#  11 ELONGATION             A_IMAGE/B_IMAGE                                           
#  12 ELLIPTICITY            1 - B_IMAGE/A_IMAGE                                       
         1 -11.7957    199.6929      6.8931   6.6630723844e+01   3.4020795087e+01     1.022588    0.8092954 -67.62  0.005054644    1.305    0.234
         2 -11.0723    186.3595      2.3147   6.6441926054e+01   3.7697690136e+01     1.010508    0.2326218  66.39  0.003354917    3.613    0.723
         3 -10.8309    159.9148     17.8033   7.4849184688e+01   4.3048956640e+01    0.6997623     0.381031 -18.22  0.002019683    1.866    0.464
         4 -13.3902    169.4233      9.6491   7.0691916685e+01   4.1379812712e+01     1.875952     1.385272 -51.87  0.009107569    1.423    0.297
         5  -8.3878    188.1821     16.5579   7.0769972519e+01   3.5976354064e+01    0.3312418    0.2092828  -0.50  0.001191034    1.826    0.452
         6  -8.1678    111.9436     10.8533   8.0859186258e+01   5.6042240006e+01    0.2317165    0.1756507  28.08  0.000907072    1.303    0.233
         7  99.0000    114.7679      6.6450   7.8302888859e+01   5.5765079505e+01    0.9344288    0.2872229 -20.57  0.003133131    3.242    0.692
         8 -10.1837    125.5013      8.0803   7.6790731186e+01   5.2906269299e+01     1.156117    0.5833424   2.45  0.004449572    2.610    0.617
         9 -10.5583    121.2184      5.0144   7.6267098720e+01   5.4286248111e+01    0.6827529    0.5088177 -53.37  0.003478402    1.568    0.362
        10  -7.9923     71.8955      5.8913   8.9879310941e+01   6.5818320680e+01    0.2077463    0.1606152  16.42 0.0004217192    1.231    0.188
        11  -8.0055    189.7867    190.1590   1.1420973949e+02   1.1211962821e+01    0.1670544    0.1197805  10.16  0.000564025    1.292    0.226
        12  -7.8593    180.9948    249.6465   1.2403639951e+02   5.3969787175e+00    0.1549288   0.09813058  29.46   0.00114235    1.138    0.121
        13  -7.1571    223.0108    187.9769   1.0802356918e+02   6.5338992306e+00    0.1362889    0.1032838  12.10 0.0009243358    1.019    0.018
        14  -8.0920     43.9390    177.1504   1.4324497839e+02   3.3523491290e+01    0.1984146    0.1486202  89.50  0.001143798    1.264    0.209
        15  -7.5837    100.9988    175.9790   1.3026514915e+02   2.6881749449e+01    0.1386842    0.1192404  42.98            0    1.037    0.036
        16 -10.3410    194.2113    136.4790   1.0309456673e+02   1.8108039227e+01    0.8013569    0.5486226 -56.62  0.003880525    2.342    0.573
        17  -8.5381    184.9477    133.0763   1.0412488871e+02   2.0356209886e+01     0.313596     0.201975  28.36  0.001070982    1.559    0.358
        18  -8.7547     12.1835    128.0471   1.4732717293e+02   4.6684132550e+01    0.3808924    0.2908601   7.02  0.002535798    1.709    0.415
        19  -8.1514    139.3442    128.7253   1.1303599594e+02   2.9723847883e+01     0.319756    0.1879372  45.52  0.001477659    1.707    0.414
        20  -7.1979    198.6880    125.7775   9.9850924005e+01   1.8873482145e+01    0.1343898   0.09411183  16.79 0.0001999334    1.481    0.325
        21  -8.6682    244.2926    117.0176   9.0382733026e+01   1.1709823119e+01    0.2057844    0.1721098  20.37 0.0005419187    1.200    0.166
        22  -9.8702     40.3131    110.7973   1.3725534188e+02   4.8379617650e+01    0.4418902    0.4050068  68.80  0.001837459    1.107    0.097
        23  -7.5152     13.7309    113.9903   1.4574476254e+02   4.9796905259e+01    0.1639387    0.1265457 -84.60 0.0004303365    1.085    0.078
        24 -12.1118    226.5031     96.3337   8.8118534787e+01   1.7620243543e+01     1.275764     1.186314  33.59  0.008057077    1.233    0.189
        25  -9.8825    213.9061     94.2402   8.9535680113e+01   2.0419614406e+01    0.6485141    0.4709608 -76.90  0.003072545    2.445    0.591
        26  -7.0437    127.9945     90.7347   1.0638674463e+02   3.9370848330e+01    0.1734877     0.129458  42.17 0.0001796076    1.360    0.265
        27  -9.0790    189.0178     87.3037   9.1940849718e+01   2.6698202026e+01    0.2575493    0.1980383 -25.56 0.0002045611    1.216    0.177
        28  -6.9993      2.6610     88.3312   1.4691754153e+02   5.6477062035e+01    0.1276471   0.07540365  64.48 0.0007051817    1.741    0.426
        29  -7.9540     53.1676     85.1917   1.2837135126e+02   5.3104798853e+01     0.182883    0.1517558  87.67 0.0005716765    1.307    0.235
        30  -6.9343     19.3335     85.3172   1.4065094020e+02   5.6228559752e+01    0.1323494   0.08005336 -44.59 0.0007047838    1.692    0.409
        31  -7.5424    105.0220     83.0305   1.1059751361e+02   4.5501776754e+01    0.1774407    0.1690387 -25.80 0.0009708949    1.002    0.002
        32  -7.7102     72.6066     83.3039   1.2109992509e+02   5.0956445050e+01    0.1461556    0.1079373  72.79  0.000700851    1.816    0.449
        33  -8.0480    148.6751     89.9016   1.0102170251e+02   3.5146863671e+01    0.2385063    0.1963923  30.43 0.0004037372    1.226    0.184
        34  -8.4915    174.2262     81.5020   9.3108190358e+01   3.0891542418e+01    0.2615569    0.1918395 -28.74 0.0003752865    1.298    0.230
        35  -8.0760    234.2754     80.9585   8.3193225877e+01   1.8054216151e+01    0.1870984    0.1525413 -15.33 0.0003118447    1.053    0.051
        36  -9.0332     45.2495     79.0351   1.2990225261e+02   5.5467134855e+01    0.3058157    0.2348259  20.70  0.001596225    1.502    0.334
        37  -8.9849    184.9037     76.3798   8.9623120602e+01   2.9261101845e+01    0.3767357    0.1531081 -33.51  0.001417571    2.265    0.559
        38  -8.1079     37.0400     77.9261   1.3276904691e+02   5.6566311485e+01    0.2068347    0.1347106 -39.48 0.0004878658    1.601    0.376
        39  -8.2114    215.8793     76.9671   8.4737969413e+01   2.2346112288e+01    0.2368205     0.194694  61.22  0.001330357    1.430    0.301
        40  -7.3674    168.9664     75.9518   9.2527888676e+01   3.2973417560e+01    0.1720913    0.1613823  16.51 0.0003299445    1.053    0.050
        41  -9.9908      6.8834     67.1935   1.4282982310e+02   6.1332292485e+01    0.5746127    0.4119638  85.27  0.003241693    1.362    0.266
        42 -10.2893     16.0429     66.5776   1.3895254829e+02   6.0965403817e+01    0.6143612    0.3376294 -86.03  0.002886016    1.895    0.472
        43  -8.5834     79.2935     78.9966   1.1764871976e+02   5.0903808591e+01    0.2039372    0.1848191 -41.70 0.0008284369    1.034    0.033
        44  -7.9163     39.5592     71.3340   1.3035121519e+02   5.7898296742e+01    0.1981482    0.1267224  23.94 0.0006599965    1.799    0.444
        45  -8.3008    243.5387     70.0217   7.9294140980e+01   1.7544844259e+01    0.2603285    0.1409705 -61.89  0.001039186    3.505    0.715
        46  -8.9814     82.3900     70.1667   1.1396461609e+02   5.2342138016e+01    0.2136582    0.1324421 -57.97 0.0009528457    1.757    0.431
        47  -9.0308    232.2100     68.9357   8.0404958520e+01   1.9948787342e+01    0.2186224    0.1895292  33.35 0.0002794443    1.238    0.192
        48  -8.2650     61.3251     67.3306   1.2077323731e+02   5.6231928307e+01    0.1468423    0.1010082 -25.84 0.0007050582    1.704    0.413
        49  -7.2832     38.2437     67.3298   1.2993438993e+02   5.8982794969e+01    0.1365472   0.08580654 -42.05 0.0002055257    1.540    0.351
        50  -8.8156    178.9248     65.7260   8.7563546415e+01   3.2218630493e+01    0.4841455    0.2106748  34.83  0.001185962    3.294    0.696
        51  -8.4768    122.5058     65.9980   1.0020700485e+02   4.5277729576e+01    0.2209458    0.1316297 -12.77 0.0008105824    2.574    0.612
        52  -7.9486     46.5163     66.5639   1.2638394908e+02   5.8280503842e+01    0.1345821    0.1207225 -56.88 6.922881e-05    1.037    0.036
        53  -7.8754    213.2932     63.5422   8.1480191390e+01   2.4649175416e+01    0.1763529    0.1285541  40.86 0.0005838083    1.454    0.312
        54  -8.2161    136.0073     64.0000   9.6054809722e+01   4.2592645377e+01    0.2458806   0.08663385  51.66 0.0007982751    2.914    0.657
        55  -9.2088     12.5355     70.5155   1.4103790126e+02   6.0229762670e+01    0.2932457    0.1985719 -56.26  0.001705265    1.272    0.214
        56  -8.6084    220.1217     60.3354   7.9685574954e+01   2.3554182525e+01    0.2518857    0.1751591 -31.19  0.000379816    1.289    0.224
        57  -7.3522    116.5027     61.5480   1.0034047464e+02   4.7410711754e+01     0.152178    0.1410652  -3.91 8.976551e-05    1.045    0.043
        58  -8.4956     27.0000     61.0006   1.3316729602e+02   6.1509158126e+01    0.2213544   0.06411451 -65.18 0.0005863445    2.927    0.658
        59  -8.6955     72.1826     59.9892   1.1433288535e+02   5.6234802349e+01    0.2337595    0.1655463 -74.56  0.001078014    2.025    0.506
        60  -8.9142     37.4573     56.5749   1.2747321554e+02   6.1592235893e+01    0.3951295    0.1325664 -66.51  0.001322671    3.616    0.723
        61  -8.4921     88.3775     57.2423   1.0755530727e+02   5.3976835508e+01    0.2246172    0.1949929 -16.02 0.0006319116    1.145    0.127
        62 -10.4022     96.5296     53.2574   1.0337293308e+02   5.3165071413e+01    0.6709205    0.4719646  60.46  0.003140786    1.807    0.447
        63  -7.3866    170.3524     56.7380   8.6337402087e+01   3.5566184828e+01    0.1470134    0.1155318 -68.90 0.0004554607    1.615    0.381
        64  -8.7735    107.3919     55.6492   1.0087689977e+02   5.0461486811e+01    0.2783563    0.2340156 -22.41  0.001105398    1.155    0.134
        65  -9.4802     84.2164     55.7381   1.0845706705e+02   5.5051699133e+01    0.3379564    0.2329675 -17.63 0.0008856424    1.762    0.432
        66  -7.4427    196.7516     55.4374   8.1560809011e+01   2.9450373960e+01    0.1830315    0.1319001  43.67  0.000399243    1.447    0.309
        67  -9.4794    206.9142     50.6167   7.8722862768e+01   2.7700277712e+01    0.4112701    0.3510124  49.05  0.001680182    1.247    0.198
        68  -8.3385     92.0035     57.3161   1.0635580122e+02   5.3271716218e+01    0.3349924    0.2219267  32.46  0.001103444    1.646    0.392
        69  -8.7899     25.9717     50.2734   1.3096187320e+02   6.4124223078e+01    0.1774668    0.1550293 -51.75 0.0007540549    1.044    0.042
        70  -7.2920    172.0582     49.7650   8.3796176472e+01   3.6127839101e+01    0.1775396    0.1256849  60.73 0.0003117622    1.496    0.332
        71  -8.6534    125.9304     46.2485   9.2258850190e+01   4.7894145894e+01    0.2864959    0.2176025 -20.71 0.0005123152    1.312    0.238
        72  -9.1572    191.0240     42.9683   7.8654285905e+01   3.2382116537e+01    0.5787587    0.3177557  65.85   0.00249222    1.996    0.499
        73  -9.3152    202.4959     45.2732   7.7763727956e+01   2.9372560608e+01     0.616458    0.3143919  66.09  0.002669608    2.195    0.544
        74 -10.0806    206.3946     37.3191   7.4943773164e+01   2.9380724380e+01    0.5527958    0.4141208  -6.81  0.002588474    1.371    0.271
        75  -9.7131    199.7243     28.3119   7.3069948145e+01   3.1952159687e+01    0.4513503    0.3675356 -33.19  0.002061899    1.150    0.131
        76 -10.6715    197.9996     38.1522   7.6241461297e+01   3.1275835999e+01    0.7779849    0.4339174 -38.09  0.002725629    1.688    0.407
        77 -10.0439    193.7466     30.7395   7.4531791278e+01   3.3138628736e+01    0.5598846    0.3964795 -17.50  0.002285569    1.380    0.275
        78  -7.9104    155.4906     42.8641   8.4511148043e+01   4.1170074491e+01    0.2191278     0.143665 -25.96 0.0005571404    1.482    0.325
        79  -7.8313    186.7835     55.6453   8.3168835712e+01   3.1773730998e+01    0.2029026    0.1725414 -14.51 0.0006023636    1.120    0.107
        80  -7.8189    250.5186     41.4050   7.1426038163e+01   1.9325999280e+01    0.1252856    0.1089992 -18.85 7.206679e-05    1.054    0.051
        81  -8.5071    153.2368     37.9592   8.3213562530e+01   4.2393411910e+01    0.3076262    0.1859519 -44.56 0.0009498903    1.771    0.435
        82  -7.4181     96.3008     36.3333   9.6653947642e+01   5.6223501175e+01    0.1528902    0.1100754   7.51 0.0006963739    1.654    0.395
        83  -8.3427     74.3223     33.3411   1.0305535504e+02   6.1162398345e+01    0.1499267    0.1056687  -1.75 -4.062429e-05    1.723    0.420
        84  -9.3532     69.6405     26.9904   1.0194725895e+02   6.3140526280e+01    0.2490267    0.2363029   5.78 0.0003456014    1.133    0.117
        85  -7.7458    144.3209    249.6817   1.3023046749e+02   9.9627104846e+00    0.1006552   0.06602749  51.21 0.0007042751    1.665    0.399
        86  -9.0233    117.5160    248.5105   1.3475742232e+02   1.3381505622e+01    0.1663916    0.1038056 -58.08  0.001210799    2.166    0.538
        87  -8.3416    199.5036    247.9915   1.2080885739e+02   3.2708313045e+00    0.1352291   0.07335375  -3.50 0.0007771058    2.471    0.595
        88  -9.4700    250.0802    240.7350   1.1199611607e+02  -2.1199907906e+00    0.4767189    0.1442176 -23.93  0.002483689    3.673    0.728
        89  -7.7149    195.6850     21.9968   7.1617159971e+01   3.3587054958e+01    0.1813466    0.1610031 -24.80 0.0002672292    1.071    0.066
        90  -9.4118    145.3130     21.9594   7.8770725936e+01   4.6369232473e+01    0.2604232     0.205822  49.69 0.0003982039    1.236    0.191
        91  -8.8141    248.9777    230.9329   1.1075665376e+02  -1.1678582282e+00    0.2448112    0.1354968 -31.05   0.00168969    2.210    0.548
        92  -8.2013     79.0021     13.4911   9.1545829261e+01   6.3350543851e+01    0.2047639    0.1018328  30.89 0.0008092404    2.440    0.590
        93  -6.9844     60.0218     12.7439   9.8566936260e+01   6.7205411142e+01    0.1578155    0.1141481  39.70 0.0003280675    1.443    0.307
        94  -8.3243     70.3179    244.3106   1.4269958996e+02   1.9337868670e+01   0.08732582   0.07287382   7.98  0.000353321    1.641    0.390
        95  -8.0287     47.0618    223.9513   1.4567251420e+02   2.4848324566e+01    0.1421402    0.1213003 -18.21  0.001132279    1.806    0.446
        96  -8.9090    244.8054    213.9266   1.0881515889e+02   8.7520343120e-01    0.3101419    0.2125516 -40.80  0.002054309    2.553    0.608
        97  -7.7698    249.4438    203.5039   1.0643430097e+02   1.2793119432e+00    0.1635893   0.07901833  25.34 0.0001899051    1.744    0.427
