#   1 NUMBER                 Running object number                                     
#   2 MAG_AUTO               Kron-like elliptical aperture magnitude                    [mag]
#   3 X_IMAGE                Object position along x                                    [pixel]
#   4 Y_IMAGE                Object position along y                                    [pixel]
#   5 X_WORLD                Barycenter position along world x axis                     [deg]
#   6 Y_WORLD                Barycenter position along world y axis                     [deg]
#   7 A_WORLD                Profile RMS along major axis (world units)                 [deg]
#   8 B_WORLD                Profile RMS along minor axis (world units)                 [deg]
#   9 THETA_WORLD            Position angle (CCW/world-x)                               [deg]
#  10 FWHM_WORLD             FWHM assuming a gaussian core                              [deg]
#  11 ELONGATION             A_IMAGE/B_IMAGE                                           
#  12 ELLIPTICITY            1 - B_IMAGE/A_IMAGE                                       
         1 -13.6846     68.5044    144.3932   9.4150298099e+01   3.7634344128e+01     4.070382     2.080171  71.34  0.002989953    5.328    0.812
         2 -13.4145    220.7253     31.4385   3.2574014115e+01   2.7678888965e+01    0.9844866    0.7980196  48.13  0.006519897    1.708    0.414
         3 -13.6055    207.2598     43.4566   3.6483289257e+01   2.8952362704e+01      1.66708     1.290796  39.19  0.007834236    1.847    0.459
         4 -10.7266      2.0104     11.3282   8.3766317021e+01   7.3442870535e+01     0.612608   0.07529441 -45.61  0.001992391    6.397    0.844
         5 -11.8685    246.9078     10.2121   2.6560803687e+01   2.5051775757e+01    0.5435355    0.3347658  89.79  0.003741335    1.421    0.296
         6 -11.9144    246.3965      3.4426   2.5390788930e+01   2.5881482001e+01    0.5616093    0.3162221  75.85  0.003769562    1.698    0.411
         7  -9.1630     49.8989      3.2954   5.5211579859e+01   6.7918471831e+01    0.1767171   0.09614309  68.92 0.0007003113    4.460    0.776
         8  -8.8441    123.4405    201.2204   8.9223893863e+01   1.4592760436e+01    0.1962057    0.1438653 -71.22 0.0006544969    1.636    0.389
         9  -9.1916    140.3914    250.1684   9.2751994717e+01   1.9618069968e+00    0.1640731    0.1273483 -68.79 0.0009506927    1.726    0.421
        10 -10.3975    103.3413    236.9045   9.9209697497e+01   9.9611051253e+00    0.2350186    0.2134684  61.90    0.0013385    1.107    0.097
        11 -10.3423    102.1646    249.7907   1.0102094517e+02   7.5484525933e+00    0.2733357    0.2126439  57.38 0.0009921917    1.281    0.219
        12 -10.9570    101.2315    243.0073   1.0043036731e+02   9.0242471294e+00    0.4862413    0.2154636 -64.36  0.001942705    2.729    0.634
        13 -15.1988      5.8660    185.7836   1.1712289700e+02   3.3736008644e+01     10.26618     1.238152 -74.97   0.01450531    6.391    0.844
        14 -13.9746     44.5054    186.8123   1.0745625593e+02   2.9673461211e+01     3.432428     1.486906  60.88    0.0125327    3.121    0.680
        15 -14.8170      9.5135    207.8624   1.1784365295e+02   2.8125655099e+01     2.156295      1.19107 -66.90    0.0118099    1.693    0.409
        16 -16.3055     11.5603    243.8483   1.1957776721e+02   1.9961215642e+01     7.205794     3.404017  19.10   0.03462391    3.198    0.687
        17  -8.4887     65.0627    191.6905   1.0269116214e+02   2.5858921511e+01    0.1926997    0.1731765  60.43  0.000489747    1.067    0.063
        18  -9.0534     99.5823    180.8969   9.1867147598e+01   2.3400271041e+01    0.2423646     0.209232  20.66   0.00064112    1.242    0.195
        19 -11.3813     61.7015    172.0287   1.0084145089e+02   3.1333217280e+01     0.518184    0.3211247 -34.13  0.001854983    2.117    0.528
        20 -11.1934     66.6707    167.2037   9.8690079965e+01   3.1915783278e+01     0.350727    0.2727596 -29.80  0.001746554    1.533    0.348
        21 -11.9092     76.5398    158.4250   9.4338345767e+01   3.2785312665e+01    0.8582584    0.5087845  53.02  0.003605601    1.936    0.484
        22 -12.7958     63.6822    154.1520   9.7397230724e+01   3.5747432994e+01    0.5299228    0.3726207 -32.07  0.001068115    1.693    0.409
        23 -14.0254     53.7237    236.0113   1.1024830342e+02   1.6924068405e+01     2.116435    0.8263496  21.60  0.002681968    4.157    0.759
        24  -8.1233    100.6973    162.2853   8.8132640269e+01   2.7896253099e+01    0.1550341    0.1196392  71.66 0.0003264993    1.558    0.358
        25 -10.4379     28.6783    154.6962   1.0791683220e+02   3.9652912936e+01    0.5359845    0.1508361 -64.70  0.001894469    2.801    0.643
        26 -10.4593     33.1563    159.6041   1.0724585637e+02   3.7931611446e+01    0.3153109    0.2521254   0.47  0.001274313    1.569    0.363
        27 -10.7414     32.2018    156.3748   1.0710318885e+02   3.8871402145e+01    0.3933014    0.2707354 -65.94  0.001377918    1.278    0.218
        28 -11.3405     84.0636    152.0985   9.0929312298e+01   3.3267491632e+01    0.6530905    0.4667163 -22.12  0.002891911    1.824    0.452
        29  -8.6399    127.5171    152.4801   7.8747242082e+01   2.5438611380e+01    0.2729094    0.1527765 -62.34  0.001013924    2.186    0.542
        30 -10.1538    133.6838    144.1729   7.5254825749e+01   2.6220259933e+01    0.9549016    0.2271618 -53.86  0.002074793    6.119    0.837
        31  -8.3589    174.9758    149.4750   6.6626412784e+01   1.6793668618e+01    0.1979216    0.1340457  70.64 0.0005950771    2.326    0.570
        32 -10.2344     54.8079    147.7767   9.8999093718e+01   3.8590463010e+01    0.3928031    0.1885685 -63.35  0.001590834    1.917    0.478
        33  -9.5589     85.3378    172.3464   9.4276156993e+01   2.7837405024e+01    0.4330601    0.2966118 -14.09  0.001826499    2.205    0.547
        34  -8.8028     39.0660    146.5567   1.0365428250e+02   4.0741431543e+01    0.2640686    0.1312976  31.95  0.001144648    2.119    0.528
        35 -10.2197     29.7242    143.6702   1.0611008927e+02   4.2436342619e+01     0.421617     0.327769 -12.72  0.002288332    1.579    0.367
        36 -10.1352     99.2060    138.5373   8.3569372388e+01   3.4173713563e+01    0.5946336    0.3931136 -12.29  0.002280744    2.432    0.589
        37 -11.6261     86.1893    137.7903   8.7330954125e+01   3.6609363858e+01    0.3180448    0.2867612 -37.82 0.0004394369    1.110    0.099
        38 -10.2755     48.2904    170.0403   1.0432268564e+02   3.3539719881e+01    0.3801893    0.2811756 -57.64 0.0007781924    1.294    0.227
        39 -10.2728    107.3757    130.2870   7.9239381699e+01   3.4710840290e+01    0.5904529    0.3911828  16.67  0.002395506    2.041    0.510
        40 -10.8181    240.0013    169.2135   5.8536452192e+01   1.7320313299e+00    0.2295103     0.197938  22.41 0.0006760003    1.325    0.245
        41  -9.3239     97.1319    124.7243   8.0951076968e+01   3.7979160660e+01     0.287259    0.2203339  -9.41  0.000908834    1.657    0.396
        42  -9.7265    135.7279    130.1329   7.1386892237e+01   2.9087088310e+01    0.3898679     0.134124 -45.05   0.00121198    2.845    0.648
        43 -14.1145     35.5242    195.5194   1.1068130470e+02   2.8507677926e+01     2.635467     1.203055  62.93  0.007407378    2.608    0.617
        44  -9.9110    161.2076    118.1413   6.2276059709e+01   2.6314536697e+01    0.5145959    0.3164805 -71.50  0.001897671    2.697    0.629
        45  -8.9679    106.3847    118.2266   7.6532391283e+01   3.7799611162e+01    0.2341778    0.2041679  24.86 0.0004154066    1.204    0.169
        46  -9.8678    231.1940    113.6794   4.8640427851e+01   1.3026359981e+01    0.2539425    0.2312005 -60.51 0.0007355731    1.106    0.096
        47  -8.4622     78.6916    113.7091   8.4101020423e+01   4.3875272386e+01    0.2546949    0.1778802  74.93  0.001056139    2.222    0.550
        48  -8.4038    110.6088    167.7232   8.6465947404e+01   2.4808500475e+01    0.2157772    0.1483466 -67.38 0.0005421241    1.627    0.385
        49 -10.7485     53.1076    110.5154   9.2162504667e+01   4.8405286109e+01     0.454064    0.2109421 -58.39   0.00182928    2.011    0.503
        50  -9.2399    205.3699    110.2619   5.1870955339e+01   1.8577753790e+01    0.2731778    0.1983792  47.86 0.0009263149    1.554    0.356
        51 -10.4676    240.8721    101.8839   4.4894948629e+01   1.3304687760e+01    0.1946851    0.1677693 -30.14  0.001241901    1.285    0.222
        52 -10.5816    247.5067     91.7420   4.2047037103e+01   1.3786358918e+01    0.2377768    0.1501616  44.31  0.001313377    2.190    0.543
        53  -9.0771     42.9131    164.4506   1.0508517484e+02   3.5621409410e+01    0.2322994    0.1768291  16.80  0.001218875    1.557    0.358
        54  -8.4184    156.4397    111.5285   6.1682846250e+01   2.8732370021e+01    0.1538046    0.1447652 -66.51 0.0002630799    1.056    0.053
        55  -8.4247    161.0132     83.9886   5.3522697020e+01   3.3054695171e+01    0.1773593      0.16594  77.06 0.0003901052    1.052    0.049
        56  -8.9166     45.0501     60.9386   8.1427812714e+01   6.0487915640e+01     0.199007    0.1704134  -9.96 0.0003702697    1.022    0.022
        57 -10.4435     13.4027     59.8877   9.5496051873e+01   6.3955301817e+01    0.2535788    0.2024385 -46.65 0.0004139292    1.165    0.142
        58 -11.1593     92.5322    245.6559   1.0266413968e+02   9.7274156403e+00     0.393014    0.1669386  38.02  0.001772367    1.979    0.495
        59 -11.6838    197.9912     49.4154   3.8915174252e+01   3.0149723586e+01    0.5932304    0.4055448  57.17  0.001271671    1.565    0.361
        60 -10.4953    120.0038    244.7819   9.6483197318e+01   5.9429953072e+00     0.214692    0.1912159 -56.18 0.0007814773    1.282    0.220
        61  -9.0708    187.3503     31.2902   3.5946929343e+01   3.4881540655e+01    0.1221851   0.09218378  45.13 0.0007026921    1.669    0.401
        62  -8.1868    234.3006     45.3159   3.4152367029e+01   2.3160304155e+01    0.1020608   0.09621651  22.86 0.0003152857    1.615    0.381
        63 -10.1772     31.2738    205.0992   1.1261458255e+02   2.6632505740e+01    0.3663976    0.1987965  49.50  0.001815327    1.715    0.417
        64  -8.8727    189.5366     14.9831   3.1920093466e+01   3.6245585069e+01    0.1679518    0.1137862 -38.44 0.0006451611    1.567    0.362
        65 -10.7702    191.7655    192.6322   7.2034510676e+01   4.9182159065e+00    0.9382327    0.4898437 -65.09  0.002565298    6.643    0.849
        66 -11.4346    121.2595    211.1041   9.1364178998e+01   1.2733158124e+01    0.5517337    0.2302566  27.42  0.001981925    2.779    0.640
