#   1 NUMBER                 Running object number                                     
#   2 MAG_AUTO               Kron-like elliptical aperture magnitude                    [mag]
#   3 X_IMAGE                Object position along x                                    [pixel]
#   4 Y_IMAGE                Object position along y                                    [pixel]
#   5 X_WORLD                Barycenter position along world x axis                     [deg]
#   6 Y_WORLD                Barycenter position along world y axis                     [deg]
#   7 A_WORLD                Profile RMS along major axis (world units)                 [deg]
#   8 B_WORLD                Profile RMS along minor axis (world units)                 [deg]
#   9 THETA_WORLD            Position angle (CCW/world-x)                               [deg]
#  10 FWHM_WORLD             FWHM assuming a gaussian core                              [deg]
#  11 ELONGATION             A_IMAGE/B_IMAGE                                           
#  12 ELLIPTICITY            1 - B_IMAGE/A_IMAGE                                       
         1 -11.0785    224.8950     22.8672   5.2694074124e+01   2.5742717483e+01    0.8265313     0.496863  73.09  0.003890268    1.745    0.427
         2 -11.4894    248.0858     31.4984   5.2737244966e+01   1.9132821560e+01     1.000383    0.5179715 -42.95  0.004608252    1.757    0.431
         3 -10.8499    220.7175     15.1969   5.0919894137e+01   2.7628685861e+01    0.6098852    0.5293881  44.20  0.003456215    1.254    0.203
         4 -10.2597    228.8638     16.5368   5.0511372820e+01   2.5433054995e+01    0.6083537    0.3839559  52.98  0.002984311    1.689    0.408
         5  -9.8862    240.2573      2.2891   4.5667570890e+01   2.4061736256e+01     0.359796     0.222852 -52.06  0.001011048    1.507    0.337
         6  -9.4554    231.6945      2.5701   4.6396292486e+01   2.6128391496e+01    0.4626303    0.2325044 -78.46  0.001324783    2.375    0.579
         7 -11.1791    248.9784      5.2634   4.5807529464e+01   2.1698295402e+01    0.7096387    0.3887932 -19.65  0.003433625    1.831    0.454
         8 -10.6301    250.1282     18.9277   4.9258525859e+01   2.0036878166e+01    0.7110395    0.2180155 -22.13  0.002459825    3.225    0.690
         9 -10.1739    233.0898     10.6245   4.8489339795e+01   2.4994932964e+01     0.291636    0.2534431  27.28 0.0008336603    1.327    0.246
        10 -10.8772    246.3360     13.2281   4.8081953072e+01   2.1524373031e+01    0.8426183    0.2416234  59.41    0.0030817    3.345    0.701
        11 -10.6976    238.1658      7.9819   4.7348495440e+01   2.4015756591e+01    0.6722639    0.3241884 -55.38  0.002916234    2.154    0.536
        12 -10.6159    244.1111     22.1249   5.0625181128e+01   2.1113036549e+01    0.4262881    0.3518662   6.73  0.001453629    1.395    0.283
        13 -11.2833    239.1844     17.7406   4.9892534130e+01   2.2767056236e+01    0.6373971    0.5540099 -89.73   0.00376722    1.185    0.156
        14  -9.7985    170.0186     30.7349   6.2453064817e+01   3.9193519397e+01    0.4506034    0.2120581  -8.19  0.001460623    3.330    0.700
        15 -10.1244    118.5130     24.7471   7.0607412337e+01   5.3004695669e+01    0.4147561    0.1963318 -45.72  0.001456446    2.475    0.596
        16  -9.6799    199.8883     15.0926   5.3116962226e+01   3.3055438813e+01    0.3408199    0.2813738  51.72 0.0008244759    1.244    0.196
        17 -10.6036     67.9523     11.0297   7.9356399311e+01   6.5301443898e+01    0.3367931    0.2357797   5.71  0.001486222    1.571    0.364
        18 -10.6362    212.9378      8.5724   4.9749491623e+01   3.0303023440e+01    0.5459489    0.3729748 -26.56  0.002757649    1.425    0.298
        19  -9.3759    198.0355     10.0760   5.1757034069e+01   3.4061685000e+01    0.3811308    0.1966617 -15.15  0.001579948    2.129    0.530
        20  -9.4240    187.2675      9.7181   5.2887118849e+01   3.6966965600e+01    0.3624293    0.2131507 -37.97  0.001641846    1.654    0.395
        21 -10.2480    155.0807      8.6936   5.6947752846e+01   4.5675929470e+01    0.5838554    0.1549501 -30.35  0.001893995    3.243    0.692
        22  -9.1410     84.5110     10.5273   7.3530153654e+01   6.2271906550e+01     0.274164     0.121583 -28.38  0.001008271    2.085    0.520
        23  -9.8937    117.1391      8.0367   6.3758153588e+01   5.5368253451e+01    0.4488063    0.1543499 -38.96   0.00157748    3.096    0.677
        24  -8.6357    220.6156      2.8221   4.7376537233e+01   2.8886092923e+01    0.2029817    0.1134643 -35.23 0.0008622281    1.636    0.389
        25  -9.2829    206.2668      6.8321   4.9887488569e+01   3.2211365232e+01    0.2608244    0.1661719 -28.78  0.001157826    1.513    0.339
        26  -9.9091    223.1330      6.0856   4.8087359335e+01   2.7935021669e+01    0.5101596    0.2216877  62.31  0.001265032    2.231    0.552
        27  -9.4278    171.4841      5.0750   5.3291738179e+01   4.1650102263e+01     0.217262    0.1429966 -18.93  0.001024449    1.567    0.362
        28 -10.2534     64.1519      2.2178   7.6060848521e+01   6.7136397418e+01    0.2513895    0.2120013   6.26 0.0008533612    1.076    0.071
        29  -8.5937    194.4927      1.9832   4.9585273170e+01   3.5776344312e+01    0.2165239   0.08854731 -44.78 0.0007250482    2.464    0.594
        30  -8.9832    190.3298      2.2006   5.0094045556e+01   3.6865088592e+01    0.1999101    0.1740796  56.37 0.0008290999    1.150    0.130
        31  -8.5853    183.0000      1.9121   5.0809990350e+01   3.8851363560e+01    0.2290062   0.08139847 -19.47 0.0007948923    2.890    0.654
        32 -10.9438    247.3718    216.2744   9.3705540992e+01  -2.9616264859e+00    0.4110631    0.3193791 -36.70  0.002871469    1.848    0.459
        33  -8.5923    209.5100    250.4676   1.0419716196e+02  -5.7939899952e-01    0.1057761   0.07411097  32.73  0.000809428    1.037    0.036
        34  -8.8397    192.9783    250.2381   1.0667007984e+02   1.8362507409e+00    0.1476152   0.06507604  42.59 0.0008893615    1.644    0.392
        35  -9.3314    247.1223    208.7575   9.2550441659e+01  -2.2153455051e+00    0.2212494    0.1209868  27.46  0.001347732    1.557    0.358
        36 -11.4599    214.5194    214.0655   9.8466499349e+01   2.3307122101e+00    0.4369264    0.2677784 -35.89  0.002794306    2.003    0.501
        37  -8.8916    109.4602    216.4852   1.1658976861e+02   1.8635746886e+01    0.1123608   0.08687464  57.91 0.0001388067    1.008    0.008
        38  -9.6337     63.4034    216.2225   1.2448796302e+02   2.4873771603e+01    0.1448843   0.08198795  86.69 0.0009555664    1.732    0.423
        39 -10.1933    186.6168    213.2970   1.0292766160e+02   6.9339248603e+00    0.2858244    0.2089316 -60.42  0.001690004    2.054    0.513
        40 -10.1782    232.2760    212.7411   9.5460571059e+01  -3.2606584445e-01    0.2743062    0.2427099 -47.11  0.001440329    1.746    0.427
        41  -9.7255    132.2374    214.0580   1.1236109331e+02   1.5576526048e+01    0.1655965    0.1395602  42.86 0.0007878885    1.189    0.159
        42  -8.6572    160.4859    218.5176   1.0803459978e+02   1.0491800187e+01     0.115369   0.09060571  44.95 0.0001283783    1.002    0.002
        43 -10.1262    207.4542    209.2381   9.8881754869e+01   4.0112821887e+00    0.3319747    0.1898591  65.35  0.001437768    4.082    0.755
        44  -9.8291    235.6485    203.8189   9.3513738760e+01   5.8973495576e-02    0.2084087    0.1862539  15.20 0.0008280085    1.247    0.198
        45  -9.2684    187.8228    203.7224   1.0133096840e+02   7.9412016967e+00     0.195098    0.1542862 -85.07  0.001217101    2.038    0.509
        46  -8.5712     85.9721    208.4713   1.1994471333e+02   2.3240683064e+01    0.1665725   0.06479567  57.48 0.0008092307    2.481    0.597
        47  -9.5557    193.5043    202.6069   1.0019561015e+02   7.1264961053e+00    0.2059311    0.1617042 -86.02  0.001257705    2.162    0.537
        48 -10.7415    248.0263    193.9497   8.9941589228e+01  -8.8507784172e-01    0.3910464    0.3254395  55.40  0.002196498    1.712    0.416
        49  -9.5611    218.2230    201.8677   9.5973609446e+01   3.0885226304e+00    0.1666961    0.1469073  37.50 0.0009282888    1.243    0.196
        50  -8.3477    206.4811    202.4809   9.7998869289e+01   4.9645209333e+00    0.1189006   0.09596554  31.80  0.000298443    1.018    0.018
        51  -8.7007    160.3567    202.2058   1.0589538491e+02   1.2770973528e+01    0.1413049    0.1121512 -65.99 0.0005157703    1.606    0.377
        52  -9.9070    241.7107    200.3999   9.2007796754e+01  -5.4728396435e-01    0.3772846    0.2160079  46.25  0.002256259    1.721    0.419
        53 -10.5927    230.9980    195.3495   9.2842410901e+01   1.7159664056e+00    0.3997869    0.2365967 -16.85   0.00162709    1.905    0.475
        54  -9.2968    222.6434    201.3250   9.5170958597e+01   2.4236357162e+00    0.1596717    0.1400086  69.60  0.001102831    1.706    0.414
        55  -8.8105     16.4575    201.4788   1.3155965551e+02   3.2520741059e+01    0.1015888   0.07010498  72.00 0.0001388415    1.012    0.012
        56  -9.1274    164.4971    200.5040   1.0492097330e+02   1.2318744992e+01    0.1209686   0.09953769  43.23 0.0001422597    1.015    0.014
        57  -8.7286    203.6056    197.8161   9.7739580572e+01   6.0154133940e+00    0.1439704    0.1140403 -43.42  0.000947875    1.609    0.378
        58  -9.4108    249.7653    201.2239   9.0912116445e+01  -1.8876283465e+00    0.2270408    0.1453753 -33.45  0.001321714    1.894    0.472
        59  -9.2504    184.5166    196.0356   1.0072994308e+02   9.5178809326e+00    0.1641732    0.1210994 -36.02 0.0009423385    1.610    0.379
        60  -8.9889    176.3148    196.6522   1.0226336864e+02   1.0846650737e+01    0.1177161   0.09026976  72.99 0.0007047319    1.722    0.419
        61  -9.8048    219.0110    215.0059   9.7891551348e+01   1.5170376769e+00    0.2204973    0.1350829  39.40  0.001171639    1.307    0.235
        62 -11.3428    237.7995    190.3857   9.0913314805e+01   1.1432047227e+00    0.5545445    0.2603479 -33.12   0.00296106    2.343    0.573
        63  -9.1311    224.3133    191.5887   9.3280357779e+01   3.2529277311e+00     0.194616    0.1535096 -18.51 0.0009183417    1.359    0.264
        64  -8.6409    193.9829    187.9952   9.7787298661e+01   8.9493088603e+00    0.1523025    0.1265141  34.34 0.0009968522    1.011    0.011
        65 -11.2095    227.6721    180.2544   9.0741560402e+01   4.0125238988e+00    0.5103813    0.4659268 -59.55  0.002767399    1.608    0.378
        66 -10.1944    224.8477    184.8617   9.2026122879e+01   3.9509588857e+00    0.3197938    0.2048664 -41.00  0.001285227    1.951    0.488
        67 -10.0094    249.5958    184.6178   8.8057695318e+01  -1.6349040341e-01    0.3140261    0.1990167 -32.73  0.001926589    1.789    0.441
        68  -9.0320    218.5802    184.2540   9.2953210772e+01   5.1085373681e+00    0.2790831    0.1948236 -85.67   0.00116628    4.581    0.782
        69  -9.2054    203.6288    183.8254   9.5409474606e+01   7.7946769509e+00    0.1557773    0.1160182 -43.85 0.0009448802    1.653    0.395
        70  -9.3328    106.1914    184.0126   1.1357600472e+02   2.4546276313e+01    0.1888126    0.1107764  60.93 0.0008257238    1.636    0.389
        71 -10.6680    242.2503    180.7155   8.8491365692e+01   1.4724501000e+00    0.4236829    0.2285224 -33.36  0.002057906    2.025    0.506
        72 -10.0510    245.6665    178.3412   8.7522500270e+01   1.1646562732e+00     0.230371    0.1620237  58.67  0.001341798    2.036    0.509
        73 -10.5512    157.5414    179.8697   1.0308675847e+02   1.6649355794e+01    0.4127133    0.2332821 -45.10  0.001662904    2.047    0.511
        74  -9.5722    235.9075    180.9767   8.9542756837e+01   2.5134319691e+00    0.2662302    0.1686287 -27.15  0.001586732    1.662    0.398
        75  -8.5469     64.5003    179.4723   1.2124391401e+02   3.1259325382e+01    0.1156564   0.09103259  73.14 5.226603e-05    1.012    0.012
        76  -9.9392    217.8586    177.9056   9.1940962202e+01   6.0255004979e+00    0.4062013    0.2119866  59.26   0.00178764    2.986    0.665
        77  -8.7668    152.5976    178.2493   1.0376903358e+02   1.7791846723e+01    0.1307823    0.0885064  65.54 0.0006942527    1.699    0.411
        78 -10.3197    233.5272    174.2977   8.8696545046e+01   3.7048015585e+00    0.3758165    0.2123966 -35.91  0.001751175    1.974    0.493
        79  -8.5177    197.5276    176.5029   9.5190815106e+01   9.8838742174e+00    0.1268552    0.1102414  33.08 0.0008098321    1.031    0.031
        80  -9.1237    250.4565    173.2628   8.5834969328e+01   9.2524718983e-01    0.2214957    0.1095172 -20.86    0.0011375    2.104    0.525
        81 -10.6211    224.9066    171.8199   8.9642548963e+01   5.5324278055e+00    0.4390097    0.2960162 -38.21  0.002429571    1.719    0.418
        82  -8.5101      8.5130    172.4713   1.3152603587e+02   3.8549037289e+01    0.1047231   0.07530592  78.75 9.699447e-05    1.035    0.034
        83 -10.0752    237.5352    169.8374   8.7211121676e+01   3.5348867641e+00    0.2388285    0.1845831 -31.21  0.000875696    1.449    0.310
        84 -10.6486    212.4065    169.2032   9.1259844969e+01   8.1447951012e+00    0.4068438    0.2129635 -30.22  0.001797808    2.091    0.522
        85  -8.4573    183.6867    170.7131   9.6651078902e+01   1.3283195592e+01    0.1290869   0.09392521  18.54 0.0003601848    1.582    0.368
        86  -9.3431    170.0375    169.1215   9.8918709753e+01   1.6083882131e+01    0.2649241    0.1853885 -49.38  0.001053075    1.646    0.392
        87 -10.2556    248.0735    167.2829   8.5061682935e+01   2.0030124763e+00    0.4746538    0.1991087  48.53  0.002219191    2.435    0.589
        88  -9.8799    147.3842    167.8931   1.0310267247e+02   2.0470072650e+01    0.2435068    0.1901545  52.81  0.000471189    1.154    0.133
        89 -10.0597    193.0197    165.7907   9.4043067391e+01   1.2257108295e+01    0.2752227    0.1948364 -33.35  0.001113666    1.551    0.355
        90  -9.6477    234.0983    164.3819   8.6712135702e+01   4.8066302887e+00    0.2516349    0.1954338 -47.84  0.001351533    1.754    0.430
        91  -9.4616    240.3214    162.9357   8.5430843261e+01   3.8696420136e+00    0.2662549    0.1843856  -4.17 0.0008240126    1.456    0.313
        92 -11.4111    246.6760    158.7721   8.3606435661e+01   3.2397823993e+00    0.5949151     0.507742  18.69  0.003569885    1.082    0.076
        93 -10.4735    249.8181    151.0586   8.1556222127e+01   3.6009407222e+00    0.4715808    0.2883635 -31.34  0.002321618    1.643    0.391
        94 -10.2336    242.6179    152.8072   8.3034835386e+01   4.6916532772e+00    0.2572005    0.2308907 -20.17  0.001228089    1.242    0.195
        95 -11.5345    244.1490    148.7912   8.1965553781e+01   4.9081772889e+00    0.5758014    0.3434674 -26.57  0.002250335    1.628    0.386
        96 -11.2536    249.1247    134.8834   7.8232790858e+01   5.7204091401e+00     1.238137    0.2919252 -28.64  0.004002593    4.224    0.763
        97 -10.4081    248.7683    130.5857   7.7341898087e+01   6.3325395404e+00    0.3678916    0.2919624 -68.50  0.001562607    2.017    0.504
        98  -8.7778     46.6828    162.2959   1.2321901326e+02   3.6770172484e+01    0.1210982    0.0687521  68.91 0.0002673701    1.608    0.378
        99 -10.2897    250.1900    140.1326   7.9205572993e+01   4.8657083541e+00    0.5456167    0.2274565  38.72   0.00187296    2.403    0.584
       100  -8.3295     51.6935    159.3451   1.2188069634e+02   3.6791110163e+01    0.1259319   0.07126912  71.73 0.0007042717    1.694    0.410
       101 -10.7357    230.5040    140.9187   8.2483511844e+01   8.5139437071e+00    0.3984509     0.236446 -30.58  0.001278132    1.670    0.401
       102  -9.8213    226.4994    156.9654   8.6489707989e+01   7.1449358159e+00     0.307682    0.2082862   7.91  0.001102934    1.652    0.395
       103 -10.2190    229.7379    147.7228   8.4055520606e+01   7.7514198308e+00    0.3030747    0.2165976 -33.27 0.0008167294    1.462    0.316
       104 -10.1731    234.5178    147.9465   8.3322102460e+01   6.8123618907e+00    0.2967634     0.191474 -26.01  0.001031533    1.530    0.347
       105  -9.6277    233.0432    152.5000   8.4505246967e+01   6.5002892961e+00    0.3349831    0.2327098  10.83  0.001247562    1.510    0.338
       106  -9.5962    229.4615    152.4743   8.5086587269e+01   7.1768289945e+00    0.2438029    0.1952235  29.95 0.0009809794    1.131    0.116
       107  -8.9606     41.4398    157.5256   1.2387661053e+02   3.8319087840e+01    0.1147765   0.09006108  83.23 4.279526e-05    1.033    0.032
       108  -9.6984    221.8510    153.0147   8.6467266465e+01   8.5513931140e+00     0.279401    0.2079811 -38.62 0.0009940906    1.505    0.336
       109  -8.5392    118.6815    153.3447   1.0660546269e+02   2.8257698224e+01    0.1383982   0.09550407  78.28 0.0007049127    1.723    0.420
       110 -10.5289    197.0649    149.3494   9.0076356386e+01   1.3937926564e+01    0.2580258    0.1978831 -42.50 0.0009271103    1.445    0.308
       111  -8.2364     35.6732    150.3518   1.2445183182e+02   4.0405932333e+01     0.126037   0.06742158  70.42 0.0005669415    1.764    0.433
       112 -10.8700    223.5630    146.2694   8.4777390763e+01   9.1403513794e+00    0.6303129    0.2573104  40.33   0.00263241    2.379    0.580
       113  -9.8115    206.7910    147.0435   8.7842367887e+01   1.2341313969e+01    0.2297381    0.1521443   2.80  0.001098363    2.005    0.501
       114  -9.0731    111.8638    147.1521   1.0705694403e+02   3.0651350728e+01    0.2091479     0.167894  79.50  0.001221715    1.242    0.195
       115  -8.8254     17.0077    146.9955   1.2820955403e+02   4.2873453867e+01    0.1373664    0.1009322  84.58 0.0009982795    1.013    0.013
       116  -8.3285    214.6455    142.2993   8.5456212147e+01   1.1461549458e+01    0.1289327    0.1095857 -84.78 0.0007036593    1.700    0.412
       117  -9.8501      8.9451    141.2386   1.2953749176e+02   4.4733856829e+01    0.1807756    0.1115778  73.19  0.001229228    1.319    0.242
       118 -10.7672    225.3461    138.1453   8.2734852914e+01   9.9104168699e+00    0.4405832    0.2649878 -20.85  0.002074547    1.750    0.429
       119 -10.0874    219.2932    138.7442   8.3887166622e+01   1.1037695599e+01    0.3067173    0.2343641  84.28  0.001403085    2.139    0.533
       120  -9.0394    209.4997    137.5317   8.5323553869e+01   1.3203754000e+01    0.1368438    0.1261944  17.56 0.0002187495    1.022    0.022
       121 -11.1689    241.7176    133.2386   7.9012055859e+01   7.3496100485e+00    0.5100279    0.4125074 -23.53  0.002173896    1.201    0.167
       122 -10.9903    233.6996    133.4331   8.0327041632e+01   8.8963880759e+00     0.614012    0.2506838 -27.25  0.002509605    2.510    0.602
       123  -8.9540    164.5109    136.4730   9.3683433803e+01   2.2705814080e+01    0.1395095    0.1322649  44.62 0.0008099695    1.005    0.005
       124  -9.1729     53.0181    135.9232   1.1894641068e+02   4.1556714455e+01    0.1864638    0.1536494  87.23 0.0005757668    1.018    0.018
       125  -9.5794    169.8884    134.5386   9.2173328630e+01   2.1936631148e+01    0.2204435    0.1935532 -12.86  0.000543867    1.261    0.207
       126  -9.0586    140.0365    135.0000   9.8561033504e+01   2.7900583435e+01    0.2291304   0.07618617  45.67 0.0004943006    2.887    0.654
       127  -9.4590     86.7454    129.7238   1.0990980121e+02   3.8356362568e+01    0.2275785    0.1374798  77.17  0.001060942    2.161    0.537
       128  -9.0024     61.8047    129.6065   1.1597800039e+02   4.1858789649e+01    0.1619618    0.1056494  54.11 0.0003807241    1.513    0.339
       129 -10.1892    229.1975    125.2921   7.9220545439e+01   1.0925418615e+01    0.4524649    0.2881957  -9.09  0.002181611    1.803    0.445
       130  -9.6272    193.1341    127.7134   8.6105551291e+01   1.8169519053e+01    0.2224195    0.1809989  66.02 0.0008207995    1.421    0.296
       131  -8.8006     68.7930    128.3846   1.1408046780e+02   4.1216681345e+01    0.1562957    0.1230915  31.45 0.0003871879    1.574    0.365
       132 -10.4900    206.4065    126.6028   8.3415915045e+01   1.5508036660e+01    0.2752292    0.2299698  33.87 0.0005888993    1.148    0.129
       133  -9.8655    213.0276    123.4996   8.1528258582e+01   1.4570709109e+01    0.2724788    0.2329791   4.86  0.001081986    1.156    0.135
       134 -10.9418    241.2434    124.4578   7.7116617934e+01   8.6011718142e+00    0.4257372    0.3769637 -72.94  0.002376688    1.566    0.361
       135 -10.9860    230.5264    115.9441   7.6825054378e+01   1.1963689435e+01    0.4485838    0.3274923  61.84   0.00152663    1.641    0.391
       136 -10.7307    235.3822    114.9564   7.5822770946e+01   1.1085620180e+01    0.5400355    0.2141276 -39.12  0.001958508    2.554    0.608
       137  -9.1015    189.1136    123.2737   8.5838253332e+01   1.9767902848e+01    0.3644549     0.211899 -30.37  0.001628199    1.838    0.456
       138  -9.3869    221.6328    129.1713   8.1360019979e+01   1.1931722437e+01    0.2282381    0.1918699  59.90 0.0007053854    1.387    0.279
       139  -9.5073    221.9287    121.1280   7.9455060905e+01   1.3033373167e+01    0.3174067    0.1999511  49.59  0.001238857    1.605    0.377
       140  -9.8229    244.0207    119.4808   7.5549753974e+01   8.7071331294e+00    0.3044876    0.2365993 -76.02  0.001587699    2.076    0.518
       141  -8.6604    124.8609    119.8540   9.8801292392e+01   3.3872110709e+01    0.1912127     0.159648  88.10 0.0003987058    1.290    0.225
       142  -8.5491    114.5361    120.5353   1.0140894535e+02   3.5665161516e+01      0.13842    0.1298223 -88.96 0.0001454569    1.013    0.013
       143 -11.6377    213.5803    115.5730   7.9552485492e+01   1.5649319722e+01    0.8271446    0.3302062  38.53   0.00294244    2.966    0.663
       144 -11.6029    230.9617     94.2129   7.1418425636e+01   1.4949552712e+01     0.720868    0.3686216  47.14  0.002761109    1.996    0.499
       145 -10.5773    237.0770     89.8890   6.9409637081e+01   1.4197555063e+01     0.444465    0.3674278 -18.11  0.001614957    1.122    0.109
       146 -10.5710    226.2637     86.1681   7.0061128285e+01   1.7157999015e+01    0.8591952    0.3828488 -18.91   0.00307397    2.807    0.644
       147 -10.0337    231.9668     83.1808   6.8429802168e+01   1.6276409544e+01    0.5368495    0.2888124 -44.04  0.002177244    1.944    0.486
       148 -11.1791    236.5555     99.4253   7.1879106949e+01   1.2991027128e+01    0.6170634    0.4657043 -28.87   0.00332076    1.238    0.192
       149 -10.1665    237.7928     84.0039   6.7803399905e+01   1.4847664715e+01    0.4499421    0.3070243 -63.97  0.001982645    2.033    0.508
       150 -12.0903    245.1533     81.0528   6.6029685370e+01   1.3613258939e+01     1.274195    0.7247859 -46.65  0.005802029    1.920    0.479
       151 -10.8305    235.4187     73.9557   6.5519404721e+01   1.6758019795e+01    0.8937209    0.2549909 -29.69  0.002941214    3.093    0.677
       152 -12.3694    247.5708    108.3729   7.2419229172e+01   9.4601437537e+00     1.474925    0.5565088 -23.19  0.005491021    2.840    0.648
       153 -11.0281    244.0036     95.1241   6.9722207943e+01   1.1977051944e+01    0.9691753    0.2768825 -39.09  0.003231377    3.381    0.704
       154 -10.7317    249.5205     66.5133   6.1740943239e+01   1.4544596204e+01    0.9217589    0.3411308 -32.42   0.00303231    2.284    0.562
       155  -9.1377     52.0518    113.4675   1.1604300506e+02   4.6621398704e+01     0.206389    0.1428033 -70.25 0.0007374095    1.232    0.188
       156 -10.1336    104.5636    111.7926   1.0199395053e+02   3.9313981821e+01    0.2358998    0.1919036  46.40 0.0004839172    1.281    0.219
       157  -9.9045    183.4049    108.2384   8.3281375019e+01   2.3581532677e+01    0.2867288    0.1440183 -32.18  0.001140235    2.095    0.523
       158  -9.2725    236.0195    107.6809   7.3982602725e+01   1.1959826072e+01    0.1939047    0.1731533  23.38 0.0006564606    1.102    0.093
       159 -10.3362    215.3976    107.6367   7.7300240543e+01   1.6450441345e+01    0.3320811    0.2591186  58.52  0.001734765    1.406    0.289
       160  -8.8023     73.5399    108.4874   1.0942612505e+02   4.4975750266e+01    0.1336754    0.1151003 -81.81 0.0008089168    1.037    0.036
       161 -10.1272     14.4067    111.7025   1.2571703536e+02   5.0619237085e+01     0.301636    0.1420274  47.20  0.001259856    2.180    0.541
       162 -10.7262    241.9727    104.5441   7.2324158523e+01   1.1133423779e+01    0.5137087    0.2848348 -32.33  0.002046096    1.669    0.401
       163  -8.8348    196.0076    103.0101   7.9553981288e+01   2.1571132569e+01    0.1847966    0.1629302  45.47 0.0006159545    1.138    0.121
       164  -9.3325    161.3533    124.2281   9.1636252537e+01   2.5588461215e+01    0.2274046    0.2010676  56.37 0.0005665758    1.119    0.107
       165  -8.6600    167.5140    100.5091   8.4497504066e+01   2.8579463469e+01    0.1469286    0.1465897 -14.28 0.0008104276    1.012    0.012
       166  -8.9714    216.6578     99.6727   7.5084724425e+01   1.7367734531e+01    0.1549336     0.107711  17.24  0.000705119    1.739    0.425
       167 -10.0090    130.3089     97.9039   9.2227793310e+01   3.7280554502e+01    0.2560147    0.2172467  40.49 0.0005809223    1.241    0.194
       168 -10.2642    221.7278    100.6492   7.4500877638e+01   1.6081059807e+01    0.3040047    0.1844943 -39.64  0.001404078    1.646    0.392
       169  -9.0231    195.9801     90.9801   7.6383484970e+01   2.3532848431e+01    0.3100276     0.175393 -68.93 0.0009581413    4.126    0.758
       170  -8.6459    172.3090     91.2871   8.1016512424e+01   2.9111543753e+01    0.1521431    0.1176678  16.67 0.0003430734    1.574    0.365
       171 -10.4733    216.9369     89.1797   7.2316169699e+01   1.8873836655e+01    0.4149559    0.3344758 -32.84   0.00218049    1.192    0.161
       172  -9.6816    176.2884     87.4170   7.9137797381e+01   2.8838700735e+01     0.266636    0.1798756 -54.96 0.0009511594    1.724    0.420
       173  -8.9612    139.5163     87.4889   8.7173935138e+01   3.7374146500e+01     0.148369    0.1454449 -44.95 0.0001946814    1.016    0.016
       174  -8.5137    134.7215     83.3662   8.7143783394e+01   3.9235237757e+01    0.1549942    0.1158551 -71.85 0.0007010917    1.679    0.405
       175  -8.8695     88.1567     82.1766   9.9289807477e+01   4.8560585399e+01    0.1900185    0.1563309 -79.61    0.0004597    1.311    0.237
       176  -8.7347     21.2925     81.6963   1.1985578410e+02   5.6774343376e+01    0.1173187   0.07844001  78.87 0.0002675163    1.574    0.365
       177  -8.8234    194.5378     76.5076   7.2615210412e+01   2.6193233693e+01    0.2346573    0.1337803 -40.49 0.0001669907    1.723    0.419
       178  -9.7587    119.8354     78.7075   8.9526904607e+01   4.3341287067e+01    0.2340993    0.1915582  26.35  0.001192564    1.421    0.296
       179  -9.6411    175.8517     77.4999   7.6378603618e+01   3.0635625634e+01    0.3242131    0.1867531 -48.65  0.001316414    1.902    0.474
       180  -9.8239    214.3807     75.9639   6.9160666333e+01   2.1434257764e+01    0.4111663    0.2864478  59.04  0.001974625    1.519    0.342
       181 -10.4068    226.4602     74.5010   6.6935194600e+01   1.8767246950e+01    0.4243714    0.3709875  26.44  0.001699917    1.194    0.163
       182  -8.7706    126.5000     76.4999   8.7149859201e+01   4.2368342154e+01    0.1487742     0.142538 -53.18 -0.001165068    1.019    0.018
       183  -9.7513    241.9403     68.9659   6.3334497770e+01   1.5933457231e+01    0.4345619    0.2232113  54.08   0.00174578    2.038    0.509
       184  -9.7724    238.7632     65.0574   6.2716204669e+01   1.7177515311e+01    0.4774536    0.3403056  39.44  0.002426083    1.538    0.350
       185 -11.0840    225.9864     66.7655   6.4904456638e+01   1.9954935377e+01     0.549846    0.3971373 -85.08  0.002428109    1.836    0.455
       186  -9.2641    221.2888     61.4020   6.4084452002e+01   2.1827150946e+01    0.2972851     0.195969 -36.47 0.0007950073    1.420    0.296
       187  -8.5089    139.3172     67.6712   8.1245653170e+01   4.1162765087e+01    0.1566981    0.1186863 -71.57 0.0004688799    1.681    0.405
       188  -8.7302    154.3113     66.6547   7.7516965178e+01   3.7770876362e+01    0.1607387    0.1184761 -67.25 0.0007045863    1.706    0.414
       189  -8.7123    197.9888     63.9941   6.8391351664e+01   2.7250413005e+01    0.1877436    0.1739065 -26.83  0.000542033    1.044    0.042
       190  -9.6799    227.0001     60.6072   6.3072739720e+01   2.0550041738e+01    0.4585489    0.1330512 -39.71  0.001474177    3.157    0.683
       191  -8.9151    158.5740     61.7565   7.5042190628e+01   3.7554109301e+01    0.2241766    0.1378028 -43.66 0.0009478178    1.636    0.389
       192  -9.7593    206.9527     60.0660   6.5813697031e+01   2.5566126621e+01    0.3251703    0.1983341 -40.18  0.001436628    1.584    0.369
       193  -9.6740    236.2255     59.9265   6.1671414010e+01   1.8443269725e+01    0.4794255    0.2618032  70.94  0.002067061    2.219    0.549
       194  -9.7031    214.3703     57.8436   6.4066532451e+01   2.4022605514e+01    0.4130273    0.2918077  77.70  0.001950776    1.662    0.398
       195  -9.7397    171.8229     59.0558   7.1527324960e+01   3.4657883884e+01    0.3681258    0.2130519  49.12  0.001411478    1.742    0.426
       196  -9.2568    134.5962     59.2078   7.9595403773e+01   4.3779489635e+01    0.2205391    0.1434498 -24.15 0.0009550272    1.695    0.410
       197  -9.5292    126.5217     58.4515   8.1335028838e+01   4.5764856807e+01    0.1488366    0.1425002 -45.96 9.731491e-05    1.046    0.044
       198  -9.7587    250.3754     54.5671   5.8546346320e+01   1.5857770600e+01    0.3158159    0.1649113 -29.53  0.001338967    1.679    0.404
       199 -10.7577    228.5236     51.8454   6.0446581612e+01   2.1339017863e+01    0.5093321    0.4353433  11.97  0.001989404    1.277    0.217
       200 -10.3178    236.2526     53.7062   5.9987746084e+01   1.9241947102e+01    0.6263327    0.3001111  66.38  0.002597264    2.336    0.572
       201 -10.2888    199.1938     46.8604   6.3057685275e+01   2.9386477477e+01    0.5102149    0.1495231 -27.79  0.001567886    3.245    0.692
       202 -10.4742    201.4818     53.4777   6.4709404241e+01   2.7884169978e+01    0.5667683     0.296267  32.81  0.002070579    2.684    0.627
       203  -9.6537    198.3042     51.6515   6.4650171569e+01   2.8954755075e+01     0.335742    0.2230932 -44.13  0.001328114    1.504    0.335
       204  -9.5453    131.5636     55.0022   7.8894732540e+01   4.5221142556e+01    0.2427772     0.142782 -36.08  0.001038687    1.636    0.389
       205 -10.9800    244.3817     41.9736   5.5893246668e+01   1.8777031046e+01    0.4689337     0.338375 -22.61   0.00155992    1.309    0.236
       206 -10.6737    244.5635     51.3139   5.8356623580e+01   1.7593288014e+01    0.4686683    0.3167609 -61.90  0.001626474    1.727    0.421
       207 -10.3746    249.7666     46.8504   5.6600352634e+01   1.6940979788e+01    0.7086694    0.2343695 -27.77  0.002611599    2.608    0.617
       208  -8.8622    207.5636     53.5123   6.3803889047e+01   2.6330961571e+01    0.1495001    0.1408271 -38.45 6.284317e-05    1.030    0.029
       209  -9.4752    163.1872     52.5427   7.1092580074e+01   3.7876911657e+01    0.3338799    0.1806425 -45.59  0.001321981    1.949    0.487
       210  -8.7677    234.5004     42.5649   5.7154682692e+01   2.1059783320e+01    0.2315374    0.1857929 -13.91 0.0006440477    1.263    0.209
       211  -9.0573    215.3467     46.6771   6.0706119042e+01   2.5279005459e+01    0.2976794    0.1697948 -60.69  0.001122985    2.270    0.559
       212  -9.8894    219.4901     42.1090   5.8842169288e+01   2.4821650079e+01    0.2825864    0.2487499  -8.51  0.000986126    1.173    0.147
       213  -9.8131    216.0192     41.5389   5.9121588029e+01   2.5770155669e+01    0.4396458     0.288741  15.40  0.001735633    2.037    0.509
       214  -9.2647    232.0020     45.0000   5.8119131850e+01   2.1364089818e+01    0.3927374    0.2298685 -76.57  0.001618515    2.473    0.596
       215  -9.1464    238.5045     44.8986   5.7331949325e+01   1.9811785287e+01    0.2387893    0.2027418  68.73 0.0008479629    1.274    0.215
       216 -10.7323    190.2085     42.1376   6.2963474619e+01   3.2365248665e+01    0.5839499    0.3646509  -5.40  0.002245142    2.034    0.508
       217 -10.8516    185.8046     37.7740   6.2254687095e+01   3.4103787625e+01    0.5173317    0.2321021 -39.22  0.001796838    2.142    0.533
       218  -8.6024    183.4865     43.4971   6.4469704622e+01   3.3941519460e+01    0.1503033    0.1473631  -1.60 -8.556501e-05    1.026    0.026
       219  -8.5857     76.6856     43.7098   9.0669833938e+01   5.8365867727e+01    0.1349389     0.101612  -9.99  0.000373858    1.591    0.371
       220 -10.1967    175.6022     40.9117   6.4946309830e+01   3.6366972193e+01    0.5440428    0.3342028 -88.99  0.002141634    2.346    0.574
       221  -9.3248    209.1003     39.3631   5.9388702933e+01   2.7813557041e+01    0.2879994    0.1971891 -36.08 0.0007563207    1.378    0.275
       222 -10.8700    200.8776     38.2510   6.0177036105e+01   3.0085488528e+01    0.5502854    0.2831229 -14.27  0.002106571    2.343    0.573
       223  -9.2873    165.8081     39.8701   6.6325772513e+01   3.9075865937e+01    0.2763946    0.2007495 -35.07 0.0009112459    1.346    0.257
       224 -10.1636    238.5751     38.3116   5.5535799814e+01   2.0592834086e+01    0.3120109    0.2873765 -89.43  0.001073377    1.154    0.133
       225 -11.0152    227.7964     33.5603   5.5411101245e+01   2.3790034335e+01    0.8086053    0.3835162 -47.46  0.003293743    2.151    0.535
       226 -10.4873    234.9283     31.6171   5.4094395603e+01   2.2262324922e+01    0.6158243    0.2541936  59.95  0.002488035    2.423    0.587
       227  -8.5876    161.6353     38.6954   6.6691776577e+01   4.0326962135e+01     0.164202    0.1117532  28.57 0.0007036828    1.739    0.425
       228  -8.8213     61.4756     37.9902   9.3905263134e+01   6.1825029667e+01    0.2056521     0.114278 -45.91  0.001022639    1.570    0.363
       229  -9.2865    233.4420    247.3347   1.0024522137e+02  -3.6991753444e+00    0.2003315    0.1376751  60.54  0.001322228    2.567    0.610
       230  -9.1644    176.6244    248.1505   1.0894432921e+02   4.4510354158e+00    0.1533283    0.1032052  46.03 0.0007745711    1.158    0.136
       231  -9.5146    186.9748    247.0338   1.0721508833e+02   3.0433644210e+00    0.1636706    0.1189532  39.29 0.0004977209    1.016    0.016
       232  -8.3943    249.3282    246.7401   9.7861400654e+01  -5.8388084323e+00   0.08857868   0.06793661  42.95 0.0003103219    1.562    0.360
       233  -9.6431    191.4456    245.0574   1.0629024940e+02   2.5874677506e+00    0.2153222    0.1126726  33.74  0.001221627    1.594    0.373
       234  -9.8544    225.0350    243.2891   1.0095546525e+02  -2.1559709580e+00    0.2542698    0.1804405  53.34  0.001849585    1.782    0.439
       235  -9.2031    202.4866    242.0343   1.0421504946e+02   1.2579205614e+00    0.1798126    0.1092116  39.38  0.001252881    1.212    0.175
       236  -9.5777    239.6885    240.3271   9.8382161472e+01  -3.9832768428e+00    0.1927084     0.153236  51.27  0.001497395    1.737    0.424
       237  -8.9028    214.9953    240.6914   1.0212755603e+02  -4.5778676330e-01    0.1559122    0.1071286  34.99  0.001159119    1.068    0.064
       238  -9.0005    246.8870    240.5383   9.7359177047e+01  -5.0071460265e+00    0.1528427   0.07681315  38.99 0.0006258172    1.521    0.343
       239  -9.4713    182.7790    239.8022   1.0701100355e+02   4.4432592003e+00    0.1415388    0.1094815  55.69  0.001066631    1.378    0.275
       240  -9.7604    230.9128    236.9889   9.9224390732e+01  -2.4375975974e+00      0.18907     0.145437 -27.56   0.00085791    1.676    0.404
       241 -10.7116    206.0533    235.7750   1.0285743906e+02   1.3557991770e+00    0.3265266    0.2758656  50.35  0.001768657    1.394    0.283
       242  -9.6670    242.2342     34.1932   5.4036324678e+01   2.0203432214e+01    0.3226049    0.2194222 -57.87  0.001207933    1.542    0.351
       243  -9.4861    190.8253     34.1682   6.0339043900e+01   3.3243936849e+01    0.2097357    0.1762233  22.37 0.0007920755    1.308    0.236
       244  -9.7087    221.5785     30.3911   5.5211481689e+01   2.5721630406e+01    0.5814661    0.3413609 -29.05  0.002675609    1.584    0.369
       245  -8.9825    208.8083     31.5559   5.7085429910e+01   2.8854138880e+01    0.2136265    0.1463392  69.12 0.0004244023    1.506    0.336
       246  -9.8915    212.9852     30.7225   5.6319753084e+01   2.7875000619e+01    0.5355036    0.2796038 -49.40  0.002216655    2.019    0.505
       247  -9.7765    216.4606     30.4725   5.5829471868e+01   2.7013141296e+01    0.3054024    0.2771178  -6.84 0.0007730609    1.153    0.133
       248  -9.1759    204.6173     32.2467   5.7832140587e+01   2.9860009805e+01    0.3436874    0.2197323 -57.91  0.001534916    1.750    0.428
       249  -8.9337    124.1955     45.6142   7.7367765910e+01   4.8518012066e+01    0.2197054    0.1333863  42.56 0.0009595171    1.737    0.424
       250  -9.1208    148.5230    238.4763   1.1232943069e+02   9.7553797784e+00    0.1092348   0.08098313  48.28 0.0003364576    1.020    0.020
       251  -8.6166    174.2884     27.6501   6.0702847369e+01   3.8447105248e+01    0.1599465    0.1082512 -56.31 0.0007024531    1.664    0.399
       252  -8.3027    166.3164     27.3029   6.1879577119e+01   4.0606156607e+01    0.1574975    0.1102104  29.90 0.0007023755    1.621    0.383
       253  -9.0938    243.6929    236.5401   9.7264418565e+01  -4.2266322143e+00    0.1329092    0.1256902 -22.96  0.001134767    1.685    0.407
       254  -9.1836    199.4276     20.7069   5.4925072545e+01   3.2568919380e+01    0.1986346    0.1416195  -6.11 0.0009407892    1.580    0.367
       255 -10.5737    201.6029     27.4156   5.6738087756e+01   3.1227429786e+01    0.4848661     0.256875  -3.40  0.001702338    2.700    0.630
       256  -9.8444    219.5006    235.3182   1.0072313304e+02  -6.0964513594e-01    0.2996348    0.1473729  38.14  0.001872616    1.521    0.342
       257  -9.2494    201.7640     11.4380   5.1770420931e+01   3.2938204828e+01    0.2176666     0.139745  70.93 0.0006088758    1.546    0.353
       258  -8.6830    187.2260     16.4378   5.5094730779e+01   3.6281545928e+01    0.1933531    0.1394941 -89.66 0.0004365275    1.513    0.339
       259  -9.5207    162.7483     14.9521   5.8055663076e+01   4.2990451241e+01    0.2580619    0.1488685 -51.23  0.001081666    1.977    0.494
       260  -9.0492    207.6916     13.6015   5.1790437584e+01   3.1159036807e+01    0.2152868    0.1533496  35.17 0.0005454715    1.610    0.379
       261 -10.0083    142.4103     25.2352   6.5505419415e+01   4.7089986535e+01    0.3426091    0.2163411 -55.37  0.001479459    1.952    0.488
       262  -8.7079    244.5409    231.5364   9.6423155404e+01  -3.9174145670e+00    0.1053474   0.07882138  26.60 9.772569e-05    1.089    0.082
       263  -9.7239    238.6184    231.6363   9.7317698953e+01  -3.0737705684e+00    0.3222198    0.1573632  51.51  0.001784785    2.592    0.614
       264 -10.1549    229.5944    228.3952   9.8214025970e+01  -1.4503848343e+00    0.3139193    0.2045406 -33.57  0.001777759    1.958    0.489
       265  -9.3253    229.5260    222.5083   9.7367105025e+01  -8.7426768518e-01    0.1991779    0.1448695  35.27  0.000818138    1.146    0.128
       266  -9.7614    227.4758    219.4979   9.7236726396e+01  -2.6419807806e-01    0.2466281    0.1662688   1.61  0.001668862    1.606    0.377
       267  -9.6452    248.1261    227.3879   9.5284699679e+01  -4.0701095365e+00    0.1681461    0.1382616  -0.67 0.0006678132    1.303    0.232
       268  -9.0004    192.7673     10.6246   5.2529842353e+01   3.5407100489e+01    0.1997481    0.1344257  88.56 0.0005652625    1.602    0.376
       269  -8.9759    199.3944    228.2075   1.0289831369e+02   3.1690045231e+00    0.1305886    0.1053933 -51.16 0.0009588891    1.798    0.444
       270  -9.1745    164.0192    228.4921   1.0867218042e+02   8.6478321113e+00    0.1769474   0.08600754  44.14  0.000671577    1.574    0.365
       271 -10.9879    239.3456    220.8025   9.5611959089e+01  -2.1884323002e+00    0.4095001     0.355417 -75.96  0.002921547    2.348    0.574
       272  -9.2498     99.3366    225.9738   1.1920911562e+02   1.8622781940e+01    0.1857159    0.1115946  55.36 0.0006879872    1.281    0.219
       273 -10.9177    208.3956    223.9656   1.0088271352e+02   2.2272979895e+00    0.3404122    0.1857603  32.62  0.001892143    1.538    0.350
       274  -9.8026    218.0561    223.2896   9.9262631906e+01   8.0111499497e-01    0.2438002    0.1879727  46.35  0.001779446    1.368    0.269
       275  -9.9563    193.8497    219.4335   1.0259204515e+02   5.0290107621e+00    0.2709812    0.1841561  45.41  0.001708098    1.250    0.200
       276  -9.0512     48.7636    219.7555   1.2716683460e+02   2.6026536855e+01    0.1447128   0.08453855  66.14 0.0007723537    1.300    0.231
