#   1 NUMBER                 Running object number                                     
#   2 MAG_AUTO               Kron-like elliptical aperture magnitude                    [mag]
#   3 X_IMAGE                Object position along x                                    [pixel]
#   4 Y_IMAGE                Object position along y                                    [pixel]
#   5 X_WORLD                Barycenter position along world x axis                     [deg]
#   6 Y_WORLD                Barycenter position along world y axis                     [deg]
#   7 A_WORLD                Profile RMS along major axis (world units)                 [deg]
#   8 B_WORLD                Profile RMS along minor axis (world units)                 [deg]
#   9 THETA_WORLD            Position angle (CCW/world-x)                               [deg]
#  10 FWHM_WORLD             FWHM assuming a gaussian core                              [deg]
#  11 ELONGATION             A_IMAGE/B_IMAGE                                           
#  12 ELLIPTICITY            1 - B_IMAGE/A_IMAGE                                       
         1 -11.5116    226.9160     39.1872   2.7042228172e+00   2.8354274629e+01    0.7404089    0.5404513  49.42  0.005423088    2.141    0.533
         2  -8.4588     99.8126     11.0788   1.0485355312e+01   5.6150264422e+01    0.1775272    0.1403334 -85.44 0.0004186273    1.224    0.183
         3  -8.7313    120.0167      8.9449   6.6510156538e+00   5.1922359745e+01    0.1896016    0.1509506  77.91  0.001316834    1.051    0.048
         4  -8.0083     66.1762    247.7589   6.9968027039e+01   1.3119978079e+01    0.2523244     0.143664 -33.88  0.001234992    2.046    0.511
         5 -10.4232    248.7322    248.9221   3.2910465563e+01  -3.5426702497e+00    0.3518558    0.2063677 -32.86  0.002722617    1.254    0.203
         6  -9.0359     51.0743    241.9498   7.3323082652e+01   1.5797090067e+01    0.2754726    0.1902505 -36.43  0.001506105    1.622    0.383
         7 -13.1457      5.3428    140.4926   7.8184285954e+01   4.5156330616e+01     7.824961     2.038449 -82.34   0.02085934    5.270    0.810
         8 -11.6468     18.6860    221.2640   8.0413986336e+01   2.3333960704e+01    0.5982703    0.4915614  46.06  0.001620824    1.140    0.123
         9 -10.1943     56.3853    248.2970   7.2497475417e+01   1.3944970950e+01    0.6344333     0.445639  57.40  0.003566456    1.628    0.386
        10  -9.4600     84.0824    237.5361   6.4375931963e+01   1.3450643460e+01    0.2330202    0.2095687  16.61 0.0002907914    1.079    0.073
        11 -13.1725      7.8156    208.2007   8.2625586062e+01   2.7301770556e+01     1.978714     1.068919  11.15  0.008979396    1.874    0.466
        12 -11.8792     10.5891    216.5456   8.2346863933e+01   2.5076126552e+01    0.7745087    0.4481815  69.54  0.001946065    1.884    0.469
        13 -13.9207      5.9332    231.0597   8.4380262015e+01   2.2014631633e+01     1.949635     1.354836 -12.51   0.01085879    1.669    0.401
        14  -9.2300    245.2182    230.3760   3.0917242324e+01  -8.1506923048e-01    0.1205484   0.08684157  22.80 0.0009603028    1.735    0.424
        15  -8.1198    124.3433    229.6779   5.3479913884e+01   1.0695562011e+01    0.1283851   0.09768742  49.43 0.0007050293    1.729    0.421
        16  -9.1181    105.0468    229.2760   5.8100115406e+01   1.2913060258e+01    0.3477485    0.1713186  19.79  0.001583789    1.866    0.464
        17  -9.5528     92.9480    227.8219   6.0976008213e+01   1.4556759717e+01    0.3045912    0.2466799 -68.33  0.001749477    1.504    0.335
        18  -8.1847     64.2904    230.0360   6.8743435699e+01   1.7124152326e+01      0.18107    0.1764581 -11.69  0.000480075    1.123    0.109
        19  -8.1843     69.2236    226.2768   6.7032000215e+01   1.7454893464e+01    0.2646256      0.15722 -36.97 0.0009617408    1.864    0.464
        20 -10.1038     78.0194    221.5345   6.4140166213e+01   1.7576482625e+01    0.4865947    0.2259092  39.92  0.002051986    2.140    0.533
        21  -8.4311    243.7595    211.7155   2.8512246909e+01   1.9132110262e+00     0.158621   0.07075541 -49.52 0.0008216987    2.374    0.579
        22  -8.5261    112.8940    196.5795   5.1498257674e+01   1.8985871827e+01    0.2586077    0.2214269 -86.73 0.0001760793    1.541    0.351
        23  -8.1761    100.8943    196.5692   5.4643009246e+01   2.0531911652e+01    0.2381148    0.1793659 -38.90  0.001244628    1.326    0.246
        24  -7.5783     91.3546    180.8206   5.4847579003e+01   2.5457129128e+01    0.2003891    0.1274354 -45.56 0.0004075115    1.580    0.367
        25  -9.1416     30.3786    170.2372   7.2464782680e+01   3.5266103667e+01    0.3496932    0.2032993  42.04   0.00155106    1.722    0.419
        26  -9.6553     55.9226    167.6687   6.3673422296e+01   3.3265952494e+01    0.4710991     0.289608 -35.04  0.001335459    1.810    0.447
        27  -9.3701     61.7513    162.8193   6.1045042968e+01   3.3810637797e+01    0.3875964    0.2841372 -22.69 0.0008093354    1.512    0.338
        28 -13.3989     32.1197    186.2190   7.3597259271e+01   3.0918373149e+01     3.751033     2.650363   5.23    0.0186618    1.461    0.316
        29 -13.6591     31.0860    235.0369   7.8017577683e+01   1.9125706106e+01     3.648782     2.006058 -28.95   0.01682061    2.351    0.575
        30  -8.1548    235.6831    159.3423   2.1747741465e+01   1.0453916215e+01    0.1030936   0.07519303 -62.54 0.0007048706    1.713    0.416
        31 -10.6977     72.1623    154.6744   5.6325060422e+01   3.4517465312e+01    0.6345466    0.4745764  75.83  0.001469824    1.751    0.429
        32 -10.7120     69.0724    144.7727   5.5576771100e+01   3.7443353646e+01    0.8869161    0.5742018  69.86  0.003486956    2.306    0.566
        33  -9.8696     20.5261    152.5114   7.3874170523e+01   4.0852178770e+01    0.3247662    0.2499724 -35.91  0.001661117    1.320    0.243
        34  -7.8803    117.4311    152.1537   4.2600519867e+01   2.8273371741e+01    0.1949195    0.1391843 -66.67 0.0008103565    1.673    0.402
        35  -8.9958     78.7880    150.1881   5.3405317416e+01   3.4699810143e+01    0.2744223    0.2415157  12.59 0.0006093021    1.115    0.103
        36  -9.9734     16.5656    148.7882   7.4890258011e+01   4.2163342734e+01    0.3450249    0.2952788 -12.31  0.001440867    1.184    0.156
        37 -12.8691     11.6396    245.4345   8.3637500782e+01   1.8393676916e+01     1.121381    0.8517917  -3.65  0.006814721    1.429    0.300
        38  -8.6461    155.1561    138.2361   3.1102157128e+01   2.5056073184e+01    0.2283191    0.1760428 -51.46 0.0004368335    1.245    0.197
        39  -7.8475     95.6493    137.6933   4.5784804998e+01   3.5099697837e+01    0.1554601    0.1140839 -12.76 0.0007024549    1.709    0.415
        40  -8.5736     83.1392    135.5416   4.9194480178e+01   3.7618727139e+01    0.2735814    0.2096306 -43.22 0.0005185322    1.330    0.248
        41  -9.2618     86.8671    129.6145   4.6785926121e+01   3.8428822315e+01    0.4612685    0.2861507  50.26  0.001986656    1.810    0.447
        42 -10.7723     58.8279    151.3217   6.0175417162e+01   3.7144513128e+01    0.5236705    0.4204382 -82.04 0.0007995572    1.433    0.302
        43  -6.8364    108.3115    128.3205   4.0184891471e+01   3.5086395712e+01     0.148131    0.1131786 -12.57  0.000703698    1.649    0.393
        44  -8.8824     18.5523    125.1805   7.1136001781e+01   4.8318370389e+01    0.3541977    0.1681201  30.52  0.001454045    2.022    0.506
        45  -8.6504     57.5452    122.8162   5.5394609180e+01   4.4573806721e+01    0.2422229    0.1950182  48.52 0.0003306216    1.322    0.244
        46  -8.3550     45.3552    122.9143   6.0035778475e+01   4.6157880812e+01    0.2446731    0.1972618  34.45 0.0004104183    1.226    0.185
        47 -10.1544    233.9945    243.1502   3.4304925623e+01  -1.7552199982e+00    0.2998741    0.1337029 -23.24  0.001791997    2.059    0.514
        48  -9.8970     57.0706    108.1019   5.2411843525e+01   4.8227693411e+01    0.4106154     0.273632  17.58  0.000784331    1.573    0.364
        49  -7.3175     24.0039    104.0000   6.5329694558e+01   5.3310102190e+01    0.2333255   0.07918049  19.52 0.0007807541    2.859    0.650
        50  -8.8485     53.1074    100.6460   5.2234955459e+01   5.0570305331e+01    0.2935942    0.2143604 -43.39  0.001323893    1.409    0.290
        51  -7.5719    107.8567     92.1966   3.1875303010e+01   4.2657410985e+01    0.1848499    0.1637954  16.70 0.0005536928    1.293    0.227
        52  -7.8376    150.3462     88.0212   2.1470859948e+01   3.5074314559e+01    0.1763105    0.1482566 -52.14 0.0003082159    1.148    0.129
        53  -7.6364    230.5761     87.4825   1.0570454432e+01   2.1671200327e+01    0.1053299    0.0815337 -52.78 0.0001165827    1.043    0.041
        54  -8.7657     71.6687    243.6878   6.8184863443e+01   1.3428533232e+01    0.2006126    0.1042379  29.21 0.0009657174    1.628    0.386
        55  -7.8944    155.0057     76.2737   1.8029118414e+01   3.6074510401e+01    0.1684925    0.1501441 -85.03 0.0004958377    1.031    0.030
        56  -8.4510    106.6718     68.4954   2.5961456196e+01   4.7144117121e+01    0.2737236    0.1957132  27.10 0.0008999901    1.855    0.461
        57  -8.2811     69.1574     62.1288   3.5367120188e+01   5.5808551009e+01    0.2127821    0.1810592  20.15 0.0008544778    1.230    0.187
        58  -7.8894    144.2623     59.2584   1.5876816271e+01   4.0763910700e+01    0.1744923    0.1302619 -74.96 0.0007394677    1.353    0.261
        59  -8.2655    193.0382     57.4803   8.9870825398e+00   3.1714055290e+01     0.157007    0.1020962  70.01 0.0006533178    1.575    0.365
        60 -10.6948    205.2714     55.0232   7.2882749040e+00   2.9933204235e+01    0.3274564    0.2617769  39.09   0.00234884    1.969    0.492
        61 -11.5489    212.5620     49.2385   5.5746787711e+00   2.9449788618e+01    0.6073139    0.4504244  72.64  0.004662323    1.457    0.314
        62  -9.6338    235.4313    249.5184   3.4942386290e+01  -2.7255718043e+00    0.1892288   0.08728278  18.50  0.001231053    2.239    0.553
        63  -8.1679    100.9720     27.5646   1.5373250904e+01   5.4154244604e+01    0.1722099    0.1559566  82.70 0.0001130848    1.095    0.086
        64  -8.3582     85.0638     26.6442   1.8751237627e+01   5.7736475873e+01    0.1843305    0.1622039 -66.70 0.0002433006    1.279    0.218
        65  -7.7865    216.2957     15.7484   3.5938704820e+02   3.2620461088e+01     0.114779   0.09942329 -80.84 0.0004445267    1.320    0.242
        66  -8.5289     90.3404    246.5318   6.3793310599e+01   1.0957185524e+01    0.3004428     0.183076  67.88  0.001361531    2.922    0.658
