#   1 NUMBER                 Running object number                                     
#   2 MAG_AUTO               Kron-like elliptical aperture magnitude                    [mag]
#   3 X_IMAGE                Object position along x                                    [pixel]
#   4 Y_IMAGE                Object position along y                                    [pixel]
#   5 X_WORLD                Barycenter position along world x axis                     [deg]
#   6 Y_WORLD                Barycenter position along world y axis                     [deg]
#   7 A_WORLD                Profile RMS along major axis (world units)                 [deg]
#   8 B_WORLD                Profile RMS along minor axis (world units)                 [deg]
#   9 THETA_WORLD            Position angle (CCW/world-x)                               [deg]
#  10 FWHM_WORLD             FWHM assuming a gaussian core                              [deg]
#  11 ELONGATION             A_IMAGE/B_IMAGE                                           
#  12 ELLIPTICITY            1 - B_IMAGE/A_IMAGE                                       
         1 -17.2008     17.7575     78.9175   1.2098292479e+02   5.7401262546e+01     6.840038     3.478795 -39.60   0.03585266    2.408    0.585
         2  99.0000     72.9064      5.9630   7.4712930052e+01   6.5065966685e+01     7.183892     1.652975  53.76    0.0222327    5.315    0.812
         3 -13.8419    148.0656     63.9515   7.8356744581e+01   3.9601531258e+01     1.808343     1.304227 -24.11   0.00450013    1.428    0.300
         4 -13.3917    159.7151     49.6740   7.1017675942e+01   3.9091760253e+01     1.216674     1.063759 -21.63  0.003753772    1.112    0.101
         5 -12.7797    172.5159     19.9368   5.8265475283e+01   3.9755723358e+01    0.9609227    0.9242563 -67.02   0.00405816    1.070    0.066
         6  -9.9499      4.5603    237.5465   1.3541001357e+02   2.7019998377e+01    0.1233534   0.07114621  44.70  0.001016196    1.617    0.381
         7 -11.8956    234.7186    248.9104   1.0124155356e+02  -4.4741464384e+00    0.1879002    0.1402694  28.98 0.0004056872    1.124    0.110
         8 -11.7940    188.0023    249.5162   1.0830250709e+02   2.1050982156e+00    0.3972091    0.1275515  44.09   0.00206886    2.313    0.568
         9 -10.1011    126.6864    250.0199   1.1780416013e+02   1.0835303204e+01    0.1475502    0.1354735 -22.05 0.0004280731    1.670    0.401
        10 -11.4973    128.5248    245.6546   1.1712147012e+02   1.1134673895e+01    0.1795693    0.1420262  58.97 0.0005588045    1.123    0.110
        11 -11.5305    115.8842    248.6987   1.1935734807e+02   1.2491973674e+01    0.2036028     0.170027 -43.30 0.0009941454    1.833    0.455
        12 -19.3598     73.4252    223.2034   1.2408972857e+02   2.1813209809e+01     4.625075     3.106323  51.75   0.02571105    1.214    0.176
        13 -11.0560    150.6631    183.5546   1.0581596096e+02   1.6726861225e+01    0.2575457    0.2113667 -85.39  0.001135222    1.462    0.316
        14 -15.0709     67.3945    139.3814   1.1671339496e+02   3.8508240165e+01     1.990924       1.7847  72.27   0.01351384    1.159    0.137
        15  -9.9199     21.1155    195.5377   1.3110810925e+02   3.2444444928e+01    0.1376392   0.09792083  76.10 0.0003878091    1.041    0.040
        16 -11.8096    174.5094    186.8186   1.0192869971e+02   1.2047959870e+01    0.4163609    0.2404574 -60.87  0.002010996    2.809    0.644
        17 -11.4024    164.6823    188.5104   1.0398282618e+02   1.3513187565e+01    0.2318608    0.2112774  74.02 0.0002119466    1.226    0.184
        18 -12.5255    189.0299    178.5832   9.7920943567e+01   1.0657855790e+01    0.5406628    0.4130954 -52.52  0.002036204    1.653    0.395
        19 -11.1113    185.0527    170.4862   9.7192823733e+01   1.2585430102e+01    0.3714452    0.2654305 -52.37  0.001548627    1.733    0.423
        20 -10.2060      6.1631    229.2974   1.3491443736e+02   2.8153590413e+01    0.1236386   0.08466797  64.90 0.0004406884    1.129    0.114
        21 -10.2843    135.3738    181.1330   1.0836231591e+02   1.9749390912e+01    0.2459168    0.1557218  50.93 0.0007782083    1.403    0.287
        22 -12.4826    150.4814    196.2028   1.0770904657e+02   1.4755824828e+01    0.6367538    0.3922698  35.49  0.002606277    1.589    0.371
        23 -10.7892    203.2684    174.9846   9.4747986155e+01   8.5817441987e+00    0.2956204    0.1975403 -57.00  0.001530758    2.332    0.571
        24 -11.0133    195.2546    173.8274   9.5954160720e+01   1.0207810117e+01    0.3920677    0.2941207 -53.63  0.001373816    1.744    0.427
        25 -11.0636    191.5885    164.6520   9.4903507524e+01   1.2241012786e+01    0.5887653    0.3074336 -53.86  0.002516993    2.959    0.662
        26 -11.7021    189.2402    156.3448   9.3714485870e+01   1.3969711598e+01    0.5076966    0.4127748  18.97  0.001762529    1.251    0.201
        27 -11.0360    207.7808    226.1117   1.0222198386e+02   1.5946730462e+00    0.2506431    0.1460618 -31.84  0.001620697    2.098    0.523
        28 -10.4992    207.7129    172.8504   9.3576910505e+01   8.0658808502e+00    0.2965809    0.2058264 -47.33  0.001028679    1.837    0.456
        29 -11.1949    240.6551    171.7967   8.7883369502e+01   2.3468345339e+00    0.2609434    0.1510999  43.19  0.001278454    1.642    0.391
        30 -11.5882    176.5392    169.3305   9.8562876785e+01   1.4348824616e+01    0.4618991    0.2102274 -54.79    0.0018177    3.490    0.713
        31 -12.8871     11.8713    206.8233   1.3318556470e+02   3.1333507420e+01    0.3855593    0.2475781  39.39  0.001947937    1.759    0.431
        32 -10.3675    241.3056    167.0076   8.6846656908e+01   2.8033428162e+00    0.1723833    0.1422537  -1.62 0.0002471089    1.094    0.086
        33 -10.8173    121.1796    166.6630   1.0900287531e+02   2.4748318398e+01       0.4417     0.190789  51.08  0.001826069    2.238    0.553
        34 -10.6984    117.7989    163.3579   1.0918878374e+02   2.5942230175e+01    0.2982639    0.2240477  42.71 0.0006788296    1.320    0.243
        35 -11.9130     55.3074    165.4956   1.2244194749e+02   3.4520744024e+01    0.4065875    0.2871371  88.64  0.001848742    1.192    0.161
        36 -10.6547     57.6118    160.8557   1.2148842673e+02   3.5189310234e+01    0.1967233    0.1617865  45.15 0.0005271182    1.393    0.282
        37 -10.1471     23.7973    203.7016   1.3108303743e+02   3.0727857057e+01    0.2557239    0.1417293  46.71  0.001843468    1.579    0.367
        38 -10.4410    133.3744    199.8758   1.1130772075e+02   1.6977105369e+01    0.3475749    0.2330805  23.58  0.001971006    2.098    0.523
        39 -11.8855    126.7545    173.9086   1.0897662164e+02   2.2475445292e+01    0.5084614    0.3280842  68.14  0.001546909    1.778    0.437
        40 -10.1652    209.6706    159.8883   9.0726319347e+01   9.5065181179e+00    0.2170782    0.1743519  42.22 0.0004035913    1.213    0.175
        41 -10.8777    120.7677    158.1429   1.0773974465e+02   2.6445761185e+01    0.3322972    0.2516898  74.55   0.00190064    1.392    0.282
        42 -10.4296     31.1682    249.6074   1.3206613031e+02   2.2618581198e+01    0.1423085    0.0975613  82.05 0.0004740873    1.279    0.218
        43  -9.2028     22.7981    157.1999   1.2837103491e+02   3.9679846364e+01    0.1379306    0.1097843 -79.80 0.0004957678    1.260    0.206
        44  -9.8874     17.5157    154.4749   1.2925196871e+02   4.0720671654e+01    0.2987486    0.1372411 -70.96  0.001039746    1.822    0.451
        45 -12.1343    133.9879    146.7476   1.0293172702e+02   2.6311201628e+01     1.043273    0.3362761 -55.94   0.00340503    4.048    0.753
        46 -10.2177      7.8798    150.1524   1.3093629793e+02   4.2427025324e+01    0.2374413      0.11884 -75.66  0.001196861    1.594    0.373
        47 -11.3578    143.7007    146.4755   1.0081393286e+02   2.4543169841e+01    0.5857146    0.3036521 -66.78  0.002174506    3.380    0.704
        48 -11.2759     27.8395    146.3355   1.2642515430e+02   4.1468162093e+01     0.316353     0.287196 -73.64  0.001548244    1.381    0.276
        49  -8.6556    229.2614    142.3026   8.3677006238e+01   8.1988697897e+00    0.1344909   0.09432685   8.98 0.0002036124    1.517    0.341
        50  -9.5732     26.4909    139.8283   1.2613451173e+02   4.2984979795e+01     0.159269    0.1490814  69.47  0.000685515    1.362    0.266
        51 -11.5798    135.1674    123.3755   9.7884693665e+01   3.0751511131e+01    0.8643522    0.1640782 -46.98  0.002244532    5.252    0.810
        52 -11.5683    118.3519    135.6937   1.0428675867e+02   3.1379535449e+01    0.4394509    0.3052293 -49.12  0.001598765    1.477    0.323
        53 -11.8462    108.5813    134.3725   1.0628125383e+02   3.3365027207e+01    0.3207632    0.2788477 -67.68 0.0007909642    1.109    0.098
        54 -10.3561    152.0461    192.3311   1.0686960019e+02   1.5092550883e+01     0.185214    0.1465893  62.28 0.0003841895    1.264    0.209
        55 -10.6168    121.6215    127.8279   1.0196298266e+02   3.2422912631e+01    0.2441313    0.2198973   1.95 0.0006397204    1.402    0.287
        56 -11.4460     38.4414    125.1247   1.2175761987e+02   4.5047802565e+01    0.2799864    0.2177746  45.10   0.00114309    1.455    0.313
        57  -9.8127    163.2536    243.7410   1.1147639213e+02   6.3552181049e+00    0.2363704     0.163311  -8.72  0.001549448    2.543    0.607
        58 -10.6198    110.7482    123.1630   1.0356525392e+02   3.5380925687e+01    0.2918965    0.2321419 -47.74  0.001338793    1.292    0.226
        59 -12.5802    145.6142    177.8522   1.0589343279e+02   1.8550713007e+01    0.6686918     0.415747 -49.26  0.003671672    1.807    0.447
        60 -10.4297    168.0892    235.1683   1.0973123740e+02   6.6439552989e+00    0.1713502    0.1443201 -32.64 0.0007105226    1.557    0.358
        61  -9.7988    115.0089    118.0226   1.0144127500e+02   3.5717395514e+01    0.2146864    0.1967825 -79.35 0.0004270585    1.034    0.032
        62 -13.0542    135.0626    170.8251   1.0685280708e+02   2.1611741629e+01     1.013635    0.6027781  71.64  0.004262054    2.483    0.597
        63 -10.6865     70.9793    115.9768   1.1213388909e+02   4.3248584884e+01    0.2024412    0.1747379 -86.80 0.0006937154    1.043    0.042
        64  -9.5923    167.5211    113.5323   8.8438384132e+01   2.5879351571e+01    0.3313124    0.2285027 -80.25  0.001363853    2.414    0.586
        65 -10.4354    134.5039    107.0246   9.4163158548e+01   3.4238206441e+01    0.5422778    0.1366193 -48.24  0.001516951    4.124    0.758
        66  -9.7340    101.9787    113.5448   1.0368995618e+02   3.9007062232e+01    0.2257252    0.1741321 -57.89 0.0005927994    1.212    0.175
        67 -11.0209     59.6292    109.7240   1.1402167875e+02   4.6158176673e+01     0.270994    0.2031973 -61.77  0.000765886    1.193    0.162
        68 -12.0660     62.5928    107.1703   1.1276258893e+02   4.6370817701e+01    0.8345247    0.6316383  71.98  0.003336681    1.385    0.278
        69  -8.5710    170.7036     94.7608   8.2814758604e+01   2.8613570718e+01    0.1470338    0.1164033  18.91 0.0002328588    1.474    0.321
        70  -9.2902    226.7458     87.0951   7.0619035368e+01   1.6692771623e+01    0.1985466    0.1749238 -10.02 0.0003093068    1.061    0.058
        71 -10.1399    114.1691     76.4371   9.0814169576e+01   4.4755370792e+01    0.2693848    0.1468963  42.35 0.0008561211    2.012    0.503
        72 -11.7030    154.0864    187.0537   1.0570970270e+02   1.5573602930e+01    0.3602131    0.2647937  85.50  0.001448346    1.882    0.469
        73 -12.2836    135.6187    238.3632   1.1529370572e+02   1.1066609075e+01    0.3153389    0.2610804  69.56  0.002551924    1.248    0.199
        74 -12.1576    164.4948     40.8765   6.7026751671e+01   3.9179449209e+01    0.4910336    0.4607636 -39.82 0.0007967094    1.065    0.061
        75 -11.7913    116.0466     66.8668   8.7258978804e+01   4.6304905550e+01    0.4046602    0.2195967 -44.58  0.001695533    1.729    0.422
        76 -10.9052    160.3359    129.1171   9.3658853481e+01   2.4509952264e+01     0.366638    0.2774176 -53.79  0.001528761    1.417    0.295
