#   1 NUMBER                 Running object number                                     
#   2 MAG_AUTO               Kron-like elliptical aperture magnitude                    [mag]
#   3 X_IMAGE                Object position along x                                    [pixel]
#   4 Y_IMAGE                Object position along y                                    [pixel]
#   5 X_WORLD                Barycenter position along world x axis                     [deg]
#   6 Y_WORLD                Barycenter position along world y axis                     [deg]
#   7 A_WORLD                Profile RMS along major axis (world units)                 [deg]
#   8 B_WORLD                Profile RMS along minor axis (world units)                 [deg]
#   9 THETA_WORLD            Position angle (CCW/world-x)                               [deg]
#  10 FWHM_WORLD             FWHM assuming a gaussian core                              [deg]
#  11 ELONGATION             A_IMAGE/B_IMAGE                                           
#  12 ELLIPTICITY            1 - B_IMAGE/A_IMAGE                                       
         1 -15.1457      6.2458     71.4658   9.9994975867e+01   6.1268133824e+01     1.324861    0.7140024 -62.88  0.005569336    1.456    0.313
         2 -14.0161      6.8376     43.4814   9.3461622802e+01   6.7460414679e+01     1.933503    0.9939591 -27.28   0.01012631    2.232    0.552
         3 -13.0684      8.0241      2.8574   7.6245893442e+01   7.5106326249e+01    0.5678014    0.4391463  48.15  0.003000135    2.024    0.506
         4 -13.7739      3.2843     11.9219   8.4047919843e+01   7.3965781296e+01    0.9364822    0.4389488 -54.17  0.005154963    1.910    0.476
         5 -15.9640     13.0286     21.3366   8.2435253558e+01   7.1438464933e+01     1.880322    0.9432425 -31.17   0.00941164    1.989    0.497
         6 -14.0338     25.1794     14.0543   7.2179121751e+01   7.1437386578e+01    0.7036495    0.3379346  27.09    0.0034039    2.328    0.571
         7 -14.3181    146.9879     29.2040   4.0244433917e+01   4.4483049306e+01     1.444592    0.9836308  51.02  0.007160484    1.446    0.309
         8 -13.0634     44.1630     32.3970   7.1585240587e+01   6.5818879844e+01    0.6163503    0.5721534  19.38  0.004107953    1.197    0.164
         9 -13.9671    165.7053     30.8115   3.7776583501e+01   3.9541576440e+01    0.9687914    0.8295096 -63.70  0.003389541    1.171    0.146
        10 -13.4953    189.9822     27.3413   3.3510478994e+01   3.3871583303e+01    0.8024737    0.2759072 -47.93  0.002841548    3.078    0.675
        11 -12.6867    120.4556     26.2398   4.4291212978e+01   5.1449490876e+01    0.6401252    0.3968543  42.25  0.003030244    1.643    0.391
        12 -11.9786     46.6344     20.7832   6.5098026416e+01   6.7396407159e+01    0.3916474    0.2887425  10.30  0.001745132    1.428    0.300
        13 -15.0656     98.5535     11.5428   4.3218513159e+01   5.8326992449e+01     1.367003     0.846084  60.24  0.006891782    1.575    0.365
        14 -12.3318     69.9670     16.1107   5.3625817927e+01   6.3937553440e+01    0.3668873    0.3232702  83.39  0.001900047    1.524    0.344
        15 -11.9292     59.4372     16.4643   5.7632130618e+01   6.5874413913e+01    0.3183593    0.2717532 -55.43  0.001953081    1.531    0.347
        16 -12.1756    187.6445      9.6123   2.8652658168e+01   3.6349112189e+01     0.370216    0.2855148 -46.52  0.002121688    1.231    0.187
        17 -11.6817     46.5847     13.0130   6.1125273555e+01   6.8554408851e+01     0.266043    0.2377573 -48.60  0.001749751    1.437    0.304
        18 -12.4315    214.3410     10.1552   2.6433071707e+01   2.9875408117e+01    0.3618382    0.3058393 -60.84  0.001361113    1.038    0.037
        19 -10.6884    123.4740     11.9151   3.8117519783e+01   5.2310649066e+01    0.1915718    0.1357735 -21.12 0.0004021642    1.483    0.326
        20 -13.8814     41.6832      4.4246   5.8516775001e+01   7.0490996864e+01     0.688244    0.5073121  10.15  0.003994205    1.297    0.229
        21 -11.1448    153.0442      8.9090   3.2387990327e+01   4.5141519184e+01     0.208357    0.1947532  64.42 0.0006347348    1.053    0.050
        22 -10.8250    133.2610      8.7741   3.5233071862e+01   5.0170916552e+01    0.1815502    0.1436079  41.28 0.0003063131    1.270    0.212
        23 -12.2492    224.0600      5.2978   2.4483134579e+01   2.8128411731e+01    0.2269759     0.212464 -26.03 0.0009798077    1.227    0.185
        24 -10.8303    117.2608      1.5807   3.5124473753e+01   5.4788420089e+01     0.241328    0.1695633  89.57  0.001258584    1.613    0.380
        25 -11.2074     82.0608      1.4034   4.2646724587e+01   6.3027589361e+01    0.3560062    0.1167222  60.29  0.001378868    2.900    0.655
        26 -11.3462     61.2904      1.4961   4.9011743634e+01   6.7319990031e+01    0.3182579    0.1170963  54.49   0.00135451    2.694    0.629
        27 -12.4428     85.2881     14.3512   4.7978281221e+01   6.0986882228e+01    0.4205886    0.3257661 -21.59  0.001715628    1.287    0.223
        28 -12.2591    200.6993    191.5881   7.1343426748e+01   6.2902423724e+00    0.2492467    0.2141707  12.92  0.001294817    1.009    0.008
        29 -12.6616      3.0498    248.9337   1.1446130609e+02   2.4002710452e+01    0.4284134    0.2449426  72.65  0.002953327    1.342    0.255
        30 -13.4145      9.4155    245.7778   1.1331192564e+02   2.3925431743e+01    0.6235159    0.2694232  62.80  0.003386622    1.746    0.427
        31 -13.5545     74.3041    154.6166   9.2403367977e+01   3.4458619660e+01    0.8374405    0.4938575  52.06  0.004206335    1.670    0.401
        32 -11.8553    110.0861    154.7374   8.3596292063e+01   2.8766690137e+01    0.3177618    0.2026249 -74.20  0.001474099    1.985    0.496
        33 -12.7059    190.1138    150.5295   6.5408976875e+01   1.4561444564e+01    0.3019731    0.2412285  48.04  0.001691254    1.317    0.241
        34 -11.1629    103.0159    150.4662   8.4553425010e+01   3.0892357333e+01     0.272198    0.1887612 -40.11  0.001360427    1.691    0.409
        35 -11.8183    245.5034    149.0125   5.5746842922e+01   4.8739491538e+00    0.2579985    0.2225931 -21.37  0.001715009    1.133    0.117
        36 -11.7403     12.5861    148.6797   1.0736186690e+02   4.2818906535e+01    0.2239798   0.09332574 -72.64 0.0007975643    2.000    0.500
        37 -12.1881     59.4928    148.2590   9.5274928602e+01   3.7927447615e+01    0.2451872    0.1807445  41.35   0.00140449    1.382    0.276
        38 -12.1407      8.3733    145.1967   1.0813980682e+02   4.3949693271e+01    0.4751956    0.2431525 -55.93  0.002595808    2.039    0.510
        39 -12.2978    148.7216    141.5746   7.1999756679e+01   2.4291228262e+01    0.2565305    0.1834237 -67.73  0.001212174    1.808    0.447
        40 -12.4095     45.3381    134.4087   9.7131685507e+01   4.2890356118e+01      0.36627    0.2471077 -78.43  0.002032935    1.360    0.265
        41 -10.7274     10.9385    133.7736   1.0649374691e+02   4.6362373833e+01     0.161888    0.1385156  77.77 0.0004566513    1.103    0.093
        42 -13.3153     28.7311    122.1047   1.0018112099e+02   4.7556574247e+01    0.4509631    0.3112642 -65.28  0.002543745    1.278    0.217
        43 -13.5878    108.8725    124.3097   7.7831569604e+01   3.5621096046e+01    0.5939406    0.5243282  15.07   0.00323382    1.326    0.246
        44 -13.8264    111.1251    117.2326   7.5619467872e+01   3.6757627904e+01    0.5534246    0.3501497  27.88   0.00236062    2.007    0.502
        45 -12.4981    180.3728    123.3347   6.1207864134e+01   2.1231866924e+01    0.5056384    0.2823061 -35.55  0.002226639    1.778    0.438
        46 -10.1812     58.7036    125.3179   9.1938700193e+01   4.3393449959e+01    0.1391878    0.0966124  75.01 0.0005559661    1.610    0.379
        47 -12.1595      4.2001    119.8460   1.0705900090e+02   5.0092012777e+01    0.4763939     0.187075  24.96  0.002329759    2.897    0.655
        48 -14.7386    106.2380    105.2255   7.3995595103e+01   4.0329625722e+01     1.246317     1.047858 -30.40   0.00653884    1.303    0.232
        49 -13.5589     49.0183     96.6078   8.9458192712e+01   5.1438168397e+01    0.9589586     0.759352  40.81   0.00557326    1.384    0.277
        50 -12.0220     34.6625     86.5916   9.2287213294e+01   5.5414881828e+01    0.3884385    0.2507158 -37.17  0.001328985    1.711    0.416
        51 -15.1866     15.4957    108.1111   1.0234779687e+02   5.2029343574e+01     1.532925     1.026285  80.18  0.008380895    1.478    0.324
        52 -13.7504      2.3189     97.0705   1.0519335759e+02   5.5543637288e+01    0.9001616    0.2599039 -76.29  0.003511735    2.974    0.664
        53 -15.0517     22.9313     94.9669   9.7967329521e+01   5.4541025589e+01     1.327714    0.9649434  30.93  0.008046106    1.589    0.371
        54 -12.0361     42.6658     91.0111   9.0416262241e+01   5.3508479880e+01    0.3557377    0.2898671 -77.84 0.0007168709    1.188    0.158
        55 -13.2142     29.4770     89.2803   9.4670784029e+01   5.5294899339e+01     0.881434    0.4406258  68.84  0.003439956    3.571    0.720
        56 -12.1900    121.0297    112.3369   7.1856707794e+01   3.5876974727e+01    0.3809693    0.2752454  75.07  0.001385819    1.840    0.456
        57 -12.5057    136.8103    103.5110   6.5661398890e+01   3.4411592765e+01    0.4764069    0.2792696  59.76  0.001890946    2.040    0.510
        58 -12.4372    120.9572    102.3228   6.9303760533e+01   3.8014392777e+01    0.3103858    0.2253851 -37.01  0.001478933    1.427    0.299
        59 -11.9157    163.7536     98.4101   5.8270725325e+01   2.9396464012e+01    0.2616747    0.2457664  -7.78 0.0005048629    1.106    0.096
        60 -12.0647     61.2613     98.1377   8.5773575336e+01   4.9475255671e+01    0.3597983    0.2657001  79.78  0.001857852    1.650    0.394
        61 -13.6676     82.6926    114.0667   8.2776650975e+01   4.2515056375e+01     1.016176    0.7266338  51.70  0.005180611    1.469    0.319
        62 -12.3069    136.1403     95.0866   6.3532905004e+01   3.6241258361e+01    0.3820037    0.2267502  45.98  0.001643776    1.717    0.418
        63 -14.0674     95.0989    110.4934   7.8403620246e+01   4.1219024539e+01    0.8393129    0.6756056  57.72  0.004419596    1.309    0.236
        64 -11.0649     89.2654     87.5297   7.4177980038e+01   4.7386263742e+01    0.2861372    0.1399284  46.86  0.001155672    2.197    0.545
        65 -12.9844    187.6328     84.8578   5.0079229167e+01   2.6263887730e+01    0.4743741    0.1934452  47.89  0.001636481    2.583    0.613
        66 -12.3264    159.9345     68.0308   5.0388021126e+01   3.5617311510e+01    0.9469882    0.2456151 -45.75  0.002431967    4.774    0.791
        67 -13.2168    163.7577     71.8138   5.0772877721e+01   3.4067347001e+01    0.6829534    0.4635841 -26.97  0.003161763    1.550    0.355
        68 -14.1826    169.6477     77.3530   5.1255353976e+01   3.1730893686e+01     1.334009    0.4591275  52.70  0.004310388    2.874    0.652
        69 -11.8205    158.2936     83.6892   5.5326379962e+01   3.3321613867e+01    0.2951352    0.2441459  69.36 0.0004608998    1.314    0.239
        70 -12.8738    160.7239     80.8431   5.4009290679e+01   3.3251463565e+01    0.5471005    0.3670588  26.73  0.002234811    1.987    0.497
        71 -12.5407     31.4500     63.1991   8.7904640134e+01   6.1100690662e+01    0.5994099    0.3184102 -69.13  0.002842688    2.061    0.515
        72 -12.5507     40.3144     68.3696   8.5772855599e+01   5.8984732353e+01    0.7637089    0.2378966  33.26  0.002940707    3.424    0.708
        73 -12.2200     47.2272     81.6289   8.6640252686e+01   5.5153713332e+01    0.5087182    0.3113964 -51.74  0.002583665    1.443    0.307
        74 -12.0652     41.9434     77.1653   8.7460765474e+01   5.6807815730e+01    0.5837321     0.220411 -61.90   0.00231611    2.520    0.603
        75 -13.5000     87.2319     65.3162   6.7961205972e+01   5.2409870858e+01    0.9642811    0.6245195   6.66  0.003884188    2.749    0.636
        76 -13.3896     91.7371     58.0288   6.4015443014e+01   5.2934783626e+01    0.5037032    0.4698864 -37.41  0.001991522    1.048    0.046
        77 -13.9317     53.9417     68.3058   8.0534987636e+01   5.7271905327e+01     1.223027    0.8325778 -26.69  0.006245187    1.727    0.421
        78 -13.1133     54.3401     81.5522   8.4083461963e+01   5.4258682552e+01    0.5761542    0.3780513 -62.80  0.002956475    1.464    0.317
        79 -14.0842     61.1513     75.6928   8.0070597885e+01   5.4622315856e+01    0.7144217    0.5004154 -34.99  0.001635603    1.498    0.333
        80 -12.9573     71.3782     75.0398   7.6321094435e+01   5.3185422459e+01    0.6430293    0.4058169  11.59  0.002314891    2.585    0.613
        81 -12.4383     77.1510     73.3400   7.3855532783e+01   5.2585304419e+01    0.5504854    0.3398875 -24.93  0.001754137    2.236    0.553
        82 -12.5534    216.6180     81.6948   4.4699017306e+01   2.0240055869e+01     0.304471     0.233221 -60.07  0.001520777    1.428    0.300
        83 -12.4654    135.9703     79.8812   5.9168000936e+01   3.9212475538e+01    0.6580346       0.3327  51.28  0.002218104    2.010    0.503
        84 -12.5401    114.5925     80.3330   6.4731968052e+01   4.3871997813e+01    0.3355091    0.2951999 -66.17 0.0006099739    1.215    0.177
        85 -10.0477     69.3471     80.2853   7.8539856703e+01   5.2360083380e+01    0.1409201    0.1075233 -16.52 0.0006088231    1.651    0.394
        86 -12.1982     28.2958    245.3516   1.1011662458e+02   2.2112177513e+01    0.3454965    0.1859839  46.72  0.002424265    1.391    0.281
        87 -13.9719      4.3938     63.7633   9.9301623279e+01   6.3136843755e+01    0.5415354    0.4643587  75.54  0.003573322    1.316    0.240
        88 -11.8805     26.6439     74.9335   9.2728242945e+01   5.8908154441e+01    0.5800134    0.3165202 -78.63  0.002761243    2.122    0.529
        89 -12.9466    198.9229     70.2788   4.4320820434e+01   2.5934087054e+01    0.5405091    0.3808196  34.85  0.002124569    1.707    0.414
        90 -12.3625    134.6384     66.7303   5.5391017703e+01   4.1907342674e+01    0.5244182    0.3153073  46.40  0.001568274    1.698    0.411
        91 -13.2756     66.0798     49.1193   6.9461937763e+01   5.9347834662e+01    0.9684912    0.5904095 -38.17  0.003580716    1.545    0.353
        92 -13.1391     78.5156     59.6734   6.8893140690e+01   5.5141408304e+01    0.7333074    0.5176397 -51.68  0.003729964    1.443    0.307
        93 -12.7966     82.2959     54.5768   6.5802061109e+01   5.5419558248e+01    0.5109175    0.4574206 -47.55  0.002880796    1.137    0.121
        94 -13.2394    177.8036     58.2874   4.4274184296e+01   3.2778779959e+01    0.6745777    0.5624005 -64.84  0.002183736    1.250    0.200
        95 -11.6846     39.2038     60.5536   8.3970186834e+01   6.0834560720e+01    0.2784997    0.2120232  83.10  0.001535351    1.814    0.449
        96 -12.3290     24.7563     59.1214   8.9593768733e+01   6.2653528909e+01    0.5162814    0.2559689 -49.80  0.002012372    1.675    0.403
        97 -11.2807    111.3193     59.5825   5.8869911593e+01   4.8514567323e+01    0.2546439    0.2228157   9.58 0.0006688866    1.256    0.204
        98 -14.4469    120.4252     54.7881   5.4829496329e+01   4.7278606603e+01    0.7919659    0.5983429  38.37  0.002387812    1.388    0.280
        99 -11.5052     17.7747     55.6695   9.1695275637e+01   6.4018530309e+01    0.3543577    0.1536213 -63.19  0.001675925    2.013    0.503
       100 -10.3629     46.6442     56.2766   7.9593699483e+01   6.0826762844e+01    0.1258502     0.103036  76.15  0.000442201    1.652    0.395
       101 -12.2212     99.5388     44.4512   5.6639281157e+01   5.3680956249e+01    0.3521461    0.2638231  53.82 0.0009907853    1.386    0.279
       102 -13.6150    102.8496     50.4809   5.7965870880e+01   5.1959124499e+01    0.7708717    0.5617837 -77.96  0.001248871    2.060    0.515
       103 -13.0420     97.7946     50.5818   5.9465756031e+01   5.3026570588e+01    0.4153624     0.347069 -67.42  0.001361352    1.440    0.306
       104 -11.6483     36.9031     52.8801   8.2530992973e+01   6.2741943600e+01    0.4098541    0.2281442 -15.60  0.001734379    3.059    0.673
       105 -11.5201    136.1931     49.6866   4.9391967319e+01   4.4341712562e+01    0.2658453    0.2436486 -12.71 0.0006477212    1.138    0.121
       106 -10.4840     23.5616     50.2096   8.7559669096e+01   6.4699786773e+01    0.1680185    0.1419721 -26.36 0.0003361919    1.173    0.147
       107 -12.7010    158.9035     43.8319   4.3034401012e+01   3.9559265878e+01    0.6105132    0.3126909  50.26  0.002556836    1.968    0.492
       108 -13.4508    171.6818    242.3704   8.4206710882e+01   3.8089709503e+00    0.4310638    0.2877595  36.15   0.00291873    1.191    0.160
       109 -11.4975    147.4904    239.4803   8.8150321812e+01   7.6791652120e+00    0.1151669   0.09137493  38.11 0.0005153173    1.020    0.019
       110 -13.6697     91.3030    231.2770   9.7708949172e+01   1.6911530425e+01    0.4002065    0.2313627  73.56  0.002263772    2.171    0.539
       111 -12.2368     24.7669    217.0789   1.0930373483e+02   2.7456660843e+01    0.4258051    0.2304898  60.89  0.002755778    1.467    0.318
       112 -12.9616     14.1221    221.9585   1.1152343130e+02   2.7615781641e+01    0.3701206    0.2628239  66.29  0.001759945    1.023    0.023
       113 -12.9912    204.7762     40.1104   3.5336825169e+01   2.8735167344e+01       1.0677    0.4646206 -89.08  0.003276741    4.798    0.792
       114 -12.6375    211.6281     44.9555   3.5831966019e+01   2.6506405844e+01    0.4081095    0.3905447  40.45  0.001130498    1.184    0.155
       115 -13.1576    219.5592     41.8117   3.4121900563e+01   2.5080286321e+01    0.9328014    0.4889559 -87.96  0.003881626    2.664    0.625
       116 -11.9426    109.6208     42.1888   5.3011710162e+01   5.1792357521e+01    0.3947029    0.2075263  60.69  0.001192032    2.124    0.529
       117 -13.5942     26.0472    226.8170   1.0958972348e+02   2.5546183394e+01    0.6390525     0.323976 -57.56  0.003857938    2.616    0.618
       118 -12.7913    137.8630     21.9584   3.9287177086e+01   4.7642853744e+01    0.7366143    0.3147467  67.62  0.002357294    2.377    0.579
       119 -12.8918    132.1468     33.1531   4.4424606566e+01   4.7698851094e+01     0.537708    0.4917533  20.45  0.001731538    1.143    0.125
       120 -13.8165    121.9118     37.3318   4.8172116496e+01   4.9625812153e+01    0.9997156    0.4920149  40.34  0.002995783    2.308    0.567
       121 -12.6087    113.7358     38.1887   5.0442981437e+01   5.1440926469e+01    0.3529825    0.3174582 -30.51  0.001030295    1.116    0.104
       122 -11.5052    104.5514     36.7872   5.2262358100e+01   5.3758637305e+01    0.3433129    0.1307784 -34.94  0.001251293    2.546    0.607
       123 -12.4148     75.6121     37.3442   6.1322721283e+01   5.9727360589e+01     0.383221    0.2451961  45.87  0.000980142    1.621    0.383
       124 -11.6971     70.4766     36.4791   6.2771558031e+01   6.0828958860e+01    0.3290986    0.2480651 -37.01  0.001071938    1.275    0.215
       125 -12.5982    242.3888     36.5549   3.0605224567e+01   2.0705101828e+01    0.5633842    0.2598743  75.25  0.002557634    2.502    0.600
       126 -13.3329     20.6453    224.4212   1.1045232476e+02   2.6527454696e+01    0.4367226     0.375141 -52.91  0.002726679    1.736    0.424
       127 -13.1084     64.9598    223.5359   1.0206407236e+02   2.1691028559e+01    0.6549052    0.4635479  41.45   0.00447706    1.288    0.224
       128 -11.7891    171.5090     28.4740   3.6209689155e+01   3.8354978108e+01    0.3094118     0.266396 -22.45    0.0010291    1.227    0.185
       129 -13.9528     64.2928    214.7948   1.0146668419e+02   2.3368370205e+01    0.5020496    0.3152178  63.95  0.003142879    1.429    0.300
       130 -11.3337    249.1868    216.3928   6.7520230325e+01  -3.9247440595e+00    0.1461678   0.09270785  40.24 0.0009557201    1.743    0.426
       131 -13.0784     55.4439     27.2369   6.4444128042e+01   6.4961808130e+01     0.610775     0.329513  45.63  0.002564849    2.036    0.509
       132 -11.9469     63.7200     24.9737   6.0138605075e+01   6.3880876223e+01    0.3692127    0.2309878  22.12  0.001448231    1.914    0.478
       133 -11.8924     30.5957     26.0235   7.5157386352e+01   6.8737800229e+01    0.3157589    0.1989838  14.11  0.001756704    1.860    0.462
       134 -11.6633    156.5547    214.6941   8.3229269814e+01   9.9501982631e+00    0.2140018    0.1733851  -4.59  0.001387554    1.445    0.308
       135 -11.0546     51.8890     20.5438   6.2715233675e+01   6.6591723799e+01    0.2001442    0.1601458  -4.04 0.0005198159    1.193    0.162
       136 -10.9916    223.5034     21.4933   2.8561484552e+01   2.6572240415e+01    0.1292251    0.1149939 -57.22  0.000810469    1.030    0.029
       137 -12.7029     59.4799    212.9852   1.0227171609e+02   2.4306307005e+01    0.2361739    0.1536519 -66.92 0.0009362583    1.665    0.399
       138 -11.0357    148.9963    207.4968   8.3651415610e+01   1.2278275704e+01    0.1994063    0.1072099  39.27 0.0009169927    1.602    0.376
       139 -11.7551     94.4143    218.1553   9.5805243604e+01   1.8736099592e+01     0.209005    0.1187119  44.73  0.001203241    1.449    0.310
       140 -13.2653     15.6742    196.7486   1.0994029269e+02   3.2275635081e+01    0.4210382    0.3317946 -86.34  0.002518906    1.234    0.190
       141 -10.7635    250.0000    199.9924   6.4651933124e+01  -2.2151287042e+00    0.1759899   0.05709472 -31.86  0.000802463    2.943    0.660
       142 -14.2635     29.9975    169.2284   1.0489732859e+02   3.6617451789e+01     1.287087    0.7598809  47.85  0.007618315    1.541    0.351
       143 -13.8716     22.2985    181.2078   1.0756640682e+02   3.4820304280e+01    0.8188766    0.3669738 -60.38  0.004332493    2.341    0.573
       144 -15.3552      8.0699    183.6235   1.1076785066e+02   3.5633683605e+01     1.245438    0.8679413  83.71  0.008749367    1.151    0.131
       145 -15.2342     15.9658    175.6721   1.0857407679e+02   3.6591655910e+01     2.010273    0.7959648  65.18  0.009606129    2.541    0.606
       146 -11.4474    122.2946    181.9130   8.5320994556e+01   2.1180257373e+01    0.2993618    0.1844062  77.58  0.001298878    2.769    0.639
       147 -11.4944     49.2429    182.3839   1.0170770649e+02   3.1656008557e+01     0.221197    0.1350242 -62.03  0.001273431    1.700    0.412
       148 -12.8277    124.1521    167.2788   8.2519458622e+01   2.3736489083e+01    0.5424026    0.3707057 -82.54  0.002619282    2.065    0.516
       149 -11.3775    178.0033    167.4998   7.1165354308e+01   1.3961570365e+01    0.2104145    0.1253043  42.50   0.00103618    1.602    0.376
       150 -12.7403     40.4665    195.3739   1.0473657376e+02   2.9987631169e+01    0.2592156    0.1525842 -83.96  0.001554853    1.609    0.379
