#   1 NUMBER                 Running object number                                     
#   2 MAG_AUTO               Kron-like elliptical aperture magnitude                    [mag]
#   3 X_IMAGE                Object position along x                                    [pixel]
#   4 Y_IMAGE                Object position along y                                    [pixel]
#   5 X_WORLD                Barycenter position along world x axis                     [deg]
#   6 Y_WORLD                Barycenter position along world y axis                     [deg]
#   7 A_WORLD                Profile RMS along major axis (world units)                 [deg]
#   8 B_WORLD                Profile RMS along minor axis (world units)                 [deg]
#   9 THETA_WORLD            Position angle (CCW/world-x)                               [deg]
#  10 FWHM_WORLD             FWHM assuming a gaussian core                              [deg]
#  11 ELONGATION             A_IMAGE/B_IMAGE                                           
#  12 ELLIPTICITY            1 - B_IMAGE/A_IMAGE                                       
         1 -13.4949    220.3661     46.8986   5.6452161119e-01   2.5933012318e+01    0.8679253    0.7304702  34.36  0.001435808    1.647    0.393
         2 -11.7826    247.8340     28.4290   3.5441371330e+02   2.2982655364e+01    0.5287839    0.3193432 -59.84  0.002983303    1.414    0.293
         3 -12.0207    248.0113     22.6224   3.5317072092e+02   2.3599419001e+01    0.5411556    0.4111356 -45.35  0.003900728    1.089    0.082
         4  -9.5796      2.3227      2.4648   4.9836271593e+01   7.9688085915e+01    0.2068306    0.1003687 -51.59   0.00107082    1.950    0.487
         5  -9.4841     60.1940      2.4150   1.0691781386e+01   6.9556257772e+01    0.1817943    0.1222655  75.16 0.0005973924    1.660    0.398
         6 -12.7532    133.0743    229.1821   5.3279909905e+01   9.8657391124e+00    0.8731123     0.339206  26.23   0.00389417    2.446    0.591
         7  -9.5773     74.6571    249.9119   6.7699347682e+01   1.3402762263e+01    0.2199292    0.1676156 -18.98  0.001381799    1.809    0.447
         8  -7.9338     76.0000    244.9474   6.7040072532e+01   1.4109850441e+01    0.2339865   0.06775643 -67.32  0.000975346    4.270    0.766
         9 -13.3081     43.8657    242.5552   7.3760227906e+01   1.8028915462e+01    0.9345208    0.5662084  25.72  0.001215469    1.519    0.342
        10 -13.5220     42.0372    230.2192   7.3467046441e+01   2.0562948557e+01     2.009671    0.9763358  18.57   0.00737957    2.345    0.574
        11 -14.4942     55.5252    233.8484   7.0690230857e+01   1.8424353212e+01     4.443707     1.129802 -63.56   0.01836797    4.050    0.753
        12 -14.9315     28.3991    161.0567   7.2185146992e+01   3.7688408197e+01     8.569997     2.832588  68.75   0.01842805    5.030    0.801
        13 -14.1381     78.9989    185.6747   6.0541542448e+01   2.5674694719e+01     2.761801      1.62179  66.43  0.004504955    2.126    0.530
        14 -15.2647     30.9135    181.8571   7.3083070392e+01   3.2274657108e+01      5.05903     1.763785  53.24   0.01983291    2.718    0.632
        15 -13.8375     43.4287    173.7098   6.8943553145e+01   3.2942442855e+01     3.258113     1.351261  38.45   0.01396257    2.060    0.515
        16 -13.7493     18.8401    236.9944   7.8857273098e+01   2.1514484492e+01    0.5835954     0.409795 -76.39  0.003121682    1.630    0.386
        17 -16.9282      5.7097    217.1671   8.1071612663e+01   2.6632792619e+01     5.948779     2.875478 -88.38   0.01704868    2.030    0.507
        18  -8.2991    189.2985    237.7004   4.3503285291e+01   1.8004765828e+00    0.0957208   0.08218779  35.07 0.0002614929    1.577    0.366
        19 -10.2942     72.7589    232.8900   6.6788610915e+01   1.6661594809e+01    0.2199768    0.2022838  50.02 0.0006080582    1.137    0.121
        20 -10.9930    148.1561    228.0489   5.0031565048e+01   8.1324285204e+00    0.3399488    0.1632843 -46.28  0.001792546    2.331    0.571
        21 -11.1641     82.2794    220.1690   6.3495559256e+01   1.7952126294e+01    0.5525905    0.3479692  18.82  0.001918945    1.666    0.400
        22 -11.8870     97.5491    223.9967   6.0401842640e+01   1.5311043352e+01    0.5595058    0.4926353  47.61  0.002383185    1.121    0.108
        23 -11.5158     89.4201    224.1050   6.2248295233e+01   1.6310288557e+01    0.6271407    0.4162917  52.86  0.002162028    1.494    0.331
        24  -8.1578    194.3078    227.6832   4.1201036301e+01   2.5612504760e+00   0.09665295   0.08715494  38.06 0.0006351898    1.632    0.387
        25  -9.7880     72.5877    225.1991   6.6183325750e+01   1.8145272691e+01    0.2230222     0.167414  31.87 0.0003894733    1.158    0.137
        26 -10.6215    165.0455    222.7934   4.5952829314e+01   6.8103125932e+00    0.3224436    0.2502108  85.62  0.001829011    2.744    0.636
        27 -10.2408    174.6441    223.1125   4.4149646718e+01   5.5611392807e+00    0.2322889    0.1470184  19.82   0.00088172    1.390    0.281
        28  -9.7183    109.8232    223.1803   5.7571700058e+01   1.3891842142e+01    0.1689839    0.1365847   3.47 0.0007901427    1.326    0.246
        29  -8.5670    111.6732    214.3707   5.6112918443e+01   1.5273233527e+01    0.1332145   0.08947303  58.87 0.0003613015    1.818    0.450
        30  -9.7586     95.4939    210.0755   5.9341032272e+01   1.8255883125e+01    0.2689816    0.1992612 -42.77  0.001564702    1.578    0.366
        31  -8.8014    132.0231    211.5011   5.1208017394e+01   1.3044767698e+01    0.1821112    0.1110613  30.13 -0.0003066852    1.440    0.305
        32  -9.8602    210.9942    198.7726   3.3807851744e+01   4.5647585212e+00    0.1887538    0.1434528 -17.02 0.0005323762    1.104    0.094
        33 -10.4944    123.8736    190.8508   5.0079911484e+01   1.8119642606e+01    0.2080623    0.1762189   2.80 0.0007200569    1.230    0.187
        34  -9.4990    112.6766    186.6700   5.2129964341e+01   2.0641475337e+01    0.1394967    0.1038737 -12.82 0.0003608747    1.699    0.411
        35  -9.1890     94.3035    182.7919   5.6182349822e+01   2.4182428607e+01    0.3066584    0.2097732  81.11  0.001332613    1.929    0.482
        36 -14.7660     10.0639    206.3302   7.9696195237e+01   2.8574995300e+01     1.023126    0.6421967   5.79  0.003024755    2.156    0.536
        37  -9.7693    116.3684    181.8282   5.0488412827e+01   2.1103445495e+01    0.1929781    0.1236364 -43.37 0.0009459949    1.689    0.408
        38  -9.8613     59.9992    178.9332   6.4857548269e+01   2.9720329974e+01    0.2236548    0.1841881 -81.32 0.0004688685    1.233    0.189
        39 -11.0315    171.5738    174.5957   3.6864700631e+01   1.3900148474e+01    0.5905474    0.3691022   6.05   0.00281573    2.163    0.538
        40  -9.9407     74.0786    173.1894   6.0286722226e+01   2.9258983511e+01    0.2336921    0.1938504  88.17 0.0002328853    1.243    0.195
        41 -11.3278    102.3091    171.1494   5.2365508861e+01   2.5606451770e+01    0.6666552     0.278141  47.81  0.002474781    2.643    0.622
        42 -11.0964     80.4560    139.0333   5.3104314480e+01   3.6821504866e+01    0.4019037    0.2705555  28.87 0.0003600109    1.568    0.362
        43 -13.5216     66.4004    126.3550   5.5299924803e+01   4.2272891787e+01     2.564373     2.126485 -18.67   0.01288946    1.487    0.327
        44 -12.3512     57.5035    129.2346   5.8850892614e+01   4.2765731071e+01     1.698714    0.7128626 -83.09  0.004900616    4.246    0.764
        45 -11.8534     75.2499    150.0614   5.6594255868e+01   3.4805227601e+01    0.6454069    0.5062899  11.98 0.0005111045    1.518    0.341
        46 -11.7308     60.8433    161.3444   6.2532901095e+01   3.3939289277e+01    0.4744639    0.3803366   0.47   0.00248954    1.566    0.362
        47 -11.8533     65.9410    157.0987   6.0448534658e+01   3.4336696428e+01    0.6136706    0.5091755 -49.62  0.002167922    1.313    0.238
        48 -10.4185    234.6829    169.9999   2.5028018818e+01   5.6430366855e+00    0.1737432    0.1227188 -26.69  0.001150281    1.145    0.126
        49 -10.4357    179.5628    165.6548   3.3607784987e+01   1.4234543377e+01    0.4510497    0.3406602 -76.88  0.002290882    2.351    0.575
        50 -10.1671    110.5042    166.9736   4.9544054392e+01   2.5258824386e+01      0.25953    0.2299884  49.14 0.0003964513    1.115    0.103
        51  -8.5281    117.8423    166.6324   4.7608476296e+01   2.4148075702e+01    0.1840816    0.1255485  44.64 0.0001709063    1.452    0.311
        52  -8.6412    142.3810    164.2116   4.1229796142e+01   2.0593742263e+01    0.1940868    0.1330153 -59.83 0.0008103484    1.723    0.420
        53 -11.4444    238.1236    159.8878   2.2672850950e+01   6.6211552032e+00     0.445685    0.1929121 -24.04  0.002065162    2.563    0.610
        54 -13.6288     62.7771    145.0723   5.9663087706e+01   3.7860381190e+01     1.013722    0.8106593   4.01  0.001365398    1.550    0.355
        55 -12.0283     43.8138    156.1629   6.7038523390e+01   3.7335683055e+01    0.4158294    0.2528403  61.48 0.0008750337    1.659    0.397
        56  -9.8177    124.9184    154.0020   4.3489845668e+01   2.5746105865e+01    0.2860332    0.2064561 -61.24 0.0009814695    1.524    0.344
        57 -10.7048    133.1067    144.6233   3.9552477108e+01   2.6350834166e+01    0.9749357     0.355553 -55.57  0.002629215    3.404    0.706
        58 -12.3647     69.7944    144.9552   5.7442710325e+01   3.6906579820e+01    0.5902244    0.4746526  68.53  0.001802975    1.265    0.209
        59 -10.2857     40.9297    146.3186   6.6817775422e+01   4.0236450434e+01    0.3029942    0.2452327  67.56  0.000484203    1.157    0.136
        60 -10.4088     36.9544    142.4218   6.7655656376e+01   4.1703327980e+01    0.3722109    0.2418421  85.03 0.0008827812    1.547    0.353
        61 -10.4188    108.8921    145.2511   4.5989072329e+01   3.0540417987e+01    0.2806958    0.2737292 -89.20 0.0006378705    1.030    0.029
        62  -9.7529    100.8826    143.6054   4.7903144716e+01   3.2317051151e+01    0.2547032    0.2111882 -70.21 0.0003927176    1.259    0.206
        63  -8.4746    159.5316    141.5069   3.2793267307e+01   2.2164976668e+01    0.1401981    0.1343931 -43.57 7.553932e-05    1.090    0.082
        64  -8.4773     42.0092    139.4890   6.5623938723e+01   4.1934226857e+01    0.2046342    0.1405585  29.59 0.0004558362    1.496    0.331
        65  -9.4804    114.1561    135.2097   4.2466439491e+01   3.1959242837e+01    0.2931976    0.2073887 -69.49 0.0007787449    1.656    0.396
        66 -10.8452     99.3760    133.0020   4.6187163487e+01   3.5162505236e+01    0.7493185    0.4567927 -16.19  0.002534473    3.465    0.711
        67 -10.2913    105.6931    130.5626   4.3826271859e+01   3.4617694784e+01    0.3815584    0.3404076  80.42 0.0009485783    1.194    0.163
        68  -9.7731    122.8758    130.3135   3.9038715645e+01   3.1454777669e+01    0.3001041    0.2105905 -67.23 0.0008110419    1.684    0.406
        69 -11.6203     85.7099    132.0385   5.0126334542e+01   3.7753356452e+01    0.3063775    0.2806219 -65.22  0.000392569    1.079    0.074
        70  -9.6871     31.6056    132.6373   6.8314049217e+01   4.4884425072e+01    0.3007517    0.1897051  54.50 0.0006857023    1.566    0.361
        71 -10.4213     43.8921    131.1967   6.3857559495e+01   4.3950193398e+01    0.3326834    0.1954867 -65.35  0.001392557    1.594    0.373
        72  -8.7669    219.1251    126.1345   1.8751016392e+01   1.4463224888e+01    0.1725191    0.1306189 -46.34 0.0004640888    1.302    0.232
        73  -9.2232    109.3943    126.0976   4.1768105682e+01   3.4999961289e+01    0.2794429    0.2163631  18.66 0.0007882918    1.552    0.356
        74 -11.8272    107.1443    229.0468   5.8815468498e+01   1.3182416433e+01    0.5583043    0.1942926  33.78  0.002477021    2.279    0.561
        75  -9.3804     32.9343    124.8547   6.6867156255e+01   4.6867311276e+01    0.3565463    0.2041981   6.16  0.001395329    2.363    0.577
        76  -9.2767    142.6610    121.9729   3.2137901601e+01   2.9406395109e+01    0.2090079    0.1853584 -45.85 0.0003952191    1.086    0.080
        77 -10.3312     95.9891    121.2118   4.4608782762e+01   3.8678071943e+01    0.3060186    0.2525701  18.35 0.0006286699    1.405    0.289
        78  -9.2513    115.4912    121.5157   3.8984810308e+01   3.4910363074e+01     0.152527    0.1488669 -33.77 -0.0001035586    1.055    0.052
        79  -8.9879    105.4658    120.0744   4.1498503501e+01   3.7186442265e+01     0.228442    0.1507738 -56.36 0.0005138529    1.519    0.342
        80 -12.2727     83.1226    145.1050   5.3384864579e+01   3.4862346656e+01     3.594753      1.58482 -57.25   0.01355527    2.218    0.549
        81 -11.2514     40.9044    118.2307   6.2968929419e+01   4.7818960091e+01    0.5331842    0.2649388  50.05  0.001844764    2.151    0.535
        82 -12.2300    121.6069    230.4550   5.5852070962e+01   1.1109637602e+01    0.5745461    0.2388063  40.55  0.002746642    2.153    0.536
        83 -10.5703    123.9668    117.6477   3.5750097799e+01   3.4116809190e+01    0.4904725    0.2538422 -66.38  0.001588361    3.308    0.698
        84  -9.3272    106.0227    116.0488   4.0363728711e+01   3.8045003961e+01    0.2239371    0.2198041 -79.85  0.000306818    1.015    0.015
        85 -10.4490    244.0635    114.6269   1.3036207555e+01   1.2266069119e+01    0.1968857    0.1199526  64.30  0.001103862    2.505    0.601
        86  -8.8650     40.3102    113.3259   6.2390466652e+01   4.9225665565e+01    0.1535959    0.1058726 -38.59 0.0006266011    1.658    0.397
        87  -9.3739     21.0101    113.5319   6.9890384573e+01   5.1065467367e+01    0.2001629    0.1397803  25.03 0.0007042193    1.546    0.353
        88  -9.8140    136.5170    109.1070   3.0395237459e+01   3.3403931405e+01    0.4411696    0.3198996 -56.93  0.001821317    1.430    0.300
        89 -10.4318    132.9819    103.4816   2.9779316038e+01   3.5354229351e+01    0.5211433    0.3259966 -76.41   0.00189867    2.811    0.644
        90 -10.2211     25.3628    115.8794   6.8509062024e+01   5.0046855250e+01    0.3412673    0.1964241  68.20  0.001380555    1.898    0.473
        91 -11.7173     53.4743    108.0666   5.6355297909e+01   4.9002895586e+01    0.7815156    0.4527335 -57.03  0.003402404    1.620    0.383
        92  -9.4457     34.7240    107.0770   6.3531082323e+01   5.1546870577e+01    0.3992812    0.1305836  42.60  0.001345511    3.108    0.678
        93 -10.4239     32.3521    109.6683   6.4897229459e+01   5.1083087140e+01    0.2797627    0.2314658  50.45 0.0009104998    1.228    0.186
        94 -10.4773     20.5759    108.7027   6.9451652027e+01   5.2424759402e+01    0.3293403    0.1979919  39.68  0.001127621    1.688    0.408
        95 -10.9493     24.0945    104.9642   6.7511686246e+01   5.3152042512e+01    0.3809162    0.2820144 -64.69  0.001012434    1.235    0.190
        96  -8.3964    232.3267    106.6392   1.2809284493e+01   1.5283367025e+01    0.1300377   0.08355039 -56.36 0.0007041871    1.789    0.441
        97 -10.8801     15.7083     98.8425   7.0167190858e+01   5.5497763425e+01    0.4847255      0.22562  30.83  0.001522267    2.179    0.541
        98 -10.5716     12.0375     93.7601   7.1089209764e+01   5.7134715597e+01    0.3880115     0.177551 -59.15  0.001676704    1.896    0.473
        99  -9.1333     84.7311     98.0075   4.2472705749e+01   4.6517799116e+01    0.2158674    0.2012856 -62.62 0.0002897884    1.041    0.039
       100  -9.3507     80.4305     94.1871   4.2926749039e+01   4.8259954576e+01    0.2564163    0.2270931  55.25 0.0007655862    1.154    0.134
       101 -10.0246     76.9977     90.2525   4.3058236575e+01   4.9860404250e+01    0.3821644    0.2636384 -85.17 0.0008288192    1.998    0.499
       102 -11.3332     40.6137     91.6850   5.8101972315e+01   5.5053226530e+01     0.302895    0.2634342  44.63 0.0003776386    1.202    0.168
       103 -10.5151     45.3339     90.6740   5.5836416160e+01   5.4733445798e+01    0.3245206    0.2124476  56.56  0.001200028    1.755    0.430
       104  -8.4248    103.7102     92.7278   3.4817082612e+01   4.3991321330e+01    0.1486562    0.1251103  -4.42            0    1.511    0.338
       105  -8.5163     25.3395     92.7163   6.5022218997e+01   5.6382807872e+01    0.1492784    0.1004082  59.94 0.0007013817    1.631    0.387
       106  -8.8590    162.6435     88.2722   1.9133915416e+01   3.1862472309e+01    0.1491832     0.111087 -76.54 0.0004132539    1.644    0.392
       107  -8.3264     89.6724     87.2893   3.7713715465e+01   4.8139140224e+01    0.1580476    0.1220654  81.34 0.0003998655    1.616    0.381
       108  -8.9985     41.5835     77.8081   5.4295565499e+01   5.8578022856e+01    0.2060125      0.13742 -77.28 0.0005184312    1.663    0.399
       109  -8.9081    184.6635     76.6910   1.2280036614e+01   2.9041744112e+01     0.135809    0.1098959  11.65 0.0005856895    1.680    0.405
       110  -9.8948     86.8025     74.5679   3.4658136111e+01   5.1635151573e+01    0.3762454    0.2613147  70.70  0.001529596    1.909    0.476
       111 -10.0007     17.0827     73.8111   6.5427277643e+01   6.2129907850e+01    0.2670279    0.1784641 -53.57 0.0009559437    1.351    0.260
       112  -8.8886    129.0007     73.5350   2.2006066148e+01   4.2353354784e+01     0.203473    0.1332695  85.98 0.0003897307    2.251    0.556
       113  -9.7317     30.3277     71.8483   5.8206079407e+01   6.1433691293e+01    0.2994083    0.2002166  55.21   0.00127101    1.759    0.432
       114  -9.4857     24.7674     68.6182   6.0260315983e+01   6.2825544749e+01    0.1919815    0.1257564  35.20 0.0005201811    1.625    0.385
       115 -11.9231    197.4859     62.0412   6.7189349710e+00   2.8556421577e+01    0.5842516    0.4511622  31.38  0.000844371    1.780    0.438
       116  -9.6757    124.8465    248.5995   5.7191238667e+01   7.7865027463e+00    0.1607677     0.141372 -57.48  0.001159169    1.481    0.325
       117 -10.8046      1.8384     61.1333   7.1371270257e+01   6.6343741741e+01    0.5217891    0.1371467 -79.21  0.001656051    3.944    0.746
       118 -12.9136    209.3968     54.8046   3.5413280693e+00   2.7093977481e+01     0.940026    0.7383795 -40.73  0.003423243    1.112    0.101
       119  -9.2836     46.6596     50.0828   4.2573027417e+01   6.4518968555e+01    0.2427355    0.1923731  45.85 0.0008168514    1.356    0.262
       120 -10.0565    138.4192     65.1605   1.7217982794e+01   4.1645139926e+01    0.4022481    0.2478977 -63.65 0.0008895345    1.994    0.499
       121  -9.0049    108.6722     38.6799   1.4607478504e+01   5.3335953574e+01    0.1503085     0.112381  27.14 0.0007047565    1.685    0.407
       122  -9.9687     67.4224    241.2273   6.8602659247e+01   1.5738399223e+01    0.2383992    0.1706969 -79.41  0.001213247    1.665    0.399
       123  -9.2706    108.3790    240.1718   5.9718938321e+01   1.1113823159e+01    0.2013413    0.1103658 -52.80  0.001141765    2.176    0.541
       124 -11.4140     18.9303     31.9198   5.1658999926e+01   7.2171144878e+01    0.5134853    0.2248032  26.82  0.002285886    2.330    0.571
       125  -8.0393    127.6921     29.7211   7.1422470951e+00   4.9777310319e+01     0.140154    0.1067584  37.21 0.0002060627    1.556    0.357
       126  -9.8395     21.5236     27.0638   4.7475611346e+01   7.2904777003e+01    0.1956868    0.1212831 -51.02 0.0005891029    1.546    0.353
       127 -10.4369      3.3118     22.0704   5.9787710385e+01   7.5648942559e+01    0.3351455    0.1611731  24.13   0.00166933    2.148    0.534
       128  -9.3645     60.8671     21.1383   2.1610414811e+01   6.7161139948e+01    0.2022388    0.1859012  81.38 0.0006185528    1.244    0.196
       129  -9.8908    103.0810    238.6942   6.0695915565e+01   1.2006336260e+01     0.258124    0.1644384 -47.11   0.00110985    1.894    0.472
