#   1 NUMBER                 Running object number                                     
#   2 MAG_AUTO               Kron-like elliptical aperture magnitude                    [mag]
#   3 X_IMAGE                Object position along x                                    [pixel]
#   4 Y_IMAGE                Object position along y                                    [pixel]
#   5 X_WORLD                Barycenter position along world x axis                     [deg]
#   6 Y_WORLD                Barycenter position along world y axis                     [deg]
#   7 A_WORLD                Profile RMS along major axis (world units)                 [deg]
#   8 B_WORLD                Profile RMS along minor axis (world units)                 [deg]
#   9 THETA_WORLD            Position angle (CCW/world-x)                               [deg]
#  10 FWHM_WORLD             FWHM assuming a gaussian core                              [deg]
#  11 ELONGATION             A_IMAGE/B_IMAGE                                           
#  12 ELLIPTICITY            1 - B_IMAGE/A_IMAGE                                       
         1 -13.5954    208.8884      3.3085   6.1084529190e+01   3.2557615340e+01     1.386388    0.6929484  63.62  0.003035539    1.754    0.430
         2 -14.1533    186.7090     27.1139   6.9676670638e+01   3.5331915968e+01     1.693742     1.335011 -22.88   0.00551152    1.510    0.338
         3 -13.8993    194.0713     20.9578   6.7073388579e+01   3.4237038243e+01     1.263609    0.9090543 -58.37   0.00458361    1.417    0.294
         4 -12.9350    200.7743     12.3963   6.4117612882e+01   3.3554236221e+01    0.6110193    0.5518028  49.56  0.001257425    1.293    0.227
         5 -10.6909     32.8194      2.9858   9.9866211164e+01   6.8952421549e+01    0.1565106    0.1205487 -42.17   0.00109403    2.012    0.503
         6 -15.8607     10.2586    240.8408   1.5059623833e+02   2.3696604450e+01     5.028815    0.7033777 -67.12   0.01993747    5.133    0.805
         7 -12.8979    245.9455    247.5423   1.0903371162e+02  -1.3478968404e+01    0.8630739    0.4840536  27.18   0.00506926    1.549    0.354
         8 -11.5348    148.8947    249.1102   1.2711030350e+02   2.2444704347e+00    0.2915765    0.2387849  71.26  0.001888848    1.288    0.224
         9 -13.0210     83.1487    247.2717   1.3894149728e+02   1.3234640804e+01    0.8804492    0.4757155  45.12  0.005047143    1.627    0.385
        10 -10.8654     94.2014    249.8307   1.3723026092e+02   1.1100018995e+01    0.2724305    0.2541747  45.61  0.001049234    1.441    0.306
        11 -13.1374     99.7940    245.7375   1.3580082784e+02   1.0967428593e+01      0.76227    0.5172293  58.15  0.004745509    1.190    0.160
        12 -12.0868    108.3614    246.1672   1.3428198645e+02   9.5262508685e+00    0.4673074    0.2865433  66.88  0.001431071    1.598    0.374
        13 -13.0033     34.9555    229.5525   1.4584279839e+02   2.3100779073e+01    0.8438703      0.56288 -46.50  0.002067399    2.600    0.615
        14 -14.1467     49.1290    231.7872   1.4356026888e+02   2.0910980168e+01     1.548806    0.4993649  52.47  0.005313615    2.623    0.619
        15 -12.3237     58.9731    226.4337   1.4133267571e+02   2.0675634772e+01    0.4024431    0.3332326  87.61 0.0009869363    1.175    0.149
        16 -15.7986      2.2167     92.6029   1.3824109652e+02   5.5783260633e+01     14.31032    0.6491739 -66.63   0.02902136   12.670    0.921
        17 -13.0784     51.0539    222.9061   1.4245745146e+02   2.2431181152e+01    0.4579673    0.3176787 -64.27  0.001241245    1.580    0.367
        18 -15.6452     58.9239    210.6808   1.3981865316e+02   2.3919053730e+01     8.557158     1.167416  47.38   0.02621348    5.512    0.819
        19 -14.6444     33.4272    246.7860   1.4730504959e+02   1.9998593397e+01     2.267927    0.6910185  40.64    0.0111349    3.062    0.673
        20 -10.9282     82.5183    230.3225   1.3736020378e+02   1.6542235065e+01    0.2707097    0.1243605  44.39  0.001354566    1.933    0.483
        21 -12.8188    179.9270    249.3126   1.2132855269e+02  -3.1115386443e+00     1.116477    0.2266184  39.08  0.003365674    4.847    0.794
        22 -11.6379    210.2451    240.8218   1.1435634216e+02  -7.0061528170e+00    0.4011979    0.1369092  32.89  0.001504375    3.292    0.696
        23 -10.0918    169.9203    215.9628   1.1805514889e+02   4.1526809828e+00    0.2120764     0.161546  74.39  0.000582935    1.671    0.402
        24 -10.3969    115.4287    240.2520   1.3228711391e+02   9.4381399656e+00    0.1612765    0.1138562 -83.02 0.0004616666    1.574    0.365
        25 -14.1227     10.9937    206.6010   1.4835180800e+02   3.0320052121e+01    0.9219723    0.6467521  27.59  0.003976222    2.126    0.530
        26  -9.5381    113.0639    210.3355   1.2887828445e+02   1.5642560852e+01    0.1968813    0.1559334  56.23 0.0005549183    1.120    0.107
        27 -10.7990    103.9343    237.1260   1.3408578083e+02   1.1894067772e+01    0.2431385    0.1762277 -65.61 0.0008627941    1.512    0.339
        28 -10.3496    226.2609    201.1888   1.0427601021e+02  -3.7771499783e+00    0.2800181    0.2146871 -55.38 0.0007881519    1.732    0.423
        29 -10.7375    193.1007    194.8654   1.0953764184e+02   3.5335900671e+00    0.8850603    0.4319001 -63.40  0.002419601    6.302    0.841
        30 -11.8368     73.7445    190.6903   1.3450613148e+02   2.6191430173e+01    0.4039021    0.2506684 -46.32  0.002043359    2.081    0.519
        31 -11.8425     78.0527    184.2017   1.3270591440e+02   2.7017033799e+01    0.2980106    0.2369303 -54.07 0.0005964488    1.410    0.291
        32 -12.8442     58.0882    130.4828   1.2906045588e+02   4.2327810774e+01     2.446167    0.7446606 -70.15   0.00554323    8.095    0.876
        33 -13.7047     68.1721    145.2123   1.2903366921e+02   3.7536619059e+01     1.586741    0.8356143  87.23   0.00571823    3.566    0.720
        34 -13.3713     74.0287    169.8268   1.3155305368e+02   3.0915178198e+01    0.4779143     0.279062 -45.20  0.001455437    2.083    0.520
        35  -9.3856    164.6208    157.7675   1.0801906954e+02   1.6845169542e+01    0.2127936    0.1446927 -57.02 0.0004679135    1.600    0.375
        36 -12.9578      2.2205    225.4003   1.5100081182e+02   2.7431981762e+01    0.6859637    0.2277286 -82.89  0.003542641    2.545    0.607
        37  -9.5886     47.9572    150.9736   1.3496175950e+02   3.8733850220e+01    0.1583637    0.1288755 -76.50 0.0002940206    1.023    0.023
        38 -10.3746    133.9024    145.1500   1.1244030405e+02   2.6157126916e+01    0.9745022    0.2073759 -54.07   0.00198499    7.420    0.865
        39 -10.6058    103.7932    148.2070   1.2056571152e+02   3.1219921892e+01    0.3164028    0.2821662 -59.23 0.0007837006    1.098    0.090
        40  -9.8135    106.4771    144.0390   1.1904139034e+02   3.1721094846e+01     0.361778    0.2240286 -34.24  0.001138145    2.147    0.534
        41 -12.3697     92.6044    147.8502   1.2331693317e+02   3.3217088001e+01    0.2847339    0.2671502 -42.76  0.000567164    1.196    0.164
        42 -11.2779     54.5084    145.3164   1.3249545376e+02   3.9281856311e+01    0.2740745     0.204409 -51.78  0.001584094    1.336    0.251
        43 -11.6536     69.7029    134.8161   1.2677063067e+02   3.9784054156e+01    0.3353734    0.3097681 -72.99  0.001902678    1.057    0.054
        44 -10.1648    113.1965    134.8191   1.1533832971e+02   3.2636759065e+01    0.3487566    0.2433183 -33.15  0.000844689    1.726    0.421
        45 -10.9573    100.8324    131.7567   1.1788809895e+02   3.5609597218e+01    0.3014449    0.2497716 -18.44  0.000725687    1.520    0.342
        46  -9.2363    105.8893    131.1399   1.1641894408e+02   3.4848945527e+01    0.2334431    0.2003629  88.94  0.001218121    1.248    0.199
        47 -11.5720     44.0278    129.1665   1.3257644066e+02   4.4261142627e+01    0.4571609    0.1589139 -67.55  0.001763821    2.790    0.642
        48  -9.6674    118.3881    127.8261   1.1239036539e+02   3.3252551182e+01    0.2179065    0.1374281 -39.89 0.0004683096    1.687    0.407
        49  -9.7817    109.1259    122.3645   1.1353566889e+02   3.6280584343e+01    0.2219572    0.1960335 -40.50 0.0003380672    1.145    0.127
        50 -10.8614    168.2429    113.0836   9.6520407815e+01   2.5562634330e+01    0.3892125    0.3006285 -74.88 0.0009444375    1.578    0.366
        51 -11.6476     85.8924    172.8983   1.2927543010e+02   2.8410511553e+01    0.2770269    0.2504886  87.17 0.0003603584    1.057    0.054
        52 -13.2321     91.0474    165.1018   1.2679942613e+02   2.9404762442e+01     4.573001     0.843554  46.80  0.001061551    6.198    0.839
        53  -9.6387    205.6037    110.2730   8.8119688490e+01   1.7254414871e+01    0.2651096    0.1879667  32.40  0.001048659    1.733    0.423
        54  -8.8328    154.6759     76.6933   8.9608588655e+01   3.5888444001e+01    0.1552271    0.1192705  18.55 0.0005291505    1.646    0.392
        55  -9.8992    131.2836     55.1291   8.8545347840e+01   4.4980518645e+01    0.2593736    0.1893912  87.02 0.0008620538    2.004    0.501
        56 -10.2517    114.9831     45.7871   8.9602804642e+01   4.9956982010e+01    0.2821399    0.2303444  68.15   0.00080018    1.468    0.319
        57 -12.2458    200.9952    249.2905   1.1741237119e+02  -6.6554016100e+00    0.5271718    0.1859723  42.95  0.002302218    2.397    0.583
        58 -12.5084    139.3233    248.6993   1.2884569585e+02   3.9454384838e+00     0.490057    0.3539441  50.27   0.00297217    1.128    0.113
        59 -11.5649    161.7330    248.9690   1.2468605001e+02   6.1892516593e-02    0.3400936    0.2078186  41.76  0.001911444    1.353    0.261
        60 -11.4633     20.3676     36.0226   1.1828565126e+02   6.5563289363e+01    0.2247709    0.1668616 -58.88  0.001517747    1.755    0.430
        61 -12.2172    126.3362    246.0202   1.3093670072e+02   6.5949562419e+00    0.5483488    0.3398522 -74.72  0.002905382    2.046    0.511
