#   1 NUMBER                 Running object number                                     
#   2 MAG_AUTO               Kron-like elliptical aperture magnitude                    [mag]
#   3 X_IMAGE                Object position along x                                    [pixel]
#   4 Y_IMAGE                Object position along y                                    [pixel]
#   5 X_WORLD                Barycenter position along world x axis                     [deg]
#   6 Y_WORLD                Barycenter position along world y axis                     [deg]
#   7 A_WORLD                Profile RMS along major axis (world units)                 [deg]
#   8 B_WORLD                Profile RMS along minor axis (world units)                 [deg]
#   9 THETA_WORLD            Position angle (CCW/world-x)                               [deg]
#  10 FWHM_WORLD             FWHM assuming a gaussian core                              [deg]
#  11 ELONGATION             A_IMAGE/B_IMAGE                                           
#  12 ELLIPTICITY            1 - B_IMAGE/A_IMAGE                                       
         1 -16.1371    247.5367     97.1170   4.4727642849e+01   1.2763475123e+01     6.162557     1.423239 -37.06   0.01972686    4.228    0.763
         2  -9.9755     40.8331     14.1842   6.6528843751e+01   6.8177904362e+01    0.1671919    0.1136283  12.77  0.001028971    1.308    0.236
         3 -11.1114    160.0060    238.9841   8.8926929401e+01   1.4636690497e+00    0.1989825    0.1584206  60.44  0.001137359    1.718    0.418
         4 -10.1802    144.6849    232.3489   9.1241785728e+01   4.9750536314e+00    0.2039371    0.1545031  62.03  0.001097169    1.734    0.423
         5 -11.3734    162.8999    225.3170   8.6149231813e+01   3.4941282214e+00    0.3477758    0.2620048   0.52   0.00154554    1.396    0.284
         6 -10.3453    191.5095    226.5132   8.0324768560e+01  -1.0073390570e+00    0.1330149    0.1108108   1.28 0.0001750841    1.018    0.018
         7  -9.0691    171.2919    225.6770   8.4401629484e+01   2.1443285824e+00    0.1228872    0.1067006  65.07 0.0002359693    1.612    0.380
         8 -10.3808     99.3752    225.2270   1.0048695746e+02   1.3273828086e+01    0.2284589    0.1831453  42.29  0.000953008    1.129    0.114
         9 -10.3118    148.6269    222.8532   8.8895808774e+01   6.1824791710e+00    0.1860455    0.1328138 -62.41 0.0009547627    1.789    0.441
        10  -9.9886    114.6612    223.3286   9.6704885328e+01   1.1379334014e+01    0.1436035   0.09972572  62.81 0.0007051791    1.734    0.423
        11 -10.2112     60.4011    222.6137   1.0911254215e+02   1.9214509691e+01    0.2532692    0.1130642 -87.49 0.0009574452    3.375    0.704
        12  -9.5742    174.2954    222.6482   8.3253953511e+01   2.2347688375e+00     0.124675    0.1085667  71.67 0.0003816249    1.684    0.406
        13 -10.8937    126.0380    220.5602   9.3675395472e+01   1.0193435853e+01     0.230122    0.1957043  88.33  0.000596052    1.439    0.305
        14 -10.9977    204.5278    217.9223   7.6217153673e+01  -1.4329543726e+00    0.1946336    0.1186693 -37.54 0.0007625399    1.581    0.368
        15 -10.2746    143.8686    216.6493   8.8970028395e+01   8.1643448434e+00    0.2437303    0.1854212 -33.92  0.001309364    1.398    0.285
        16 -10.6308    199.0025    214.9582   7.6789286532e+01  -1.2091053434e-01     0.184538    0.1711746  85.04 0.0008627473    1.665    0.399
        17 -11.2359    185.9768    214.1140   7.9307587774e+01   1.9916025774e+00    0.2963119    0.1964846 -48.86  0.001039547    1.720    0.419
        18 -11.9660    217.9463    210.2935   7.2247236853e+01  -2.0641893340e+00    0.3440837    0.1789194 -48.79  0.001610128    2.356    0.575
        19 -10.5413    176.9735    209.4670   8.0383781022e+01   4.2583033974e+00    0.2758779    0.1774735 -62.46   0.00125179    2.399    0.583
        20 -10.5692    116.3467    209.9031   9.4336418455e+01   1.3992346915e+01    0.2680774    0.1378203 -65.86  0.001085284    2.503    0.601
        21 -12.1798    226.0889    207.1802   7.0159417533e+01  -2.6849114079e+00    0.2971919    0.1533463 -46.43  0.001433642    2.167    0.539
        22 -10.6226    205.9625    207.7487   7.4094931468e+01   1.0172113442e-01    0.2291693    0.1683934 -48.58  0.001261906    1.616    0.381
        23 -12.3576    186.0841    203.9131   7.7434106226e+01   3.8536504507e+00    0.5365185     0.290918 -52.48  0.002375828    2.267    0.559
        24 -10.8811    198.4943    203.7003   7.4835853165e+01   1.9485216505e+00    0.2509181    0.2236623 -42.39  0.001014479    1.318    0.241
        25 -11.9168    172.4576    190.7031   7.7873620704e+01   8.6806444234e+00    0.4064466    0.3476737  -1.49  0.002248243    1.139    0.122
        26 -11.8524    172.3414    195.8486   7.8882478981e+01   7.6647786133e+00    0.4702482     0.238576  42.46  0.001909484    2.067    0.516
        27 -11.4340    162.2238    193.3223   8.0668961324e+01   9.8980131982e+00    0.4752432    0.2828911 -54.99  0.001851946    1.951    0.488
        28 -12.5247    164.5661    200.7371   8.1521008680e+01   7.9862525446e+00    0.7792958    0.3879402 -40.96  0.002926844    2.036    0.509
        29 -10.5655    148.7056    197.7168   8.4600968753e+01   1.1287050848e+01    0.2827778    0.1858699 -74.74  0.001173817    2.550    0.608
        30 -11.6101    124.7379    197.3374   9.0273529796e+01   1.5418459504e+01    0.3699023    0.2890124  52.20   0.00189862    1.352    0.261
        31 -10.1621    202.9240    197.1401   7.2711083065e+01   2.4502596262e+00    0.1958592     0.186557 -45.82 0.0008355229    1.334    0.251
        32 -10.1211    112.3302    197.6458   9.3382214674e+01   1.7389047957e+01    0.1537717     0.110072  69.29  0.000704584    1.780    0.438
        33 -10.1480    193.3897    195.7105   7.4368984461e+01   4.2233099193e+00    0.2610825     0.127435 -46.49  0.001121787    2.110    0.526
        34 -10.3422    209.4661    194.9254   7.1000930169e+01   1.8380663981e+00    0.2064231    0.1658295 -46.24 0.0007732432    1.409    0.290
        35 -11.3890    205.6388    190.3659   7.0869638761e+01   3.2603144450e+00    0.4282463    0.2231125 -55.63  0.001713612    2.940    0.660
        36 -10.9144    203.8855    183.9595   6.9957260305e+01   4.7278718811e+00     0.373769    0.1869034 -45.90  0.001642836    1.996    0.499
        37  -9.6512    132.6513    195.3161   8.7995938580e+01   1.4539195960e+01     0.150755    0.1137768  67.73 0.0007047616    1.727    0.421
        38 -10.7617    186.1333    193.4424   7.5446796327e+01   5.8380306301e+00    0.2765324    0.1852539 -57.66  0.001052644    1.958    0.489
        39 -11.9220    245.9269    192.2842   6.3905170746e+01  -2.9563190772e+00    0.2672684     0.160721 -47.29  0.001097058    1.867    0.464
        40 -10.2191    199.5358    191.0189   7.2211987143e+01   4.1127470375e+00    0.2161919    0.1265092 -40.05   0.00103604    1.607    0.378
        41 -10.0550    179.5311    190.2981   7.6249031694e+01   7.5578806620e+00    0.2610389    0.1369834 -48.53 0.0009794547    2.000    0.500
        42 -10.9686    138.9016    188.8518   8.5311065554e+01   1.4903105741e+01    0.4074016    0.2110464 -57.54  0.001623819    2.231    0.552
        43 -10.2443    210.5760    188.8174   6.9605839150e+01   2.7661275650e+00    0.1898396    0.1215953 -48.44 0.0009451918    1.710    0.415
        44 -10.2228    192.4808    187.5130   7.2965804685e+01   5.9294851897e+00    0.2452811    0.1307114 -52.48  0.001030869    2.266    0.559
        45 -10.4439    129.0021    187.7874   8.7543158814e+01   1.6859162599e+01    0.2678412    0.1991046 -71.46 0.0009245757    1.648    0.393
        46 -10.2098    217.5031    187.0287   6.7939416902e+01   2.0140120536e+00    0.2096277    0.1191881 -38.90  0.001031138    1.585    0.369
        47 -10.9062    165.2096    186.0060   7.8583305887e+01   1.0903562205e+01    0.3966555    0.2567659 -58.51  0.001785956    1.903    0.475
        48 -10.6029    211.8298    201.7720   7.1840316740e+01   2.7181456975e-01    0.1662176    0.1612148 -29.98 0.0008341277    1.354    0.261
        49 -11.2761    120.1791    184.5846   8.9175953005e+01   1.9115084094e+01    0.5717073    0.2239775 -63.92  0.001682405    4.122    0.757
        50 -11.4171     95.5816    186.8696   9.5889933993e+01   2.2607982270e+01    0.4271561    0.1983967  59.23  0.001349156    3.765    0.734
        51 -10.1943    183.0004    183.7276   7.4209537815e+01   8.2739643496e+00    0.2656168     0.182354 -53.90  0.001278164    1.682    0.405
        52 -12.0662    174.1449    182.3525   7.5859872207e+01   1.0092313604e+01    0.4766473    0.2970646 -45.71  0.001557171    1.595    0.373
        53 -12.3632    243.9095    181.0358   6.2110408861e+01  -8.3906100006e-01    0.3221361    0.1841766 -37.06  0.001236219    1.466    0.318
        54 -10.0356    197.1474    182.1861   7.0953040060e+01   6.1748512250e+00    0.1846834     0.168413 -54.08 0.0008695903    1.318    0.241
        55 -11.4777    224.8464    183.5014   6.5897192177e+01   1.5188644526e+00    0.2642907    0.1640355 -52.04  0.001167678    1.976    0.494
        56 -11.7905    147.6906    178.3480   8.1168844952e+01   1.5684282904e+01    0.5233185    0.2792649 -48.53  0.002164723    1.877    0.467
        57 -11.2016    137.8885    178.1963   8.3531764465e+01   1.7485757424e+01    0.3777392    0.2272783 -53.82  0.001281354    1.737    0.424
        58  -9.8455    205.4869    177.9802   6.8446344450e+01   5.5874522167e+00     0.187194    0.1198123 -61.67 0.0008093533    2.453    0.592
        59 -10.8935    192.0835    176.7228   7.0885954960e+01   8.0960748205e+00    0.4019107    0.1972956 -45.38  0.001693703    1.981    0.495
        60 -10.3078    211.3876    182.7455   6.8256506964e+01   3.7442480295e+00    0.2020762    0.1145191 -31.31  0.000542401    1.673    0.402
        61  -9.7936    218.3881    176.1820   6.5631198232e+01   3.8262619201e+00    0.1963934    0.1170765 -47.53 0.0009475937    1.732    0.422
        62 -11.2880    183.1162    174.8532   7.2387543365e+01   1.0039379489e+01    0.4357216    0.2041152 -40.12   0.00175784    2.047    0.512
        63 -10.7226     77.6800    175.6698   9.8853697021e+01   2.8083194791e+01    0.3006278    0.1758616  89.77  0.001173439    2.500    0.600
        64 -11.2541    154.6319    240.0822   9.0239610735e+01   2.0647875284e+00    0.2702454    0.1248643 -48.68  0.001236673    2.423    0.587
        65 -11.3974    196.5495    156.6425   6.5763749617e+01   1.1276466576e+01    0.4210574     0.256769 -45.34   0.00141492    1.557    0.358
        66 -10.0626    128.2222    158.2406   8.1923629315e+01   2.3925450820e+01    0.2494576    0.1272886 -60.93  0.000883284    2.440    0.590
        67 -10.1782    105.4766    157.9714   8.8004205550e+01   2.8105583072e+01     0.220898    0.1385822 -82.87 0.0008101192    2.570    0.611
        68 -10.4236    188.3439    156.6124   6.7424218486e+01   1.2797404404e+01    0.3012599    0.1683173 -40.90  0.001174054    1.667    0.400
        69 -10.7870    167.6416    155.9144   7.1761882122e+01   1.6882173425e+01    0.4870226    0.1764118 -46.84  0.001631801    2.700    0.630
        70 -10.2531    157.5478    155.3013   7.3964772354e+01   1.8974524730e+01    0.3022652    0.1479953 -50.69  0.001138328    2.107    0.525
        71 -10.5337     50.4115    155.7972   1.0343943116e+02   3.6785112041e+01    0.3158135    0.1199045  54.12 0.0009553874    4.269    0.766
        72 -10.9191    204.4190    154.0620   6.3672455881e+01   1.0354919642e+01    0.3363319    0.1930614 -38.05 0.0009634551    1.585    0.369
        73 -10.3902     81.9936    154.8382   9.4063808986e+01   3.2745158470e+01    0.2643579    0.1635002  60.23  0.001085528    2.077    0.518
        74 -10.3903    144.4152    154.2211   7.6912950140e+01   2.1774265160e+01    0.2232889    0.1480106 -58.88 0.0009481595    1.699    0.411
        75 -10.9274    133.1338    152.2607   7.9346936694e+01   2.4411926979e+01    0.5165867    0.2867697 -64.39  0.001869856    2.507    0.601
        76 -11.0736    205.9775    169.0166   6.6521518551e+01   7.2039332368e+00    0.3368014    0.1919442 -48.68  0.001194745    1.817    0.450
        77 -12.0775    189.9074    147.9202   6.5193034665e+01   1.4265990366e+01    0.8716125      0.30919 -38.80  0.002961197    2.780    0.640
        78 -10.0491    182.1403    150.1617   6.7304049202e+01   1.5297768721e+01    0.2108548    0.1741356 -60.16 0.0009555307    1.361    0.265
        79  -9.9747    162.3874    150.1779   7.1686694591e+01   1.9155700220e+01     0.226731    0.1416527 -55.23 0.0009495083    1.766    0.434
        80 -11.4843    200.0553    147.1922   6.3020488788e+01   1.2495451229e+01    0.5100693    0.2037717 -40.47   0.00192339    2.295    0.564
        81 -11.3568    121.6596    168.0604   8.5663927930e+01   2.2778032156e+01    0.6090924    0.3089795 -61.94   0.00224544    2.402    0.584
        82 -10.4992     40.1170    148.3131   1.0535185408e+02   3.9874838307e+01    0.3083154    0.1326223  51.25  0.001152219    2.956    0.662
        83 -10.6795    119.1687    154.7370   8.3584023284e+01   2.6449995432e+01    0.3133573    0.1898074 -67.25  0.001220079    2.128    0.530
        84 -11.2469     56.7029    146.2799   1.0003649970e+02   3.8490369654e+01    0.4616325    0.2278966  59.41  0.001642776    3.133    0.681
        85  -9.8635    175.5978    145.7702   6.7720485668e+01   1.7492334714e+01    0.2174726    0.1383164 -52.31 0.0006934801    1.648    0.393
        86 -11.5966    148.5901    143.2859   7.3400692633e+01   2.3442916439e+01    0.7543548    0.3388254 -54.97  0.002564309    2.651    0.623
        87 -10.9512    107.5284    145.3861   8.4785254492e+01   3.0867342717e+01    0.4502333    0.2834549  75.81  0.001580997    2.977    0.664
        88  -9.9279    208.5895    143.8133   6.0674232707e+01   1.1571966176e+01     0.207703    0.1228266 -49.69 0.0009436282    1.692    0.409
        89 -10.9594    195.5620    143.1157   6.2993666958e+01   1.4149348624e+01    0.2963017    0.2292888  -2.41  0.001476029    1.577    0.366
        90 -10.2362    165.5602    143.3240   6.9393913299e+01   2.0015912826e+01    0.3072367    0.1448848 -48.76  0.001143246    2.125    0.529
        91 -10.9748    124.9995    142.9224   7.9396683812e+01   2.8198051493e+01    0.4722632    0.2862129 -80.50  0.001500984    3.593    0.722
        92 -10.5875     88.4850    143.9949   9.0019525067e+01   3.4488873960e+01    0.2191258    0.1365717 -84.79 0.0008101646    2.538    0.606
        93 -10.5035    230.4887    141.5186   5.6398044897e+01   8.1207043857e+00    0.2783634    0.1741238 -39.70  0.001439168    1.361    0.265
        94 -10.4529    229.6960    138.3438   5.5861055496e+01   8.8265889494e+00    0.2294738    0.1205823 -43.41 0.0007907934    1.648    0.393
        95 -10.3604    181.9773    140.8199   6.5229882399e+01   1.7261830595e+01    0.2863042    0.2053181 -43.07  0.001297497    1.308    0.236
        96 -10.2821    142.5087    148.5204   7.6113685821e+01   2.3458641699e+01    0.2860128    0.1497753 -58.37   0.00103425    2.336    0.572
        97 -10.9906    212.0971    168.5027   6.5247324099e+01   6.2680677604e+00    0.3555443    0.2190894 -63.21  0.001478244    2.805    0.643
        98  -9.8014    199.3492    169.1935   6.7860581354e+01   8.3104663166e+00    0.2035609    0.1243884 -48.21 0.0009402244    1.668    0.400
        99 -10.8000     23.7060    138.4336   1.0889960163e+02   4.3980124185e+01    0.4072797    0.1937245  67.16  0.001527823    3.292    0.696
       100 -10.4980    167.8979    168.3254   7.4379755907e+01   1.4164563394e+01    0.3567963    0.1940071 -53.22  0.001443684    2.043    0.511
       101 -11.0591    197.8817    135.6518   6.0870198574e+01   1.5177413498e+01    0.5907137    0.1924972 -42.97  0.002002047    2.794    0.642
       102 -10.1453    171.9955    137.2296   6.6539338489e+01   2.0017738770e+01    0.3835361    0.1794577 -52.71  0.001379378    2.429    0.588
       103 -10.2154    192.5175    136.4637   6.2094164549e+01   1.6064248727e+01    0.3099555    0.1361241 -40.80  0.001080276    2.108    0.526
       104  -9.7657    138.3380    137.6570   7.4653938617e+01   2.6795696167e+01    0.1628918    0.1270603  87.16 0.0007049477    1.770    0.435
       105 -10.0995    219.5311    136.0187   5.7050204717e+01   1.1044909588e+01    0.2213724    0.1224968 -39.24  0.001026618    1.584    0.369
       106 -10.0762    187.6925    134.5171   6.2609035069e+01   1.7410352097e+01    0.2759809    0.1275008 -42.51   0.00107203    2.006    0.501
       107 -10.5485    179.3000    132.7653   6.3926439284e+01   1.9461379985e+01    0.3529133    0.1968205 -47.03  0.001481011    1.729    0.421
       108 -10.9674     83.6931    132.0720   8.8918173724e+01   3.8283288345e+01    0.4399995    0.2839692  70.73  0.001722754    2.455    0.593
       109 -10.6839    149.5574    168.3696   7.8688311038e+01   1.7575625449e+01    0.3000867    0.1490551 -52.55  0.001144626    2.131    0.531
       110 -10.9652    131.5285    130.3192   7.4660715761e+01   2.9868622397e+01    0.5576181    0.2476518 -59.42  0.001693923    3.370    0.703
       111 -10.6588    142.7617    130.2638   7.1745644484e+01   2.7575535727e+01    0.3988585    0.1855632 -51.52  0.001421523    2.267    0.559
       112 -11.3328    220.9957    128.9322   5.5272096642e+01   1.2080666645e+01    0.3333934    0.1667984 -28.43   0.00134942    2.412    0.585
       113 -10.5078    204.6504    129.5229   5.8229158564e+01   1.5052784803e+01    0.3540289    0.1940334 -60.94  0.001360268    2.718    0.632
       114 -10.4513    192.9216    129.0132   6.0308318671e+01   1.7462868769e+01    0.3165023    0.1917961 -41.08  0.001409819    1.518    0.341
       115 -10.3721     12.8482    129.5651   1.1106995417e+02   4.7073931763e+01    0.2617899    0.1450344  68.93  0.001198183    2.311    0.567
       116  -9.1303    222.2884    167.3150   6.3131931048e+01   4.8110501114e+00    0.1380353    0.0967465 -12.15 0.0006982006    1.588    0.370
       117 -10.0136    211.6532    128.8152   5.6828214941e+01   1.3844751745e+01    0.2128353    0.1166308 -47.93 0.0009455865    1.722    0.419
       118 -10.3344    168.4727    128.5487   6.5254613050e+01   2.2575813865e+01    0.3383903    0.1452874 -44.11  0.001222545    2.219    0.549
       119 -10.7265    152.5974    127.7306   6.8707819902e+01   2.6083996553e+01    0.5330296    0.1816484 -47.76  0.001661604    2.955    0.662
       120 -10.9241     99.3184    128.2454   8.3268480622e+01   3.6572444232e+01    0.4018418     0.265036  87.11  0.001474567    2.769    0.639
       121 -10.2465     73.3272    129.6676   9.1647220053e+01   4.0496086758e+01     0.155329    0.1169294  73.98 0.0007051494    1.714    0.417
       122 -10.4955    185.0906    166.3521   7.0194082773e+01   1.1413469226e+01    0.2921489    0.2058742 -47.51 0.0009750119    1.420    0.296
       123 -10.9230     60.2013    125.1318   9.4931669393e+01   4.3490528682e+01    0.4830106    0.2650815  65.41  0.001677539    3.431    0.709
       124 -10.6834    179.7859    123.2200   6.1563037194e+01   2.1309654336e+01    0.4505717    0.1894605 -36.83  0.001601496    2.466    0.594
       125 -10.4685    117.4990    125.0091   7.7182289346e+01   3.3918230549e+01    0.2256498    0.1412346 -72.79 0.0008105092    2.567    0.611
       126 -11.4372     44.3468    123.3733   9.9838579575e+01   4.5854462232e+01    0.6386765    0.3535267  78.21  0.002298167    3.419    0.708
       127 -11.2756     28.7573    122.5877   1.0489723875e+02   4.7597178044e+01    0.5755317    0.2739976  78.73  0.001767775    4.927    0.797
       128 -11.2832    192.1353    163.8609   6.8199475652e+01   1.0640122166e+01    0.5652223     0.199921 -44.61  0.001994064    2.672    0.626
       129 -10.2180    188.5278    123.2085   5.9809045899e+01   1.9500678569e+01    0.2855429    0.1344091 -45.84  0.001084199    2.007    0.502
       130 -10.1268    194.6008    121.3029   5.8199523764e+01   1.8631889048e+01    0.2943983    0.1274715 -45.95  0.001122311    2.175    0.540
       131 -11.6503    138.8264    163.3411   8.0282501338e+01   2.0736068903e+01    0.6305711    0.3059136 -58.69  0.002242191    2.554    0.608
       132 -10.1624    172.5222    120.2229   6.2355655618e+01   2.3449685493e+01    0.3014297    0.1413441 -46.19   0.00114194    2.060    0.515
       133 -10.2347    158.2446    120.6157   6.5615931102e+01   2.6417794204e+01    0.3054887    0.1820565 -52.85  0.001256042    1.781    0.438
       134 -10.8856    141.6872    119.1294   6.9229438362e+01   3.0278500013e+01    0.4294125    0.2355282 -62.55  0.001489685    2.738    0.635
       135 -10.1593     71.3307    120.6480   9.0292575894e+01   4.3063336723e+01    0.1553049     0.117168  75.55 0.0007047068    1.775    0.437
       136 -10.9163    130.8718    118.7252   7.1922256830e+01   3.2647539868e+01    0.3174711    0.2143307 -73.08  0.001250243    2.220    0.550
       137 -10.4277     80.1938    164.5735   9.6328187636e+01   3.0527410671e+01    0.3216596    0.1723736  83.81 0.0009551595    4.307    0.768
       138 -10.3318      3.2132    117.6223   1.1259395455e+02   5.0666506285e+01    0.2772047    0.1187636  74.49 0.0009538315    4.275    0.766
       139 -10.2576    185.6354    114.9482   5.8406759852e+01   2.1725138937e+01    0.3414476     0.133702 -40.87  0.001225657    2.394    0.582
       140 -10.2451    192.5550    114.4650   5.6975043215e+01   2.0370190367e+01    0.3142327    0.1345802 -41.03   0.00120107    2.156    0.536
       141 -10.9796    109.2250    114.0308   7.6758583048e+01   3.8103967019e+01     0.454082    0.2832014 -75.53  0.001601882    2.926    0.658
       142 -11.1047     79.5477    113.1625   8.5802826616e+01   4.3633567593e+01    0.4238583      0.28937  86.88   0.00170296    2.487    0.598
       143 -10.8742     92.9866    112.9907   8.1433521880e+01   4.1387942325e+01    0.3216878    0.2515211  80.52  0.001441302    1.763    0.433
       144 -10.2057    174.5018    110.4971   5.9542249852e+01   2.4980840573e+01    0.3279021    0.1423061 -41.85   0.00121694    2.187    0.543
       145 -10.6334     66.7917    111.1907   8.9595490213e+01   4.6063786384e+01    0.2499518    0.1592818  72.48 0.0009534711    2.841    0.648
       146 -10.7600     14.2798    110.2722   1.0780288319e+02   5.1816547916e+01      0.35997    0.2063148  84.64  0.001657913    2.293    0.564
       147  -9.9918    182.6649    108.5018   5.7419204604e+01   2.3607695847e+01    0.2726265    0.1312263 -41.36   0.00108201    1.952    0.488
       148 -10.1584    133.2347    109.2277   6.8806480644e+01   3.4241058106e+01    0.2555344    0.1228086 -54.14 0.0008859819    2.467    0.595
       149 -10.0268    189.2729    106.8342   5.5760086492e+01   2.2512131640e+01    0.3056224    0.1123654 -45.88  0.001066364    2.604    0.616
       150 -12.0644     45.9728    102.6418   9.4928956536e+01   5.0841665927e+01    0.7303132    0.4217582  71.43  0.002586661    3.872    0.742
       151 -12.4594    212.8692    162.2724   6.3814504158e+01   7.3065687493e+00    0.5342765    0.2396335 -45.80  0.002216313    2.131    0.531
       152 -11.5616     23.0258    102.3931   1.0329398998e+02   5.3117891995e+01    0.6432105    0.3403184  71.67  0.002382476    3.843    0.740
       153 -10.3431    159.4731    163.0447   7.5198946612e+01   1.6892636546e+01    0.3479536    0.1475167 -52.22  0.001205056    2.606    0.616
       154 -10.5500    150.1508    102.6044   6.2847329544e+01   3.1926620012e+01    0.3616922    0.1626802 -53.51  0.001220331    2.769    0.639
       155 -10.5630    128.4885    101.9985   6.8093914411e+01   3.6804873549e+01    0.2226768    0.1347953 -65.77 0.0008102729    2.543    0.607
       156  -9.6984    175.5995    101.1919   5.6988974981e+01   2.6547638923e+01    0.2154853    0.1390197 -31.01 0.0009543276    1.682    0.405
       157 -11.2001    109.1148     99.1740   7.2743304398e+01   4.1458235057e+01    0.5455093    0.3401593  72.00  0.001908979    3.173    0.685
       158 -10.2134     82.3397    100.6605   8.1611739967e+01   4.6123787882e+01     0.152314    0.1211385  79.54 0.0007050229    1.765    0.434
       159 -11.6398     64.3040     96.5657   8.6758232312e+01   4.9911112391e+01    0.4753787    0.3145339  73.97  0.001893897    2.905    0.656
       160 -10.1256    138.7948     92.2033   6.2725597375e+01   3.6539133720e+01    0.2582362    0.1696332 -82.08 0.0009508355    2.804    0.643
       161 -10.3096    139.7132    104.7284   6.5942740115e+01   3.3793652037e+01    0.3213764    0.1863698 -62.87  0.001174304    2.524    0.604
       162 -10.9628    124.6182     90.8774   6.5988252181e+01   3.9935082382e+01    0.3094124    0.1922195 -56.13  0.001125559    1.912    0.477
       163 -11.0500     34.9298     89.7785   9.6058541879e+01   5.5082500439e+01    0.3940639    0.1973451 -73.40  0.001539442    2.910    0.656
       164 -10.9836     87.0768     87.2409   7.6182882321e+01   4.8259419440e+01    0.3291403    0.2274854  86.03  0.001265123    3.004    0.667
       165 -11.4248     49.1497     85.0350   8.9286666761e+01   5.4585206238e+01    0.4950381    0.3046929  70.13   0.00179971    3.985    0.749
       166 -11.1264    104.6229     83.3203   6.9427657498e+01   4.5673766118e+01     0.372463    0.2342888 -65.96  0.001459208    2.560    0.609
       167 -10.1339    140.6037     82.8193   5.9630305430e+01   3.7922244826e+01    0.2204069    0.1364258 -50.40 0.0009517337    1.732    0.422
       168 -11.0613     24.4023     80.4278   9.8008861849e+01   5.8196552300e+01    0.3620724    0.2297374 -88.44   0.00167786    2.567    0.610
       169 -10.4798    128.0096     75.5221   6.0571229921e+01   4.2109751062e+01    0.3027779    0.1806666 -70.99  0.001032559    3.468    0.712
       170 -11.5320    177.2029    170.2128   7.2703735354e+01   1.2055035305e+01     0.455222     0.245133 -42.10  0.001550512    1.774    0.436
       171 -12.0793    206.0664    160.8256   6.4795491479e+01   8.7567427877e+00    0.5418239    0.3128683 -29.05  0.002446244    1.798    0.444
       172 -11.2356     82.4740     72.8619   7.3251612177e+01   5.2020266218e+01    0.3517806    0.2419183 -71.87  0.001492645    2.574    0.612
       173 -10.3432     95.4867     71.9711   6.8676547084e+01   4.9709319181e+01     0.203808    0.1279211 -63.50 0.0008102945    2.585    0.613
       174 -11.0724     51.5111     69.7024   8.3813261721e+01   5.7576595796e+01    0.4193073    0.2314555 -66.14  0.001634144    3.222    0.690
       175 -10.8187    177.5135    159.4333   7.0337932169e+01   1.4247837714e+01    0.4585644    0.2291422 -52.59  0.001770434    2.256    0.557
       176 -10.6875     37.6958     64.5494   8.7954730526e+01   6.0336217675e+01    0.2184945    0.1684896 -71.77  0.001197209    1.821    0.451
       177 -10.4793    151.5089    159.5566   7.6341836622e+01   1.9190356477e+01    0.3274267    0.1492711 -47.84  0.001207643    2.157    0.536
       178 -10.9927     73.4385     59.7973   7.2026702360e+01   5.6069264648e+01    0.2642799    0.2021533 -60.40   0.00115838    1.796    0.443
       179 -10.3593      7.2836     56.4654   9.9395710017e+01   6.4629059642e+01    0.3129759    0.1111503 -66.35  0.001204967    3.545    0.718
       180 -10.1490     16.4247     70.2122   9.8849246756e+01   6.1095023450e+01    0.1755331    0.1156403 -69.85 0.0009474885    1.713    0.416
       181 -10.5914     62.8800     54.6067   7.4137706388e+01   5.8767663154e+01    0.2271976    0.1554854 -41.59 0.0009764297    1.503    0.335
       182 -10.7911     54.2564     53.9040   7.7327834876e+01   6.0227203076e+01    0.3287163    0.1592585 -56.03   0.00126913    3.353    0.702
       183 -10.6604     31.0255     51.0541   8.6486768677e+01   6.3720879658e+01    0.3014755    0.1744303 -60.82  0.001457306    2.396    0.583
       184 -10.4571     92.5056     50.9973   6.2488190781e+01   5.3904398628e+01    0.1918177    0.1178557 -57.92 0.0008105735    2.587    0.613
       185 -10.4318     45.0536     49.2926   7.9531954099e+01   6.2348308167e+01    0.1829998    0.1509361   5.05 0.0004252164    1.097    0.088
       186 -10.1497     82.0000     46.9987   6.4415232748e+01   5.6609242640e+01    0.2143524   0.07645216 -36.23 0.0007983847    2.914    0.657
       187 -10.1772    134.5059    171.0115   8.2951969685e+01   1.9754149676e+01    0.2388317    0.1505744 -52.33  0.001034606    1.611    0.379
       188 -10.7159     58.3887     42.6094   7.1387374115e+01   6.1494688180e+01    0.2386584    0.1140214 -51.02 0.0009535339    3.248    0.692
       189 -10.5665      5.2358     40.9987   9.5822781963e+01   6.7828827773e+01    0.3720654    0.1070057 -61.27  0.001304009    4.653    0.785
       190  -9.5089    113.7242     41.6180   5.3336306063e+01   5.0677185626e+01    0.1421026    0.1008225  19.13 0.0007001398    1.711    0.415
       191 -10.3938     69.3201     41.6575   6.6824392502e+01   5.9779152103e+01    0.1229891    0.1093877 -85.35 0.0006524266    1.721    0.419
       192 -10.2777     36.5334     40.5098   8.0027355620e+01   6.4972117602e+01    0.1274887    0.1056177  -8.82 0.0001573897    1.030    0.030
