#   1 NUMBER                 Running object number                                     
#   2 MAG_AUTO               Kron-like elliptical aperture magnitude                    [mag]
#   3 X_IMAGE                Object position along x                                    [pixel]
#   4 Y_IMAGE                Object position along y                                    [pixel]
#   5 X_WORLD                Barycenter position along world x axis                     [deg]
#   6 Y_WORLD                Barycenter position along world y axis                     [deg]
#   7 A_WORLD                Profile RMS along major axis (world units)                 [deg]
#   8 B_WORLD                Profile RMS along minor axis (world units)                 [deg]
#   9 THETA_WORLD            Position angle (CCW/world-x)                               [deg]
#  10 FWHM_WORLD             FWHM assuming a gaussian core                              [deg]
#  11 ELONGATION             A_IMAGE/B_IMAGE                                           
#  12 ELLIPTICITY            1 - B_IMAGE/A_IMAGE                                       
         1 -12.3211     79.6127    104.6758   9.7774578293e+01   4.5178137025e+01       3.6178     2.620009  71.74    0.0174215    1.835    0.455
         2 -13.0219     44.6571    122.2138   1.1174486072e+02   4.5481747526e+01     4.017091       1.2971 -46.95   0.01430075    3.497    0.714
         3 -12.4497     36.6295    108.9638   1.1187496671e+02   4.9487896937e+01     1.529897     1.455005 -17.78   0.01031969    1.267    0.211
         4  -9.2943    134.1759     13.9446   5.2248944028e+01   4.9972659488e+01    0.2283736    0.1864112  -5.45 0.0004549926    1.333    0.250
         5  -9.6749     79.8773     12.1673   6.5094561289e+01   6.2302151812e+01    0.3381339    0.2407201  71.28  0.001460676    2.164    0.538
         6  -9.0180     16.8487      2.3743   8.7183688447e+01   7.2864280094e+01    0.1822378     0.128023 -33.48 0.0006906595    1.337    0.252
         7 -11.4608    190.5544    233.6116   9.6112153825e+01  -1.0695290106e+00    0.9469448    0.5117405  28.08  0.004963925    1.780    0.438
         8  -8.7588    210.6058    250.2610   9.4975758317e+01  -6.3294311895e+00    0.2238234    0.1295545  35.70  0.001220779    1.384    0.277
         9  -8.4871    204.7761    250.5395   9.6045811676e+01  -5.4950004329e+00    0.3063625   0.09241686  41.62  0.001324813    2.774    0.640
        10  -9.3312    198.6382    247.4433   9.6690726638e+01  -4.1821892945e+00    0.3521058    0.2731483  80.91  0.002073766    2.623    0.619
        11  -9.0119    188.5860    249.9110   9.8849563951e+01  -2.9552511365e+00    0.3522415    0.1614282  38.84  0.001872752    1.731    0.422
        12  -9.4356    165.0110    248.9615   1.0300720943e+02   8.4953988256e-01    0.2899111    0.2160362  34.50   0.00193131    1.096    0.088
        13  -9.3589    157.9956    249.4976   1.0436101200e+02   1.8761020742e+00    0.2769006    0.0949723  40.85  0.001141954    2.296    0.564
        14 -11.0638    195.3587    228.3955   9.4406636460e+01  -1.1137741450e+00    0.6388834    0.4897232  33.06  0.003717507    1.103    0.094
        15 -10.9515    229.5391    209.7489   8.4946459645e+01  -4.0450882370e+00     1.057294    0.6655988  43.38  0.005947371    1.681    0.405
        16 -10.4420    230.6203    203.5284   8.3615115169e+01  -3.3572958183e+00    0.5460594    0.3800485  28.54  0.002270024    1.285    0.222
        17 -11.8170    205.5299    216.9405   9.0621097221e+01  -1.1472370381e+00    0.9996781    0.9042256  31.65  0.006705457    1.220    0.180
        18 -10.5021    222.0386    215.7841   8.7373826185e+01  -3.6735389993e+00    0.7564505    0.4894792 -51.77  0.004016024    2.455    0.593
        19  -9.3514    219.6530    207.5267   8.6342321658e+01  -2.1303095072e+00    0.3015144    0.2549023   6.38 0.0009259253    1.045    0.043
        20 -11.2697    178.4150    241.6183   9.9542204489e+01  -2.4306384367e-01    0.9484686    0.5641229  32.79  0.005493067    1.424    0.298
        21 -10.1730    176.1582    232.6887   9.8677077412e+01   1.4077112250e+00    0.5795749    0.3481548 -56.07  0.003007685    2.392    0.582
        22 -11.0273    216.8445    219.2372   8.8918225777e+01  -3.3147737102e+00    0.8945676      0.63295 -61.06  0.004729837    2.718    0.632
        23  -8.2408    216.6187    241.2659   9.2553097795e+01  -6.1376801874e+00    0.2643209    0.1913517 -14.96   0.00175727    1.449    0.310
        24  -7.4794    114.7234    241.7107   1.1145837586e+02   9.8390720659e+00    0.1041824   0.08966568  18.39 0.0001951734    1.518    0.341
        25  -8.6712    224.9350    240.2737   9.0931903118e+01  -7.2530364631e+00    0.3235637    0.1351954  32.11  0.001624767    2.060    0.514
        26  -9.1066    144.2577    238.2846   1.0550100308e+02   5.7544694161e+00    0.3299045    0.1412222  40.32  0.001593624    1.915    0.478
        27  -7.7673     90.3137    237.2929   1.1554453971e+02   1.4224034362e+01    0.1017278    0.0918862  16.12 0.0002819737    1.595    0.373
        28  -8.6045    165.9347    235.7315   1.0105009276e+02   2.6281348354e+00    0.2168675    0.2001702  36.34 0.0008724303    1.138    0.121
        29  -8.5036    169.8482    233.3487   9.9969668083e+01   2.3455533613e+00    0.2929658    0.1596383  41.16  0.001569623    1.519    0.342
        30  -9.2500    159.7019    232.3000   1.0175738442e+02   4.1773487519e+00    0.2688008    0.1929252 -83.99  0.001481105    2.285    0.562
        31  -8.2391    137.9693    232.4439   1.0595819261e+02   7.7172790252e+00    0.1668997    0.1591471  73.76 0.0003461353    1.184    0.156
        32  -7.7100    114.4676    231.3812   1.1036044307e+02   1.1645271045e+01    0.3227808   0.08928586  43.63  0.001271623    2.874    0.652
        33  -9.5855    154.6648    229.4784   1.0233400491e+02   5.4579379218e+00    0.2271926    0.1576451  54.46 0.0009228634    1.436    0.304
        34 -10.1944    212.2008    215.9529   8.9208324640e+01  -2.1049800671e+00    0.3902591    0.2243261 -22.45  0.001374949    2.011    0.503
        35  -9.2532    140.7973    226.9013   1.0468318532e+02   8.1818315607e+00    0.3105587    0.1899939  34.45  0.001690447    1.535    0.349
        36 -11.9085    181.7764    222.4200   9.6039587254e+01   2.0168913870e+00     1.464633    0.4056232 -43.59  0.005440694    4.196    0.762
        37 -11.0305    185.8875    214.0236   9.3883953721e+01   2.6159568997e+00    0.5996092    0.3204491 -42.98  0.003000556    2.138    0.532
        38 -11.1291    189.8850    209.8945   9.2408853518e+01   2.5734396051e+00    0.5800129    0.4508851  83.41  0.003093843    2.221    0.550
        39  -9.2581    156.7039    222.6825   1.0096648808e+02   6.2233415414e+00    0.1744917    0.1724864  10.02 0.0004121487    1.174    0.148
        40  -7.7648    112.3073    226.3668   1.1019947107e+02   1.2874495707e+01    0.1147918    0.0977362  -3.79            0    1.751    0.429
        41  -8.1321    105.4947    218.9715   1.1067771202e+02   1.5302694844e+01    0.1604646    0.1040007 -35.87 0.0008092762    2.520    0.603
        42  -9.0068    153.3685    217.1455   1.0081251973e+02   7.7234401575e+00     0.286175    0.1670969  49.30 0.0004052091    1.593    0.372
        43  -9.0374    174.5338    214.6523   9.6213121295e+01   4.4795221132e+00    0.2089774    0.1962633 -21.44 0.0006602839    1.199    0.166
        44  -8.0084    155.1010    213.5314   9.9918846604e+01   8.0465981554e+00    0.2051167    0.1139207  42.64  0.001016086    1.560    0.359
        45  -7.8712     91.3252    244.3282   1.1601558837e+02   1.2854712940e+01    0.1014967   0.09079681   9.35 0.0007049963    1.698    0.411
        46 -10.3520    167.4076    204.6544   9.6002058627e+01   7.4158471746e+00     0.404573    0.3656135  14.63 0.0007816908    1.120    0.107
        47  -7.7354    157.7957    203.8902   9.7846026218e+01   9.2715575612e+00    0.1782954    0.1457936  58.40 0.0004070651    1.278    0.217
        48  -8.7034    128.8666    203.8786   1.0388282898e+02   1.4360929649e+01    0.1934942    0.1753864  20.67 0.0004828755    1.267    0.211
        49  -7.7921    136.5296    203.5372   1.0222080430e+02   1.3100922535e+01    0.1344682    0.1192581  48.71 7.745923e-05    1.014    0.014
        50  -7.9135    148.6522    230.6865   1.0366346507e+02   6.2574583698e+00     0.124163   0.09246908  13.20 0.0007046789    1.718    0.418
        51 -10.4721    210.0298    197.3694   8.6277236178e+01   1.0185375952e+00    0.5285418    0.3315074 -39.58  0.002787278    1.728    0.421
        52 -11.1948    203.2701    196.7617   8.7460458582e+01   2.3037607194e+00    0.6009893    0.5082303 -65.35  0.003489623    1.702    0.413
        53  -7.9029     59.4462    201.5653   1.1811498495e+02   2.5400908722e+01    0.1222008    0.1000481  75.23 0.0001054753    1.034    0.033
        54  -8.1035    245.8547    197.8767   7.9870479324e+01  -5.0024683357e+00    0.1871869    0.1412802   3.23 0.0003432789    1.149    0.130
        55  -9.9775    222.5207    193.2523   8.3154823335e+01  -5.1383236036e-01    0.6251777    0.2525556 -34.47   0.00267055    2.531    0.605
        56  -8.2073    188.0586    194.3236   9.0005525262e+01   5.4472053668e+00    0.2184079    0.1923744 -85.14 0.0006192811    1.564    0.361
        57 -10.8166    172.8279    188.2521   9.2001762361e+01   9.3442862245e+00    0.6037132    0.1986613 -43.92  0.002148961    3.284    0.695
        58 -10.9300    207.2579    186.0758   8.4649907328e+01   3.3126321742e+00    0.4968227    0.3787435  24.21  0.002778864    1.231    0.188
        59 -12.3798    185.4795    182.1162   8.8217770624e+01   8.0567995975e+00     1.096263    0.6653047 -14.24  0.004570662    2.580    0.612
        60 -11.3822    194.3064    171.7264   8.4333435565e+01   8.2186698491e+00    0.5256855    0.3362618  54.20  0.001815977    1.829    0.453
        61  -9.8156    178.5744    182.7088   8.9759599898e+01   9.2671850411e+00    0.3596736    0.2051229  49.64  0.001242858    1.817    0.449
        62  -9.4716    211.9014    179.9144   8.2532962100e+01   3.4741296017e+00    0.3365344    0.2449345 -75.67  0.001468955    2.804    0.643
        63 -10.5782    206.8662    176.9972   8.2916159584e+01   4.8959028138e+00    0.4769527    0.2502357 -50.46  0.001485695    2.514    0.602
        64  -8.5060     17.0358    177.3819   1.2477016694e+02   3.5320778804e+01    0.3915077    0.1460132 -86.72  0.001784728    2.582    0.613
        65  -8.4400     24.4947    176.5304   1.2313783954e+02   3.4799693490e+01    0.1206286   0.09334919  85.05 0.0008098668    1.009    0.009
        66 -12.4605    184.7380    159.6645   8.3763923212e+01   1.2367017825e+01     1.579822     1.079535   4.92  0.006872332    2.099    0.524
        67 -10.5407      6.3912    167.0983   1.2625085912e+02   3.8501125052e+01    0.3788022    0.3321281  34.23 0.0006265875    1.519    0.342
        68 -11.0511      9.7750    158.8031   1.2489262182e+02   4.0077313065e+01    0.6837049    0.2981381  33.56   0.00334621    2.495    0.599
        69 -11.6331    197.5139    159.7614   8.1150916924e+01   9.7547125117e+00     0.811933    0.3222297 -40.45   0.00302342    2.524    0.604
        70 -10.2204     23.2136    157.0975   1.2169555872e+02   3.9307726940e+01    0.3345419     0.205045  87.20   0.00132303    1.420    0.296
        71 -10.1985     29.7536    158.2386   1.2028874009e+02   3.8423766976e+01    0.2615498    0.2171831 -86.89  0.000228429    1.070    0.065
        72  -9.4592     24.5392    164.4855   1.2208350061e+02   3.7495369197e+01    0.2231835    0.1476271 -86.10  0.001023182    1.226    0.184
        73  -9.5289     26.0201    161.0553   1.2142850829e+02   3.8136773421e+01    0.2185386    0.1334389 -77.47 0.0005517356    1.340    0.254
        74 -10.6070     16.9965    162.0558   1.2355448135e+02   3.8735032146e+01    0.5275482    0.3048646 -76.00   0.00219301    1.392    0.282
        75  -7.5967    108.2217    160.9459   1.0162883837e+02   2.7065243947e+01    0.1862099    0.1154283 -59.34 0.0004904448    1.613    0.380
        76  -7.7259      1.7473    174.3537   1.2769607042e+02   3.7290206143e+01     0.118974   0.06289291  73.78 0.0006955318    1.601    0.375
        77  -8.1815    147.6265    174.6955   9.4927544805e+01   1.6781937006e+01    0.1482139    0.1138798   5.03 0.0007030898    1.762    0.432
        78 -10.2169     50.8284    151.5033   1.1440965143e+02   3.7735977756e+01    0.4231109    0.2530477 -49.15  0.001975843    1.842    0.457
        79  -9.7108     48.0395    149.2945   1.1481542499e+02   3.8585136916e+01    0.2759906    0.1760801 -72.32 0.0008210823    1.354    0.261
        80  -8.1822     37.2874    153.9272   1.1803401494e+02   3.8665611195e+01    0.1835336    0.1431945 -78.03 0.0009071246    1.085    0.079
        81  -8.2043     39.9720    166.0158   1.1873321439e+02   3.5571276700e+01    0.1883677    0.1375087 -48.22  0.001043671    1.678    0.404
        82  -9.2749     90.0434    150.4206   1.0429858359e+02   3.2560648681e+01    0.2527265    0.1910345 -60.70 0.0001603861    1.261    0.207
        83 -10.9597     10.3523    139.3313   1.2305690671e+02   4.4484796833e+01    0.7121344    0.6590131  19.55  0.003262131    1.469    0.319
        84 -12.9038     56.8375    130.6354   1.0971918630e+02   4.2040345612e+01     1.861065     1.505995  81.58   0.01086239    1.238    0.192
        85  -8.4045    143.6924    249.3029   1.0696086913e+02   4.1471699876e+00    0.1176806   0.07944571  61.10 0.0002041831    1.602    0.376
        86 -12.0954     93.4913    108.3758   9.4521783690e+01   4.2037958435e+01     1.903557    0.6034089  49.42  0.001467242    4.621    0.784
        87 -12.3257    105.7829    104.2948   8.9895312890e+01   4.0762435502e+01     1.896293     1.629049  34.55   0.00443538    1.241    0.194
        88  -9.6978    105.6727    246.6623   1.1363480292e+02   1.0376098711e+01    0.3044226    0.2754694  51.32    0.0021029    1.233    0.189
        89  -7.9307    214.1536    247.1307   9.3885111486e+01  -6.4807484167e+00    0.1768001    0.1263501  16.65 0.0004986196    1.198    0.165
        90 -12.6964     67.7363    117.8270   1.0425186523e+02   4.3745056564e+01     2.811528      1.59024  75.06   0.01063293    3.210    0.688
        91 -12.4261     54.3897    110.3337   1.0673496254e+02   4.7259747630e+01     1.687527     1.072583 -53.44   0.00714892    1.378    0.274
        92 -11.9536      6.5583    131.2696   1.2322061337e+02   4.6624876785e+01     1.475308    0.6815116 -57.46  0.007929895    1.898    0.473
        93 -10.5491      3.5800    126.9750   1.2355857409e+02   4.7817227084e+01    0.3693997    0.1871735 -81.13 0.0004257408    1.576    0.366
        94  -9.6767     56.4717    150.0414   1.1279352552e+02   3.7403645950e+01    0.2230158    0.1967262  -3.23  0.001355199    1.559    0.358
        95  -7.9506      8.8053    150.1066   1.2439655317e+02   4.2124914698e+01    0.1842798    0.1235173  76.40 0.0006614127    1.305    0.234
        96  -9.6541      1.4503    148.4513   1.2595163725e+02   4.3041860199e+01    0.2064523    0.1029267 -78.68 0.0007696266    1.532    0.347
        97  -8.9405    249.4882    144.9813   6.8382815134e+01   2.2239284410e+00    0.1938125    0.1048682 -51.40 0.0008104073    2.561    0.609
        98 -10.2357     49.4915    143.5487   1.1366412584e+02   3.9791781953e+01     0.379513    0.2495941  46.18  0.001644256    1.594    0.373
        99  -9.7723     50.8324    140.2738   1.1284575944e+02   4.0423962439e+01    0.3650896    0.2538525  41.23  0.001377428    1.559    0.359
       100 -11.6427    202.2474    166.6905   8.1688335965e+01   7.5661417300e+00    0.5752581    0.4903587 -36.71  0.003051635    1.215    0.177
       101  -8.9865     90.3284    142.5356   1.0279338155e+02   3.4394998010e+01    0.2498904    0.2152359 -62.20 0.0006007659    1.109    0.098
       102  -7.8750    137.2990    134.3077   8.8919387971e+01   2.7597443905e+01    0.1530721    0.1239525  -6.24 0.0002729152    1.595    0.373
       103  -9.0826     19.5515    170.0834   1.2366495066e+02   3.6701612910e+01    0.2104947     0.160147  30.14  0.001396322    1.677    0.404
       104  -8.5749    162.0301    128.7732   8.1645891334e+01   2.3479097331e+01    0.2238406    0.2031943  45.63 0.0003333753    1.110    0.099
       105  -9.8595    113.6469    125.9802   9.3091160733e+01   3.4230808045e+01    0.4472624    0.2591622 -27.12  0.001606484    2.860    0.650
       106 -11.1266     68.7693    107.2355   1.0168916387e+02   4.6156202355e+01    0.7683729     0.577853 -82.46 0.0009246155    1.501    0.334
       107  -8.3345    250.3064    117.6596   6.2101176437e+01   6.4448745267e+00    0.1403692    0.1015539 -58.29 0.0007042044    1.683    0.406
       108  -9.1706    125.0148    116.7080   8.7798375926e+01   3.4119735794e+01    0.2157525    0.2062117  41.89 0.0004868426    1.080    0.074
       109  -8.7207    206.2561    116.0676   6.9160405703e+01   1.6003347675e+01    0.2374453    0.2139513  38.26 0.0003630641    1.157    0.136
       110  -7.9747    151.3389    114.7636   8.0610332625e+01   2.8854021482e+01     0.212455    0.1997598  81.59  0.001046426    1.134    0.118
       111 -10.4668    133.0399    108.3139   8.3490365227e+01   3.4305978247e+01    0.8360145    0.4896933  54.61  0.001996948    1.920    0.479
       112  -8.6052    135.5291    105.4454   8.2065236996e+01   3.4390814284e+01    0.3395296    0.2569959  50.82 0.0005802691    1.370    0.270
       113  -8.2520    144.9537    110.4469   8.1030546223e+01   3.1216040490e+01    0.2323627    0.2028718 -44.32 0.0003989809    1.125    0.111
       114  -8.6207     94.5205     94.9328   9.0697422485e+01   4.4964790418e+01    0.2875078    0.2236945  40.83 0.0007861599    1.374    0.272
       115  -9.3831    110.8803     74.0495   7.9503292126e+01   4.6279751015e+01    0.2237228    0.2122124  25.12  0.001218729    1.074    0.069
       116  -8.2685    206.9776     68.5026   5.6561415979e+01   2.4146778297e+01    0.2899768    0.2061943 -17.25 0.0008003402    1.666    0.400
       117  -7.9966     94.8692     52.4852   7.6944841667e+01   5.3563752709e+01    0.1993595    0.1394844  42.52 0.0004655312    1.468    0.319
       118  -7.5982    155.9968     46.7963   5.9219962364e+01   4.0402849904e+01    0.1908467    0.1160413  58.80 0.0008268506    1.600    0.375
       119  -9.1127     84.7931     21.2960   6.7618230786e+01   6.0262861897e+01    0.3277228    0.1734674 -36.21  0.001566397    1.984    0.496
       120  -7.8947     30.1699     22.1832   8.9929341506e+01   6.8490251528e+01    0.1502697    0.1262447 -36.16 0.0003962884    1.309    0.236
       121  -9.8606     75.0719     18.1005   6.9413114174e+01   6.2512529347e+01    0.2531313    0.2363117  -2.33 0.0006670556    1.212    0.175
       122  -8.5380    167.0551     16.9552   4.7719878247e+01   4.1351023520e+01    0.2084284    0.1909442  56.55 0.0003274306    1.076    0.070
       123 -10.5694    200.4949    208.2833   9.0078418792e+01   9.8930150986e-01    0.5475075    0.4692813  32.75  0.002440438    1.132    0.116
       124  -9.7341    227.6083    197.0075   8.2938375696e+01  -1.9304445988e+00    0.2973692     0.277692 -33.30 0.0007744933    1.378    0.274
       125 -12.4431     30.9157    123.3463   1.1579240756e+02   4.6567573583e+01     1.514258     1.009497 -53.16  0.008784926    1.414    0.293
       126 -11.9455     16.0506    115.2739   1.1886652381e+02   4.9705087821e+01     1.238998    0.8332296  26.37  0.007643151    1.854    0.461
