#   1 NUMBER                 Running object number                                     
#   2 MAG_AUTO               Kron-like elliptical aperture magnitude                    [mag]
#   3 X_IMAGE                Object position along x                                    [pixel]
#   4 Y_IMAGE                Object position along y                                    [pixel]
#   5 X_WORLD                Barycenter position along world x axis                     [deg]
#   6 Y_WORLD                Barycenter position along world y axis                     [deg]
#   7 A_WORLD                Profile RMS along major axis (world units)                 [deg]
#   8 B_WORLD                Profile RMS along minor axis (world units)                 [deg]
#   9 THETA_WORLD            Position angle (CCW/world-x)                               [deg]
#  10 FWHM_WORLD             FWHM assuming a gaussian core                              [deg]
#  11 ELONGATION             A_IMAGE/B_IMAGE                                           
#  12 ELLIPTICITY            1 - B_IMAGE/A_IMAGE                                       
         1 -13.9328     58.4984    132.3569   5.8037713734e+01   4.1535164179e+01     4.295626     1.846084 -88.87   0.01074605    5.831    0.828
         2 -13.4905    220.2240     47.2032   3.5979210119e+02   2.6051450390e+01    0.8597059    0.7265549  31.41  0.001409535    1.665    0.399
         3 -11.8455    247.9020     28.5590   3.5361503917e+02   2.3163872501e+01    0.6279581    0.3028163 -59.22  0.003589543    1.842    0.457
         4 -11.9133    249.0689     22.8177   3.5234603873e+02   2.3602998972e+01    0.5739309    0.3540579 -51.51  0.003661973    1.205    0.170
         5  -9.2681    196.6887      3.3192   3.5077276676e+02   3.6026330196e+01    0.1356326   0.06896635 -57.10 0.0003103232    1.645    0.392
         6  -9.8551     60.4757      2.4877   1.0102337557e+01   6.9261373887e+01    0.2327409    0.1258951  75.68  0.001030504    2.338    0.572
         7  -9.1542      2.3772      1.8305   4.8333412677e+01   7.9533065767e+01    0.1739293   0.09310801 -40.68 0.0009459374    1.670    0.401
         8  -9.8448    108.5741    239.1957   5.8608786721e+01   1.0916774810e+01    0.2425795    0.1713921 -36.92   0.00144462    1.701    0.412
         9  -9.0864    101.2604    248.5914   6.1071364636e+01   1.0210880538e+01    0.2642646   0.08338676 -53.72   0.00120149    3.617    0.724
        10  -9.5609     74.7030    249.8614   6.6760293008e+01   1.3004793065e+01    0.2119636    0.1573485 -27.86   0.00138091    1.840    0.457
        11 -14.7246     97.4606    183.2839   5.4445826353e+01   2.3340508173e+01     5.301202     4.397357 -51.52   0.03022936    1.290    0.225
        12 -13.5089     43.9332    242.4254   7.2840493144e+01   1.7615929140e+01     1.368094    0.8002743  83.35  0.007722889    1.927    0.481
        13 -10.6574    164.1888    221.3549   4.4888953423e+01   6.9316672048e+00    0.1672601    0.1358747  -7.85 0.0005591938    1.128    0.113
        14 -14.0713     18.8110    236.7344   7.7976507548e+01   2.1118608429e+01    0.7548354     0.485248 -75.94  0.003227554    1.748    0.428
        15  -8.9700    131.9983    211.5061   5.0205959809e+01   1.2791821210e+01    0.1853853    0.1117749  29.51 -0.0001326775    1.466    0.318
        16 -17.0271      5.7648    216.9372   8.0171692872e+01   2.6242799982e+01     7.360496     2.665211 -85.37   0.02163323    2.757    0.637
        17 -10.2144    102.9602    238.6380   5.9752356300e+01   1.1685313128e+01     0.286827    0.1700341 -52.09  0.001048421    1.996    0.499
        18 -13.7609     54.7750    234.2299   6.9966579538e+01   1.8026690181e+01     2.967407    0.6483551 -58.53  0.009209607    4.782    0.791
        19  -9.6496    210.9303    198.6700   3.2747866029e+01   4.5132916832e+00     0.198824    0.1465425 -26.91 0.0004415714    1.218    0.179
        20  -9.9761    193.6113    195.8975   3.5328262304e+01   7.1149769867e+00    0.3800143    0.2166387 -61.53  0.001476732    4.912    0.796
        21  -9.1921     52.2601    189.2455   6.7025931097e+01   2.7872538331e+01    0.1909112    0.1351747  62.56 0.0009813234    1.347    0.258
        22 -14.1027     54.3710    218.1301   6.8911307179e+01   2.1273365001e+01     1.824092    0.9460918 -71.77  0.005318372    2.128    0.530
        23  -9.8573     60.0198    179.0021   6.3894817651e+01   2.9380120502e+01    0.2132911    0.1871761 -84.94 0.0004493804    1.151    0.131
        24 -10.4788    176.5234    170.4947   3.4079087772e+01   1.3757464391e+01     0.248085    0.1837788 -34.82  0.000969246    1.266    0.210
        25 -10.7172    171.7674    174.4487   3.5759305663e+01   1.3778900377e+01    0.3545448    0.2792414  30.71  0.001363298    1.279    0.218
        26 -10.7182    173.1661    170.1894   3.4689976495e+01   1.4329283517e+01    0.3407843    0.2567534 -63.62  0.001271032    1.864    0.463
        27 -14.2141     31.5559    182.0352   7.1986993804e+01   3.1810870412e+01     1.957431     1.350983  44.54  0.002960258    1.274    0.215
        28 -15.0705     44.3758    172.6601   6.7620348970e+01   3.2766350560e+01     6.634331     2.113335  49.47   0.02319457    3.148    0.682
        29  -9.9423    234.5027    169.9339   2.3996061048e+01   5.6987161279e+00    0.1795663   0.09433679 -34.17 0.0009108457    1.560    0.359
        30 -10.6559    179.5320    165.7083   3.2584622884e+01   1.4142606682e+01    0.4831122    0.3565756 -72.01  0.002443134    2.320    0.569
        31 -10.3155    110.5637    167.0473   4.8528633058e+01   2.5002358903e+01    0.2740108    0.2544142 -83.82 0.0004255064    1.162    0.140
        32 -11.1630    148.5786    228.0934   4.8938656211e+01   7.8227620947e+00    0.3450244    0.1559155  16.43  0.001499413    2.849    0.649
        33 -10.6188     48.9888    141.8848   6.2650290540e+01   4.0196404179e+01    0.9269704    0.3099105  51.26  0.001467642    3.736    0.732
        34 -12.7579     66.8814    126.5537   5.4168770949e+01   4.1901012116e+01     1.863399    0.9561378 -85.08  0.006276815    3.114    0.679
        35  -9.0812    139.3389    249.6781   5.3426783248e+01   5.6181178386e+00    0.1118631   0.07766355  47.56 0.0007050537    1.717    0.418
        36 -11.3993     65.9643    157.0630   5.9449579264e+01   3.4059381570e+01    0.4433849    0.3405979 -31.13  0.002232648    1.604    0.377
        37 -13.3414     62.9018    145.0166   5.8621787659e+01   3.7586238400e+01    0.8107382    0.4698585 -34.46  0.001323945    2.410    0.585
        38 -12.4715     70.0291    144.9619   5.6372915061e+01   3.6607642107e+01    0.5749821    0.5201895  53.68  0.001610076    1.071    0.067
        39  -9.1084    142.0992    164.0587   4.0237448999e+01   2.0506070462e+01    0.2121945    0.1742402  85.57  0.000757721    1.685    0.406
        40 -10.8716    237.4944    160.9744   2.1924024784e+01   6.5942620824e+00    0.2641232    0.1379112 -46.41  0.001406332    2.160    0.537
        41 -11.3376     44.3349    156.7894   6.5978565911e+01   3.6808197117e+01    0.4131402    0.2473387  64.61 0.0009210711    1.751    0.429
        42 -14.8400     10.0772    206.3363   7.8800247749e+01   2.8158377687e+01     1.037579    0.6723394   4.13  0.003110436    2.080    0.519
        43 -10.0666     72.6944    232.8694   6.5865663669e+01   1.6290712188e+01    0.2337063    0.1704679  38.72 0.0006325133    1.114    0.102
        44 -10.9697     34.0607    153.6956   6.8824401295e+01   3.8717056855e+01    0.3979975    0.2225533  64.00  0.001476482    1.844    0.458
        45  -9.6129     72.5970    225.0959   6.5231087638e+01   1.7792424407e+01    0.2202198    0.1563825  28.35 0.0004363174    1.254    0.202
        46 -10.3466    134.0000    147.5172   3.8910041669e+01   2.5398269417e+01    0.5883043    0.2063134 -50.86  0.002011765    2.906    0.656
        47 -10.3591    132.0453    143.3520   3.8524716376e+01   2.6660553087e+01    0.7729605     0.285099 -43.88  0.002332231    2.762    0.638
        48 -11.3125     83.2626    144.7028   5.2266155031e+01   3.4695488273e+01    0.6205029    0.4470031 -20.83  0.002810408    1.899    0.473
        49  -8.7751     47.6403    147.1915   6.3791554062e+01   3.8945968944e+01    0.2067942    0.1228072 -60.94 0.0004413046    1.636    0.389
        50 -10.0537     40.9383    146.0695   6.5807895914e+01   4.0006576540e+01    0.2763947    0.2215015  58.71 0.0005601909    1.183    0.155
        51 -10.6039     36.7208    142.1584   6.6723413284e+01   4.1504954267e+01    0.4330324    0.2691996  71.55  0.001151531    1.689    0.408
        52 -10.4969    108.9701    145.2819   4.4957274542e+01   3.0312356032e+01    0.2910644    0.2769861  61.69 0.0006260624    1.063    0.059
        53  -9.7085    100.9135    143.6683   4.6893049386e+01   3.2077615212e+01    0.2499561    0.2097325 -70.56 0.0003541007    1.244    0.196
        54  -8.9879     28.1896    144.2150   6.9748244937e+01   4.1804127801e+01    0.2036014    0.1456962  66.75 0.0006589622    1.330    0.248
        55  -8.4024     42.2748    139.6564   6.4572359805e+01   4.1574027517e+01    0.1545201    0.1000744  66.54  0.000336236    1.621    0.383
        56 -10.6589     99.6644    132.8532   4.5057355843e+01   3.4937233931e+01    0.7205732    0.4504782 -15.81  0.002583803    3.041    0.671
        57 -10.2341    105.5604    130.7116   4.2882459866e+01   3.4406873902e+01    0.3716015    0.3527076 -59.63  0.001062052    1.041    0.039
        58 -11.6269     85.7374    132.0024   4.9100588622e+01   3.7527680885e+01    0.3054777    0.2782747 -65.19  0.000393984    1.081    0.075
        59 -10.4752     44.0374    131.3349   6.2833786893e+01   4.3621855862e+01    0.3589026    0.2578382 -73.49  0.001276495    1.318    0.241
        60  -9.7543     31.7080    132.6568   6.7295477583e+01   4.4583623357e+01    0.2974372    0.1849325  57.82 0.0006799357    1.628    0.386
        61  -9.6218     36.9579    250.6609   7.4735521699e+01   1.6808607867e+01    0.1905296   0.08938366  25.99  0.000376308    1.869    0.465
        62  -9.2411    122.5242    129.7454   3.7985949222e+01   3.1483873972e+01    0.3192531    0.2330989 -86.61 0.0009123727    1.940    0.485
        63  -9.4527    136.1954    128.3401   3.4182170724e+01   2.9180345558e+01    0.2909047    0.1123854 -44.91  0.001011498    2.516    0.602
        64  -8.5916    219.0242    126.0053   1.7731110730e+01   1.4555919754e+01      0.15425    0.1229764 -31.86 0.0003710261    1.033    0.032
        65  -9.2937    109.4148    126.0690   4.0742037555e+01   3.4813953628e+01    0.2764937    0.2155751  17.95 0.0006467189    1.531    0.347
        66 -10.3146     95.9506    121.2471   4.3617644648e+01   3.8468988283e+01    0.3209328    0.2601001  12.33 0.0006656884    1.494    0.331
        67 -10.9330     55.9436    147.6699   6.1213342704e+01   3.7803451003e+01    0.4869988    0.3434269 -50.68 0.0002156743    1.503    0.334
        68  -8.9012     32.8001    125.2130   6.5969210226e+01   4.6507312757e+01    0.3852167    0.1856859   4.22  0.001382909    3.276    0.695
        69  -8.5266     76.2631    120.3693   4.9757299418e+01   4.2078016918e+01    0.1587793    0.1147448 -33.37 0.0006983767    1.654    0.395
        70  -9.5790    105.3300    116.2637   3.9611627679e+01   3.7938257596e+01    0.4048922    0.2407736  29.69  0.001377743    1.989    0.497
        71 -10.3610     25.3572    115.2232   6.7423453278e+01   4.9957305037e+01    0.4686196    0.2386115 -78.20  0.001376004    1.858    0.462
        72 -10.3854    244.0695    114.6431   1.2049776498e+01   1.2386787143e+01    0.1708194    0.1446867 -62.99  0.001182165    1.449    0.310
        73  -9.3090     21.0083    113.5098   6.8885045993e+01   5.0801100859e+01    0.1998092     0.141418  23.69 0.0005288842    1.535    0.348
        74 -12.2336     75.2907    150.0512   5.5582274143e+01   3.4538959525e+01    0.9533447     0.568341 -67.69 0.0004984149    1.726    0.421
        75 -10.2500     35.3941    107.4674   6.2317084375e+01   5.1111548623e+01    0.4335625    0.2054754  48.94 0.0006016936    2.324    0.570
        76 -11.0876     23.7665    105.3764   6.6691965985e+01   5.2806097601e+01    0.5179226    0.2792312 -59.67    0.0018538    1.667    0.400
        77  -8.5721     16.2955    109.3105   7.0228424075e+01   5.2323825685e+01    0.1461179   0.09574299 -45.82 0.0007006374    1.593    0.372
        78  -8.3549     37.3056    117.3402   6.3175128615e+01   4.8197975708e+01    0.1548443    0.1036371 -40.41 0.0007041338    1.681    0.405
        79  -9.8018    133.5092    104.4704   2.8921626937e+01   3.4902042540e+01    0.5555578    0.3032245 -69.54  0.001717904    3.837    0.739
        80 -10.2043     12.6751    105.3216   7.1220719163e+01   5.3675166304e+01    0.3008206    0.1587502 -43.99  0.001328736    2.022    0.505
        81  -8.3870    196.7262    101.3403   1.5610201448e+01   2.2518625272e+01     0.138692   0.09576739 -59.04 0.0005486981    1.612    0.380
        82 -11.4790     14.8617     98.4426   6.9452946353e+01   5.5408113299e+01     0.611525    0.4096468  30.95  0.003124465    1.585    0.369
        83 -10.1711     12.8409     92.8782   6.9582269133e+01   5.7065164420e+01    0.2337961     0.190149 -18.71  0.000785313    1.399    0.285
        84  -8.6839    110.4777     99.4905   3.3738004182e+01   4.0853181305e+01    0.1564092    0.1490107 -75.79 7.576554e-05    1.038    0.036
        85 -10.9741     32.2162    109.6958   6.3945918922e+01   5.0828299828e+01    0.5126195    0.2283192  44.70  0.002012521    2.334    0.572
        86  -8.5261    103.5610     92.5686   3.3832053730e+01   4.3875898077e+01    0.1553225    0.1481156 -79.01 0.0001024475    1.038    0.037
        87 -10.3686     45.3731     90.8161   5.4836088587e+01   5.4447283158e+01      0.34146    0.2370828  74.14  0.001137105    1.775    0.437
        88  -8.7329    142.0639     89.8820   2.2896127430e+01   3.6052016780e+01    0.3548681    0.1938658 -65.38  0.001218881    3.026    0.670
        89  -9.4083     94.6148     81.5353   3.3319032078e+01   4.8248488524e+01    0.4342215    0.2767359  85.27  0.001132389    3.018    0.669
        90  -9.3905     26.3013     78.6057   6.0772269846e+01   5.9828805687e+01    0.2602823    0.1292954  28.45 0.0007091325    2.084    0.520
        91  -9.1016    131.5630     76.5402   2.1397940969e+01   4.1052034043e+01    0.4014043    0.2380805 -76.19  0.001379897    3.165    0.684
        92  -9.0987     89.5092     76.9141   3.3539208042e+01   5.0346356496e+01    0.2460388    0.2081462  84.33  0.000695557    1.354    0.261
        93  -9.2394     99.4068     74.4202   2.9488051484e+01   4.8782229911e+01    0.2890534    0.2107487 -86.42 0.0007615256    1.896    0.473
        94  -9.5043     16.7937     73.9767   6.4554192266e+01   6.1862247627e+01    0.2175557    0.2015357   4.91 0.0004379952    1.184    0.156
        95  -9.6126     30.3186     71.8197   5.7169395312e+01   6.1197228064e+01    0.3095824     0.202723  55.61  0.001450665    1.832    0.454
        96 -10.2303     24.9123     68.7675   5.9177196037e+01   6.2528248397e+01    0.2589932    0.1797934  44.50 0.0005416691    1.592    0.372
        97  -9.0132    123.8593     67.9227   2.0527051518e+01   4.4495723640e+01    0.2472415    0.1776433 -73.41  0.001106594    1.714    0.417
        98 -11.7283    197.3748     62.2323   5.8903705948e+00   2.8611607986e+01    0.5041296    0.3658013  55.70 0.0008203224    1.595    0.373
        99 -12.8956    209.4894     54.8769   2.6752094418e+00   2.7161786763e+01    0.8897482    0.7793801 -48.97  0.003328505    1.087    0.080
       100  -9.5408    125.2414    248.0081   5.6068456206e+01   7.5095164300e+00    0.1303114   0.09881264 -49.48 0.0008865644    1.618    0.382
       101 -10.6305      2.3837     49.5440   6.7702621477e+01   6.9009720955e+01    0.3825622    0.1127474 -71.97   0.00139442    3.016    0.668
       102  -9.0008    109.6469     38.6840   1.3560140261e+01   5.2929046222e+01    0.1518516    0.1108091  28.55 0.0007046332    1.738    0.425
       103 -11.0654     20.7705     32.7112   4.9695654817e+01   7.1547828861e+01    0.3045643    0.2129883 -26.24  0.001513303    1.448    0.309
       104  -9.1565     58.0789    248.2634   7.0166904078e+01   1.5083898352e+01    0.1983143    0.1156794  26.08 0.0007623636    1.503    0.335
       105 -10.2916    174.8148    223.0847   4.3078858722e+01   5.3546743162e+00    0.2061245    0.1476792  20.47 0.0006951775    1.203    0.169
       106  -9.4406      1.6118     31.7570   6.3592314289e+01   7.3320880168e+01    0.1790907    0.1158412 -79.64 0.0009573404    1.698    0.411
       107  -9.8101     21.7818     27.3938   4.6484483485e+01   7.2549087603e+01    0.1748069     0.120199  11.12 0.0008783063    1.548    0.354
       108 -10.6639      3.2007     22.2385   5.8829034635e+01   7.5367147286e+01    0.3137682    0.2074935  17.22  0.001357088    1.572    0.364
       109  -9.7164     60.9208     21.2970   2.0944397351e+01   6.6889599152e+01    0.2647237    0.2027159  72.73 0.0008296043    1.600    0.375
       110 -11.7794     61.0294    161.0553   6.1460581469e+01   3.3693709456e+01    0.5240445    0.4037124 -27.68  0.001969952    1.644    0.392
       111  -9.6666     67.5331    241.6014   6.7682255288e+01   1.5257958574e+01    0.1798763    0.1668334 -76.76 0.0006326502    1.305    0.234
       112  -8.5368    198.3296    240.7055   4.1287760665e+01   2.4656265926e-01   0.09468848   0.07993884  32.56 0.0003834504    1.632    0.387
