#   1 NUMBER                 Running object number                                     
#   2 MAG_AUTO               Kron-like elliptical aperture magnitude                    [mag]
#   3 X_IMAGE                Object position along x                                    [pixel]
#   4 Y_IMAGE                Object position along y                                    [pixel]
#   5 X_WORLD                Barycenter position along world x axis                     [deg]
#   6 Y_WORLD                Barycenter position along world y axis                     [deg]
#   7 A_WORLD                Profile RMS along major axis (world units)                 [deg]
#   8 B_WORLD                Profile RMS along minor axis (world units)                 [deg]
#   9 THETA_WORLD            Position angle (CCW/world-x)                               [deg]
#  10 FWHM_WORLD             FWHM assuming a gaussian core                              [deg]
#  11 ELONGATION             A_IMAGE/B_IMAGE                                           
#  12 ELLIPTICITY            1 - B_IMAGE/A_IMAGE                                       
         1 -12.2454     84.9048     10.4148   4.0434139399e+01   6.0355010005e+01    0.3518771    0.2459235 -55.99  0.001756755    2.018    0.504
         2 -11.6525     53.7227     11.2525   5.1207659805e+01   6.6825408589e+01    0.3202918    0.2004954  31.06  0.001167348    1.359    0.264
         3 -11.7176     92.6770      8.8692   3.7879627060e+01   5.8729122624e+01    0.2465297    0.1394701  52.81 0.0009567731    1.401    0.286
         4 -10.1715     67.9002      1.8168   4.1712150257e+01   6.4795831325e+01    0.1627282    0.1350997  65.80 0.0005704913    1.318    0.241
         5 -10.6808    101.9253    235.2756   9.1615583967e+01   1.1979134174e+01    0.1891672    0.1806875  46.32 0.0001850524    1.206    0.170
         6 -10.9057    237.8685    249.2165   6.4603786573e+01  -6.6181538825e+00    0.2126991    0.1406786  -1.47  0.000948648    1.133    0.118
         7 -10.5347    208.2321    249.8847   7.0134696359e+01  -3.7112194053e+00     0.167713    0.1324245  -0.73 0.0003878772    1.177    0.151
         8 -11.6393     93.1327    248.8861   9.5298623649e+01   1.0424745027e+01    0.2898101    0.1834772 -64.12 0.0009353405    1.965    0.491
         9 -10.3048     85.7896    250.7193   9.7214883695e+01   1.0960107631e+01    0.1731476   0.09221589  32.44 0.0002556173    1.526    0.345
        10 -14.1870      6.8624    214.9096   1.1321808076e+02   2.6540453760e+01      1.06585     0.817331  30.41   0.00689063    1.275    0.216
        11 -10.9457     13.4598    204.1988   1.1097736874e+02   2.8467370911e+01     1.337222    0.5838852  47.37  0.006286945    2.125    0.529
        12 -15.4686     64.3746    241.6504   1.0140072879e+02   1.5241524521e+01     1.652286     1.042256 -71.69  0.009058964    1.860    0.462
        13 -14.9904     53.8020    224.6610   1.0242861288e+02   2.0005963221e+01     1.461415    0.9740245  -9.70  0.007484003    1.993    0.498
        14 -17.0190     33.1762    232.9378   1.0810140676e+02   2.0329120713e+01     3.213364      2.73701  55.12   0.02149402    1.059    0.056
        15 -16.9139     92.5963    199.2319   8.9188105994e+01   2.0979581693e+01     5.291309     2.327539 -44.73   0.02075558    2.474    0.596
        16 -11.5967    109.7882    236.3065   8.9830618957e+01   1.0758894530e+01    0.4318842    0.2506822  12.99  0.001332836    1.789    0.441
        17 -12.3684    113.5560    229.3817   8.7999273356e+01   1.1631287979e+01    0.6182483    0.3831299 -53.23  0.002903241    1.839    0.456
        18 -10.1445     95.5009    238.9390   9.3618699232e+01   1.2066687673e+01    0.3031013    0.1389295 -44.33  0.001346641    2.537    0.606
        19 -10.6005    128.2809    235.3396   8.5255222980e+01   8.5132250437e+00    0.2363746    0.1780264   1.71 0.0005386346    1.261    0.207
        20 -11.3069    130.9778    232.7603   8.4249286338e+01   8.6415924157e+00    0.4715797    0.2119637  14.25  0.001789909    2.858    0.650
        21 -10.5780      2.0947    236.1379   1.1530566793e+02   2.2352152893e+01     0.172465    0.1412735 -62.12  0.001030294    1.410    0.291
        22 -11.3191    178.1860    229.1670   7.2968087691e+01   3.0410440570e+00    0.2224057    0.2085239 -73.44 0.0006733772    1.771    0.435
        23 -11.2866    220.2246    230.9780   6.4874712933e+01  -2.2710149440e+00    0.2355419    0.1290019  22.77 0.0007848592    1.706    0.414
        24 -11.8442    185.4251    228.2301   7.1283783545e+01   2.2776227124e+00    0.2612754    0.1673532  -5.13 0.0008096989    1.496    0.332
        25 -11.9170    152.2517    228.6896   7.8654632608e+01   6.5381660534e+00    0.3733614    0.2020529  28.52  0.001724438    1.621    0.383
        26 -17.2794     68.4837    188.2437   9.4401814655e+01   2.6764296931e+01     4.950631     3.389309 -47.37   0.02453001    1.518    0.341
        27 -16.1277     67.6682    207.5775   9.7055886255e+01   2.2270138702e+01     4.369639    0.9342325  43.74   0.01158112    5.437    0.816
        28 -10.4475    215.1329    226.7459   6.5129802775e+01  -1.0664929915e+00    0.1732161    0.1445424  -2.93 0.0005543682    1.230    0.187
        29 -10.4900     50.2323    250.6838   1.0543668613e+02   1.4971065721e+01    0.1665808    0.1015158  17.71 0.0006744363    1.652    0.395
        30 -11.5301    192.0409    225.8244   6.9518199584e+01   1.8431784658e+00    0.1868084    0.1618071  11.21 0.0007497302    1.287    0.223
        31 -10.8977    137.8593    225.6287   8.1558481976e+01   9.0667832556e+00    0.3153939    0.2147533  17.93  0.001676472    1.295    0.228
        32 -12.7639    125.4831    221.9264   8.4004189957e+01   1.1499217341e+01    0.4919292    0.4316039 -71.89  0.002776769    1.523    0.343
        33 -13.2451    125.5881    212.8285   8.2595281249e+01   1.3332869394e+01    0.7263407    0.5390819 -59.10  0.003820991    1.656    0.396
        34 -11.5168    246.4101    222.1163   5.8833598142e+01  -3.7712690996e+00    0.3713901    0.3046775 -79.19  0.001969822    4.271    0.766
        35 -11.2842    158.9314    221.7212   7.6018711493e+01   6.9034539224e+00    0.3357157    0.1841742  35.11  0.001254526    1.774    0.436
        36  -9.8320    142.0000    239.8835   8.2683550356e+01   5.8737361737e+00    0.1784733   0.07494666 -49.67 0.0007674186    2.705    0.630
        37 -10.3736    223.4858    220.4901   6.2541199954e+01  -1.0721869855e+00    0.1229132   0.09402069 -10.12 1.231051e-05    1.043    0.041
        38 -11.4597    173.1316    219.3560   7.2451160754e+01   5.3984060718e+00    0.2407695    0.1962529 -37.91  0.001441973    1.389    0.280
        39 -10.8231    193.4079    219.2633   6.8140482372e+01   2.7514183853e+00    0.1653417    0.1173045 -42.40 0.0009475168    1.603    0.376
        40 -10.6275    139.5464    218.4942   8.0050772219e+01   1.0211700219e+01    0.2602271     0.222352  47.74  0.001491572    1.458    0.314
        41 -12.1270    115.6066    218.2345   8.5922978204e+01   1.3620780030e+01    0.2565235    0.2214392  -5.13  0.001261164    1.120    0.107
        42 -12.3994    124.6541    205.8635   8.1727425568e+01   1.4922325816e+01    0.4082651     0.273677  -6.03  0.001922192    1.742    0.426
        43 -10.7982    103.1679    213.8928   8.8481226999e+01   1.6255445232e+01    0.2055444    0.1771815  36.01 0.0004122221    1.148    0.129
        44 -10.3692    184.4523    213.5685   6.9029647253e+01   4.8905867990e+00    0.1349562    0.1085447  -2.92 7.025483e-05    1.006    0.006
        45 -11.0374    142.5817    212.2269   7.8309824981e+01   1.1011358448e+01    0.2357008    0.1951043  -8.32 0.0007349411    1.118    0.105
        46 -11.3841    139.1947    210.6626   7.8876435171e+01   1.1812461148e+01    0.3473793    0.1842606  23.10  0.000911731    1.789    0.441
        47 -10.2364    227.4996    211.8866   6.0361564790e+01  -2.2774015702e-01    0.1740099     0.100171 -33.81 0.0004192247    1.494    0.331
        48 -11.6179    153.9874    210.7133   7.5340452135e+01   9.6635773123e+00    0.3910294     0.275508   0.68  0.002042332    1.407    0.289
        49 -10.5616    209.5022    211.4982   6.3618754339e+01   1.9930571804e+00    0.1281393    0.1020584  -9.01  0.000810309    1.043    0.041
        50 -14.6896     15.0029    236.0595   1.1246232606e+02   2.1317851842e+01     1.461207    0.5599086  60.57  0.006554507    2.768    0.639
        51 -11.6555    229.7081    207.2841   5.9180763978e+01   2.1870949522e-01     0.267344     0.182449 -30.23  0.001688534    1.260    0.206
        52 -11.1302    160.5645    206.7616   7.3132407812e+01   9.4706276276e+00    0.1737288     0.135151 -51.00 0.0007138032    1.574    0.365
        53 -10.7235    248.1985    206.4040   5.5923423017e+01  -1.7195725487e+00    0.1428418    0.1035189  30.64 0.0007420957    1.723    0.420
        54 -11.3622    169.7304    205.9187   7.0901254041e+01   8.3081405073e+00    0.1907789     0.160476 -12.60 0.0003779153    1.076    0.071
        55 -13.0089    146.2109    203.5635   7.5974329887e+01   1.2206779047e+01    0.6143473    0.3935924  16.14   0.00298184    1.528    0.345
        56 -10.9759    134.3313    204.4402   7.9048602461e+01   1.3793613696e+01    0.2033003    0.1235601  37.20 0.0009456455    1.610    0.379
        57 -12.8153    134.4258    198.3885   7.7997342678e+01   1.5042093983e+01    0.4187907     0.300267   6.51 0.0004963921    1.417    0.294
        58 -10.4985    212.6694    200.6901   6.1116369248e+01   3.3509173095e+00    0.2291454    0.1488094 -55.28  0.001158481    2.458    0.593
        59 -12.5515    225.3162    198.5180   5.8421745933e+01   2.1084744804e+00    0.4287533     0.217737 -42.69  0.002228009    1.937    0.484
        60 -10.6256    245.4923    197.0252   5.4754928374e+01  -4.4846542736e-02    0.1863889   0.09451498 -36.65  0.001044304    1.631    0.387
        61 -10.5076    238.2939    196.9574   5.5919577356e+01   7.9271333787e-01     0.172911    0.1248468 -24.36 0.0004299884    1.098    0.089
        62 -12.1744    190.8036    195.0405   6.4401223251e+01   7.2779091186e+00    0.4383381    0.3281332  19.08  0.002529421    1.270    0.213
        63 -10.6081    212.7004    193.7587   5.9863049527e+01   4.4912308838e+00    0.2424689    0.1516387 -55.98  0.001171973    2.599    0.615
        64 -11.8449    143.0378    200.3235   7.6187444288e+01   1.3338164570e+01    0.3483992    0.2881646  78.91  0.001452223    1.922    0.480
        65 -12.2671    149.1031    191.9826   7.3215987506e+01   1.4115814348e+01    0.3026328    0.2319296 -20.36  0.001436091    1.277    0.217
        66 -12.5059    139.1292    196.3411   7.6458915219e+01   1.4754240213e+01    0.3506486    0.2487885  -0.55 0.0009314835    1.503    0.335
        67 -12.9880    110.8362    189.1199   8.2604596880e+01   2.0660337555e+01    0.4861658    0.3647818 -55.47  0.002201969    1.469    0.319
        68 -10.0222     18.7122    193.7167   1.0888638695e+02   3.0523890845e+01    0.1249723   0.09311471 -39.01 0.0003608809    1.527    0.345
        69 -10.0985      5.2382    190.8181   1.1223771587e+02   3.2221319149e+01      0.15144    0.1308948 -49.71  0.000233951    1.258    0.205
        70 -10.3319      1.4921    190.8063   1.1320791662e+02   3.2474859353e+01    0.1673925     0.112357 -78.73 0.0005059315    1.388    0.279
        71 -10.6732    240.8196    190.3949   5.4352513034e+01   1.4958101976e+00    0.1536534    0.1010781  11.79 0.0003397362    1.589    0.371
        72 -10.8644    173.8696    188.9732   6.6894536612e+01   1.0889306677e+01    0.2443938    0.2041604  31.27  0.001391043    1.301    0.231
        73  99.0000      9.4972    188.2382   1.1094770173e+02   3.2542165525e+01     0.573938    0.1770253  40.65  0.002296548    2.867    0.651
        74 -10.9051    167.0370    187.9286   6.8233442252e+01   1.2139573126e+01    0.2103831     0.183064  -7.72 0.0003112451    1.030    0.029
        75 -12.5729    136.5761    187.1251   7.5447855738e+01   1.7101210094e+01     0.349551     0.241244 -29.08  0.001123789    1.500    0.333
        76 -12.3456    123.2525    187.0029   7.8895048462e+01   1.9226864126e+01    0.4155446    0.2804318  63.03  0.001758997    2.375    0.579
        77 -12.8162    127.9099    184.8947   7.7284728812e+01   1.8960084834e+01     0.533952     0.337224  -8.08  0.002236848    2.110    0.526
        78 -10.9826    248.3793    186.0726   5.2391767352e+01   1.2614777403e+00    0.2115247    0.1423779   2.32 0.0006837247    1.539    0.350
        79 -10.4300    186.2090    185.5766   6.3590457175e+01   9.6619257455e+00    0.1841303    0.1210582  16.64 0.0003617286    1.554    0.356
        80 -10.3091    104.2722    232.6684   9.0714141822e+01   1.2197014767e+01    0.2259748    0.1510049 -16.06 0.0003085446    1.819    0.450
        81 -10.7840     42.5026    250.4919   1.0716867266e+02   1.5806055203e+01    0.2350558    0.1360037  17.88  0.001278899    1.769    0.435
        82 -10.6733     36.5095    182.3175   1.0292719908e+02   3.1755734949e+01    0.3759237    0.1581612  41.12  0.001543785    2.288    0.563
        83 -10.9271    144.5151    181.5067   7.2391994811e+01   1.7024681660e+01    0.2649427    0.1360296  20.85 0.0009127686    2.238    0.553
        84 -10.9825     23.9978    180.7095   1.0635733617e+02   3.3270667476e+01    0.2469861    0.1710381 -60.23 0.0005744611    1.408    0.290
        85 -10.5344    179.6920    180.7079   6.4044295891e+01   1.1564202663e+01    0.1436408   0.09853072  -7.31            0    1.581    0.368
        86 -13.4377    124.4215    168.3279   7.5077525998e+01   2.3241442862e+01    0.5064301    0.3849395 -88.65  0.002263118    2.099    0.524
        87 -13.6749    119.1509    177.7352   7.8316207139e+01   2.1962800825e+01    0.6989391    0.3861881   7.99  0.002533644    2.704    0.630
        88 -10.4679     77.9857    243.0028   9.8281360187e+01   1.3395072170e+01    0.2043507    0.1731028 -62.83  0.001289326    1.382    0.276
        89 -12.2488    137.0007    177.4941   7.3530009343e+01   1.9112248388e+01     0.303288     0.194347 -31.50  0.001019718    1.643    0.391
        90 -10.7224     32.4895    177.9334   1.0364032702e+02   3.3226669743e+01    0.2326465    0.1820761 -13.98 0.0003946941    1.459    0.315
        91  -9.6443     15.3076    176.2678   1.0844842194e+02   3.5055688495e+01    0.1298781   0.09321044 -37.91 0.0003234886    1.536    0.349
        92 -10.5382    228.0332    175.0189   5.3689472937e+01   5.5317648058e+00    0.1889753    0.1483977 -19.85   0.00121181    1.033    0.032
        93 -11.9423    116.2154    240.2733   8.8793938706e+01   9.1605741548e+00    0.2349056     0.195087  15.01  0.000268352    1.020    0.020
        94 -11.3326     26.9754    172.4849   1.0470987883e+02   3.5083960277e+01      0.34324    0.2353313  79.59  0.001200397    1.578    0.366
        95 -12.4359    142.7446    172.6080   7.1107761676e+01   1.9214366661e+01    0.3148697    0.2552399 -36.27  0.001178223    1.226    0.184
        96 -13.3890    131.9044    169.7548   7.3349607384e+01   2.1662681378e+01    0.3934633    0.3910278  29.79  0.001442009    1.187    0.158
        97 -10.5449    197.3317    170.3512   5.8386091150e+01   1.0749996650e+01    0.1459239   0.09528594  -9.39 0.0007047287    1.776    0.437
        98 -11.7221    152.7668    168.1724   6.7727573925e+01   1.8459788968e+01    0.5026643    0.1173783 -46.22  0.001422663    4.199    0.762
        99 -11.7220     40.6164    168.0910   1.0009588543e+02   3.4953032519e+01     0.458791    0.1916536 -65.10  0.001831312    2.259    0.557
       100 -11.8029     33.5238    167.6909   1.0222541580e+02   3.5728765149e+01    0.3275308    0.2606926 -33.90  0.001748803    1.335    0.251
       101 -11.1459    172.3890    167.9746   6.3122520370e+01   1.5193748324e+01     0.279532    0.1325995 -50.72  0.001102739    2.442    0.591
       102 -10.1811     18.4726    166.7405   1.0668703389e+02   3.7216611899e+01    0.1823381    0.1124069 -58.14 0.0009136829    1.527    0.345
       103  -9.5519     11.6249    167.7695   1.0880830464e+02   3.7443645669e+01    0.1312471   0.09195042 -31.32 0.0002467281    1.608    0.378
       104 -11.3179      5.4803    171.6813   1.1088646791e+02   3.6866571734e+01    0.2438335    0.1670602  73.46 0.0007411684    1.456    0.313
       105 -10.2080    205.5007    164.5588   5.5684396872e+01   1.0530027306e+01    0.1351781    0.1131509 -15.94 7.220993e-05    1.037    0.036
       106 -10.0245    235.5061    163.4484   5.0319437403e+01   6.3897684543e+00    0.1236052    0.1003905 -25.59 6.087822e-05    1.037    0.035
       107 -12.6591    125.0692    161.6382   7.3556363896e+01   2.4653615443e+01    0.4100804    0.2410736  45.82 0.0006647928    1.896    0.473
       108 -11.7035     37.1590    154.0359   9.9402567217e+01   3.8913741449e+01     0.614718    0.2282841  15.39  0.002156458    3.122    0.680
       109 -11.4704     40.0865    149.0248   9.7746394126e+01   3.9935136772e+01    0.4349678    0.1961219 -65.84  0.001746513    2.127    0.530
       110 -12.8734     31.5653    138.9811   9.9221456445e+01   4.3342690322e+01    0.6516378    0.4410086 -15.00  0.003178203    1.667    0.400
       111 -12.9699     37.5314    141.0034   9.7445117526e+01   4.2272853654e+01    0.6893975    0.3187622 -52.28  0.002142023    1.965    0.491
       112 -12.7652     31.6080    147.7348   1.0040338221e+02   4.1057358318e+01    0.8257188     0.370156  37.06  0.003406373    2.257    0.557
       113 -11.4476     23.7979    161.8817   1.0458339288e+02   3.8046340995e+01    0.2515708     0.236867  54.28 0.0003547483    1.084    0.077
       114 -11.8589     28.0388    160.4011   1.0310103889e+02   3.8080135105e+01    0.2765739    0.2406429 -59.25 0.0003585739    1.103    0.093
       115 -10.8666     14.2867    150.4154   1.0639380140e+02   4.1688540010e+01    0.2796266    0.1910148  34.62  0.001165292    1.526    0.345
       116 -13.9203     21.8051    152.5211   1.0420092358e+02   4.0611962245e+01     1.006007    0.8333964  34.73  0.005364513    1.258    0.205
       117 -11.2690    170.9647    160.4893   6.1903144180e+01   1.6909016697e+01    0.3460195    0.2276566   1.56  0.001550704    1.980    0.495
       118 -10.2395    147.5518    161.4516   6.7628238364e+01   2.0779740670e+01     0.153152    0.1351301  -4.71 1.073481e-05    1.059    0.056
       119 -12.0001     24.8130    144.6146   1.0228180939e+02   4.2431741602e+01    0.4109609    0.2498489 -68.53  0.001197255    1.542    0.351
       120 -11.2172    215.4843    158.0163   5.2600506698e+01   1.0148989243e+01    0.2215654    0.1885926  20.25 0.0004334069    1.256    0.204
       121 -12.3793     81.0617    155.8459   8.5459098667e+01   3.3142893999e+01    0.3871998    0.2944605  36.32  0.001302009    1.305    0.234
       122  -9.8717      9.2596    157.2838   1.0861928705e+02   4.0252644772e+01    0.1318101   0.08924183 -45.42 0.0001880902    1.481    0.325
       123 -11.6917    126.9529    156.2035   7.1911604942e+01   2.5560735064e+01    0.2355172    0.2072729  50.07 0.0007109295    1.292    0.226
       124 -11.3819    207.8620    237.8437   6.8322071780e+01  -1.9123751572e+00    0.1909314    0.1307268  -5.80  0.000442073    1.173    0.148
       125 -11.2934    212.4230    153.9950   5.2342981522e+01   1.1306058221e+01    0.2179876    0.1910985  60.16  0.000709789    1.553    0.356
       126 -10.8570      3.4459    153.3286   1.1006751720e+02   4.1599068080e+01    0.2614246    0.2022698 -15.25  0.001518849    1.455    0.313
       127 -12.4759    126.6049    151.7579   7.1059616847e+01   2.6629852467e+01     0.413876    0.2123935  27.86  0.001269802    2.073    0.518
       128 -12.4678      2.8539    248.8103   1.1566115896e+02   1.9741476743e+01    0.2747305    0.2013888  45.55  0.001818025    1.120    0.107
       129 -10.7830    181.2527    150.8663   5.7667336638e+01   1.7003753190e+01    0.2264864    0.1640298 -87.15 0.0009562312    2.889    0.654
       130 -11.8367    146.0829    149.1589   6.5364419446e+01   2.3667401250e+01    0.2766556     0.245861  41.07  0.001465858    1.212    0.175
       131 -11.9288    133.3249    149.0567   6.8649398896e+01   2.6023140329e+01     0.271993    0.2099597  16.15  0.001140421    1.334    0.250
       132 -13.0554     52.7971    144.2899   9.2716154377e+01   3.9810686759e+01    0.7119614    0.4052576  48.27  0.002996577    2.046    0.511
       133 -11.5010     58.5535    144.2861   9.0756701140e+01   3.9126040901e+01    0.3550391     0.252387  81.32  0.001159609    1.887    0.470
       134 -10.8078    223.8524    147.6336   4.9163558317e+01   1.0633274085e+01    0.2454698    0.1493866 -52.15 0.0009080117    1.893    0.472
       135 -11.3742    128.9262    147.2816   6.9447269301e+01   2.7220593090e+01    0.2214921    0.1889156  24.10  0.000411839    1.130    0.115
       136 -12.2502     11.5274    144.1279   1.0664725861e+02   4.3484836661e+01     0.696287    0.5315987  68.90  0.003889312    1.405    0.288
       137 -12.4638     93.9028    142.6278   7.8765931682e+01   3.4439135893e+01    0.3185755    0.2337547 -60.06  0.001467611    1.506    0.336
       138  -9.5224      3.3462    142.3143   1.0914609673e+02   4.4411898053e+01    0.1448592   0.08387572 -41.90  0.000704735    1.716    0.417
       139 -10.1573    151.4704    141.5450   6.2337712970e+01   2.4273384495e+01    0.1512779    0.1390523  -4.67 7.498054e-05    1.023    0.022
       140 -11.2401    159.6982    136.8479   5.9323539270e+01   2.3681321242e+01    0.4243875    0.1581172 -38.32    0.0014519    2.804    0.643
       141 -11.1535      8.5781    248.1544   1.1443778055e+02   1.9403020192e+01    0.2415349    0.1568447   6.29  0.001461429    1.947    0.486
       142 -13.2571     62.4440    134.4826   8.7604168081e+01   4.1153464603e+01    0.8082526    0.3532501  28.10  0.002301872    2.227    0.551
       143 -12.6806     70.7486    133.3570   8.4486636532e+01   4.0306161566e+01    0.4716488    0.3086266 -69.98  0.002043053    1.844    0.458
       144 -11.6853     44.4985    137.3620   9.4440083891e+01   4.2525032227e+01     0.298842    0.2313554 -27.68 0.0006453299    1.322    0.243
       145 -12.7238     53.1532    135.9852   9.1152207207e+01   4.1919783899e+01    0.5132768    0.3083224  29.41 0.0008213446    1.651    0.394
       146 -10.4265     98.3925    235.1700   9.2467141171e+01   1.2452722277e+01    0.3322251     0.228787  45.61  0.001542335    1.489    0.329
       147 -12.2074     81.0257    130.0119   8.0246684935e+01   3.9606015399e+01    0.2891015    0.2114495  18.60 0.0006032375    1.385    0.278
       148 -12.5565     84.3681    127.7911   7.8617027457e+01   3.9619505967e+01    0.3200266    0.2374055 -42.84  0.001185324    1.338    0.253
       149 -12.0083     11.3285    134.2026   1.0564531820e+02   4.6058520346e+01    0.4617332    0.2655437 -48.83   0.00227046    1.589    0.371
       150 -10.7997     16.0072    143.4673   1.0509429789e+02   4.3368021255e+01    0.2728043    0.1999511  -4.46  0.001302596    1.512    0.339
       151 -12.7793     27.7463    133.7064   9.9814174095e+01   4.5038016841e+01    0.5289187    0.2940319  16.60  0.002414013    1.893    0.472
       152 -12.0203     29.9692    129.3543   9.8371737146e+01   4.5985512009e+01    0.4327137    0.2516803  81.35  0.001796026    2.440    0.590
       153 -13.1919     35.1464    131.6510   9.6851447068e+01   4.4931922437e+01    0.5076773    0.4234676 -42.77  0.002785571    1.126    0.112
       154 -12.2229     33.8748    127.1553   9.6593706473e+01   4.6214832291e+01    0.4416696     0.260427  30.58 0.0005660807    1.740    0.425
       155 -12.1387     19.4684    133.7220   1.0274684534e+02   4.5659125047e+01    0.4393263    0.2319627 -77.90  0.001902068    1.947    0.486
       156 -11.9216     15.6082    128.4505   1.0344654479e+02   4.7282877437e+01    0.4305972    0.2458814 -76.24  0.002031201    1.726    0.421
       157 -11.8794    138.5497    131.7400   6.3323485954e+01   2.8814787596e+01    0.4504624    0.3332975 -75.71 0.0009028833    2.072    0.517
       158 -13.1878     77.2199    133.2247   8.2238109759e+01   3.9392537012e+01    0.4097267    0.3560912  50.36  0.002092786    1.281    0.220
       159 -11.0804    144.0101    132.0089   6.1990324706e+01   2.7696328126e+01    0.2450317    0.1820586  -3.51  0.000648162    1.647    0.393
       160 -13.0292    157.3954    128.3922   5.7908591184e+01   2.5823242284e+01    0.6050296    0.5810332 -46.71  0.003389261    1.123    0.110
       161 -12.5718     91.6160    129.2004   7.6530228352e+01   3.8080559114e+01    0.3933772    0.2590039 -41.02  0.001452223    1.532    0.347
       162 -11.4806     45.1373    129.8096   9.2918668227e+01   4.4416106727e+01    0.2193867    0.2020975  57.23 0.0008044317    1.210    0.173
       163  -9.6536      2.3211    129.7041   1.0828185402e+02   4.7689981543e+01    0.1338171   0.09323514  57.68 0.0003076111    1.616    0.381
       164 -12.4904    122.4885    128.8214   6.6989150725e+01   3.2556926229e+01    0.3665097     0.271128 -77.59  0.001538123    2.070    0.517
       165 -13.2699     59.2913    126.7371   8.7187173446e+01   4.3536885099e+01    0.6651606    0.3219438 -47.84  0.002442312    1.964    0.491
       166 -13.0340     53.6344    124.4623   8.8796895987e+01   4.4822013071e+01    0.4806948    0.3314368   6.74  0.001069817    1.562    0.360
       167 -11.3037     48.9959    122.5244   9.0136659185e+01   4.5862111602e+01    0.4069048    0.2646309  71.28  0.001425843    2.358    0.576
       168 -13.2427     43.0741    120.2427   9.1928376361e+01   4.7096255602e+01     1.046955    0.4273442  11.39  0.003574313    3.170    0.685
       169 -13.1313     52.1928    116.7262   8.7751486104e+01   4.6956384512e+01      1.03238    0.3905713  38.82  0.003393787    2.823    0.646
       170 -10.4471    178.6886    125.1372   5.2563784517e+01   2.2331541442e+01    0.2251724    0.1649718 -54.65  0.001139624    1.514    0.339
       171 -10.9382     10.2265    123.3821   1.0476105678e+02   4.8910725426e+01    0.2792883    0.2319946  52.88  0.001215756    1.355    0.262
       172 -11.4094    189.7878    122.1597   4.9758020803e+01   2.0782894141e+01    0.3135268    0.2334405  58.46  0.001078899    1.595    0.373
       173 -12.2193    107.8233    122.4678   6.9769813726e+01   3.6770251917e+01    0.3079969    0.2584148  52.72 0.0008555233    1.342    0.255
       174 -13.0182    101.4133    120.0943   7.1184184322e+01   3.8501112773e+01    0.5524951    0.3449968  50.19  0.002296175    1.871    0.465
       175 -13.2650     71.4571    115.6380   8.0317180064e+01   4.4603198491e+01    0.4952812    0.4722891 -59.42  0.002049079    1.169    0.144
       176 -12.6510     22.5358    118.2280   9.9433379434e+01   4.9447786698e+01    0.5072934    0.4215679  41.60  0.002859107    1.346    0.257
       177 -11.3799     30.5635    118.5931   9.6413221330e+01   4.8716111102e+01    0.4193692    0.2653866  -0.71  0.001981453    1.745    0.427
       178 -12.1355     82.8232    113.4981   7.5738909158e+01   4.3307639244e+01    0.3971411     0.318465  73.44 0.0005975841    1.738    0.425
       179  -9.8848    247.6882    115.2819   3.9543015019e+01   1.2139275411e+01    0.1121977   0.08129381 -61.45 0.0003816408    1.569    0.363
       180 -10.1984    197.1740    115.1476   4.6896679761e+01   2.0636598125e+01    0.1745274    0.1544816 -72.55 0.0004496729    1.291    0.225
       181 -12.4103    106.4309    114.0840   6.8087566017e+01   3.8922015145e+01    0.5504203    0.3553121   1.29  0.002105137    2.365    0.577
       182 -10.9479    197.9967    242.9404   7.1064128661e+01  -1.5580147483e+00    0.1870696     0.141056   1.20 0.0003305896    1.036    0.035
       183 -12.6666     67.4854    122.5069   8.3326680897e+01   4.3492626264e+01    0.2740542    0.2554005 -12.02 0.0006763957    1.003    0.003
       184 -12.5948     53.9432    110.3164   8.5678556225e+01   4.8339431532e+01    0.5905312    0.2817602 -42.59  0.002030448    2.060    0.515
       185 -11.1358     51.0078    107.0487   8.6089881379e+01   4.9509836237e+01    0.2973323    0.1638879 -32.28 0.0008563831    1.990    0.498
       186 -10.4646     75.0163    111.4806   7.8017359510e+01   4.5055619874e+01    0.2338705    0.1475217  27.40 0.0004558648    1.557    0.358
       187 -10.7642    122.1716    110.2030   6.2411746040e+01   3.6650829329e+01    0.2026827    0.1838878  71.31 0.0004646534    1.302    0.232
       188 -13.0053     64.1819    114.1713   8.2655867484e+01   4.6022549917e+01    0.5117875    0.2737612  44.54  0.002030808    2.170    0.539
       189 -11.8933     60.5856    108.6272   8.2717039596e+01   4.7878222363e+01    0.4389714     0.228598  16.01  0.001709516    2.210    0.548
       190 -11.0679    140.8773    108.2281   5.6938958142e+01   3.3187221672e+01     0.308307    0.1817409  65.07  0.001148875    2.716    0.632
       191 -10.1788     19.2231    105.2306   9.8631364790e+01   5.2990899764e+01    0.1698725    0.1572457  58.75 0.0003302755    1.264    0.209
       192 -10.6673    117.6895    104.2260   6.2108088888e+01   3.8811461524e+01    0.3548833     0.210803  47.32  0.001497145    1.720    0.418
       193 -13.0474     76.9650     99.5869   7.4220421235e+01   4.7509045947e+01     0.910288    0.4303415  50.34  0.003089858    3.102    0.678
       194 -11.3444     52.0077    102.0005   8.4509126051e+01   5.0616848510e+01    0.2748845    0.2134268  20.70   0.00103658    1.269    0.212
       195 -12.3567     58.0816     99.8715   8.1548868839e+01   5.0326338455e+01    0.4516771    0.3568772 -23.11   0.00127215    1.238    0.192
       196 -11.0270     59.2694     95.5597   7.9959470685e+01   5.1173169778e+01    0.4161708    0.1734259  36.20  0.001492779    2.382    0.580
       197 -11.8418     60.1299     92.2607   7.8728570018e+01   5.1810586001e+01    0.4009814    0.2858432  19.55   0.00196032    1.368    0.269
       198 -10.4343     30.5937     99.7854   9.2873443162e+01   5.3461945261e+01    0.1937147    0.1355814 -74.67 0.0009500303    1.645    0.392
       199 -10.8507    246.5322     99.7672   3.6762474073e+01   1.4594477069e+01    0.2824819   0.09842817  55.11  0.001302729    3.494    0.714
       200  -9.9657    191.6755     99.2907   4.4301188575e+01   2.4361649375e+01    0.1330081    0.1016006 -74.08 0.0002353203    1.613    0.380
       201 -12.1362    103.3915    243.3645   9.2239389938e+01   1.0209578045e+01    0.4319804     0.352772  69.91  0.001159932    1.613    0.380
       202 -10.9701    173.8298     97.8742   4.7156161309e+01   2.8198728842e+01    0.2158027    0.1897291   0.80  0.001109798    1.295    0.228
       203 -11.0172     22.2235     97.3910   9.5954578536e+01   5.4735055366e+01    0.1906703    0.1231176  26.51  0.000950311    1.639    0.390
       204 -11.6552     39.6674     95.8547   8.8163359894e+01   5.3538396608e+01     0.254028    0.1848685   2.07 0.0008404368    1.383    0.277
       205  -9.9994    214.4378     92.5201   3.9357480841e+01   2.1117120341e+01    0.1245821    0.1102623 -46.92 9.664156e-05    1.016    0.016
       206 -11.1048    183.3461     91.8724   4.4008461459e+01   2.7251921757e+01    0.2155454    0.1827152  73.30  0.000416349    1.277    0.217
       207 -13.9485     53.4724     84.7413   7.9405215377e+01   5.4451843560e+01    0.9979308    0.6967951  66.40  0.003799829    2.475    0.596
       208 -10.4990     21.1447     91.4931   9.5258870269e+01   5.6261332817e+01    0.1983325    0.1317791  10.69  0.001014178    1.535    0.348
       209 -10.7846      3.0123     90.9590   1.0314352624e+02   5.7422278854e+01    0.2057916    0.1670356 -42.62 0.0003739748    1.043    0.041
       210 -10.6524     11.5866     88.2061   9.8880971360e+01   5.7678170177e+01    0.2624631    0.1269012 -71.10  0.001152205    2.135    0.532
       211 -11.0954    171.1908     88.2015   4.5304363648e+01   3.0387663386e+01    0.1903303     0.159971 -74.02 0.0004382635    1.322    0.244
       212 -12.0460     31.1452     87.9301   9.0025329436e+01   5.6288534736e+01    0.2723261    0.2015755 -12.24  0.001442262    1.307    0.235
       213  -9.8119     66.3076     87.3213   7.4863561223e+01   5.1982470016e+01    0.1564252    0.1088009 -13.07 0.0004381402    1.642    0.391
       214 -11.9592     45.2004     86.3888   8.3419356261e+01   5.5145191403e+01    0.3450273    0.1918381  49.81  0.001386952    2.646    0.622
       215 -10.1622    116.3184     86.6352   5.7593365984e+01   4.2591804391e+01     0.151728    0.1213451 -87.65 0.0007039935    1.776    0.437
       216 -11.3427    211.9901     81.9013   3.7443383039e+01   2.3166091071e+01     0.209054    0.1646397 -37.38 0.0003049271    1.214    0.176
       217 -10.8152    214.6231     79.2742   3.6546636336e+01   2.3055900421e+01     0.201586    0.1546615 -69.18 0.0005877212    1.345    0.257
       218 -11.5467    206.8614     81.0359   3.7946248280e+01   2.4270304214e+01    0.2989787    0.1594376 -45.49  0.001523603    1.708    0.414
       219 -10.9399    171.9779     81.9636   4.3627674349e+01   3.1237367048e+01    0.1631097      0.15501 -54.74 0.0003424395    1.034    0.033
       220 -11.2033     34.7059     94.0478   8.9873487245e+01   5.4481697469e+01    0.2050449    0.1737349 -39.40 0.0005584271    1.084    0.077
       221 -12.0528    183.1818     77.9020   4.0743518016e+01   2.9502838934e+01     0.398073    0.2792919 -24.35  0.002111746    1.667    0.400
       222 -11.2628    153.1672     80.0860   4.6774357481e+01   3.5643154896e+01    0.2355687    0.1964337  51.21 0.0003785734    1.170    0.146
       223 -12.7743     30.0129     79.8965   8.8584296792e+01   5.8276653708e+01    0.5224773    0.2065507  23.61  0.002107704    2.449    0.592
       224 -10.4212     87.2922     79.1340   6.4513611494e+01   4.9986439349e+01    0.3073741    0.1650826  27.50  0.001218821    2.080    0.519
       225  -9.9519     65.5401     78.5526   7.2554081624e+01   5.3985418675e+01    0.1506602    0.1302807  -0.45 0.0001469564    1.061    0.057
       226 -11.1166    160.4502     76.1576   4.4298940951e+01   3.4669587352e+01    0.2951063    0.2085186 -80.95   0.00102134    1.919    0.479
       227 -11.6858    112.0371     75.9269   5.5646799125e+01   4.5481738463e+01    0.2962201    0.2659043   9.58 0.0005153632    1.138    0.121
       228 -11.0285    115.6662     74.7072   5.4254641943e+01   4.4904921209e+01    0.2717277    0.2319957 -10.21 0.0009588125    1.285    0.221
       229 -11.6192     74.8631     75.7748   6.8008666223e+01   5.2963258639e+01    0.4478093     0.258136  20.45  0.001864686    2.017    0.504
       230 -10.1669     16.4812     76.4503   9.4181296853e+01   6.0171887781e+01    0.1372408       0.1153 -29.24 0.0001382455    1.004    0.004
       231  -9.7678    177.6900     75.2811   4.1011462239e+01   3.1063077716e+01    0.1333149   0.09938794 -75.20  0.000352975    1.565    0.361
       232 -12.6988     31.9393     74.4497   8.6243464447e+01   5.9327996514e+01    0.4693902    0.2395945   0.33  0.001948599    2.374    0.579
       233 -10.0016    201.4655     74.4547   3.7244072361e+01   2.6291070317e+01    0.1239378    0.1141358 -60.36 0.0001700697    1.030    0.029
       234 -10.7239    219.7009     72.2601   3.4465466763e+01   2.3108028507e+01     0.241981    0.1519508 -57.80  0.001167825    1.562    0.360
       235 -11.8478    100.7724     68.8222   5.6791515237e+01   4.9154007626e+01    0.5173199    0.1975153 -38.14  0.001869521    2.841    0.648
       236 -11.7897    188.6318     66.7571   3.7299401573e+01   3.0012037766e+01    0.3676879    0.1905457 -44.32  0.001195254    1.830    0.454
       237 -12.2621    198.1387     66.0563   3.5826187826e+01   2.8156574705e+01    0.3205542    0.2613167 -23.84  0.001986084    1.423    0.297
       238 -13.4644     27.6665     64.0954   8.5400318989e+01   6.2020654580e+01     1.039075    0.2872427  26.64   0.00373235    3.279    0.695
       239  -9.6372     78.7259     65.6704   6.3237752540e+01   5.4178306487e+01    0.1473716     0.107231   0.52 0.0004323732    1.591    0.371
       240 -10.1687    113.9588     63.0330   5.1133068278e+01   4.7235746878e+01    0.1735487     0.155319  42.54 0.0003618374    1.024    0.023
       241 -11.0227    208.1006     61.6504   3.3608772601e+01   2.6776342382e+01    0.2234292    0.1708861 -32.09 0.0007012619    1.393    0.282
       242 -10.6925     45.8647     60.8925   7.5439677489e+01   6.0538540013e+01    0.2280624     0.172264  -6.55  0.000814116    1.253    0.202
       243 -10.6845    109.3497     59.8956   5.1402038027e+01   4.8761817799e+01    0.2627959    0.1890705  57.30  0.001317752    1.398    0.285
       244 -12.0304    192.7304     57.5936   3.4628841678e+01   3.0427163817e+01    0.3206225    0.1853618 -55.56  0.001671309    1.772    0.436
       245 -11.6050    153.7558     57.5993   4.0654810919e+01   3.8957764565e+01    0.2704153    0.2287533 -51.24 0.0004819607    1.223    0.183
       246 -10.6697      3.4522     59.2250   9.6821733133e+01   6.4825780838e+01    0.2405791    0.1625166  -4.19  0.001385482    1.403    0.287
       247 -11.4729     53.7682     57.6517   7.0667882922e+01   6.0001265891e+01    0.3251439    0.2244525  48.15 0.0006943782    1.828    0.453
       248 -10.9113    225.1425     56.9582   3.0766945550e+01   2.4154490915e+01    0.1874006    0.1324439 -63.34  0.001212111    1.300    0.231
       249 -10.8211     99.4913     57.1770   5.3371417939e+01   5.1360204569e+01    0.2652102    0.1892582  49.41  0.001005393    1.309    0.236
       250 -10.5238    139.3026     56.6715   4.3204261573e+01   4.2405211821e+01    0.1398534    0.1051766 -76.06 0.0005160808    1.647    0.393
       251 -11.6583     27.5566     55.2988   8.2722273025e+01   6.3868653607e+01    0.4181532    0.2202107  39.71  0.001913435    2.369    0.578
       252 -11.0516    181.8186     51.3237   3.4625259861e+01   3.3567271230e+01    0.2065827    0.1501653 -89.38  0.001063941    1.433    0.302
       253 -11.1084    171.9341     50.5323   3.5835878297e+01   3.5829605854e+01    0.2461162    0.1215691  67.63 0.0006706521    2.041    0.510
       254  -9.9283    123.7158     51.6868   4.5143285998e+01   4.6714591475e+01    0.1391632    0.1030615  25.53 0.0003065223    1.577    0.366
       255 -10.1066     93.9489     51.5428   5.3153827162e+01   5.3429727527e+01    0.2076984     0.105487  30.68 0.0008073436    2.415    0.586
       256 -10.0673    159.6401     49.7830   3.7557119629e+01   3.8683996297e+01    0.1835305    0.1138007 -46.60 0.0008430227    1.667    0.400
       257 -10.3414     30.9536     50.5273   7.9306481490e+01   6.4448128497e+01    0.2031438    0.1193443  21.44  0.000640925    1.580    0.367
       258 -11.0336     18.4216     49.4890   8.5801332939e+01   6.5906901866e+01    0.2376536    0.1681989 -32.29 0.0006322894    1.215    0.177
       259 -11.0476     44.7982     49.5572   7.1910723071e+01   6.2837674828e+01    0.1909402      0.11776  37.87 0.0009477765    1.680    0.405
       260  -9.9477    133.2876     48.3091   4.2012992559e+01   4.4957114951e+01    0.1360264    0.1009453  29.21 0.0002716903    1.575    0.365
       261  -9.8257    157.3025     46.2919   3.7017336626e+01   3.9668854870e+01    0.1283922   0.09746069  35.00 0.0002128209    1.570    0.363
       262 -11.2912    196.3933     44.5296   3.1238175101e+01   3.1349290496e+01    0.2601569    0.1593166 -84.60  0.001410395    1.846    0.458
       263 -11.3344    143.6827     43.3609   3.8557114921e+01   4.3180507366e+01    0.2126412    0.1501628 -74.97  0.001101265    1.716    0.417
       264 -10.1670     95.3259     42.3086   4.9488613949e+01   5.4456191873e+01    0.1455716   0.09769465  25.42 0.0004170869    1.654    0.396
       265  -9.9084    122.3451     41.6939   4.2343693070e+01   4.8370362253e+01    0.1380243    0.1035354 -82.40 0.0007042438    1.694    0.410
       266 -11.3962     34.0720     39.9596   7.3674272106e+01   6.6017172876e+01    0.5541285    0.2089873  21.78  0.002112829    2.976    0.664
       267 -10.5867    146.1976     39.2307   3.6950826001e+01   4.3106224146e+01     0.176597    0.1431684 -81.32 0.0002757816    1.293    0.226
       268 -11.1826    136.1680     38.5001   3.8544228917e+01   4.5533694103e+01    0.2067129    0.1874992 -36.43 0.0002706317    1.234    0.190
       269 -10.7824     60.5109     38.5248   6.0403440430e+01   6.2086715005e+01    0.2115045     0.179225 -59.90  0.001204976    1.762    0.432
       270 -11.6088     55.7251     37.3548   6.1991619658e+01   6.3117651387e+01    0.4823884    0.2314356  26.54  0.001735988    2.266    0.559
       271 -12.2948      9.8220     37.0034   8.6651530638e+01   6.9052861115e+01    0.2821021    0.1974794  -9.10 0.0004755606    1.197    0.164
       272  -9.8976    110.2512     37.6604   4.3856584316e+01   5.1683342055e+01    0.1285503    0.1034697 -72.02  0.000252375    1.570    0.363
       273 -11.2466     43.6621     33.8607   6.6180637697e+01   6.5651479033e+01    0.2611476    0.1704796  34.46 0.0009379334    1.417    0.294
       274 -12.0197     31.3477     33.2616   7.2406906293e+01   6.7511906020e+01    0.3872046    0.2656218  -1.75  0.001481053    1.351    0.260
       275 -10.6372    223.1264     31.8423   2.5982330616e+01   2.7563608006e+01    0.2289331    0.1173015 -32.95  0.001309045    2.017    0.504
       276 -11.1391    106.5894     31.9715   4.2827310621e+01   5.3212022075e+01     0.264069    0.2252062 -32.35   0.00101519    1.347    0.258
       277 -10.0456    197.5932     32.2119   2.8393529702e+01   3.2556763185e+01    0.1401403    0.1124651 -27.27 0.0002651681    1.491    0.329
       278 -10.8630    169.6547     31.4140   3.1396240444e+01   3.8658019050e+01    0.2066484    0.1562429 -31.08 0.0002388298    1.497    0.332
       279 -10.8879    213.8168     31.3289   2.6673505681e+01   2.9402522902e+01    0.1661865     0.123101 -63.13 0.0007480681    1.157    0.136
       280 -11.8830     73.2368     29.9933   5.1975923756e+01   6.0787458981e+01    0.3492827    0.1631914  57.30  0.001438439    2.524    0.604
       281 -10.7848     38.9493     29.4965   6.6676763721e+01   6.7042767592e+01    0.2471438    0.1626641 -13.16 0.0009971423    1.563    0.360
       282 -10.5530    155.6985     29.3073   3.2749948159e+01   4.2053010949e+01    0.1297182   0.08873662 -72.20 0.0002181438    1.599    0.375
       283 -10.9109    118.9172     26.0299   3.8088094857e+01   5.0999824065e+01     0.196803    0.1691523  57.50 0.0003549822    1.017    0.017
       284 -12.4156     83.9218     23.6349   4.5929990752e+01   5.9264788753e+01    0.4953003    0.3338295 -61.96  0.002445857    2.438    0.590
       285 -10.0161     20.5219     22.9846   7.4242131201e+01   7.0510615083e+01    0.1798712   0.08540484 -22.46 0.0008091624    2.457    0.593
       286 -10.3802    250.1326     22.1561   2.2274590187e+01   2.3814374858e+01    0.1457906   0.09134386 -63.85 0.0004022974    1.288    0.223
       287 -10.5703    172.4913     21.4811   2.8617238917e+01   3.9092968409e+01     0.121907     0.103633 -89.89 0.0002155146    1.001    0.001
       288 -10.0570    134.5373     18.4656   3.2926326721e+01   4.8090459553e+01    0.1288667    0.1087659  65.84 -2.129757e-06    1.037    0.036
       289 -10.5552     30.1623     16.8539   6.5530889582e+01   7.0163933112e+01    0.1786022    0.1526938  12.64 0.0005227511    1.223    0.182
       290 -10.5150    102.9968     16.0174   3.8110636317e+01   5.5717748781e+01    0.2579811   0.09180713  45.12  0.001030562    2.592    0.614
       291 -10.2558     66.5424     16.5477   4.8702655530e+01   6.3720671455e+01    0.1314731    0.1068926  36.11 7.165079e-05    1.025    0.025
       292 -10.1066     95.5327     14.4292   3.9272342101e+01   5.7585542872e+01     0.131891    0.1075051  52.17 5.782434e-05    1.008    0.008
       293 -10.7723     41.1459     13.8650   5.8184293837e+01   6.8816067950e+01    0.1790756    0.1510252  26.73 0.0003680436    1.198    0.166
       294 -10.3431    115.1440    247.4250   8.9948926419e+01   7.9593849809e+00     0.293759    0.1466937 -36.68  0.001313322    2.429    0.588
       295 -10.4978    139.0636    247.2920   8.4390368967e+01   4.9411856263e+00    0.1834925    0.1364338  20.36 0.0002660296    1.108    0.097
       296 -10.4237    214.3328     10.6799   2.2506512666e+01   3.1473457999e+01     0.119088   0.06369627 -65.29 0.0007049113    1.697    0.411
       297 -12.3015    179.7907    244.4477   7.5023758941e+01   3.4567218377e-01    0.2527567    0.2050243   3.28 0.0005535043    1.115    0.103
