#   1 NUMBER                 Running object number                                     
#   2 MAG_AUTO               Kron-like elliptical aperture magnitude                    [mag]
#   3 X_IMAGE                Object position along x                                    [pixel]
#   4 Y_IMAGE                Object position along y                                    [pixel]
#   5 X_WORLD                Barycenter position along world x axis                     [deg]
#   6 Y_WORLD                Barycenter position along world y axis                     [deg]
#   7 A_WORLD                Profile RMS along major axis (world units)                 [deg]
#   8 B_WORLD                Profile RMS along minor axis (world units)                 [deg]
#   9 THETA_WORLD            Position angle (CCW/world-x)                               [deg]
#  10 FWHM_WORLD             FWHM assuming a gaussian core                              [deg]
#  11 ELONGATION             A_IMAGE/B_IMAGE                                           
#  12 ELLIPTICITY            1 - B_IMAGE/A_IMAGE                                       
         1 -14.0428    187.2403     22.9596   7.1384568259e+01   3.5189099358e+01     1.865152      1.27477 -10.56    0.0066248    1.694    0.410
         2 -14.1088    194.4194     16.9499   6.8667006124e+01   3.4017050711e+01     1.333053     1.175961  88.93  0.005627386    1.113    0.102
         3 -14.0855    200.3369      9.2076   6.5769025986e+01   3.3313317507e+01     1.734317    0.7359102  53.81  0.001420891    2.230    0.552
         4 -10.4816     33.0000      6.9969   1.0594582997e+02   6.9214551498e+01      0.19182   0.05550387 -38.17 0.0008059504    2.967    0.663
         5  -9.3590     93.0760    244.4934   1.3854105171e+02   1.4681695268e+01    0.1600847   0.08493578  45.67 0.0004792391    1.492    0.330
         6  -9.6819    234.5299    250.5261   1.1526263037e+02  -7.2398865799e+00    0.1127687   0.08111482  22.39 8.586505e-05    1.010    0.010
         7 -10.6079    205.1728    249.5034   1.1996946720e+02  -2.8030413024e+00    0.1917796    0.1329932  37.92 0.0007048027    1.179    0.152
         8 -11.6000    134.2214    249.4843   1.3205624233e+02   8.0396749749e+00    0.5536658    0.1692125  47.95  0.002502455    2.724    0.633
         9 -11.3126    143.9089    249.4342   1.3039719967e+02   6.5908303806e+00    0.4137438    0.2583521  86.85  0.002223957    3.115    0.679
        10 -11.9020    150.3560    247.8319   1.2910823687e+02   5.8279142536e+00    0.5812896    0.1766817  46.29  0.002597048    2.678    0.627
        11 -10.7677    152.8773    243.6941   1.2818107289e+02   6.0037236398e+00    0.2189431     0.182434 -80.35  0.001241017    1.590    0.371
        12 -12.1217    146.1129    240.5527   1.2898634571e+02   7.4914482170e+00     0.373933    0.2703181  31.33  0.000469809    1.349    0.259
        13 -11.4806    121.7812    244.8018   1.3369060625e+02   1.0558474208e+01    0.3593678    0.1580833  55.58  0.001848054    2.298    0.565
        14 -12.8105    126.1968    240.6130   1.3248123495e+02   1.0524105025e+01    0.6030213    0.3537523 -58.98  0.003764859    2.110    0.526
        15 -10.3090     92.7391    231.6468   1.3742631895e+02   1.6783870218e+01    0.2008902    0.1522226 -83.28  0.001439435    1.389    0.280
        16 -10.6431    101.4911    241.5482   1.3684752648e+02   1.3975126865e+01    0.3029975    0.1576063 -75.56  0.001454641    2.560    0.609
        17 -10.5329    103.9953    238.0205   1.3607775445e+02   1.4173125069e+01    0.1790192     0.151094  88.27 0.0006066802    1.258    0.205
        18 -12.3919    108.7334    248.0926   1.3623638264e+02   1.1955653602e+01      1.01307    0.2265652  44.87  0.004245227    3.280    0.695
        19 -10.6695     97.8911    246.1444   1.3787945062e+02   1.3766828040e+01    0.2723042    0.2024628  76.20  0.002019737    1.307    0.235
        20 -11.4109     87.7021    249.0602   1.3982144167e+02   1.4700399265e+01    0.3800548    0.2744565  69.39  0.002874061    1.205    0.170
        21 -11.7236     81.3642    246.7773   1.4067721350e+02   1.5888495722e+01    0.5446954    0.2564694 -78.80  0.003127196    2.697    0.629
        22 -11.0939     84.7661    241.5331   1.3968119589e+02   1.6266247439e+01    0.3394774    0.2561074  18.33  0.002282186    2.175    0.540
        23 -10.9695     89.9964    236.0184   1.3830865692e+02   1.6446998538e+01    0.3169735    0.1436547  55.19  0.001732677    1.944    0.486
        24 -10.1870     83.3431    237.8666   1.3960943111e+02   1.7044019999e+01    0.2248375    0.1206101  44.78 0.0009697656    1.532    0.347
        25 -10.2930     86.3441    236.7437   1.3900038063e+02   1.6824547527e+01    0.1779409    0.1343639  66.81 0.0004472178    1.101    0.091
        26 -11.2604     73.9259    249.5914   1.4210385269e+02   1.6407278395e+01    0.3938338    0.2696838 -79.66   0.00298825    1.548    0.354
        27 -11.6070     73.1597    237.4268   1.4129224535e+02   1.8443978841e+01    0.3936205    0.2032466  72.25  0.001985586    2.113    0.527
        28 -12.1466     73.1306    194.0317   1.3727688824e+02   2.6221287681e+01    0.4644486    0.2957965 -75.66  0.002828464    1.543    0.352
        29 -12.0053     77.9879    187.6468   1.3559054861e+02   2.6822569962e+01    0.2866804    0.2284694 -49.29 0.0008029792    1.544    0.352
        30 -15.5633      2.4455     64.8365   1.3741811662e+02   6.0858009319e+01     21.87946    0.9641927 -67.03   0.03342367   22.654    0.956
        31 -15.6563     59.3706    216.2703   1.4195531952e+02   2.3805126900e+01      3.58729      2.04528 -85.78   0.02257381    1.749    0.428
        32 -11.4369     98.6006    231.3463   1.3636588101e+02   1.6011555757e+01    0.3160556    0.2899772  45.08  0.001231359    1.301    0.231
        33 -11.7061    246.0166    232.7246   1.1063595137e+02  -7.0975530426e+00    0.2688323    0.1652689  39.58  0.001562428    1.538    0.350
        34 -10.6946    156.3795    231.7602   1.2606037026e+02   7.1297927539e+00    0.2213091    0.1600766  32.08 0.0008779116    1.275    0.216
        35 -12.3371    142.7084    228.8171   1.2815445340e+02   9.7495646453e+00    0.7254893    0.3073971 -53.84  0.003590449    2.972    0.663
        36 -11.6826    141.7171    213.1682   1.2627520501e+02   1.2374939747e+01     0.584255    0.5471319 -27.04  0.004092709    1.293    0.226
        37 -11.4409    142.0138    221.9297   1.2739694516e+02   1.0923605292e+01    0.2194408    0.1657794  55.32 0.0004296109    1.222    0.182
        38 -11.4317    142.3260    218.6863   1.2690955465e+02   1.1385511277e+01    0.3294459    0.2001808  63.14 0.0004728115    2.013    0.503
        39 -11.4973    136.2233    228.0645   1.2924015498e+02   1.0890748089e+01    0.3097669    0.2214839 -50.01  0.001695605    1.709    0.415
        40 -13.4753     45.7489    246.2366   1.4634321570e+02   2.0317956829e+01    0.5733588    0.4809707  68.72  0.005000102    1.268    0.211
        41 -14.5111     10.6380    206.8424   1.4974867798e+02   3.0704572059e+01     1.411928     1.288179  29.31  0.009749869    1.682    0.405
        42 -10.4686    108.2429    240.5898   1.3559547553e+02   1.3164701764e+01    0.2591003    0.2219496 -64.22  0.001174956    1.441    0.306
        43 -11.1777     79.5160    229.0861   1.3950414904e+02   1.9004090641e+01    0.2008172     0.126774  54.65 0.0005855324    1.272    0.214
        44  -9.2479    180.5544    229.4688   1.2140219414e+02   3.5325078727e+00    0.1211196   0.09697525  32.45 0.0001267339    1.027    0.026
        45 -11.2090    245.2823    227.4504   1.0989493008e+02  -6.4348328137e+00     0.192883    0.1843468 -39.22  0.001446382    1.750    0.428
        46 -10.1567    240.3697    228.1600   1.1082469472e+02  -5.7786204357e+00    0.1399955    0.1026631 -32.80 0.0003848879    1.713    0.416
        47 -10.4440    190.8685    228.0121   1.1934723992e+02   2.0447053602e+00     0.194926    0.1415386  35.54 0.0002658615    1.109    0.099
        48  -9.0901    184.6709    228.6380   1.2054534711e+02   2.9726963026e+00    0.1244885   0.08314607  13.50 3.064783e-05    1.799    0.444
        49 -10.7651    164.6645    226.4558   1.2384437129e+02   6.5509917840e+00     0.209141    0.1903145  80.87 0.0007629521    1.360    0.265
        50 -10.2998     92.4955    226.5730   1.3698010114e+02   1.7663013571e+01    0.3634847    0.1516459  64.03  0.001528898    3.618    0.724
        51 -10.3782    132.0388    224.7225   1.2959397411e+02   1.2073054175e+01    0.1728173    0.1340995  46.01 0.0005943928    1.071    0.067
        52 -11.2525     98.5937    223.0064   1.3552150409e+02   1.7403126539e+01    0.2881012    0.2462458  59.57 0.0003238793    1.088    0.081
        53 -11.4314     91.0753    218.8995   1.3646955359e+02   1.9177122040e+01    0.4509951    0.2618268  40.90  0.002060523    1.578    0.366
        54  -9.7620     38.9751    223.6299   1.4601427670e+02   2.4855819816e+01    0.2445334    0.1122055 -62.08  0.001355335    2.391    0.582
        55  -9.1629    220.1374    223.2302   1.1345321723e+02  -2.0849650225e+00     0.145371    0.1257126  35.13 0.0003131201    1.297    0.229
        56 -10.7632    149.9870    222.2910   1.2596776260e+02   9.5727788752e+00    0.1804902    0.1767426 -38.90 0.0002107685    1.236    0.191
        57 -10.7579    105.0761    222.8109   1.3431937656e+02   1.6495343708e+01    0.2840978    0.1892201  28.33 0.0004183512    1.867    0.464
        58 -10.7012    105.0504    218.9284   1.3389805874e+02   1.7158502025e+01    0.2070426    0.1717844  89.84 0.0003531643    1.240    0.194
        59  -9.8438    164.0749    221.4748   1.2325053413e+02   7.3751073879e+00     0.196471    0.1598775  10.97  0.001275339    1.401    0.286
        60 -10.4464    246.3872    219.0124   1.0829475343e+02  -5.6827538348e+00    0.2787642    0.1235332  15.86  0.001086024    3.910    0.744
        61 -10.5690    234.0506    217.5818   1.1012442275e+02  -3.6173869509e+00     0.295224    0.2394955  78.96   0.00144782    2.705    0.630
        62 -10.4824    177.4761    218.3684   1.2032241799e+02   5.5873709660e+00    0.2801214    0.2370295  82.77  0.001255996    1.662    0.398
        63  -9.7770    110.9170    222.1686   1.3317778426e+02   1.5737320403e+01    0.2382416    0.1848475 -58.15  0.001620359    1.518    0.341
        64  -9.1539    133.8414    217.6428   1.2836378953e+02   1.2925896165e+01      0.17937   0.09336149  49.48 0.0004397586    1.686    0.407
        65  -8.6669    123.7024    216.7133   1.3015254085e+02   1.4689904677e+01    0.1094372   0.09161075  15.00  0.000281374    1.551    0.355
        66 -10.3643    183.2916    214.1529   1.1859849009e+02   5.2086671266e+00    0.2433803    0.1810194  58.20   0.00100092    1.597    0.374
        67 -10.5037    173.4291    239.9951   1.2412109179e+02   3.2770507724e+00    0.2429186    0.1989431 -73.66  0.000925543    1.810    0.447
        68 -10.1042     88.5127    213.5192   1.3638827639e+02   2.0485939583e+01    0.1954981    0.1317053 -86.12 0.0005135598    1.576    0.366
        69 -11.2968    101.3516    212.1794   1.3383182334e+02   1.8880109202e+01    0.4136072    0.2522685  46.26  0.002468763    1.406    0.289
        70  -9.6713    152.1489    211.8764   1.2410613081e+02   1.0845658622e+01    0.1853099    0.1536731  59.40 0.0005535858    1.226    0.184
        71  -9.3877    131.1212    211.6643   1.2809438695e+02   1.4355763225e+01    0.1968442    0.1294999  55.30 0.0006182449    1.422    0.297
        72 -12.4796    134.6580    236.1725   1.3049202832e+02   9.9013022095e+00    0.4276994    0.2936764  71.05  0.002680607    1.750    0.429
        73  -9.5802    109.4796    210.4768   1.3208688516e+02   1.7963305480e+01    0.1219216    0.1010237  60.13 0.0002100643    1.028    0.027
        74  -8.8038    158.1631    241.5832   1.2699942705e+02   5.4692197965e+00    0.1616355   0.09020566  34.12 0.0004084909    1.610    0.379
        75  -9.7790    134.6921    208.4157   1.2696749528e+02   1.4322601300e+01     0.228591    0.1838083  -7.08  0.001372927    1.786    0.440
        76  -9.2008    197.7206    208.0412   1.1494362783e+02   3.6061323293e+00     0.164998    0.1439846  14.48 0.0002130871    1.087    0.080
        77 -10.2993     97.0032    207.1945   1.3409149690e+02   2.0412575460e+01    0.4201376    0.2339443 -87.60  0.001836879    2.559    0.609
        78 -10.8573     92.5064    205.0688   1.3471454918e+02   2.1452935173e+01    0.3148915    0.2564949 -46.94  0.002100065    1.581    0.368
        79 -10.3407     89.3007    204.6946   1.3529015578e+02   2.1979623900e+01    0.1910324    0.1410777  67.45 0.0007488169    1.220    0.180
        80 -10.6896    174.2186    205.8463   1.1897948299e+02   8.0055791693e+00    0.3651637    0.2481285  33.85 0.0008367123    1.309    0.236
        81 -10.7281    166.1072    204.7592   1.2035714300e+02   9.5880318308e+00    0.3691599    0.3100917 -18.62  0.001697657    1.392    0.282
        82  -9.7550    114.1678    206.7903   1.3072933420e+02   1.7894149042e+01    0.1486802    0.1391704  24.69 0.0002899705    1.294    0.227
        83 -13.2056     43.0218    237.3638   1.4623033044e+02   2.2069155075e+01    0.4249108     0.351092  29.74 0.0004228258    1.782    0.439
        84 -11.3653    246.7943    205.6482   1.0588158632e+02  -4.2191973197e+00    0.4631518    0.1820743  32.51  0.002134247    2.393    0.582
        85  -9.6555    125.8707    205.4274   1.2827342944e+02   1.6276259625e+01    0.1943205    0.1644372  86.42 0.0004722585    1.273    0.214
        86 -11.8720     41.4186    204.6693   1.4424648410e+02   2.8020340882e+01    0.3401192    0.1652628 -86.55   0.00162927    2.028    0.507
        87 -10.7105    115.8003    240.1086   1.3423834520e+02   1.2142254345e+01    0.1990665     0.151838  66.11 0.0006657247    1.229    0.186
        88  -9.6617    148.6821    205.2237   1.2379744664e+02   1.2516343685e+01    0.2298493    0.1524231  20.64  0.001199282    1.961    0.490
        89 -11.0685    108.6516    203.1499   1.3134564934e+02   1.9402089248e+01    0.2734478    0.2128411 -42.29 0.0005391808    1.648    0.393
        90  -9.5437    156.4940    204.0860   1.2210858752e+02   1.1363716531e+01    0.2158498     0.148129  58.17 0.0008048185    1.575    0.365
        91 -11.4274    133.2196    202.7433   1.2646120490e+02   1.5540417332e+01    0.2224254    0.2122634 -75.80 0.0002695522    1.176    0.150
        92 -10.3512    134.4867    197.0815   1.2538947486e+02   1.6324179432e+01    0.3517883     0.212126 -36.42  0.001647925    2.239    0.553
        93 -10.0573    103.4014    203.1477   1.3237304087e+02   2.0201720037e+01    0.2239953    0.2002005 -17.00  0.001042922    1.583    0.368
        94  -9.7649    119.0703    236.6672   1.3330402677e+02   1.2187788777e+01    0.2294693     0.153013 -88.73  0.001090509    1.970    0.492
        95  -9.4917    224.7660    202.2109   1.0905131528e+02  -2.1311692163e-01    0.1715282    0.1489989  20.83 0.0004323923    1.145    0.127
        96 -10.8746    197.2890    200.5273   1.1374032945e+02   4.7528019865e+00    0.3813393     0.278482  42.46  0.002181052    1.272    0.214
        97  -9.7364    201.4996    201.5316   1.1313425143e+02   3.8706638681e+00    0.1295325    0.1086449  24.77  3.56035e-05    1.008    0.008
        98  -9.6904    122.8890    200.8992   1.2824344868e+02   1.7560510425e+01     0.236379    0.1520669  48.67 0.0008316484    1.366    0.268
        99  -9.1789    115.3969    201.1775   1.2976360075e+02   1.8708966495e+01    0.1602068    0.1136619 -79.25 0.0007154577    1.646    0.393
       100  -9.6109    169.5351    200.1265   1.1895110189e+02   9.7231994820e+00    0.1960632    0.1523182  39.75 0.0005187357    1.118    0.105
       101 -10.5062    141.4007    198.4584   1.2421598570e+02   1.4908340025e+01      0.31228    0.2252238  11.75 0.0009327286    1.991    0.498
       102  -9.9176    250.6235    199.2170   1.0406905912e+02  -4.0602777966e+00    0.1748871    0.1010534 -15.08 0.0009582514    1.755    0.430
       103 -10.5757    100.6058    198.1920   1.3231312170e+02   2.1540476276e+01    0.2133473    0.1870775  57.99 0.0002459732    1.075    0.070
       104  -9.2259     86.2190    198.8674   1.3523512202e+02   2.3506153270e+01    0.1400764    0.1378486 -67.16 0.0002400937    1.324    0.244
       105 -10.0412     58.1874    199.1474   1.4067845033e+02   2.7127386820e+01    0.2205523    0.1552615  70.02 0.0008503275    1.216    0.177
       106 -10.4898     57.0000    194.0215   1.4042639538e+02   2.8260840194e+01    0.3232491    0.1638991 -69.22  0.001844102    1.869    0.465
       107 -10.2842     52.7129    198.1219   1.4162132040e+02   2.7977811296e+01    0.1867157    0.1525697  46.34 0.0006173391    1.332    0.249
       108  -9.4082     95.5215    196.9151   1.3316696822e+02   2.2536937411e+01    0.1689268    0.1154827 -65.36  0.000431017    1.529    0.346
       109  -9.8750    113.6749    195.9351   1.2940602445e+02   1.9943338619e+01     0.270432    0.1329618  53.12   0.00129266    2.003    0.501
       110  -9.1942    107.5890    195.7458   1.3060459855e+02   2.0933127196e+01     0.164588    0.1147223 -77.75 0.0009387118    1.611    0.379
       111 -11.5692    122.0856    232.1986   1.3227864533e+02   1.2430087572e+01    0.3026793    0.2396628  26.35  0.001782349    1.493    0.330
       112 -15.0205     27.0898    248.1926   1.4929523906e+02   2.2028908287e+01    0.9074793    0.3819468  39.01  0.005865903    2.255    0.556
       113 -10.5596    172.7734    193.5595   1.1722145980e+02   1.0201993058e+01    0.3647051    0.2536137 -29.59  0.001842558    1.683    0.406
       114 -10.5556    159.5593    194.0861   1.1991587974e+02   1.2485413420e+01    0.3439219     0.209032  54.27 0.0009555188    1.735    0.424
       115  -9.3202    120.0233    194.4938   1.2792610546e+02   1.9190600267e+01    0.3358322   0.08297438  49.30  0.001025804    4.649    0.785
       116  -8.9986     82.2524    194.3194   1.3550149808e+02   2.4930616847e+01    0.1599831   0.09622983  51.41 0.0001671044    1.484    0.326
       117  -9.5731     84.6922    192.3405   1.3478466293e+02   2.4973458346e+01    0.1242766    0.1091534  71.28 0.0004407573    1.057    0.054
       118 -12.9660     19.0882    249.7403   1.5054922766e+02   2.2598604383e+01    0.2003137    0.1581482  82.41 0.0008603036    1.290    0.225
       119 -10.6361    191.5098    191.3745   1.1321094762e+02   7.1521680790e+00    0.2548641    0.2233865  24.27 0.0005900268    1.017    0.017
       120  -9.4475    112.9757    192.2186   1.2903867694e+02   2.0749266655e+01    0.1760802    0.1483912  54.36 0.0003566979    1.057    0.054
       121 -11.9525     96.3781    239.1430   1.3749833156e+02   1.5067226656e+01    0.5051549    0.2940159 -68.29  0.003254108    1.978    0.494
       122 -10.5227    135.6543    190.1152   1.2409787969e+02   1.7377579136e+01    0.2486967    0.2237893  14.16 0.0004012483    1.280    0.219
       123  -9.0061    101.9554    191.7533   1.3121992699e+02   2.2556047085e+01    0.1542437   0.09697983  42.35 0.0003550521    1.480    0.324
       124 -16.1928      8.9722    245.7819   1.5184895642e+02   2.4209061142e+01     1.677713     1.256614 -63.85   0.01429897    1.903    0.474
       125  -8.8997    197.9729    189.9823   1.1172915986e+02   6.1914614295e+00    0.1588048    0.1329985  27.41 0.0003360021    1.037    0.036
       126 -11.2314    249.8850    187.9265   1.0206384202e+02  -2.5612073216e+00    0.3353044    0.2003237 -13.23  0.001826911    1.698    0.411
       127  -9.7884    177.3112    194.1546   1.1643852954e+02   9.2876875721e+00    0.2759714     0.162314  23.29  0.001294806    2.093    0.522
       128  -9.6463     54.9348    188.8563   1.4033408481e+02   2.9522606134e+01    0.1561725    0.1423397  69.56 0.0003887859    1.223    0.182
       129 -10.4472     44.1606    188.6479   1.4241658101e+02   3.0801252592e+01    0.2383735    0.2029311  22.15  0.001723503    1.671    0.402
       130  -9.2055    192.1073    198.1123   1.1429126142e+02   6.0244533133e+00    0.1650447    0.1482308  54.11 0.0004263579    1.304    0.233
       131  -9.7060    175.7847    186.8241   1.1545089733e+02   1.0754685833e+01    0.1710236    0.1556096  71.61 0.0003990222    1.317    0.241
       132  -9.1647    123.8446    185.8109   1.2587052678e+02   2.0182874170e+01    0.1760041    0.1371976  65.40 0.0002906676    1.300    0.231
       133  -9.6131     67.6953    186.5297   1.3755070908e+02   2.8407272813e+01    0.1855966     0.112482  35.74 0.0006159925    1.786    0.440
       134  -9.7383    143.1264    184.8304   1.2171729759e+02   1.7034713879e+01    0.1789096    0.1519707  18.98 0.0005509001    1.316    0.240
       135 -10.0492     87.5406    183.3846   1.3310463933e+02   2.6333089193e+01    0.4080202    0.1697837  42.85  0.001905525    2.203    0.546
       136 -10.2280    134.7770    180.5812   1.2275671361e+02   1.9295311683e+01    0.3085904    0.1461025  58.14  0.001197142    2.909    0.656
       137 -10.1907     38.7078    184.1827   1.4308502251e+02   3.2280819886e+01    0.2106307    0.1515409  58.99  0.001182039    1.244    0.196
       138 -10.3637    129.0990    179.1887   1.2372735965e+02   2.0548868383e+01    0.2178484    0.2071195   4.98 0.0007655899    1.211    0.174
       139  -9.8869     48.2068    179.7666   1.4079024982e+02   3.2128025501e+01    0.1671766     0.127208  70.87 0.0004935798    1.130    0.115
       140 -10.4845     37.1901    179.7842   1.4299801210e+02   3.3324784086e+01    0.1895887    0.1450959 -85.96 0.0003175065    1.108    0.097
       141  -9.9169     12.5737    178.9870   1.4770502089e+02   3.5836654781e+01    0.1549691    0.1220836  68.78 0.0004955152    1.158    0.136
       142 -10.7130     80.1998    163.9695   1.3208588104e+02   3.1378584296e+01    0.3793689    0.2447417  41.35  0.002114018    1.562    0.360
       143 -10.7343     85.1217    166.3290   1.3132311020e+02   3.0180661742e+01    0.3871153    0.2199044 -65.86  0.000636645    1.746    0.427
       144 -12.4329     87.7116    176.0193   1.3210210410e+02   2.7796833927e+01    0.4791485    0.2822311  36.83 0.0007117311    1.768    0.434
       145 -10.8855    181.5934    176.3807   1.1236633146e+02   1.1404376308e+01    0.4003063    0.2794147  51.18  0.002093975    1.481    0.325
       146 -10.8839     72.4832    175.4876   1.3528286786e+02   3.0021961773e+01    0.3284615    0.2254623  44.06  0.001866959    1.435    0.303
       147 -11.0790     74.6567    172.6671   1.3446646594e+02   3.0314799029e+01    0.2953711    0.2134029 -71.04  0.001210417    1.312    0.238
       148 -12.8044     92.2553    167.3276   1.2988411991e+02   2.8921659176e+01    0.9239615     0.542504 -44.90  0.001915738    2.033    0.508
       149  -9.3314     67.6137    174.7386   1.3622520769e+02   3.0813370765e+01    0.1632528    0.1042944 -81.32 0.0002843694    1.536    0.349
       150 -11.7215     19.5307    173.1851   1.4594016874e+02   3.6383887008e+01    0.3710454    0.1882752  69.41  0.001802792    1.888    0.470
       151 -12.0161    249.2882    171.8625   9.8989577527e+01  -3.8635804394e-01    0.3662645    0.3200812  16.65  0.002204078    1.162    0.139
       152 -10.1511     48.2940    169.8135   1.3975836214e+02   3.4169057032e+01    0.2290539     0.176168 -63.29  0.001534583    1.334    0.250
       153 -10.7641     43.7659    169.3855   1.4066669190e+02   3.4759093394e+01    0.2842897    0.2133037 -48.49  0.001863435    1.659    0.397
       154 -10.1926    100.6763    170.3162   1.2847152325e+02   2.7012087437e+01    0.2306859    0.2019435  50.78 0.0005776733    1.122    0.109
       155 -10.3772     68.9743    168.5149   1.3517077354e+02   3.1934813254e+01    0.2965342    0.1563364 -60.24  0.001559748    1.807    0.447
       156 -10.5805    107.3276    168.2693   1.2668739871e+02   2.6373136429e+01    0.2928448    0.2091759  30.61  0.001193615    1.589    0.371
       157 -12.7481    244.9844    162.7012   9.7825458735e+01   1.6123490168e+00    0.6052311      0.30554 -25.70  0.002862167    1.947    0.486
       158 -12.1486    245.6011    156.2989   9.6369629962e+01   2.3973439841e+00     1.076733    0.6155427  66.12  0.004015407    4.320    0.769
       159  -9.6977     42.4117    174.0231   1.4140989221e+02   3.3944687841e+01    0.2064848    0.1221139 -67.37 0.0004623449    1.536    0.349
       160 -10.2189    175.0919    165.9227   1.1164198622e+02   1.4458778339e+01    0.4550532    0.1929396  52.32  0.001301812    2.765    0.638
       161  -8.9995    124.4349    165.4456   1.2242576855e+02   2.4059999964e+01    0.1349865     0.124942  66.66 7.046704e-05    1.033    0.032
       162 -11.3260     35.6822    162.0846   1.4163930681e+02   3.7139316432e+01    0.4626435    0.1561147  44.42  0.002201853    2.782    0.641
       163 -11.5339     36.8582    158.2261   1.4098921220e+02   3.7838795158e+01    0.4102829    0.2420797  36.86  0.002473018    1.851    0.460
       164 -12.6432     24.3799    155.1426   1.4338985544e+02   3.9689837074e+01    0.5737446    0.2636434  40.98  0.002026655    2.200    0.545
       165 -11.7358     33.2240    153.9676   1.4134000662e+02   3.9110345836e+01     0.285543    0.2321367  61.24 0.0002967464    1.228    0.186
       166 -10.9670     12.2858    161.0694   1.4644635649e+02   3.9490156984e+01        0.159    0.1527213  81.04  0.001311177    1.364    0.267
       167  -8.9438    141.7433    160.3613   1.1766556325e+02   2.1927685652e+01    0.1379856    0.1087622 -89.77 0.0002761176    1.624    0.384
       168 -10.6161     59.2447    159.4922   1.3618234622e+02   3.5076666534e+01    0.2131903    0.1753441 -85.90 0.0002895014    1.054    0.052
       169  -8.6324    171.4653    159.4185   1.1107866911e+02   1.6338495433e+01    0.1408385    0.1316843  38.86 0.0001406278    1.059    0.055
       170  -9.7652    119.9265    159.0000   1.2229720588e+02   2.6159536171e+01    0.2013037    0.1867839  75.91 0.0003254269    1.049    0.046
       171  -9.3300     82.5001    159.4706   1.3091678956e+02   3.2011646772e+01    0.1290928      0.11447  84.17 7.371273e-07    1.017    0.016
       172 -11.0404     47.0687    158.1749   1.3873778034e+02   3.6769534912e+01    0.3445517    0.1906416 -52.72  0.001676955    1.921    0.479
       173  -9.5110     52.5089    158.0945   1.3751713043e+02   3.6173614187e+01    0.1725411    0.1506123  65.83 0.0005828725    1.148    0.129
       174  -9.2388    115.5627    157.5254   1.2302761658e+02   2.7219208149e+01    0.1343919    0.1276595  76.11 9.270122e-05    1.010    0.010
       175  -9.9001     88.9683    156.9914   1.2905559736e+02   3.1599997321e+01     0.193203    0.1785744  84.73 0.0003111329    1.033    0.032
       176 -11.3289     73.8173    156.6159   1.3248842135e+02   3.3830475348e+01    0.3656262    0.2145038  43.69  0.001366581    1.702    0.412
       177  -9.7793    134.3946    155.6785   1.1840589102e+02   2.4231779394e+01    0.2305622    0.2196233 -11.45 0.0004716379    1.149    0.130
       178  -9.2655     58.5268    167.5080   1.3731506498e+02   3.3458374343e+01    0.1218652    0.1020284  84.75 4.718032e-05    1.011    0.011
       179 -13.0687     50.8266    228.2202   1.4434511744e+02   2.2721739098e+01    0.4159733    0.3094727 -57.05  0.002108302    1.812    0.448
       180 -10.1391     62.1586    152.9568   1.3466474240e+02   3.6132887139e+01    0.3214614    0.1617278 -76.17  0.001171885    2.115    0.527
       181 -11.6048    249.2174    149.8556   9.4384344028e+01   2.6485639847e+00    0.4592889    0.2986868 -44.60  0.002364883    1.854    0.461
       182 -10.1185    113.5688    152.2646   1.2253922107e+02   2.8662529881e+01    0.2977373    0.2297893 -87.68  0.001010004    1.510    0.338
       183  -9.8004     95.2640    152.9991   1.2694588885e+02   3.1499893594e+01    0.1813125    0.1679858 -86.72 0.0003969158    1.022    0.022
       184  -9.5278    145.9559    151.9909   1.1507936721e+02   2.2774814054e+01    0.2155463    0.1715011  81.89 0.0003084111    1.603    0.376
       185 -11.0980    103.3700    151.0348   1.2470540418e+02   3.0630897193e+01    0.3166323    0.2922865 -41.66  0.001041089    1.201    0.167
       186 -10.1128    106.1369    146.2319   1.2318158035e+02   3.1205010750e+01    0.3034834    0.2374935 -27.75  0.001617006    1.620    0.383
       187  -8.7842    119.7136    151.3483   1.2094031195e+02   2.7784504235e+01    0.1417986    0.1067142  84.07 0.0003072646    1.656    0.396
       188 -12.2733     65.9327    127.3540   1.2981006304e+02   4.1343941892e+01    0.7185362    0.4466529  89.68  0.003495957    2.084    0.520
       189 -12.2666     59.5328    135.1794   1.3272001684e+02   4.0382063977e+01    0.5565517    0.3652192  81.35   0.00216171    1.771    0.435
       190 -13.5681     67.3115    143.1520   1.3203253231e+02   3.7635986888e+01    0.9313502    0.5627892 -81.94  0.004743006    1.837    0.456
       191 -12.7190     73.7180    139.4403   1.2987778540e+02   3.7612504769e+01    0.7467922    0.5283905 -89.72  0.003096446    1.553    0.356
       192 -11.5690    133.5899    142.7541   1.1599913672e+02   2.7022141791e+01    0.8451107     0.316453 -52.39   0.00298147    2.943    0.660
       193 -10.3518     23.8350    149.1574   1.4292791686e+02   4.1014851808e+01    0.1558651     0.115518 -62.54 0.0007613819    1.320    0.242
       194  -9.4160     86.0029    147.7924   1.2827129894e+02   3.4030836645e+01    0.1746201    0.1618332  78.08  0.001095799    1.049    0.047
       195 -10.4601     40.3092    147.0106   1.3895991866e+02   3.9906346859e+01    0.1769097    0.1344776 -79.27 0.0008354032    1.103    0.093
       196 -12.6554     33.7950    141.0055   1.3976627387e+02   4.1866400751e+01    0.4980909    0.3313512 -64.01  0.002461184    1.317    0.241
       197  -9.9021     22.0858    143.9243   1.4279347277e+02   4.2292990008e+01     0.183006    0.1201712 -47.28  0.001143771    1.787    0.440
       198 -11.7538    248.7628    141.1608   9.2554246483e+01   3.9729873312e+00    0.9373394    0.2846243  38.98  0.003184957    3.806    0.737
       199 -12.7935    248.4117    134.3427   9.1087815317e+01   5.0267453271e+00    0.8540403    0.5529299 -16.16   0.00435548    1.537    0.349
       200 -10.6776     51.5133    137.5582   1.3505766339e+02   4.0786445737e+01    0.2157426    0.1835979 -78.88 0.0008529578    1.009    0.009
       201 -10.1430     26.2663    139.9691   1.4141163756e+02   4.2786613046e+01    0.1687379    0.1286762 -78.07 0.0005710382    1.064    0.060
       202 -10.3333    119.1730    138.1877   1.1847441554e+02   3.0661598805e+01     0.270191    0.2436414 -12.08    0.0013627    1.283    0.221
       203 -11.1347    113.2309    136.2729   1.1952623586e+02   3.2133598083e+01    0.3810744    0.3228444  37.62  0.001554841    1.226    0.185
       204 -10.9347    117.5793    224.3322   1.3220130380e+02   1.4373879158e+01    0.2395796    0.1880123  53.59 0.0002619228    1.045    0.043
       205  -8.8731     82.3409    136.2723   1.2719317335e+02   3.7107167289e+01    0.1274835    0.1038378 -21.90 0.0006993589    1.611    0.379
       206 -10.2884    136.9848    134.0568   1.1332783069e+02   2.8161097578e+01    0.2133297    0.2107399  37.36   0.00029251    1.007    0.007
       207 -10.3178     51.8552    133.1132   1.3432664532e+02   4.1739850415e+01    0.1722854    0.1328276 -51.48 0.0005016412    1.322    0.243
       208 -12.4418     44.7532    130.4105   1.3571525530e+02   4.3116650778e+01     0.528523    0.3075724 -62.77  0.002001998    1.460    0.315
       209 -11.0226     46.8158    138.9528   1.3639611031e+02   4.0994437769e+01    0.2429564    0.1802379 -28.80 0.0009574855    1.897    0.473
       210 -10.3896     53.6837    140.2951   1.3491679775e+02   3.9931246046e+01    0.1991432    0.1425701 -79.26 0.0003795958    1.268    0.211
       211  -9.5540    107.5116    130.2661   1.1970238767e+02   3.4434014065e+01    0.2997688    0.1594824  53.80  0.001256329    2.211    0.548
       212 -10.6504    118.9940    128.0753   1.1636206543e+02   3.2857161132e+01    0.3454253    0.2210334 -17.70  0.001369353    2.746    0.636
       213 -11.4706     32.9161    126.9412   1.3821707622e+02   4.5058128071e+01    0.3242461    0.1913452  87.04  0.001770236    1.831    0.454
       214  -9.1038     93.2443    127.4285   1.2274896254e+02   3.7420761597e+01    0.1744009    0.1283849  53.45 0.0002793719    1.447    0.309
       215 -10.1030     85.9500    126.7770   1.2450457552e+02   3.8691325625e+01    0.2274142    0.1874534 -21.90 0.0003107298    1.512    0.339
       216 -10.3846     38.0819    126.4138   1.3683678823e+02   4.4685490398e+01    0.2916537    0.1284228  65.81  0.001093254    4.157    0.759
       217 -11.3581    246.8282    122.3398   8.8597835165e+01   7.0985794528e+00     0.387345     0.261027  24.62  0.001958304    1.653    0.395
       218 -10.1956    243.4456    120.2077   8.8640068686e+01   8.0909023010e+00    0.2666352    0.1894857 -41.82 0.0006476325    1.459    0.315
       219 -10.4084    249.5304    117.5200   8.7055391520e+01   7.2749814138e+00    0.2638015    0.2152656   8.08  0.000709256    1.232    0.188
       220 -11.9093    248.2566    113.0003   8.6194298754e+01   8.1960203463e+00    0.5319875    0.4332721   0.60  0.003014413    1.226    0.184
       221 -10.3237    209.8192    125.7064   9.5785639212e+01   1.4253792135e+01     0.253709    0.2218674 -24.59 0.0004528395    1.108    0.097
       222 -10.1044    159.7763    126.0242   1.0619179839e+02   2.5088893951e+01    0.2185496    0.1739135  74.42  0.001046561    1.602    0.376
       223 -11.7156     55.7862    149.1722   1.3563586985e+02   3.7728997997e+01    0.3963849    0.3305522  86.48  0.002013617    1.071    0.066
       224 -10.2735     27.7279    126.3947   1.3944924857e+02   4.5645092721e+01    0.2002829     0.106612  36.09 0.0008392747    2.108    0.526
       225  -9.5958    124.9323    125.4986   1.1431246040e+02   3.2292400525e+01    0.2116539    0.1432392  42.17 0.0003647194    1.497    0.332
       226 -11.8450     17.6654    124.4961   1.4172676134e+02   4.6890668376e+01    0.3001828    0.2034813  70.57 0.0001988811    1.518    0.341
       227  -9.5651    114.7456    122.9489   1.1628433032e+02   3.4739532003e+01    0.1974002    0.1776193 -57.19 0.0001984363    1.089    0.082
       228  -9.4982     50.3748    122.7109   1.3309763692e+02   4.4241317930e+01    0.1978445    0.1332248  78.43 0.0009582397    1.730    0.422
       229  -9.1530    129.8829    132.1502   1.1459931894e+02   2.9939889992e+01    0.1876638    0.1688791  -4.15  0.001017526    1.254    0.202
       230  -9.1748    238.5156    122.0063   8.9861464366e+01   8.8162593353e+00    0.2151779    0.1294254 -28.13 0.0007585969    1.557    0.358
       231  -9.1509    124.9833    154.2160   1.2026579192e+02   2.6249592884e+01    0.1842116    0.1092346  42.69 0.0003410963    1.638    0.390
       232  -9.6332    142.8433    119.5344   1.0854126606e+02   2.9960334984e+01    0.3840354    0.1625736 -55.26 0.0009992482    3.368    0.703
       233 -10.5892     58.5923    118.7827   1.3024721292e+02   4.4184642856e+01    0.3172609    0.1797297 -38.16  0.001522374    2.186    0.543
       234  -9.8617    130.9321    119.0662   1.1132060410e+02   3.2479513721e+01    0.1726719    0.1698947 -47.50 0.0003198199    1.014    0.014
       235  -9.6004     85.5442    117.8788   1.2281104491e+02   4.0741141467e+01    0.3206496    0.1476377  52.62  0.001251276    2.852    0.649
       236 -11.6601     32.3478    116.2425   1.3687050665e+02   4.7499426387e+01    0.3626835    0.1838538 -57.28  0.001946712    1.645    0.392
       237  -9.7085     72.7553    115.3622   1.2575838076e+02   4.3146203970e+01    0.1696238    0.1295546  17.82 0.0003830064    1.649    0.394
       238 -10.6794    168.3227    113.3782   1.0113966141e+02   2.5657189229e+01    0.3789058     0.295125  85.66  0.001340191    1.811    0.448
       239  -9.6151     82.1430    114.2041   1.2295589831e+02   4.2071848466e+01    0.1780055    0.1520592  81.47 0.0002194804    1.290    0.225
       240 -11.0639     60.4798    112.9823   1.2866863744e+02   4.5267224781e+01    0.3312816    0.2137104  89.53  0.001642128    2.031    0.508
       241 -11.1378     58.0120    109.4978   1.2869093864e+02   4.6350423283e+01    0.3235908    0.1771273  43.52  0.001621014    2.049    0.512
       242  -9.3223     22.7011    116.7063   1.3947825943e+02   4.8216440043e+01    0.1163754   0.07596143 -47.67 0.0002568712    1.567    0.362
       243  -9.0399     79.8482    108.8586   1.2243429665e+02   4.3604138899e+01    0.1771677    0.1525773 -88.49 0.0002520777    1.265    0.210
       244 -10.5363     70.1572    110.9356   1.2557846067e+02   4.4493270971e+01    0.2325088    0.1910338 -38.85  0.001363733    1.265    0.210
       245 -10.5712    134.4843    104.9619   1.0687809448e+02   3.4675750054e+01    0.3942322    0.1461164 -42.95  0.001295032    2.653    0.623
       246 -11.5142    248.1861     99.8393   8.3078999297e+01   1.0152387374e+01     0.608003    0.4363426  -0.12  0.003005139    1.612    0.380
       247  -9.4207    111.9782    104.4692   1.1257080748e+02   3.9223627892e+01    0.2178393    0.1446068  42.90  0.001022995    1.570    0.363
       248  -9.3215     76.2466     99.0228   1.2122668907e+02   4.6312235341e+01     0.183998    0.1603058 -53.57 0.0003207581    1.038    0.036
       249  -9.6103     63.5064     98.4284   1.2482532167e+02   4.8161911344e+01     0.131799     0.117382 -58.90 7.313638e-05    1.028    0.028
       250  -9.1834    136.6816     94.2786   1.0342215738e+02   3.6358710111e+01    0.1474435    0.1220771 -86.96 0.0002633494    1.576    0.366
       251  -9.2951    102.1040     88.1111   1.1092717470e+02   4.4484809167e+01    0.1865224    0.1653101 -68.83            0    1.267    0.211
       252 -12.5844    110.3039    229.8033   1.3412579820e+02   1.4571664771e+01    0.7411212    0.3896409  38.21  0.002921328    1.757    0.431
       253 -12.1395    247.8225    247.8347   1.1271500848e+02  -8.8562945844e+00    0.4041981    0.2593396  17.66  0.002826995    1.230    0.187
       254 -11.1248    220.7930    246.3118   1.1690220470e+02  -4.8010957433e+00    0.3384151    0.1564125  17.91  0.001508806    3.376    0.704
       255 -10.2299    101.1415    250.1862   1.3769811089e+02   1.2706154791e+01    0.3339993    0.1295898  42.07  0.001311801    2.055    0.513
