#   1 NUMBER                 Running object number                                     
#   2 MAG_AUTO               Kron-like elliptical aperture magnitude                    [mag]
#   3 X_IMAGE                Object position along x                                    [pixel]
#   4 Y_IMAGE                Object position along y                                    [pixel]
#   5 X_WORLD                Barycenter position along world x axis                     [deg]
#   6 Y_WORLD                Barycenter position along world y axis                     [deg]
#   7 A_WORLD                Profile RMS along major axis (world units)                 [deg]
#   8 B_WORLD                Profile RMS along minor axis (world units)                 [deg]
#   9 THETA_WORLD            Position angle (CCW/world-x)                               [deg]
#  10 FWHM_WORLD             FWHM assuming a gaussian core                              [deg]
#  11 ELONGATION             A_IMAGE/B_IMAGE                                           
#  12 ELLIPTICITY            1 - B_IMAGE/A_IMAGE                                       
         1 -14.1294      9.1188     92.2701   1.0891585652e+02   5.6339691754e+01      1.87983     1.137128 -69.22   0.00910689    1.449    0.310
         2 -14.9064      6.7764    126.9092   1.1456645374e+02   4.8164517758e+01     6.051084     1.324229 -76.92   0.01744034    5.234    0.809
         3 -13.6930     12.4067     68.6930   1.0293648431e+02   6.1459118532e+01     1.669991     1.021329 -41.70  0.009703754    1.365    0.267
         4 -12.4290      3.1967     36.7498   9.8688838647e+01   6.8482862681e+01     0.895615    0.3698413 -49.02  0.004501462    1.860    0.462
         5 -12.2563      3.1648     29.1526   9.6211221639e+01   6.9871867492e+01    0.7183126    0.3208538 -58.20  0.003770896    2.339    0.572
         6 -11.7877    108.9418     44.0567   5.8807226707e+01   5.1571164571e+01    0.7350667    0.2895099 -35.83  0.002910429    2.674    0.626
         7 -12.8468     72.9702     31.6214   6.5226685318e+01   6.0630377772e+01     1.038705    0.7817185  44.38  0.004726448    1.309    0.236
         8 -12.9219     53.8698     25.1291   6.9785660667e+01   6.4804448082e+01     1.232975    0.7872316  41.07  0.007093295    1.557    0.358
         9 -13.0675    232.2711     29.0623   3.5091865371e+01   2.5167225619e+01    0.8596833    0.5919676  50.79  0.003922934    1.903    0.475
        10 -11.2261     21.0331     16.2123   8.1256651965e+01   7.0466102756e+01    0.6492532    0.2497361 -40.23  0.003267534    2.409    0.585
        11 -11.7996     34.2780     23.1570   7.7639770854e+01   6.7898228579e+01    0.5308664    0.3869089  23.98  0.002635042    1.301    0.232
        12 -11.7251     27.1878     21.5948   8.0453686414e+01   6.8987569591e+01    0.4862331     0.293316 -40.29  0.002931024    1.659    0.397
        13 -12.9996    189.4438     17.3478   3.6677226110e+01   3.5948757161e+01    0.9208252    0.6854008  65.83  0.005653958    1.291    0.225
        14 -11.0001     40.9399     12.6543   6.9747219516e+01   6.8399530167e+01    0.4929873    0.2718906 -32.90  0.002834258    1.856    0.461
        15 -12.3892     90.8914     11.3290   5.1649738747e+01   5.9395949223e+01    0.7308159    0.4729962  23.35  0.004050029    1.685    0.407
        16 -10.8823     30.3916     13.5461   7.5182307435e+01   6.9736443291e+01    0.2404986    0.1741827  -4.13  0.001609122    1.178    0.151
        17 -12.6324    121.7614      9.9181   4.4262354511e+01   5.2637367477e+01    0.7344172    0.3242776  70.59  0.003215469    2.298    0.565
        18 -12.0890    177.8454      8.1284   3.5679472983e+01   3.9598283921e+01    0.3995694    0.3764318  63.53  0.002781203    1.247    0.198
        19 -12.9086    157.3161      3.9060   3.6974512475e+01   4.4811555703e+01     1.272886    0.3383957  71.98  0.004515381    3.511    0.715
        20 -12.4159    107.8372      3.6582   4.4837851330e+01   5.6361785537e+01    0.5427594    0.3763335  56.18  0.002646012    1.198    0.165
        21 -11.7204    118.1134      2.4942   4.2455625755e+01   5.4119151517e+01    0.7443619   0.08980211  60.00  0.002338056    4.278    0.766
        22 -11.8299    133.5669      3.1376   4.0067008892e+01   5.0475369206e+01    0.4807925    0.3064767  88.36  0.002618483    1.670    0.401
        23  -9.8792    133.4321    197.7748   9.0720194334e+01   1.4137523285e+01    0.3470657    0.2472078  -5.54  0.001601529    2.029    0.507
        24  -9.9799     61.8513    248.5756   1.1290834836e+02   1.4324399569e+01    0.2715648    0.1618854 -65.75   0.00159281    1.838    0.456
        25  -8.5721     15.7556    249.9770   1.2185025077e+02   1.9376196454e+01    0.1266814   0.07988547 -87.79 0.0005520519    1.441    0.306
        26 -11.3833     51.9037    174.4204   1.0768735488e+02   3.2109834969e+01    0.2507225    0.2462593 -44.91 0.0004378412    1.203    0.169
        27 -10.4514     64.6070    164.2719   1.0290135798e+02   3.3004691330e+01    0.2382988      0.22268 -57.38 0.0003219412    1.132    0.117
        28 -10.2556    134.7262    162.5121   8.3892427696e+01   2.1784090072e+01    0.2869619    0.2359946 -80.22 0.0007072836    1.438    0.305
        29 -12.7095     50.0210    160.5450   1.0637344249e+02   3.5791090053e+01    0.5653205    0.3158441 -38.81  0.001899485    2.340    0.573
        30 -11.4527     73.5425    157.3305   9.9329308829e+01   3.3498876476e+01    0.5154948    0.4316168 -14.22  0.002724211    1.496    0.332
        31 -13.0498     67.1524    141.2281   9.8382992176e+01   3.8467889268e+01      1.27491    0.7303855 -72.61  0.003932595    1.911    0.477
        32 -12.8035     69.4597    125.9262   9.4714823753e+01   4.1983769186e+01    0.8825979    0.6357102  39.16  0.004280336    1.457    0.313
        33 -12.5394     53.3201    113.1379   9.7305508274e+01   4.7301941402e+01    0.8688454    0.4326733 -57.42  0.003797028    1.798    0.444
        34 -13.7755     63.8878    115.0630   9.4200451578e+01   4.5450790276e+01     1.337875    0.9617137 -66.35  0.006703257    1.406    0.289
        35 -12.8421     65.4342    103.9759   9.1136768102e+01   4.7905412311e+01    0.9632512    0.7110804  47.55  0.004910547    1.521    0.342
        36 -11.7885     77.2426    142.1508   9.5559732173e+01   3.6772354104e+01    0.3426558     0.285373 -56.39 0.0005419473    1.150    0.130
        37 -10.2447    105.3018    131.3473   8.5081648324e+01   3.4730827705e+01    0.3455819    0.3033023 -28.73  0.001225029    1.222    0.181
        38 -10.1147     90.6708    128.2850   8.8689946302e+01   3.8067872155e+01    0.2613856    0.2442572 -24.06 0.0004188538    1.127    0.112
        39  -9.4214    103.0036    120.1918   8.3131339840e+01   3.7823047039e+01    0.2050594    0.1958464  37.82            0    1.069    0.064
        40 -12.3480     52.3412     98.6340   9.4429916350e+01   5.0911054757e+01     0.486976    0.3923279 -68.66  0.002675187    1.301    0.231
        41  -9.5137     89.7107    144.0453   9.2290563771e+01   3.4331755492e+01    0.2182591    0.1945881 -58.10  0.001154238    1.089    0.082
        42 -11.4089     43.5443     94.5870   9.6665026625e+01   5.2891528185e+01    0.4538552    0.3820155 -33.45  0.002497583    1.126    0.112
        43 -11.3351     52.7506     89.4167   9.2020331882e+01   5.2994174142e+01    0.2515863    0.2040256   1.48  0.001061285    1.329    0.248
        44 -10.9250     28.4821     91.4023   1.0154848559e+02   5.5126955782e+01    0.3748552    0.3173885 -79.96  0.002293269    1.290    0.225
        45 -12.0341     27.1841     83.2161   1.0025174018e+02   5.7123027509e+01    0.6008475    0.4916564  -5.91  0.002584894    1.295    0.228
        46 -12.2521     62.0560     75.8904   8.4813554357e+01   5.4689232766e+01     1.009501    0.4456249 -48.95  0.004219416    2.149    0.535
        47 -11.2360     31.5891     73.7694   9.6192370734e+01   5.8823890897e+01    0.5338462    0.3547148 -35.23  0.002292814    1.375    0.273
        48 -12.4446     69.0512    239.8582   1.1068331156e+02   1.5107256121e+01    0.9267591    0.4728054  53.11  0.003785943    1.752    0.429
        49 -12.7614     11.3168     55.3373   1.0009831988e+02   6.4342162560e+01    0.8673922    0.6232927  50.08  0.005249535    2.001    0.500
        50 -10.2750    132.4957    247.4788   9.8194518276e+01   4.5527859474e+00    0.1281677    0.1077818  37.13 5.652062e-05    1.015    0.015
        51 -11.5834    149.9089    241.7805   9.3796433688e+01   2.9185591477e+00    0.3208029    0.2162545  10.53  0.001714383    1.775    0.437
        52 -12.0412    126.1150    230.4653   9.7323116290e+01   8.6621453708e+00    0.4191397    0.1876292  45.19  0.001838827    2.079    0.519
        53 -13.8996      3.6281    190.8021   1.2091754097e+02   3.3071309346e+01     3.517845    0.7471392 -83.54   0.01030569    5.911    0.831
        54 -11.2147    137.7672    247.4999   9.7099350345e+01   3.7599195915e+00     0.251149    0.1635571  52.20  0.001384962    1.623    0.384
        55 -12.0128     21.7144     35.3514   8.8756076277e+01   6.7323541634e+01    0.6894639     0.350661  28.93  0.003347108    2.055    0.513
        56 -10.6813     72.3721     20.2523   6.0810990520e+01   6.2182215724e+01    0.3782023    0.2174924  47.28  0.002021797    1.588    0.370
        57 -13.9078     21.3907    136.5959   1.1137810039e+02   4.4704088557e+01     1.160063    0.9489378  42.02  0.004879141    1.353    0.261
        58 -11.4156     80.5106    245.4092   1.0882423056e+02   1.2468824822e+01    0.4414482    0.2503125  59.77  0.002043765    1.756    0.431
        59 -14.5054     79.2384    218.4614   1.0629019223e+02   1.8180725050e+01     2.155019     1.443924  35.25  0.008940034    1.435    0.303
        60 -13.8026     61.7118    216.3914   1.1002073820e+02   2.1014607098e+01     1.141783    0.8049498 -86.04  0.004136636    1.407    0.289
        61 -14.1924     39.6909    191.0416   1.1259756026e+02   2.9515820393e+01     1.384522    0.8203691 -82.86  0.007219569    1.604    0.377
        62 -14.1433     28.5497    194.2922   1.1552438652e+02   2.9952033551e+01     2.237083    0.7460589 -80.52  0.008518518    3.238    0.691
        63 -13.0052     10.9422    207.8579   1.2042284444e+02   2.8589191804e+01    0.4501577     0.316846 -57.50 0.0009401775    1.649    0.394
        64 -13.7386     18.2051    201.8271   1.1845339408e+02   2.9252724322e+01    0.8699883    0.5922745 -76.07  0.003062639    1.333    0.250
        65 -14.6032     46.9109    210.9006   1.1281397463e+02   2.4089168444e+01      1.96724     1.251152 -67.62  0.008509491    1.552    0.356
        66 -11.6345    140.0070    228.9804   9.4086472443e+01   6.7638178904e+00    0.3420923    0.1857224  28.43  0.001611128    1.828    0.453
        67 -10.1939     26.1145    225.5132   1.1842365910e+02   2.3244831702e+01    0.2249205     0.153078 -87.47 0.0008995831    1.319    0.242
        68 -12.2279    105.3104    212.4826   9.9555015973e+01   1.5590764432e+01    0.8676104    0.5458459  80.10  0.003926809    2.306    0.566
        69 -11.8818     74.6491    199.3755   1.0510046667e+02   2.3112443629e+01    0.8132662    0.6114464  -9.66  0.004152353    2.037    0.509
