#   1 NUMBER                 Running object number                                     
#   2 MAG_AUTO               Kron-like elliptical aperture magnitude                    [mag]
#   3 X_IMAGE                Object position along x                                    [pixel]
#   4 Y_IMAGE                Object position along y                                    [pixel]
#   5 X_WORLD                Barycenter position along world x axis                     [deg]
#   6 Y_WORLD                Barycenter position along world y axis                     [deg]
#   7 A_WORLD                Profile RMS along major axis (world units)                 [deg]
#   8 B_WORLD                Profile RMS along minor axis (world units)                 [deg]
#   9 THETA_WORLD            Position angle (CCW/world-x)                               [deg]
#  10 FWHM_WORLD             FWHM assuming a gaussian core                              [deg]
#  11 ELONGATION             A_IMAGE/B_IMAGE                                           
#  12 ELLIPTICITY            1 - B_IMAGE/A_IMAGE                                       
         1 -14.0488    205.3176     19.5444   5.6965354440e+01   3.1010987866e+01     2.478036      1.37477  23.30   0.01012968    2.638    0.621
         2 -13.6376    211.0275     13.6693   5.4666791583e+01   3.0171276785e+01      1.69848    0.8197337  24.01  0.001462556    3.756    0.734
         3 -10.2602      1.9970      2.6841   1.1684961630e+02   7.4787651466e+01    0.2787967   0.09215008 -57.68   0.00131896    2.444    0.591
         4 -10.6129    177.7735    249.8065   1.1336942481e+02   3.2625233116e+00    0.2634827   0.06416177  34.59  0.001026756    3.552    0.718
         5 -12.2696    127.0025    249.1959   1.2229105573e+02   1.0444124960e+01    0.4452623    0.2434109  26.35  0.002612471    1.965    0.491
         6 -12.1666    139.7750    249.2247   1.2002222131e+02   8.6832258339e+00    0.4455414      0.19738  40.67  0.002582633    1.643    0.391
         7 -11.1763    115.2136    249.6592   1.2442411921e+02   1.1967169540e+01    0.2150377    0.1376242  35.07 0.0009635255    1.288    0.224
         8 -12.7162    106.6267    244.1921   1.2547198192e+02   1.3870032175e+01    0.4829856     0.333909  58.87   0.00236039    1.356    0.263
         9 -14.0300     94.0352    248.9277   1.2809006352e+02   1.4810671367e+01     1.582251    0.3287726  37.91  0.006720723    3.431    0.709
        10 -11.8305     95.0183    241.5276   1.2733018664e+02   1.5765833262e+01    0.2818063    0.1687905  64.38  0.001419787    1.741    0.426
        11 -15.3714      8.8213    244.0798   1.4205787764e+02   2.4673950886e+01      6.67052     1.807024  28.02   0.02975978    5.460    0.817
        12 -12.8698     37.6829    224.4592   1.3646551055e+02   2.5113428466e+01    0.3412075    0.2787064  48.35 0.0007746249    1.246    0.197
        13  -9.9700    226.2961    201.5460   9.7615782066e+01   1.6379638805e+00    0.2192694    0.1986723 -48.67  0.001245331    1.878    0.468
        14  -8.4473     67.3046    198.6607   1.2903660373e+02   2.6402081964e+01    0.1228287   0.07082778  63.41 0.0007040265    1.676    0.403
        15 -15.9161      8.9544    208.7800   1.4087512678e+02   3.0470734248e+01     8.320629     1.290575 -79.20   0.02708194    5.713    0.825
        16 -11.5345     63.9241    192.0191   1.2915537584e+02   2.8054806546e+01    0.2968256    0.2287793 -36.04  0.001536162    1.901    0.474
        17 -11.7030     69.2620    185.1111   1.2737026618e+02   2.8743378141e+01    0.2643101    0.2244146 -38.98 0.0005333076    1.569    0.363
        18  -9.8406    192.1901    193.3637   1.0251846004e+02   8.2127287623e+00    0.2423525     0.156211 -62.16  0.001089911    3.517    0.716
        19 -15.0022     52.6771    208.0488   1.3268969235e+02   2.6375460462e+01     4.357626    0.4811259  48.33   0.01399369    5.979    0.833
        20 -10.9440     78.8467    173.4421   1.2397352503e+02   2.9845604269e+01    0.2132349    0.2027237  55.77 0.0003463039    1.143    0.125
        21 -13.2235     66.0414    170.6745   1.2660838523e+02   3.2034759464e+01    0.4394042    0.2564547 -45.48   0.00151747    2.232    0.552
        22 -12.1952     85.7227    164.9295   1.2130252097e+02   3.0659762386e+01    0.8594244    0.4588545  52.71  0.001936664    1.883    0.469
        23 -13.0159     67.7689    144.5977   1.2302851372e+02   3.7410310650e+01     1.009656    0.5746623  82.08  0.003171494    2.360    0.576
        24 -12.3223     58.4242    132.9825   1.2390944999e+02   4.1148138119e+01     1.956042    0.6551465 -79.82  0.004297188    9.979    0.900
        25  -9.8787     98.9239    149.3090   1.1574476160e+02   3.2013721924e+01    0.2468549    0.1963345 -52.62 0.0007262758    1.320    0.243
        26 -11.9699     87.5139    148.3334   1.1848850068e+02   3.3929960693e+01    0.2609927    0.2315138 -45.02 0.0005598153    1.250    0.200
        27 -10.2077     39.1421    146.9240   1.3059636324e+02   4.0053501065e+01    0.1916221    0.1405361  68.09 0.0005893453    1.259    0.205
        28  -9.2602    102.0458    145.0247   1.1422733175e+02   3.2440915377e+01    0.2207555    0.1666301 -18.86  0.001125963    1.817    0.450
        29 -10.2634     33.4236    166.2647   1.3364055779e+02   3.6462329324e+01    0.2118086   0.09390964 -70.68   0.00112701    2.051    0.512
        30 -14.4157     45.1037    215.0972   1.3458925428e+02   2.5946473701e+01    0.9682851    0.6441928  64.82  0.005074047    1.222    0.181
        31 -11.7772    150.5604    228.7930   1.1575124389e+02   9.8670827620e+00    0.3578343    0.1752937  38.76  0.001994109    1.567    0.362
        32  -9.6253    110.0074    135.4846   1.1040746109e+02   3.3184497732e+01    0.2737413     0.192714 -32.19   0.00128272    1.714    0.417
        33 -10.5193     97.4177    132.3169   1.1315453383e+02   3.5948365151e+01    0.2587875    0.2303057 -18.26 0.0009399507    1.295    0.228
        34  -9.1127    107.0914    122.6744   1.0858198790e+02   3.6477140746e+01    0.1891367     0.174792  28.62 0.0003528833    1.097    0.088
        35 -12.8986     55.0873    238.7864   1.3419812247e+02   2.0947453121e+01    0.5014377     0.190364  47.43  0.001968323    1.879    0.468
        36 -10.8696    168.0127    112.9983   9.0748997286e+01   2.6237274836e+01    0.3435351    0.2924447 -82.54 0.0008179773    1.614    0.380
        37  -9.0321    203.4905    111.5034   8.2938311272e+01   1.8686752690e+01    0.1510064    0.1332086   6.09 -7.497413e-05    1.041    0.039
        38 -11.4618     53.0624    228.3720   1.3393942878e+02   2.2842127858e+01    0.2253975    0.1340321  66.05 0.0003043815    1.462    0.316
        39 -11.2924      2.0173     80.4904   1.3431936639e+02   5.7831045009e+01    0.3971027    0.1266286 -75.03  0.001733672    2.449    0.592
        40  -9.8088      1.5095     61.9730   1.3214105876e+02   6.2095153153e+01    0.1841806    0.0927028 -71.57 0.0004028386    1.546    0.353
        41 -11.1059    249.0851    248.3041   1.0118346374e+02  -6.2838783087e+00    0.2429082     0.138144 -20.74  0.001706339    1.874    0.466
        42 -10.5313    229.1899    248.9060   1.0449038290e+02  -3.7525409687e+00    0.1590828    0.1192683  25.54 0.0006537904    1.253    0.202
        43 -10.5666    189.9345     15.3201   5.7550503821e+01   3.5395039046e+01    0.2066245    0.1811796  65.52  0.001157211    1.100    0.091
