#   1 NUMBER                 Running object number                                     
#   2 MAG_AUTO               Kron-like elliptical aperture magnitude                    [mag]
#   3 X_IMAGE                Object position along x                                    [pixel]
#   4 Y_IMAGE                Object position along y                                    [pixel]
#   5 X_WORLD                Barycenter position along world x axis                     [deg]
#   6 Y_WORLD                Barycenter position along world y axis                     [deg]
#   7 A_WORLD                Profile RMS along major axis (world units)                 [deg]
#   8 B_WORLD                Profile RMS along minor axis (world units)                 [deg]
#   9 THETA_WORLD            Position angle (CCW/world-x)                               [deg]
#  10 FWHM_WORLD             FWHM assuming a gaussian core                              [deg]
#  11 ELONGATION             A_IMAGE/B_IMAGE                                           
#  12 ELLIPTICITY            1 - B_IMAGE/A_IMAGE                                       
         1 -10.5136     59.7849     19.4899   5.8127120829e+01   6.5253011271e+01    0.3714195    0.2102069  23.60  0.001345264    2.009    0.502
         2 -11.6687     14.2679     16.2635   7.9480093515e+01   7.2656878492e+01    0.3790917     0.287224 -61.05  0.001380283    2.197    0.545
         3 -11.9605    213.7831     17.5259   2.9563855640e+01   3.0224348847e+01    0.3332683    0.1988413 -26.75 0.0009980794    1.928    0.481
         4 -10.6697     68.2843     17.2385   5.3973399297e+01   6.3831589453e+01       0.2715     0.232489 -75.64  0.001346077    1.679    0.404
         5 -11.5784    234.8543     14.8737   2.7508533630e+01   2.6238316335e+01     0.236488    0.1986896 -74.23 0.0003192042    1.136    0.120
         6 -11.6232    203.7649     16.5624   3.0154456605e+01   3.2472032455e+01    0.3179615    0.1838507 -84.95  0.001469988    1.681    0.405
         7 -11.4110     83.9901     14.3435   4.7847398076e+01   6.0784930083e+01    0.5224208    0.2813194  14.81  0.001713065    2.762    0.638
         8 -11.7352     29.9951      7.5834   6.5428038324e+01   7.1822956612e+01    0.4520045     0.280394   7.31  0.002588838    1.674    0.403
         9 -11.1382     35.0368     12.4883   6.5531424040e+01   7.0437514117e+01    0.2662581    0.2237307  39.68 0.0008812922    1.420    0.296
        10 -11.2020    175.7169     12.3923   3.1703751196e+01   3.9222683852e+01    0.2307499    0.1404594  65.83  0.001274695    1.526    0.345
        11  -9.6062     69.5177     11.9444   5.1091278885e+01   6.4135977559e+01    0.2646923    0.1601878  21.06  0.001359415    1.852    0.460
        12 -11.5286    125.0232      9.5079   3.7301845553e+01   5.1624679237e+01    0.4880221    0.2060791 -48.08 0.0001076951    2.867    0.651
        13 -10.9287     45.1341     10.1181   5.9443060994e+01   6.9039046712e+01    0.2518547    0.1849782   7.98 0.0007539293    1.272    0.214
        14 -10.9644    116.6503      8.3870   3.8315336158e+01   5.3736741779e+01    0.4157769    0.2633747 -77.88  0.002104973    1.971    0.493
        15 -10.2212     56.4775      8.3063   5.3860265058e+01   6.7125778819e+01    0.2502069    0.1853974  22.22 0.0006521167    1.218    0.179
        16 -10.2281     54.3368      4.0895   5.2481784408e+01   6.7947642795e+01    0.3029016    0.1597774 -15.25  0.001574513    2.107    0.525
        17 -10.4722     15.6251      8.3558   7.4316790959e+01   7.3680675376e+01    0.2905214    0.1633051   2.36  0.001566748    2.008    0.502
        18  -9.7384     98.0548      7.2984   4.1504526066e+01   5.8227356502e+01    0.1806159    0.1421188  56.67 0.0003632751    1.092    0.084
        19 -10.6325      2.8003      6.4430   8.1991918213e+01   7.5315016890e+01    0.2567334    0.1574803  12.72   0.00086979    1.487    0.327
        20 -10.3752    150.9097      6.1296   3.2675655653e+01   4.5677258736e+01     0.173219    0.1335876  55.58 0.0005042419    1.299    0.230
        21  -9.8948     37.9313      5.0323   5.9947710910e+01   7.0841458025e+01    0.2337309    0.1546106  16.84   0.00140275    1.405    0.288
        22 -10.7589    199.2822      4.5510   2.7742896380e+01   3.4679108308e+01    0.2480491      0.16793 -16.05  0.001255961    2.002    0.501
        23 -10.7090    104.5703      3.8833   3.8860158642e+01   5.6979203326e+01    0.2735613    0.2103867 -19.85 0.0008312136    1.495    0.331
        24  -8.4175     22.3582      9.7058   7.0949095883e+01   7.2641373397e+01    0.3244796    0.2167932  -6.90  0.002004678    1.396    0.284
        25  -9.5789     59.9651      3.4823   5.0150732671e+01   6.6888342793e+01    0.1600613     0.108815  83.12 0.0008094503    2.486    0.598
        26 -12.1556     19.5632      2.3802   6.8297837910e+01   7.3959680300e+01    0.4518143    0.1820112  32.82  0.001592627    2.277    0.561
        27  -9.8300    241.8458      2.4050   2.4645210674e+01   2.6207936232e+01    0.1410706   0.08950879  71.28 0.0007902038    1.688    0.408
        28 -10.8860    237.2791      2.0215   2.4811708768e+01   2.7118281286e+01    0.2014939    0.1339752 -87.95  0.000612982    1.345    0.256
        29 -10.7274    162.8623      2.2828   3.0299943428e+01   4.3173933303e+01    0.2124159    0.1365624 -81.73  0.001198066    1.468    0.319
        30 -10.0729    150.7977      2.3836   3.1598960011e+01   4.6025897997e+01    0.1789026   0.09783587  63.65 0.0003115917    1.594    0.373
        31 -10.3489    111.3369      1.4366   3.6733258905e+01   5.5565123786e+01    0.3254808   0.09719021  64.41  0.001284026    2.616    0.618
        32  -9.7254     80.5298      1.4110   4.3103178066e+01   6.2686712508e+01    0.1264729    0.1053484  48.14 6.193078e-05    1.018    0.018
        33  -9.3141     67.7200      1.6857   4.6762145307e+01   6.5440106127e+01    0.1294177   0.07884298  30.42 0.0002311215    1.571    0.363
        34  -9.8358     29.8011      1.3341   6.1849683062e+01   7.2569296319e+01    0.2188294    0.0990999  45.01  0.001058821    2.152    0.535
        35  -9.6819     22.0471    199.6206   1.1356548497e+02   2.8924136499e+01    0.2941086     0.132719  80.37  0.001293019    2.467    0.595
        36  -9.8507    109.9799    250.8029   9.8520389454e+01   7.4440992199e+00    0.1726624   0.08260942  32.63 0.0004931671    1.742    0.426
        37 -10.7726     27.7172    250.4313   1.1555111541e+02   1.7550795224e+01    0.2237244   0.08323564  36.38  0.001140102    2.104    0.525
        38 -12.3510     18.0995    248.7161   1.1734862847e+02   1.8858971189e+01    0.5161494    0.3043644  11.72   0.00285759    2.666    0.625
        39 -10.9449      2.0460    247.3243   1.2036888330e+02   2.0650289014e+01    0.4710927    0.2163431  73.82  0.002291022    1.948    0.487
        40 -13.2978     10.6611    244.0821   1.1858123451e+02   2.0482260646e+01     0.611346    0.5605599 -38.84  0.004706964    1.577    0.366
        41 -12.7723      6.0297    239.8812   1.1930149253e+02   2.1744265384e+01    0.6582699    0.4173096   6.23  0.003838931    2.586    0.613
        42  -9.9016      6.3572    192.1120   1.1678128809e+02   3.2081374691e+01    0.1843413   0.09619111  84.58 0.0009430695    1.761    0.432
        43  -9.5811      1.0000    191.0039   1.1797865973e+02   3.2770154657e+01    0.1943816   0.06027732 -79.65 0.0007859872    2.830    0.647
        44  -9.7436      7.0919    188.2572   1.1636455555e+02   3.2927790868e+01    0.1647884    0.1380995  65.23 0.0003274426    1.086    0.079
        45 -10.1097     14.9818    163.5323   1.1245914931e+02   3.8325623072e+01    0.1738097    0.1035854 -24.45 0.0008091325    2.506    0.601
        46 -10.7561      5.0129    153.6684   1.1438289892e+02   4.1571480918e+01    0.2184903     0.142363  52.47  0.001209646    1.538    0.350
        47 -10.4140      5.9888    144.1537   1.1326466315e+02   4.3919068419e+01    0.2258574    0.1613837 -76.49  0.000384625    1.186    0.157
        48 -10.0769    236.2686    138.3565   5.3396771146e+01   8.1263071937e+00      0.21761    0.1761117 -12.45 0.0007229184    1.260    0.206
        49  -9.6885    212.7745    133.8064   5.6167893464e+01   1.2900174727e+01    0.1809643    0.1575042 -64.33 0.0006794723    1.347    0.257
        50  -9.8863     96.1866    133.7929   8.3400574172e+01   3.5592519793e+01    0.2993605    0.2039984 -46.41 0.0006690117    1.444    0.308
        51  -9.3771     98.6974    130.6362   8.1929505427e+01   3.5923412587e+01    0.2265732     0.151783 -36.97 0.0006129791    1.614    0.380
        52 -10.9474      8.2552    133.2014   1.1147896376e+02   4.6573361241e+01    0.2072793    0.1889005  47.42 0.0006007265    1.223    0.182
        53  -9.7726     61.6506    130.8720   9.3663414848e+01   4.1785806277e+01    0.2072457    0.1803065 -68.93 0.0004861967    1.110    0.099
        54 -10.3227     12.4926    129.9186   1.0975209290e+02   4.7127746511e+01    0.2154869    0.1162364 -73.26  0.001034282    1.594    0.373
        55  -8.9663     44.6994    129.7477   9.9068361126e+01   4.4206199835e+01    0.1401899    0.1041546 -32.42 0.0001931819    1.499    0.333
        56 -11.6764     28.4853    128.0758   1.0422599890e+02   4.6308970358e+01    0.2463136     0.223039 -83.27 0.0001188224    1.061    0.058
        57  -9.4132     47.4952    126.6096   9.7572222827e+01   4.4700947887e+01    0.1418335    0.1340523 -64.91 9.877396e-05    1.025    0.025
        58 -11.7249     10.3832    121.5118   1.0942934410e+02   4.9441391785e+01    0.4323807    0.3015614  62.44  0.001930296    1.576    0.365
        59  -9.1011     75.7331    120.6676   8.6853889453e+01   4.2317767086e+01    0.1560384    0.1129848 -29.08 0.0001900234    1.583    0.368
        60 -10.9728     24.1371    122.0388   1.0480011282e+02   4.8264919032e+01    0.2315998    0.1960017  53.27 0.0002521803    1.288    0.223
        61  -9.8826     69.4687    116.5439   8.8003415843e+01   4.4329146945e+01    0.1517477    0.1412527 -38.14 -9.593325e-05    1.048    0.046
        62 -10.9787      1.9828    113.9389   1.1138979756e+02   5.1884358459e+01    0.2100253    0.1594961 -72.39            0    1.104    0.094
        63 -11.1464      3.3501    109.1390   1.1031672272e+02   5.3029602369e+01    0.4318178     0.238267  14.26    0.0018014    2.140    0.533
        64 -11.2693      1.5050    104.6211   1.1040356524e+02   5.4268909129e+01    0.3088506    0.2049485 -49.47 0.0001518313    1.346    0.257
        65 -12.3276     13.4286    109.8418   1.0676892746e+02   5.2232527769e+01    0.5017357    0.2373127 -64.25  0.001895327    1.729    0.422
        66 -10.6063     60.1105    104.9904   8.8554091839e+01   4.8594803184e+01    0.2254887    0.2117837 -34.69 0.0005176665    1.026    0.026
        67 -10.7370     38.9853    105.5064   9.6493198311e+01   5.1101184240e+01    0.1998096    0.1424048  22.26 0.0004189525    1.538    0.350
        68 -11.3932     17.7658    104.4332   1.0430734634e+02   5.3302430883e+01    0.2594609    0.1616876 -15.78 0.0009438347    1.960    0.490
        69 -10.5605    246.9692    101.6912   4.4360614886e+01   1.2238360707e+01    0.1669561    0.1490709 -45.35 0.0005636615    1.106    0.096
        70  -9.4900    186.9556    102.5059   5.3413561160e+01   2.3626052711e+01    0.2023494    0.1442162  52.08 0.0006106794    1.514    0.339
        71  -9.6604     94.4764    102.4490   7.6100041250e+01   4.3460630539e+01    0.1527272    0.1490546 -24.76 -2.492295e-05    1.010    0.010
        72  -9.9071     29.1441     99.1486   9.8954667820e+01   5.3692579118e+01    0.2055577    0.1620389 -43.83 0.0002672104    1.161    0.139
        73 -10.3658     62.6363     98.1632   8.5908041758e+01   4.9902190066e+01    0.2197885    0.1239198 -44.81  0.000399135    1.688    0.408
        74 -11.1616      8.0022     98.0112   1.0700270738e+02   5.5574919058e+01     0.255868    0.1725353 -61.82  0.001419416    1.229    0.187
        75 -11.2878     17.6478     94.7251   1.0263698646e+02   5.5757171639e+01    0.2689484    0.2032265   8.01 0.0005812776    1.498    0.332
        76 -11.8621     20.9825     92.5870   1.0088140945e+02   5.6033308184e+01    0.3421942    0.2298348 -58.60 0.0003549514    1.276    0.216
        77 -10.4023      7.1453     90.8711   1.0618132430e+02   5.7402458495e+01    0.2827573    0.1916294 -59.70 0.0003672882    1.217    0.178
        78 -11.1560    125.1984     93.2988   6.4475163497e+01   3.9094105825e+01     0.273365    0.2551175 -74.96  0.001435662    1.148    0.129
        79  -9.5751     99.5495     94.4318   7.2214355213e+01   4.4278911093e+01    0.1522397    0.1473678 -10.04 3.828711e-05    1.014    0.014
        80  -9.5776     50.3182     93.3326   8.9322599337e+01   5.2784182160e+01     0.154964    0.1024526 -27.66 0.0007048142    1.692    0.409
        81 -10.8689     66.4020     91.8666   8.2808844232e+01   5.0827390216e+01    0.2702067    0.2312451  39.80 0.0003684845    1.248    0.198
        82 -11.2988     57.8042     91.6858   8.5997626247e+01   5.2159254949e+01    0.3229037     0.227453 -13.44 0.0008441934    1.736    0.424
        83  -9.5636     29.1230     91.8551   9.7422650408e+01   5.5510747290e+01    0.1878743    0.1467967 -26.73 0.0005037626    1.292    0.226
        84 -12.1184      5.9420     76.5442   1.0406969018e+02   6.0950677862e+01    0.5769072    0.2857322  88.31   0.00188055    3.228    0.690
        85 -12.0487      6.5381     84.6811   1.0535232504e+02   5.8956223084e+01    0.6455504    0.3395464  40.80  0.002647004    2.322    0.569
        86  -9.5213    123.6460     86.7023   6.2950079560e+01   4.0771381439e+01    0.2458726    0.1872483   5.31  0.001106133    1.761    0.432
        87 -11.6198     10.5136     93.8172   1.0532676955e+02   5.6470107960e+01    0.2603064    0.2410614 -22.14  0.000327335    1.172    0.147
        88 -10.0844     17.7895     84.0636   1.0045461836e+02   5.8371338141e+01    0.2448329    0.1129544 -43.06  0.001092468    1.951    0.487
        89  -9.7757    250.4011     80.7624   3.9670731961e+01   1.4794831112e+01    0.1661675    0.1015088 -32.24 0.0004907199    1.539    0.350
        90  -9.8457     89.3284     80.7029   7.1330631606e+01   4.9252752644e+01     0.223293    0.2070314 -88.89 0.0004776478    1.268    0.211
        91  -9.9039     86.2394     78.6231   7.1706174429e+01   5.0286464241e+01     0.274306     0.198649  41.52 0.0003731486    1.394    0.283
        92 -10.0716    134.9439     78.9054   5.7769471698e+01   3.9692384636e+01    0.2216484    0.2141994  38.29 0.0003776943    1.052    0.050
        93  -9.2815    124.4139     79.2663   6.0501805991e+01   4.2041828342e+01    0.1970601    0.1422032 -50.92 0.0003425216    1.463    0.316
        94  -9.0434     42.6922     80.7370   8.9041498702e+01   5.6732665135e+01    0.1416732   0.09899088 -23.33 0.0002085974    1.529    0.346
        95 -11.4192     48.8974     78.7162   8.5880999149e+01   5.6410312478e+01    0.4662966    0.2681625   7.97 0.0009279829    2.379    0.580
        96 -11.5963     55.0169     75.0647   8.2258767992e+01   5.6375205128e+01    0.4300804    0.3047195  32.75  0.001138619    1.464    0.317
        97  -9.2677     31.3905     78.7717   9.3334719410e+01   5.8445045363e+01     0.130596    0.1002996  51.62  0.000689091    1.635    0.388
        98 -11.2286     17.3275     75.3353   9.8705138225e+01   6.0494049697e+01    0.2587099    0.1494719 -42.71  0.001319599    1.506    0.336
        99 -10.0174    176.9033     76.8145   4.8639828695e+01   3.0328488485e+01    0.2100125    0.1988546  23.53 0.0006532836    1.214    0.176
       100 -10.5997     22.1039     76.6339   9.6878956984e+01   5.9806500512e+01    0.2322808    0.1760333 -77.03 0.0005294942    1.491    0.329
       101  -8.9115    165.2863     75.6499   5.0406328587e+01   3.3193262962e+01    0.1523978    0.1075812 -67.17 0.0003796185    1.660    0.397
       102  -9.9574     69.7321     74.4033   7.6258958233e+01   5.4181812657e+01    0.3232079    0.2187651  41.96  0.001553975    1.551    0.355
       103  -9.9667     36.9968     74.9759   8.9858581009e+01   5.8727746633e+01    0.2091778     0.168961  74.13 0.0005639413    1.715    0.417
       104  -9.8179     42.2663     74.2092   8.7349784105e+01   5.8281250826e+01    0.2402296    0.1748972  16.65  0.001268942    1.448    0.309
       105  -9.2282     32.5730     73.4603   9.1381075010e+01   5.9555982837e+01    0.1386413    0.1182857 -34.57 0.0001665218    1.028    0.027
       106  -9.5129    175.4793     72.5144   4.7745854001e+01   3.1361670773e+01    0.2524514    0.1384382  73.65  0.001027964    2.371    0.578
       107  -9.9131    106.5906     72.0106   6.3110469540e+01   4.7393207920e+01    0.3731346    0.2385834  59.16  0.001632212    1.801    0.445
       108  -9.6783     92.6839     71.6188   6.7264177409e+01   5.0415127879e+01     0.210499    0.1387667  53.27 0.0007801311    1.670    0.401
       109  -9.8123     38.2436     70.8041   8.8091944831e+01   5.9528416090e+01    0.1988652    0.1430564 -28.51 0.0005018453    1.342    0.255
       110  -9.2772    158.3788     70.2790   5.0216585259e+01   3.5707066367e+01    0.1483809    0.1115732  27.18 0.0007007174    1.710    0.415
       111  -9.3939    129.3749     70.3058   5.6488697665e+01   4.2534916738e+01    0.1567672    0.1152152  20.36 0.0007030117    1.769    0.435
       112  -9.8888     44.8900     69.1700   8.4668227366e+01   5.9067307371e+01    0.3146372    0.1395183 -52.33  0.001302948    2.140    0.533
       113 -11.5984      7.5322     63.9229   1.0056387956e+02   6.3803238233e+01    0.2434718    0.1356687 -53.58 0.0008690059    1.449    0.310
       114 -11.7100      5.7137     69.9796   1.0281297711e+02   6.2511542462e+01     0.228897    0.1757429 -71.38 0.0005415374    1.299    0.230
       115 -10.8595     80.8397     67.3764   6.9826451510e+01   5.3590720001e+01    0.2555609    0.2327562 -23.04 0.0003045542    1.072    0.067
       116  -9.9133     59.0624     67.4768   7.8137262266e+01   5.7386603383e+01    0.2141584     0.183481 -28.51  0.001196766    1.091    0.084
       117 -14.0308     20.3826     58.9692   9.2901279988e+01   6.3965791617e+01    0.6406004    0.3659422 -36.39  0.001160956    1.575    0.365
       118  -9.9767     88.5626     67.2542   6.7137563878e+01   5.2092653511e+01    0.2412934    0.1892481  40.92 0.0001784135    1.258    0.205
       119 -10.1841     51.8135     65.9198   8.0626019507e+01   5.8808413835e+01    0.2525676    0.1967197 -25.04 0.0007455829    1.235    0.190
       120 -10.4390     62.6125     62.2360   7.4880004478e+01   5.7873544144e+01    0.3840376     0.316245  63.15  0.002046889    1.634    0.388
       121  -9.6675     65.9155     59.6529   7.2637002401e+01   5.7813497680e+01    0.2643788    0.1251298  39.98  0.001098889    2.115    0.527
       122  -9.9432    157.3005     60.9904   4.7769276184e+01   3.7453680253e+01     0.188739    0.1728428 -43.67 0.0001786411    1.108    0.098
       123  -9.7279     38.9427     61.5284   8.4841702967e+01   6.1461686665e+01     0.193873    0.1302035  21.60 0.0005246486    1.534    0.348
       124 -11.6178      4.2927     58.7882   1.0091142085e+02   6.5149130316e+01    0.3069485    0.2357004 -67.70   0.00190191    1.322    0.243
       125  -9.3599    131.5789     59.0580   5.2433297007e+01   4.3901136665e+01    0.2067242    0.1400706 -39.49 0.0004278292    1.506    0.336
       126 -12.8923     86.4661     54.4386   6.3258301396e+01   5.4833573301e+01    0.4396457    0.3571516   5.83 0.0003779988    1.334    0.250
       127 -10.2339     49.2589     59.0469   7.9347537939e+01   6.0590733663e+01    0.2658151    0.2028003  16.16   0.00143511    1.314    0.239
       128  -9.8520    145.4419     59.4747   4.9602597233e+01   4.0523325807e+01    0.1435831    0.1359302 -84.18 -0.0001021523    1.034    0.033
       129 -10.4589     71.8500     56.4463   6.9172237724e+01   5.7346998264e+01    0.2470401    0.1861687 -31.43 0.0005154444    1.317    0.241
       130 -10.8069     32.7609     55.8671   8.5836495523e+01   6.3379279232e+01    0.2647026    0.1788955 -27.26 0.0005745817    1.410    0.291
       131 -13.3465    114.5577     53.3354   5.4645625664e+01   4.8811997250e+01    0.3400817    0.3292476  23.73  0.000596551    1.040    0.038
       132 -11.5707    119.8089     48.4139   5.1669867724e+01   4.8327622443e+01    0.4458396    0.2998503 -45.57  0.001389321    1.598    0.374
       133 -10.2228    103.8697     56.1491   5.8516148056e+01   5.0797739785e+01    0.2071372    0.1952309  82.82 0.0005376142    1.178    0.151
       134  -9.8207    127.8221     55.0406   5.1999029678e+01   4.5425910508e+01    0.2171673    0.1893605 -74.43 0.0004901767    1.257    0.205
       135  -9.2992     51.2038     54.0504   7.6665794835e+01   6.1284652403e+01    0.1758235    0.1027234 -42.34 0.0004655133    1.647    0.393
       136 -10.6892    148.8646     51.6433   4.6584064539e+01   4.0882176863e+01     0.460782    0.2233309 -49.85  0.001872887    2.304    0.566
       137 -12.2035     66.9027     52.6856   6.9642347495e+01   5.8929594900e+01    0.4069448    0.2291833  33.47 0.0009845558    1.784    0.440
       138 -12.1837    106.1005     50.4151   5.5865095486e+01   5.1211270733e+01    0.2793813    0.2444649 -19.94  0.000253752    1.204    0.169
       139 -10.2634     75.9878     48.9984   6.4809890913e+01   5.7859362067e+01    0.3231359    0.2350772 -84.63  0.001422373    2.689    0.628
       140  -9.8015     46.4523     51.3126   7.7748680108e+01   6.2512555166e+01    0.1996135    0.1404894 -13.75 0.0005522129    1.507    0.337
       141  -8.6449     33.0618     50.8353   8.3910936273e+01   6.4367076117e+01    0.3502772    0.1310135  40.84  0.001120236    3.433    0.709
       142 -11.3387     38.4211     48.5395   8.0444302328e+01   6.4149558500e+01    0.3438188    0.2813426  18.51  0.002070037    1.213    0.175
       143 -11.0572      9.1383     47.5519   9.5241474759e+01   6.7288349375e+01    0.3417652    0.2006225  11.10  0.001891426    1.791    0.442
       144  -9.4310    154.9963     47.5129   4.4264299451e+01   3.9992607119e+01    0.2038522     0.132215  65.22 0.0004846784    1.490    0.329
       145 -10.5054    136.6968     46.4482   4.7331239714e+01   4.4564300596e+01    0.4052249     0.194008  66.45  0.001630455    2.241    0.554
       146  -9.6275    132.6694     45.7042   4.7913940683e+01   4.5641133763e+01    0.1917144    0.1361994  46.93  0.000317867    1.393    0.282
       147 -10.1951     68.8723     46.7540   6.6560154747e+01   5.9595825155e+01    0.2010491    0.1640407  17.90 0.0002806144    1.177    0.150
       148  -9.9634     53.5188     47.2302   7.3010912918e+01   6.2187415080e+01    0.3357806    0.1766282  19.41  0.001364964    2.543    0.607
       149 -10.0076     79.4872     45.2977   6.2128362645e+01   5.7763819481e+01     0.245354    0.1749677  42.83 0.0004881624    1.333    0.250
       150 -10.6155     25.3298     43.3504   8.5059650212e+01   6.6709259548e+01    0.3776919    0.3005355  75.84  0.001890091    2.226    0.551
       151 -10.8855     16.5877     43.1662   8.9698203330e+01   6.7600092298e+01    0.3925017    0.3232253 -76.11  0.001769197    1.695    0.410
       152  -9.5482     30.4927     44.0664   8.2652468675e+01   6.5991023581e+01    0.1948456    0.1163663 -44.50 0.0004904427    1.555    0.357
       153  -9.9630     57.9282     59.0276   7.5637293991e+01   5.9270502960e+01    0.2044683    0.1850367  -0.44   0.00119811    1.030    0.029
       154  -9.9530    184.1706     41.2911   3.8243122367e+01   3.3932926584e+01     0.326012    0.2078943 -70.91  0.001276978    1.689    0.408
       155  -9.9104     59.1596     41.6840   6.8348407707e+01   6.2193275728e+01    0.3739967    0.1638703  53.14  0.001337031    3.642    0.725
       156 -10.2688     36.5702     41.7277   7.8654054241e+01   6.5667808932e+01    0.2520454     0.227348  42.11  0.001141679    1.427    0.299
       157 -10.0338    170.7966     40.3895   3.9788496530e+01   3.7173043722e+01    0.2110583    0.1853086 -87.73  0.000120786    1.048    0.046
       158 -10.0181    140.2835     40.8290   4.4863568016e+01   4.4461519364e+01    0.3446472    0.2015516 -82.83  0.001396069    2.632    0.620
       159  -9.6841     90.1648     40.4973   5.6776512700e+01   5.6244053261e+01    0.2317628      0.18005  18.02  0.001237991    1.383    0.277
       160 -10.0888      4.7722     41.6024   9.5789124780e+01   6.8812357194e+01    0.1559011     0.107892  22.88 0.0007778186    1.618    0.382
       161  -9.2609    220.9975     40.0183   3.3926186509e+01   2.6049371663e+01    0.1467339    0.1202334 -61.50            0    1.010    0.010
       162 -10.0633    134.3148     39.4606   4.5565564930e+01   4.6089490392e+01    0.2733667    0.1537115  52.08  0.001263106    1.673    0.402
       163  -9.8539    133.1281     35.1679   4.4402964209e+01   4.6926385799e+01     0.312024    0.1854384   2.81 0.0009207408    3.011    0.668
       164  -9.8548     44.7346     40.0035   7.3996781170e+01   6.4821432540e+01    0.1797225    0.1529081 -10.91 0.0002204699    1.042    0.041
       165  -9.0787    204.7304     39.6712   3.5464154054e+01   2.9536037342e+01    0.1142328    0.1003075  21.01 0.0002338414    1.581    0.367
       166 -12.2049    121.1882     37.2436   4.7535929483e+01   4.9544090634e+01    0.3835818    0.3443316 -37.41 0.0007374902    1.192    0.161
       167  -9.6846    128.2527     38.4463   4.6446663706e+01   4.7688635901e+01    0.1745999    0.1297196  73.99 0.0002779914    1.374    0.272
       168 -10.7173     21.5169     37.8232   8.4959165576e+01   6.8164779609e+01    0.2140606    0.1635563  11.27 0.0006837408    1.269    0.212
       169 -10.1653     38.3313     35.0797   7.4957499158e+01   6.6594588267e+01    0.3591518    0.2273716  26.20  0.001333364    1.524    0.344
       170 -10.8579      4.2728     34.6960   9.3736636198e+01   7.0231724502e+01    0.4126119    0.2669071  38.70  0.002398469    2.067    0.516
       171 -10.5516     27.9710     33.8434   7.9776044989e+01   6.8166592118e+01    0.2620128     0.141106 -27.85  0.000762842    1.877    0.467
       172 -10.0465     49.8494     33.3385   6.8742905376e+01   6.5111467485e+01    0.2003875    0.1665104 -31.68 0.0004116659    1.273    0.215
       173 -11.2231    144.2424     31.3262   4.1206982350e+01   4.4692457695e+01      0.35164    0.2169086 -49.71 0.0007423531    1.719    0.418
       174  -9.6993    147.4788     28.9585   3.9959778702e+01   4.4184124617e+01    0.2239462    0.1668815 -41.08 0.0003986695    1.390    0.281
       175  -9.8476    187.6456     31.4161   3.5307371743e+01   3.4373176359e+01    0.2275872    0.1257175 -19.77  0.001056639    2.450    0.592
       176  -9.6244    177.9046     32.4431   3.6716547166e+01   3.6498151745e+01     0.193477    0.1204657  74.43 0.0005136937    1.539    0.350
       177 -11.0917     92.0809     31.0958   5.2510220090e+01   5.7095338678e+01    0.3425423     0.235126  56.25  0.001040769    1.393    0.282
       178  -9.4152     94.0892     27.4759   5.0513881204e+01   5.7090007387e+01    0.2003678    0.1228077  54.70 0.0005420252    1.486    0.327
       179 -10.1009     38.9201     31.0240   7.2844130631e+01   6.7178703759e+01    0.2381646    0.1848817  22.47  0.001052835    1.207    0.172
       180 -12.6176     10.7715     29.9286   8.7970727238e+01   7.0648232773e+01    0.3469209    0.2320022  31.20  0.002095121    1.740    0.425
       181 -10.1614      3.1298     26.3083   9.1259296835e+01   7.1913443172e+01    0.2264325    0.1518507   1.01  0.001009212    1.415    0.293
       182  -9.5075    227.4604     31.0523   3.1410454872e+01   2.5846173103e+01    0.1678152    0.1032388 -39.25 0.0002931766    1.467    0.318
       183  -9.6949    166.4336     31.2096   3.7858446065e+01   3.9352777264e+01    0.1861549    0.1128992 -46.17 0.0005131435    1.615    0.381
       184  -9.9625    128.1617     31.0112   4.3986899889e+01   4.8637964369e+01    0.3492042    0.1912716  77.98  0.001269451    2.202    0.546
       185 -10.1618    135.7509     29.1985   4.1988393463e+01   4.7008622773e+01    0.1894499    0.1741827 -86.38   0.00040698    1.073    0.068
       186 -10.5710     69.5935     26.6160   5.7778970117e+01   6.2442075839e+01    0.4230775     0.225092 -29.21  0.002047577    1.984    0.496
       187  -9.4897    220.1647     33.8212   3.2632329645e+01   2.6996286155e+01    0.1459837    0.1425932 -88.88 0.0003372675    1.300    0.231
       188 -10.2086     46.5322     26.6716   6.7171640701e+01   6.6662781498e+01    0.1952801    0.1508562  52.34 0.0006842123    1.684    0.406
       189  -9.4017     29.6911     27.7999   7.6124003787e+01   6.8976056228e+01      0.11995   0.08144341   3.00 0.0002555542    1.459    0.314
       190  -9.6026    114.0086     26.2684   4.5234036185e+01   5.2593120198e+01    0.1878376    0.1655703  53.05  0.000448778    1.034    0.033
       191  -9.6121    101.5121     25.9807   4.8009832093e+01   5.5565872896e+01    0.3530506    0.0887048  49.58  0.001175911    3.308    0.698
       192 -10.3124    225.0784    247.3225   7.5223189935e+01  -6.9720792956e+00    0.2018641    0.1257181 -16.78  0.001306903    1.396    0.284
       193 -10.2161     59.0388     24.7430   6.0901189336e+01   6.4730459808e+01    0.2838282     0.214553 -14.92  0.001668076    1.328    0.247
       194  -9.6457     62.9820     24.5021   5.9254764073e+01   6.4013804398e+01    0.2663009    0.1304735  28.71 0.0004496462    2.442    0.590
       195  -9.2605     52.3138     25.6864   6.4131625088e+01   6.5820555128e+01     0.115385    0.1063437 -87.64 0.0007033159    1.638    0.390
       196  -9.5142    124.6268     23.2995   4.2057868161e+01   5.0369784432e+01    0.1409297   0.09791125 -74.37 0.0007028921    1.748    0.428
       197 -10.2144     35.1910     22.4656   7.0644372013e+01   6.9044153318e+01    0.2794732    0.1759137   4.25  0.001141635    1.764    0.433
       198 -10.5253     74.3876     21.8949   5.4041597591e+01   6.2040612929e+01    0.2189994    0.1706663  57.31 0.0005693043    1.340    0.254
       199 -11.3219     14.4712     20.9313   8.1675728436e+01   7.1880342507e+01    0.3828088    0.2130442  34.96  0.001612995    2.061    0.515
       200  -9.3916    229.5791    247.5136   7.4467536317e+01  -7.5006816241e+00    0.1125384   0.08504438  -1.76 0.0001593075    1.067    0.063
       201 -11.2105      3.3693     20.5087   8.8640986033e+01   7.2946894529e+01    0.4848676     0.247488   3.47  0.002616693    2.060    0.515
       202 -10.8979     84.9914     20.9997   5.0399897149e+01   5.9865659571e+01    0.3316935    0.1845639  37.19 0.0004838573    1.772    0.436
       203 -10.0904     88.4426     18.8083   4.8520015576e+01   5.9336454962e+01    0.2055449    0.1626987  40.02 0.0003779798    1.130    0.115
       204  -9.7861     46.0245     20.9779   6.4641158084e+01   6.7544695799e+01    0.2112726    0.1365174  11.73  0.001132931    1.667    0.400
       205 -10.3391     29.9418     21.0725   7.2723185559e+01   6.9996641468e+01    0.3508776    0.1777629  27.97  0.001377651    1.900    0.474
       206  -9.4477     31.5175     17.4919   7.0038349195e+01   7.0295977466e+01    0.1951219    0.1116411 -44.73 0.0009011453    2.171    0.539
       207  -9.4584    219.2413     20.3988   2.9769676552e+01   2.8765782859e+01      0.10426   0.09234681  11.41 0.0006926084    1.675    0.403
       208  -9.5024    132.1664     20.6128   3.9819612033e+01   4.8826445614e+01    0.1934838    0.1063079  55.89 0.0005105963    1.626    0.385
       209  -9.8619    170.9580    246.8282   8.5347721083e+01  -1.9478466010e-01    0.1974303    0.1403444   4.28  0.001210562    1.335    0.251
       210 -11.1877    125.1712     17.1794   3.9876778580e+01   5.0871360046e+01    0.2188336    0.1913178  80.01 0.0002722367    1.086    0.079
       211  -9.8927     33.7815    247.3611   1.1416434699e+02   1.7502086322e+01    0.1508348    0.1005308  26.54 0.0004400841    1.601    0.375
       212 -10.8038    238.0186     16.9914   2.7730475265e+01   2.5390816733e+01    0.1790166     0.136252 -73.15            0    1.102    0.093
       213  -9.5670    116.1739    246.5714   9.6718281872e+01   7.3487227304e+00    0.1689609    0.1065993  23.09 0.0009238776    1.518    0.341
       214  -9.0846     86.6674    245.2824   1.0291443256e+02   1.1557389956e+01    0.1296329    0.0795079  54.60 0.0005175131    1.613    0.380
       215  -9.8362     52.0410    244.8373   1.1023952329e+02   1.5948072760e+01    0.1828945      0.13505   0.53  0.001079754    2.017    0.504
       216  -9.5794     39.6256    243.3109   1.1271474605e+02   1.7659377100e+01    0.1335289   0.06651262  56.52 0.0007031398    1.782    0.439
       217 -10.5821     39.8548     15.2632   6.4623142165e+01   6.9315696559e+01    0.2056815    0.1734115  12.53 0.0004570013    1.066    0.062
       218 -10.1966    118.2904    239.5445   9.5411811505e+01   8.3189113045e+00    0.2183655    0.1935201  47.94  0.001058031    1.159    0.137
       219 -10.5806    220.7963     14.3941   2.8360663311e+01   2.9106765714e+01    0.1616536   0.09656491  67.21 0.0009600027    1.731    0.422
       220 -10.9469    208.0290     13.0180   2.9005278025e+01   3.1931032390e+01    0.1833933    0.1496433 -71.24 0.0003433804    1.013    0.012
       221  -9.6746    145.6664     13.7057   3.5593149334e+01   4.6241592900e+01    0.1331372   0.08903728  43.91  0.000702624    1.640    0.390
       222  -9.3439     89.6592     13.2824   4.5901214696e+01   5.9618534677e+01    0.1253541   0.09927233 -79.77 0.0004067997    1.631    0.387
       223  -9.9410    155.7171     15.9561   3.4940036937e+01   4.3597264580e+01    0.1741394     0.156125 -66.13 0.0003672095    1.111    0.100
       224  -9.1412     60.9502    241.0000   1.0804907528e+02   1.5641378484e+01    0.1956167   0.06071959  31.43 0.0004836371    2.824    0.646
       225 -10.2981    192.9916     11.5067   2.9877764134e+01   3.5375538810e+01    0.1695486   0.08162713  52.15 0.0008096565    2.464    0.594
       226 -10.2989     35.5983    240.1047   1.1333937723e+02   1.8738636286e+01    0.2070345    0.1297651  47.64 0.0005688483    1.297    0.229
       227 -12.1522      4.0654    232.7546   1.1938208128e+02   2.3358913854e+01    0.3126091    0.2339947  62.03  0.002220077    1.038    0.036
       228  -8.9785     77.5581     11.5564   4.8443617501e+01   6.2465479034e+01    0.1271353    0.1124527  42.23 0.0001720495    1.060    0.056
       229 -11.8955     24.1830    236.0502   1.1545631087e+02   2.0759197299e+01    0.3823981    0.1674424  25.40  0.001641544    2.489    0.598
       230  -9.5570     49.4848    235.5055   1.1007195234e+02   1.8109163994e+01    0.1217159    0.1034345  55.76 -3.282691e-05    1.039    0.038
       231  -9.1849    204.2505    235.3404   7.7120798186e+01  -2.8288878706e+00    0.1224755   0.07734533  -8.42 0.0002867189    1.571    0.363
       232  -9.5239    249.4887    233.5052   6.8886652981e+01  -7.8875771170e+00    0.1143687    0.0821702  -7.50 0.0003227764    1.005    0.005
       233 -12.3521      3.0868    225.5798   1.1926232599e+02   2.4929800140e+01    0.5337642    0.2003125  57.40  0.002651465    2.249    0.555
       234  -9.2585    243.0142    230.1986   6.9411306355e+01  -6.7530900721e+00    0.1398712   0.07782974  25.24 0.0005339669    1.720    0.419
       235  -9.3440     47.8346    229.8322   1.0998616594e+02   1.9471824613e+01    0.1702165    0.1166805  57.01  0.001014913    1.272    0.214
       236  -9.7949    209.5217    229.5197   7.5194886346e+01  -2.6513161500e+00    0.1230228    0.0971204  -0.58 0.0001181051    1.011    0.011
       237 -10.8983    140.0907    227.8911   8.9073117024e+01   7.3136080235e+00    0.2950844    0.2012782 -66.94  0.001547843    2.095    0.523
       238  -9.8886    223.1633    226.8247   7.2269312001e+01  -3.9700654391e+00    0.1667692    0.1127781  -5.52 0.0003772341    1.290    0.225
       239  -9.2658     14.3097    192.6972   1.1492178297e+02   3.1261933714e+01    0.1344446   0.07702647  61.77 0.0007016295    1.607    0.378
       240 -10.2392     26.6306    223.8717   1.1419314502e+02   2.3051932805e+01    0.1687754   0.09737249  82.61  0.000767033    1.686    0.407
       241  -9.4732    167.4763    221.4769   8.2202458570e+01   4.4246696803e+00     0.131366    0.1131367  10.68 0.0001578151    1.025    0.024
       242  -8.9044    114.3163    221.3564   9.3939254784e+01   1.2366930995e+01    0.1363723    0.1006133 -12.16 0.0007045022    1.748    0.428
       243 -11.3821      8.2510    218.5114   1.1784061845e+02   2.5974203987e+01    0.3120314    0.1610245 -59.53   0.00170072    2.169    0.539
       244  -9.1137     85.5630    215.4217   9.9899331195e+01   1.7734695849e+01    0.1317071    0.1197858  43.51 2.643072e-05    1.035    0.033
       245  -9.8027     15.9422    213.0419   1.1586047445e+02   2.6462306292e+01    0.1747126    0.1411279 -41.89 0.0009726426    1.653    0.395
       246  -9.5933    205.4828    212.1366   7.3011877145e+01   5.3836186001e-01    0.1829748    0.1127579 -34.42 0.0008703793    1.531    0.347
       247  -9.8176     20.2306    209.7242   1.1468857030e+02   2.6792542918e+01    0.2039774    0.1199693  52.82 0.0008657331    1.476    0.322
       248  -9.9036    193.7671    202.2548   7.3525744629e+01   3.8459328440e+00    0.1864891    0.1697807  -0.51 0.0009777765    1.157    0.136
       249 -11.0724      4.0048    201.4953   1.1786876723e+02   3.0112689419e+01    0.1911285    0.1409341  87.60 0.0006586486    1.162    0.139
