#   1 NUMBER                 Running object number                                     
#   2 MAG_AUTO               Kron-like elliptical aperture magnitude                    [mag]
#   3 X_IMAGE                Object position along x                                    [pixel]
#   4 Y_IMAGE                Object position along y                                    [pixel]
#   5 X_WORLD                Barycenter position along world x axis                     [deg]
#   6 Y_WORLD                Barycenter position along world y axis                     [deg]
#   7 A_WORLD                Profile RMS along major axis (world units)                 [deg]
#   8 B_WORLD                Profile RMS along minor axis (world units)                 [deg]
#   9 THETA_WORLD            Position angle (CCW/world-x)                               [deg]
#  10 FWHM_WORLD             FWHM assuming a gaussian core                              [deg]
#  11 ELONGATION             A_IMAGE/B_IMAGE                                           
#  12 ELLIPTICITY            1 - B_IMAGE/A_IMAGE                                       
         1 -12.1587    172.5067     41.9436   7.0688396442e+01   3.6847302910e+01      1.17639    0.9336885  13.88  0.005530518    1.737    0.424
         2 -11.9657    189.9393     10.4090   6.0350453038e+01   3.6306851125e+01     0.862928    0.8040378 -75.51  0.005636642    1.211    0.174
         3  -9.0216    120.1524      8.9537   7.0606452364e+01   5.2854961976e+01    0.3016773    0.2211619  52.77  0.001138652    1.116    0.104
         4  -9.0877      8.1918      9.5888   1.0911118126e+02   7.0998335263e+01    0.1449267   0.07977525   5.73 0.0009189789    1.678    0.404
         5 -11.9813    245.2203    238.8068   1.0140771263e+02  -1.2828071488e+01     0.239503     0.207526  -5.75 0.0004361444    1.191    0.161
         6  -9.6069    138.6655    248.2870   1.2400376250e+02   3.0283372198e+00    0.4791319    0.3707446 -85.89  0.002796421    1.622    0.383
         7  -9.2540    133.6444    249.3037   1.2516119216e+02   3.7007121373e+00    0.2858154    0.2446988 -66.96  0.001232117    1.360    0.265
         8 -18.3015     53.3955    233.3898   1.3945082214e+02   1.9342360874e+01     4.308189     3.663392  86.56   0.01648859    1.172    0.147
         9  -8.2670    125.7490    186.8826   1.1722672167e+02   1.8051848093e+01    0.2701914    0.2006487 -81.22  0.000836371    1.590    0.371
        10  -8.6363    167.7537    229.4655   1.1512082572e+02   1.3251645923e+00    0.2262048    0.1846033 -45.43 0.0005345829    1.385    0.278
        11 -10.2883    184.2028    214.1849   1.0899534162e+02   1.1435278074e+00     0.644284    0.3214479 -49.95  0.002756991    2.321    0.569
        12  -7.5057    154.3265    214.2851   1.1547120769e+02   6.6957854861e+00    0.1410174    0.1107306   7.45 0.0002850811    1.606    0.377
        13  -9.9503    175.9948    212.7595   1.1048639002e+02   2.9331448688e+00    0.5421215    0.2203233  34.32  0.001998528    2.598    0.615
        14  -8.3000    222.6671    179.5427   9.4342850077e+01   4.5092358059e-01    0.2315113    0.1684331 -57.48 0.0007564995    1.705    0.414
        15  -8.8687    163.0188    178.8449   1.0686160035e+02   1.2437119288e+01    0.3862756    0.2819488  84.03  0.001671131    2.007    0.502
        16  -9.6956    204.3513    177.3042   9.7520016316e+01   4.3717503035e+00    0.3834549    0.3496022 -65.79  0.001672761    1.270    0.213
        17  -7.9794    135.8188    175.7482   1.1268615507e+02   1.8662287079e+01    0.2109491    0.1743829  77.05 0.0004143146    1.342    0.255
        18  -9.3608    196.8654    208.1288   1.0521915720e+02  -6.4539586826e-02    0.2060702    0.1974474  63.67  0.001225421    1.242    0.195
        19  -9.1159      7.4619    173.4595   1.4349296436e+02   3.7737806087e+01    0.2813755    0.2049425 -26.87  0.001750535    2.093    0.522
        20 -10.4030    120.7655    203.1760   1.2118926205e+02   1.5290557693e+01    0.6895499    0.3405876  52.26  0.001276572    2.083    0.520
        21  -7.9936    119.5721    170.4304   1.1566276392e+02   2.3086774593e+01    0.2596084    0.1760505 -87.21  0.001078401    2.031    0.508
        22  -8.0413    121.1698    198.2387   1.2028390500e+02   1.6320757668e+01    0.1957031    0.1605449  77.60 0.0004865016    1.274    0.215
        23 -10.0207     24.4058    166.5790   1.3892937402e+02   3.7826217779e+01    0.3864627    0.2847795 -67.74  0.001443491    1.183    0.155
        24 -11.3749     24.2618    157.2562   1.3787893575e+02   4.0046571494e+01    0.6001936    0.4217371  69.31  0.001748702    1.463    0.317
        25  -8.9146    190.2601    161.8013   9.7145432386e+01   1.0380121689e+01    0.3822997    0.2752625 -74.14  0.001655682    1.995    0.499
        26  -8.5101    119.7998    164.2045   1.1437524675e+02   2.4530134996e+01    0.2792014    0.2189499  81.36 0.0005218142    1.480    0.325
        27  -9.0257    114.4436    249.9850   1.2912078648e+02   6.7907435198e+00    0.3301999    0.1534657  41.87  0.001566112    1.813    0.448
        28  -9.0332    249.9192    160.7668   8.5521672011e+01  -1.0639025683e+00    0.2296824    0.1914753 -38.82 0.0002916272    1.103    0.093
        29  -9.3353    135.4023    159.0127   1.0934590776e+02   2.2651437121e+01    0.5778417    0.3521692  77.85  0.001935243    3.191    0.687
        30  -8.6091     89.4050    160.1147   1.2147752439e+02   3.0986382761e+01    0.3061405    0.1993136  46.10 0.0006608003    1.560    0.359
        31  -9.0918    193.5304    166.3314   9.7437993707e+01   8.7595010702e+00    0.2993596    0.2853864   6.45 0.0006180943    1.045    0.043
        32  -9.1601    145.3251    156.7891   1.0639644774e+02   2.1100732830e+01    0.5892282    0.3438542  78.22  0.001680969    4.422    0.774
        33  -9.0026    189.7183    156.0033   9.5974745070e+01   1.1705670546e+01    0.3870848    0.3252453  64.50  0.001934722    1.326    0.246
        34  -7.9570    120.9065    157.1353   1.1263972857e+02   2.6008822757e+01    0.2319163     0.199047  70.02 0.0002957042    1.218    0.179
        35  -9.5281     56.2563    156.7894   1.2964693737e+02   3.6652221317e+01    0.2316124    0.1949161  35.59 0.0006345093    1.345    0.256
        36  -8.4550    172.0430    154.5452   9.9553261499e+01   1.5844094392e+01    0.2301193    0.2051121 -43.43 0.0002017574    1.127    0.112
        37 -10.1655     15.2379    151.8279   1.3946908172e+02   4.2116753840e+01    0.3799381    0.2436043 -30.39  0.001824523    2.174    0.540
        38 -10.0553    134.6055    148.6599   1.0727327785e+02   2.5248323294e+01     0.952368    0.4168925 -56.80   0.00318677    2.672    0.626
        39  -8.8142    250.3485    156.0211   8.4468061605e+01  -2.9980820964e-01    0.1995685    0.1588827 -25.68  0.001134464    1.185    0.156
        40  -8.0294    160.5088    201.4412   1.1182017942e+02   8.1340657095e+00    0.2636757    0.1998688   5.04 0.0007487127    1.745    0.427
        41  -8.4594    250.5631    150.9874   8.3386393906e+01   5.5652735678e-01      0.20045    0.1199978 -39.40 9.583034e-05    1.475    0.322
        42 -10.1194    218.7453    149.3263   8.8634125576e+01   6.9656791896e+00    0.2639696      0.24848  70.74 0.0004437584    1.174    0.148
        43  -8.9417    144.9270    148.0634   1.0453827996e+02   2.3200560258e+01    0.4560749    0.2309087 -59.74  0.001586004    2.511    0.602
        44 -11.0194     30.7021    142.9518   1.3434194369e+02   4.2850958254e+01      0.54588    0.3473035 -12.68  0.002743265    2.513    0.602
        45  -8.4671    173.9819    200.9939   1.0875144922e+02   5.6150740838e+00     0.357462    0.2334872 -63.18  0.001142817    2.052    0.513
        46  -8.3023    171.5243    194.7904   1.0810796133e+02   7.3510036797e+00    0.3202741    0.2380288 -69.86  0.001114178    1.765    0.433
        47 -10.1110    104.2702    137.6941   1.1287783177e+02   3.3861899848e+01    0.4944883    0.3322244  69.60 0.0007414428    2.039    0.510
        48  -9.5298     88.6799    140.1571   1.1775701959e+02   3.5996829598e+01    0.2809759    0.2266121  28.22 0.0009337424    1.381    0.276
        49  -7.5224    157.2743    139.6817   9.9563170641e+01   2.2401888576e+01    0.1588206    0.1260688 -85.25 0.0003742541    1.568    0.362
        50  -8.2887    121.2545    133.4440   1.0725388396e+02   3.1578949098e+01     0.222081    0.1471249  54.11 0.0009429014    1.636    0.389
        51  -9.6525    192.2259    193.9418   1.0344832916e+02   3.4827954171e+00     0.759378    0.3225676 -56.87  0.002346336    4.252    0.765
        52  -8.9659    237.6950    131.1185   8.1275368111e+01   6.6015770550e+00    0.2352062    0.2102152 -68.72 0.0003868919    1.172    0.147
        53  -7.6280    166.0428    131.9829   9.5642153567e+01   2.2123246726e+01    0.1915455    0.1758952 -49.36 0.0003799748    1.086    0.079
        54 -10.8649      2.6644    129.4137   1.4003348256e+02   4.8225440616e+01    0.4928552    0.2203319 -83.76  0.002343301    2.314    0.568
        55 -11.3824     30.1361    127.4320   1.3213632325e+02   4.6592092456e+01    0.6503054    0.3848658  44.71  0.003465534    1.967    0.492
        56  -8.3637    119.1579    129.1851   1.0680066495e+02   3.2999579778e+01    0.2433574    0.2144539 -11.14 0.0009711039    1.309    0.236
        57  -9.4989    135.1004    195.1984   1.1650404937e+02   1.4387493611e+01    0.4585377    0.2895077 -74.61  0.001715599    2.181    0.542
        58  -7.4639    170.4944    127.4616   9.3517646866e+01   2.2078123245e+01    0.1569791    0.1543161 -88.07 2.078036e-05    1.004    0.004
        59  -7.8295    160.0011    127.3087   9.5909286240e+01   2.4522838908e+01    0.2266922    0.2092978  54.72  0.001141228    1.079    0.073
        60  -8.7262    107.4245    125.1368   1.0907230531e+02   3.6250608284e+01    0.2722388    0.2281059 -11.13 0.0006798279    1.430    0.301
        61  -8.6314    185.8976    228.3353   1.1114060017e+02  -1.7043710046e+00    0.3156568    0.1624933 -46.02  0.001451891    2.190    0.543
        62  -9.0900     62.9686    120.0157   1.2099131535e+02   4.4690307957e+01    0.2104322    0.1936745 -50.92 0.0004438655    1.022    0.022
        63  -8.5745     25.0481    120.1000   1.3241667434e+02   4.8752892602e+01    0.1963065    0.1448952 -44.94 0.0005343197    1.278    0.217
        64  -7.7924    113.4518    118.9320   1.0584227974e+02   3.6510222227e+01    0.2299835    0.1494085 -47.83 0.0004408626    1.514    0.339
        65 -10.5071     71.3649    115.9636   1.1753179700e+02   4.4475058016e+01    0.5617473     0.312553 -69.67  0.002306968    2.339    0.572
        66  -9.3722    156.0605    191.6026   1.1098367027e+02   1.1080822531e+01    0.5379515    0.3030498 -69.53  0.001935467    3.024    0.669
        67 -10.0390     25.0197    128.1767   1.3371224929e+02   4.6868479075e+01    0.3219899    0.2880699  46.27  0.001001197    1.309    0.236
        68  -9.8171      9.2274    115.9403   1.3639550716e+02   5.0881550013e+01     0.181221    0.1715338 -55.68 0.0006630609    1.194    0.163
        69  -8.3443    169.0146    114.7146   9.0667237337e+01   2.5111721644e+01    0.2252952    0.2008552  58.75 0.0004487863    1.118    0.105
        70  -9.9226      5.2700    112.7742   1.3708378699e+02   5.1843962872e+01    0.4493488    0.2083845  -2.03  0.002123029    3.471    0.712
        71  -9.8784     59.7286    110.2748   1.1984778695e+02   4.7383101983e+01    0.3323057    0.2279124 -17.90  0.001311089    1.857    0.461
        72  -9.0450     90.2974    109.9121   1.1029304344e+02   4.2866217510e+01    0.2548138    0.1908108  16.06 0.0006570746    1.589    0.370
        73  -9.4736     64.9579    105.8012   1.1714827108e+02   4.7709855335e+01    0.3309332    0.2153077  -5.21  0.001501821    2.246    0.555
        74  -8.6642     81.0628     92.5071   1.0854711846e+02   4.8215193295e+01    0.2140796    0.1393571  35.60 0.0009629241    1.596    0.373
        75  -8.5118      2.7102     91.8543   1.3454764718e+02   5.6591872689e+01    0.1923621    0.1382919 -27.05  0.001157911    1.446    0.308
        76  -8.3345      8.1927     90.1940   1.3244726715e+02   5.6642228460e+01    0.1841327    0.1265188 -43.96 0.0007279305    1.216    0.178
        77  -7.9088    140.3420     86.0519   8.9720056431e+01   3.7581547698e+01    0.2029453    0.1934928 -41.99 0.0002452364    1.083    0.076
        78  -7.4758     51.5303     86.4864   1.1675779147e+02   5.3638222942e+01    0.1321892    0.1160564 -34.95  0.000152498    1.026    0.025
        79  -8.6214    177.8391     85.1784   8.1156243880e+01   2.8740532198e+01    0.2175819    0.1928079 -82.26 0.0002576006    1.139    0.122
        80  -9.8170    233.6455     75.8767   6.9745664627e+01   1.7220374343e+01    0.2650361     0.241596 -64.13 0.0006809744    1.107    0.096
        81  -8.4299      2.7089     76.5595   1.3168559020e+02   5.9802445323e+01    0.1290646    0.1081151  24.39  0.000686084    1.508    0.337
        82  -8.1894    237.9044     71.8678   6.8316686275e+01   1.6937347912e+01    0.1879345     0.179977 -83.16 0.0003884337    1.208    0.172
        83  -8.4805    119.9910     68.9909   8.9918884387e+01   4.5243865688e+01    0.2048245    0.1964579  53.60            0    1.092    0.084
        84 -11.3940    159.1013     57.2062   7.7307283323e+01   3.7979992099e+01     0.582706    0.4183871  59.62   0.00165169    1.285    0.222
        85  -7.5770    176.5079     58.5794   7.4407732621e+01   3.3495818293e+01    0.1444257      0.13094  67.05 0.0001545567    1.059    0.056
        86  -8.7660    113.9950    187.1650   1.2010665065e+02   2.0175258990e+01    0.4185893    0.2360162  62.66  0.001656683    2.276    0.561
        87 -10.0781    176.8127     34.7350   6.8110688417e+01   3.6719880703e+01    0.3618857     0.289379  34.19 0.0009438723    1.531    0.347
        88  -9.3257    149.6555     49.0053   7.6871851551e+01   4.1465971577e+01    0.3361083    0.2341916  17.61  0.001161012    2.024    0.506
        89 -10.1454    131.9729     46.5291   7.9962749193e+01   4.5996218270e+01    0.2279788    0.2191537  -4.53 0.0001161345    1.127    0.112
        90  -8.2059    142.9076     42.9042   7.6469479084e+01   4.3913078443e+01    0.2186159    0.1623405 -77.89 0.0006481578    1.723    0.420
        91  -9.1462    227.2891     27.5631   6.0116703017e+01   2.5670948560e+01    0.3071471    0.1953375 -39.52 0.0009682016    1.658    0.397
        92  -8.1198      8.2066     24.6217   1.1505446165e+02   6.8872699807e+01    0.1464595   0.08431004   0.64  0.000948499    1.664    0.399
        93  -8.0640    200.1469     20.8381   6.1590620468e+01   3.2756488869e+01    0.1681572    0.1375777  59.41 0.0002419151    1.303    0.233
        94  -7.4566    151.0000    247.9793   1.2144536445e+02   9.6779159686e-01    0.1895837   0.07697958 -50.86 0.0007995049    2.922    0.658
        95  -7.2391    172.2683     12.3487   6.3011377053e+01   4.0327600733e+01    0.1252324   0.08968351  40.84 0.0002970888    1.619    0.382
        96  -7.6174    167.6720    246.3404   1.1780375128e+02  -1.6163399720e+00    0.1315203   0.09763483  65.87 0.0003569672    1.736    0.424
