#   1 NUMBER                 Running object number                                     
#   2 MAG_AUTO               Kron-like elliptical aperture magnitude                    [mag]
#   3 X_IMAGE                Object position along x                                    [pixel]
#   4 Y_IMAGE                Object position along y                                    [pixel]
#   5 X_WORLD                Barycenter position along world x axis                     [deg]
#   6 Y_WORLD                Barycenter position along world y axis                     [deg]
#   7 A_WORLD                Profile RMS along major axis (world units)                 [deg]
#   8 B_WORLD                Profile RMS along minor axis (world units)                 [deg]
#   9 THETA_WORLD            Position angle (CCW/world-x)                               [deg]
#  10 FWHM_WORLD             FWHM assuming a gaussian core                              [deg]
#  11 ELONGATION             A_IMAGE/B_IMAGE                                           
#  12 ELLIPTICITY            1 - B_IMAGE/A_IMAGE                                       
         1 -11.6035    202.4335     23.9462   1.9378175042e+01   3.1626486221e+01     1.156969    0.6278498 -32.01  0.002116687    1.887    0.470
         2 -13.5995    234.0979     61.3065   2.5057524088e+01   1.8552135520e+01     1.742323     1.293093 -39.59  0.005402457    1.266    0.210
         3 -14.3580    220.5677     27.3993   1.8085572033e+01   2.6567145784e+01     14.81315     6.550348 -22.95   0.05808211    2.779    0.640
         4 -13.6629    178.3940     87.0417   4.1637910004e+01   2.8201458008e+01     3.558916     1.387192 -37.72  0.007335304    2.551    0.608
         5 -11.6944    198.0679     55.2136   2.8813986021e+01   2.8512551628e+01     1.026439    0.6853687 -18.88   0.00227143    1.791    0.442
         6 -10.8132    204.7465     41.5968   2.3953775506e+01   2.8750080122e+01     0.502054    0.2721883 -25.94  0.001650599    2.046    0.511
         7 -14.3639    237.6172     31.1915   1.7141436104e+01   2.1897606186e+01     2.991456     1.871777 -22.97  0.005956233    1.851    0.460
         8 -14.8332    232.8167     99.4728   3.4828996529e+01   1.2769239286e+01     6.703133     1.630533 -43.27   0.01654417    4.225    0.763
         9 -11.8027    132.8800     37.9290   3.6336976434e+01   4.7815383285e+01     1.120495    0.4099792 -37.37  0.003751741    2.784    0.641
        10 -10.3012    133.2999     25.4219   3.1721313716e+01   4.9357706498e+01    0.5743457    0.2120959 -27.28  0.002111301    2.856    0.650
        11 -13.7726    199.3653     90.9416   3.8510400021e+01   2.2236681324e+01     3.054087     2.215913  20.96   0.01343655    1.801    0.445
        12 -10.6867    134.6007     14.8060   2.7559076076e+01   5.0237848270e+01    0.5777256    0.2707424 -13.26  0.002301041    2.738    0.635
        13  -8.9130    155.0905     14.4604   2.3553172719e+01   4.5087098128e+01    0.2610919     0.190008  17.38 0.0008858371    1.630    0.386
        14  -9.2574    189.7700     14.0099   1.8212613680e+01   3.6060829569e+01    0.5001694    0.2422409 -60.11  0.001374528    2.659    0.624
        15 -14.5951    243.9814     76.5903   2.7501217213e+01   1.3912308667e+01      3.96977     1.035311  46.26   0.00462582    5.456    0.817
        16 -10.1141    120.2101      9.3316   2.8609319120e+01   5.4262309889e+01    0.3263125    0.2908922 -18.75  0.001044305    1.222    0.182
        17  -9.6095    182.7232      3.7163   1.6123861635e+01   3.8941325577e+01    0.3326394     0.266784 -80.35  0.001742125    1.224    0.183
        18  -8.5709    249.7426      2.7093   9.4205738706e+00   2.2408559993e+01    0.2121395    0.1378366  75.62 0.0007143346    1.456    0.313
        19  -8.4587    172.0340      2.8049   1.7228278612e+01   4.1812257375e+01    0.2223488    0.1713459 -74.82  0.001211128    1.362    0.266
        20  -8.0306     42.3124      7.3271   5.3463374092e+01   6.9067136072e+01    0.1240435   0.07574569  -3.71 0.0003752909    1.666    0.400
        21  -8.5050    248.7025    202.3750   5.4571921259e+01  -6.2273401339e+00    0.1700089    0.1614208  82.91  0.001128789    1.729    0.422
        22  -9.7961    194.8254    198.6426   6.3894756415e+01   3.8157277429e+00    0.4712077    0.2579599 -46.48  0.002244001    2.196    0.545
        23  -9.5497    191.3651    192.0287   6.3382451122e+01   5.5477246516e+00     0.528879    0.2791036 -60.45  0.001953353    3.854    0.741
        24 -10.3468    221.1588    188.9823   5.7012844545e+01   4.1169186210e-01    0.5578972    0.3397394 -43.57  0.002813397    1.939    0.484
        25  -7.6119      1.1985    190.9946   1.0226151145e+02   3.4532816661e+01    0.1288358   0.06380552 -84.11            0    1.563    0.360
        26  -9.7187    210.8442    188.8199   5.8946865095e+01   2.3574866205e+00    0.2356915    0.2029354 -18.48  0.001073602    1.206    0.171
        27  -9.8570    213.8973    187.2753   5.8062312659e+01   2.0242775890e+00    0.3436798     0.255624  78.40  0.001645028    2.485    0.598
        28  -8.9852    173.6886    188.4350   6.6333936267e+01   9.5888907891e+00      0.24825    0.2057407  80.16  0.001354191    1.530    0.347
        29  -8.4782    250.5806    186.0216   5.1116063870e+01  -4.3707472077e+00    0.1803092    0.1155354 -27.81 0.0009934828    1.515    0.340
        30 -11.1185    221.3110    174.6077   5.4128125931e+01   2.6085969543e+00     0.496689    0.4321186 -89.94  0.001377657    1.711    0.416
        31 -11.0305    230.1291    169.5178   5.1429228332e+01   1.7229006540e+00    0.6947532    0.4541933 -26.87   0.00308327    1.535    0.349
        32  -9.0508    241.1991    182.9087   5.2148065671e+01  -2.3137891449e+00     0.256787    0.1806243  21.24 0.0004745926    1.340    0.254
        33 -10.6138    238.5006    175.8496   5.1210227087e+01  -8.0085406635e-01    0.6787295    0.4515962  77.01  0.002524507    4.559    0.781
        34  -9.7011    211.3068    182.3100   5.7592833093e+01   3.3015366675e+00    0.2096666    0.1707001  36.43 0.0005143856    1.141    0.124
        35 -10.3284    212.0209    178.9984   5.6797216200e+01   3.6973525079e+00    0.3240828    0.2702107 -65.02  0.001644987    1.684    0.406
        36  -9.5782    213.9759    175.9630   5.5807722145e+01   3.8098924544e+00    0.3439791    0.2854939 -87.18  0.001819554    1.879    0.468
        37  -9.1764    207.0037    179.8618   5.7948557418e+01   4.5314424816e+00    0.2162657    0.1964695 -14.27 0.0002693818    1.137    0.120
        38  -9.7809    148.0769    175.4488   6.9477004717e+01   1.7078426081e+01    0.2386779     0.229194  74.21 0.0003278976    1.072    0.067
        39  -8.1846    198.9267    179.3085   5.9442033264e+01   6.2098097076e+00     0.231933    0.1622568  83.65 0.0009597649    2.939    0.660
        40 -10.4115    243.2502    165.7967   4.8285529671e+01  -1.6738807421e-01    0.5330615    0.2401665  38.84  0.002317433    2.199    0.545
        41  -7.6891     91.5009    166.0604   8.0875103579e+01   2.9249984302e+01    0.1750473    0.1268434 -65.79 -0.0003127909    1.346    0.257
        42  -8.0272    163.4056    164.1643   6.3911502363e+01   1.6243533275e+01    0.1910185    0.1421004 -61.28 0.0003674206    1.577    0.366
        43  -8.6619    145.9046    248.4901   8.0613400621e+01   4.7294975455e+00    0.1646044    0.1416244  53.07 0.0004017577    1.134    0.118
        44 -12.1596    160.0826     95.4008   4.8099255119e+01   3.1127782711e+01     1.455973      1.01261 -53.99 0.0006806974    1.584    0.369
        45  -9.6985    195.9203    159.1255   5.5891884657e+01   1.0373189669e+01     0.356507    0.3263733  61.87  0.001180005    1.219    0.180
        46 -10.5786    192.4301    154.8246   5.5680986112e+01   1.1904402419e+01    0.5950565    0.4594592  45.86  0.002453587    1.254    0.203
        47 -12.8764    248.4380     55.2291   2.1741109479e+01   1.6082034075e+01     1.129661    0.6124879 -30.94  0.002749593    1.807    0.446
        48 -11.4059      2.5244    151.4699   9.9566002105e+01   4.2647474996e+01    0.6769562    0.2429383 -79.31   0.00299501    2.173    0.540
        49 -10.0472    205.1718    153.0647   5.2690027355e+01   9.5094724062e+00    0.5347002    0.4083903  66.95   0.00252432    1.684    0.406
        50  -9.8979    133.7706    145.2926   6.6920168306e+01   2.6306255156e+01      1.13979    0.2829334 -55.24  0.002684107    6.100    0.836
        51  -9.8519    180.3528    148.4707   5.6844131440e+01   1.5729522358e+01    0.5218742    0.3257515 -68.75  0.001587865    2.790    0.642
        52 -12.2634     14.1475    142.5430   9.6233573734e+01   4.3734651946e+01     1.175648    0.8355504 -63.70   0.00797896    1.333    0.250
        53 -12.0290     63.3660    136.4909   8.3265949131e+01   4.0115120859e+01     2.135899     1.333932  65.54   0.01081311    1.819    0.450
        54 -11.8275     46.9050    137.6119   8.7677452121e+01   4.1805723318e+01     0.799831    0.4179438 -78.80  0.002782171    1.852    0.460
        55 -12.0930     32.2391    141.1957   9.1785098816e+01   4.2475699764e+01    0.5319333    0.5027297 -13.63  0.001323476    1.450    0.310
        56 -12.3964     39.5340    138.6505   8.9675569253e+01   4.2343298363e+01    0.8796614    0.6149285 -86.91  0.002891557    1.262    0.208
        57  -9.6842    203.1287    142.8891   5.0803756388e+01   1.1788960125e+01    0.6881415    0.4010129 -67.83  0.002178743    4.198    0.762
        58  -9.1188    199.6109    144.2330   5.1825601591e+01   1.2312017445e+01    0.2645447      0.19303 -39.64  0.001272856    1.402    0.287
        59 -10.0257    192.3845    143.8351   5.3228018060e+01   1.3975613682e+01    0.3894382    0.2549809  52.54 0.0005213288    1.577    0.366
        60  -9.1983    186.0555    144.2241   5.4655829452e+01   1.5299849826e+01    0.2398057    0.2061668  17.13  0.001222734    1.232    0.188
        61  -9.6232    141.1838    139.8443   6.3940457320e+01   2.5982744304e+01    0.2322872    0.2034832  81.13 0.0005105591    1.225    0.184
        62  -9.6373    210.8580    136.2610   4.7730127121e+01   1.1294209841e+01    0.4895974     0.204848 -28.55  0.001625674    3.077    0.675
        63  -9.0764    210.7873    131.1815   4.6541895731e+01   1.2224422054e+01    0.4750801    0.2263131  35.30   0.00164046    2.578    0.612
        64  -9.9297    156.7806    137.2481   5.9620608859e+01   2.3196511074e+01     0.316231    0.2646936 -65.38 0.0005735439    1.317    0.241
        65  -8.1904    142.3048    136.3049   6.2875793089e+01   2.6520670745e+01    0.1511035    0.1237536  -0.08 0.0002323983    1.601    0.375
        66  -9.5037    172.6141    133.4494   5.5086432943e+01   2.0447502936e+01    0.2743509    0.2571908  88.46 0.0006204158    1.158    0.136
        67  -9.9750    153.1641    129.1656   5.8579578265e+01   2.5711264376e+01    0.5989332    0.3042584 -55.05  0.001603292    2.338    0.572
        68  -9.1811    201.8174    125.9864   4.7057295088e+01   1.5206190534e+01    0.2287406    0.2068373 -66.75 0.0006247149    1.252    0.201
        69 -10.1962    159.6385    129.0841   5.7021933940e+01   2.4282327167e+01    0.5680265    0.3923598 -26.86  0.002458392    1.758    0.431
        70  -8.8696    134.0563    248.4142   8.2738878653e+01   6.6517153145e+00    0.2792265    0.1599813  70.17  0.001430094    2.391    0.582
        71  -9.8931    136.0972    127.7677   6.2447123535e+01   2.9710149434e+01    0.5947471    0.2419268 -52.94  0.002014059    2.704    0.630
        72  -9.2535    172.4261    124.4079   5.2928456429e+01   2.2325827500e+01     0.493747    0.2178071 -48.68  0.001710043    2.502    0.600
        73  -9.0511     90.5814    123.9586   7.3654638924e+01   3.9134647762e+01    0.3308125    0.2449855  27.73  0.001384427    1.597    0.374
        74  -8.9729    178.2701    122.1060   5.1050674774e+01   2.1428034779e+01     0.311489     0.224641 -65.42 0.0007659437    1.780    0.438
        75 -12.0627    135.8801    106.1470   5.7078830688e+01   3.4503460883e+01     1.650316    0.9443018 -41.70  0.006745159    1.767    0.434
        76 -10.7764    144.3182     98.4492   5.2807389277e+01   3.4237158353e+01    0.9680538    0.3938076 -44.01  0.001801763    2.463    0.594
        77  -9.3334    132.4050     96.2136   5.5271542281e+01   3.7392882255e+01    0.3635361    0.2510701 -49.69  0.001163461    1.474    0.321
        78 -11.7035    118.5235    109.8468   6.2679722196e+01   3.7333332202e+01     1.216815    0.9910204 -72.17  0.005838641    1.364    0.267
        79 -11.7843    126.1301    104.2893   5.9166810825e+01   3.7005120481e+01     1.078665    0.7024404  66.44  0.004424499    2.079    0.519
        80  -9.3902    249.7488    247.9863   6.2199587765e+01  -1.1617591580e+01    0.2082945    0.1209519  26.14  0.001334268    1.332    0.249
        81  -9.1786    220.0294    114.6340   4.0782960321e+01   1.3086918241e+01    0.5969827    0.3175781 -60.73  0.001128513    3.491    0.714
        82  -9.3698    223.1703    113.1457   3.9852026447e+01   1.2632659828e+01    0.2254081    0.1980244   1.71  0.000502763    1.205    0.170
        83 -10.1464     64.9703    112.2929   7.8543306529e+01   4.5610403601e+01     0.231139    0.1808281 -63.17 0.0002578296    1.131    0.116
        84  -9.4979    222.3792    162.1779   5.1326458779e+01   4.4086074296e+00    0.2544132    0.2315105  74.24 0.0004600152    1.429    0.300
        85  -8.7973    216.2204    106.3189   3.9396659832e+01   1.5429337369e+01    0.3112156    0.2582408 -27.45  0.001572878    1.195    0.163
        86 -10.0417    150.0242    106.4226   5.3565835107e+01   3.1254732586e+01    0.3608606    0.2868609  35.70 0.0006553112    1.316    0.240
        87 -12.9691    247.2508     63.9289   2.3985055749e+01   1.5086191964e+01    0.8948676    0.7250733 -15.13  0.002890634    1.421    0.296
        88 -11.0290    125.5940    109.7624   6.0745315996e+01   3.5910833126e+01    0.7335503    0.4191453 -48.19  0.003050744    1.732    0.423
        89  -8.0603     61.5519     96.1604   7.6180519409e+01   4.9797359537e+01    0.2005246    0.1197041 -60.10 0.0009353971    1.502    0.334
        90 -13.9584    248.0059     81.5918   2.8158835154e+01   1.2231187673e+01     2.486418    0.9706335 -28.51  0.008982137    2.793    0.642
        91  -9.6928    247.0094    245.4973   6.2268023990e+01  -1.0970227292e+01    0.2223128   0.09132576  41.28   0.00116045    2.141    0.533
        92  -9.2277    157.7099     84.2239   4.5437102796e+01   3.3889829284e+01    0.3043375    0.1829974 -48.47  0.001228235    1.776    0.437
        93  -9.1426    137.3389     82.1195   4.9853939394e+01   3.9168117444e+01    0.3064784    0.2770423 -21.90 0.0004522902    1.138    0.122
        94 -10.3036    137.2355     77.6047   4.8501429967e+01   4.0074833909e+01    0.7685286     0.464036  80.66  0.002436963    3.775    0.735
        95 -12.0063    198.4292     73.9051   3.4010984740e+01   2.5427624975e+01     1.228733    0.8104252 -13.51  0.002773726    2.021    0.505
        96 -10.2334    188.8730     46.7685   2.7908137285e+01   3.2167537339e+01    0.9680567    0.1880911 -39.10  0.002618683    4.445    0.775
        97 -10.6995    188.9132     39.8026   2.5855672746e+01   3.3136391342e+01    0.8782408    0.6796386  36.20  0.004392873    1.455    0.313
        98  -7.9733    173.6490    247.8312   7.5515979754e+01   2.7577243699e-01    0.1347996    0.1140507 -67.46 0.0005065321    1.643    0.391
        99 -10.1857    203.4689     48.0949   2.5952190669e+01   2.8164714728e+01    0.3389189    0.2955038 -26.79 0.0009563071    1.230    0.187
       100  -8.7268     40.5116    248.0174   9.8724147591e+01   1.9914400540e+01    0.1517798   0.06169095  75.34 0.0008101214    2.515    0.602
       101  -8.4694    157.4031     79.2492   4.4030052956e+01   3.4906923636e+01    0.2274917    0.1459067 -47.68 0.0009483319    1.646    0.392
       102  -9.5069    164.8148     77.3334   4.1764925034e+01   3.3409700632e+01    0.2809787    0.2435483 -27.09 0.0004063105    1.199    0.166
       103  -9.5309    131.9719     74.9288   4.9053665503e+01   4.1804468534e+01     0.276992    0.2331703  10.42            0    1.339    0.253
       104  -9.5337    141.1752     70.8371   4.5376653843e+01   4.0423458174e+01     0.570109    0.2036126 -43.18  0.001839868    2.893    0.654
       105  -7.8560    102.7485     73.3164   5.6916869248e+01   4.8291653821e+01    0.1394611     0.115395 -73.25            0    1.527    0.345
       106  -8.9591    208.2195     70.6360   3.1410049357e+01   2.3481524794e+01    0.2871173    0.2367523 -45.81  0.000503424    1.187    0.157
       107  -8.4520    151.3255     70.9912   4.2938848347e+01   3.7928864028e+01    0.2247299    0.2003198 -37.18 0.0005043625    1.139    0.122
       108  -9.3332    126.7141     69.6254   4.8784449365e+01   4.4005304043e+01    0.3357674     0.195387 -40.52  0.001044175    1.714    0.417
       109  -8.7450    158.2973     66.9841   4.0075634092e+01   3.6898839717e+01    0.2204549    0.1988062 -37.82 0.0005183564    1.131    0.116
       110  -9.5034    132.5853     66.3359   4.6144398089e+01   4.3272460834e+01    0.3041194    0.1422687 -42.18  0.001138022    2.173    0.540
       111 -10.1419    112.3355    239.4352   8.5712294478e+01   1.1514209382e+01    0.2089636    0.1957339  80.17 0.0004937312    1.297    0.229
       112  -9.9294    201.9868     62.5165   3.0216366656e+01   2.6369861696e+01    0.3543016    0.2336411 -40.26  0.001031336    1.490    0.329
       113  -9.8783    135.7633     63.4513   4.4375504971e+01   4.3045472616e+01    0.3791764    0.2315603 -49.70   0.00108582    1.859    0.462
       114  -9.4671    209.4760     48.1352   2.5064921400e+01   2.6610572929e+01    0.4521656    0.2864424 -89.26  0.001508243    1.941    0.485
       115  -9.9387    104.3287     60.9465   5.2378802077e+01   5.0383081693e+01    0.4214196    0.2437723 -35.26   0.00138258    1.709    0.415
       116  -8.3439     32.0047    240.5298   9.9670115756e+01   2.2176672185e+01    0.1120038   0.09291548  12.91 0.0004363698    2.426    0.588
       117  -9.1227    216.7207     58.6566   2.6835592003e+01   2.3217442606e+01    0.3170908    0.2237851 -28.49 0.0007935342    1.479    0.324
       118  -9.1789    216.4533     53.9196   2.5610570062e+01   2.3992875769e+01    0.4283671    0.2678979 -53.12  0.001270678    1.653    0.395
       119  -9.8887    207.7137     58.5271   2.8181129012e+01   2.5520775327e+01    0.3002307    0.2553936 -30.21 0.0002643618    1.220    0.180
       120  -7.9279     72.5424     58.4690   6.2054951558e+01   5.6422128672e+01    0.1363068    0.1203814 -25.96 0.0001092329    1.006    0.006
       121  -9.6387    144.5196     59.3689   4.0857795388e+01   4.1639847580e+01    0.3252183    0.2646361 -49.00 0.0006080717    1.318    0.241
       122  -9.5327    179.5869     51.1129   3.0831750898e+01   3.3966835190e+01    0.3828962    0.2797284  17.67  0.001726697    1.801    0.445
       123  -8.7354    173.4616     51.4579   3.2086142516e+01   3.5520126539e+01    0.1519127    0.1459384  70.48 6.306912e-05    1.008    0.008
       124  -8.7182     63.5733    229.1973   9.3586535269e+01   2.0359852459e+01    0.1861031    0.1244404  53.79 0.0002732039    1.217    0.178
       125 -10.8161    139.5950     39.2225   3.5206049865e+01   4.5991666524e+01    0.4436387    0.2813417 -24.85  0.001378264    1.693    0.409
       126 -10.6769    140.0000     35.0228   3.3643942654e+01   4.6473295971e+01    0.4374806    0.2108837 -28.52  0.001562377    2.191    0.544
       127  -8.3256    182.3073     40.9718   2.7292931313e+01   3.4716498185e+01    0.2044907    0.1862089 -33.58 0.0003877062    1.158    0.136
       128  -9.2609    154.5529     38.5306   3.1707288677e+01   4.2313359500e+01    0.2902488    0.2188546 -19.60 0.0007045173    1.456    0.313
       129  -9.0915    152.9128     35.5203   3.1038608340e+01   4.3144224030e+01    0.2369229    0.2038351   0.43 0.0005863072    1.279    0.218
       130  -8.9367    159.4343     37.5932   3.0415454326e+01   4.1181281448e+01    0.2801733    0.1950014  25.73 0.0008651476    1.735    0.424
       131 -10.1823    125.7062     37.7093   3.8039147760e+01   4.9554602222e+01    0.3309261    0.2083916  46.28 0.0005995268    1.492    0.330
       132 -10.8709    126.6252     34.1574   3.6507243536e+01   4.9835268060e+01    0.4361861    0.3287476  51.78 0.0004755644    1.267    0.211
       133  -8.2703     91.9409     35.7394   4.7035930781e+01   5.7083376565e+01    0.1877385    0.1678862  -1.12 0.0006971526    1.024    0.024
       134  -9.0116     85.0075     79.6488   6.4421274008e+01   5.0122144231e+01    0.2577699     0.193223 -52.26 0.0004345063    1.288    0.224
       135  -8.3257     78.3927     38.4066   5.2689864860e+01   5.9107912035e+01    0.2480658    0.1186565 -32.75 0.0007628362    2.029    0.507
       136  -9.4691    144.8060     28.7585   3.0408017520e+01   4.6085119377e+01    0.3220492    0.1245925 -18.99  0.001043709    3.617    0.724
       137  -9.6583    241.2270    227.4072   6.0310670139e+01  -8.1126334971e+00    0.2373333     0.153358   9.79  0.000893587    1.501    0.334
       138 -10.2809    178.8098     23.9671   2.2711753435e+01   3.7822232547e+01    0.5965772    0.4163874  62.76  0.002397735    1.310    0.236
       139  -8.9965    141.9758     25.2109   2.9758572293e+01   4.7232671573e+01    0.2018816    0.1096944  59.99 0.0008696012    1.717    0.418
       140  -8.1127    218.9949    228.5092   6.4431429151e+01  -4.6974315470e+00    0.1687357   0.09794793  56.23 0.0008104493    2.627    0.619
       141  -7.8240    185.3424     17.8813   1.9933561614e+01   3.6798823437e+01    0.1732668    0.1363594  -5.70 0.0005877305    1.554    0.357
       142  -8.9240    136.6695    227.2551   7.9751340262e+01   9.5896982545e+00    0.2202334    0.1633361  45.00 0.0003372568    1.123    0.110
       143  -8.7853     51.2218    226.6129   9.5575187326e+01   2.2408423992e+01    0.1448412   0.09688146  38.32 0.0009545587    1.693    0.409
       144  -8.6481    224.2190    218.5405   6.1824174365e+01  -4.2814521621e+00     0.228318    0.1583968  51.89 0.0008066747    1.766    0.434
       145  -8.6789     32.6573    218.6739   9.8288518107e+01   2.6068697053e+01   0.09410566   0.08118791 -58.72 0.0007051027    1.738    0.424
       146  -8.9886    209.9946     16.6946   1.6497495869e+01   3.0523765773e+01    0.2613083    0.1697673  75.88 0.0007107598    1.434    0.303
       147  -8.1713    191.0270    211.7806   6.6905097151e+01   2.4647128337e+00    0.1800133   0.09279837  41.91  0.000434174    1.645    0.392
       148  -8.0607     72.0471    208.9911   9.0253370185e+01   2.3049643378e+01    0.1963426     0.114216  72.24 0.0007357082    1.662    0.398
       149  -8.8146    229.6510    207.8377   5.8959307229e+01  -3.7783665407e+00    0.2315063    0.1645446  43.63 0.0009117381    1.441    0.306
       150  -9.1978    207.3627    206.3138   6.2831202979e+01   3.3748627793e-01    0.3657126    0.2245887  60.79  0.001687669    2.547    0.607
