#   1 NUMBER                 Running object number                                     
#   2 MAG_AUTO               Kron-like elliptical aperture magnitude                    [mag]
#   3 X_IMAGE                Object position along x                                    [pixel]
#   4 Y_IMAGE                Object position along y                                    [pixel]
#   5 X_WORLD                Barycenter position along world x axis                     [deg]
#   6 Y_WORLD                Barycenter position along world y axis                     [deg]
#   7 A_WORLD                Profile RMS along major axis (world units)                 [deg]
#   8 B_WORLD                Profile RMS along minor axis (world units)                 [deg]
#   9 THETA_WORLD            Position angle (CCW/world-x)                               [deg]
#  10 FWHM_WORLD             FWHM assuming a gaussian core                              [deg]
#  11 ELONGATION             A_IMAGE/B_IMAGE                                           
#  12 ELLIPTICITY            1 - B_IMAGE/A_IMAGE                                       
         1 -13.1751      4.2976     63.3035   1.0304549919e+02   6.5549292615e+01     1.078855    0.7051736  71.32  0.005805032    1.534    0.348
         2 -13.2220     38.1299     49.6479   8.0688510137e+01   6.5830695662e+01    0.9841092     0.812987 -64.57  0.004562716    1.167    0.143
         3 -10.2876     49.8568     28.9229   6.4930642282e+01   6.8419366425e+01    0.5107053    0.2613613 -30.21  0.002012536    2.572    0.611
         4 -12.3293    128.6543     10.9155   3.2240116636e+01   5.1237354556e+01    0.5346694    0.3362364 -63.91  0.002432184    1.665    0.399
         5  -9.9690    126.2432      2.9417   2.9246125314e+01   5.2660640852e+01    0.2894724    0.1727741 -36.00  0.001080642    1.639    0.390
         6 -11.0277    128.9769     18.5089   3.5290998167e+01   5.0327823086e+01    0.3190237     0.239354 -12.88 0.0004743407    1.537    0.349
         7 -10.4497     15.0730     13.6692   8.0100171132e+01   7.6734477827e+01     0.195598    0.1648597 -58.64 0.0004280915    1.208    0.172
         8 -11.5616     22.9623     23.7123   7.9226426516e+01   7.3695111705e+01    0.6183865    0.2647573 -43.89  0.002640143    2.267    0.559
         9 -11.2546     20.4898     15.5415   7.6562845558e+01   7.5713812793e+01    0.7160291    0.4335998  -9.84  0.003291853    2.505    0.601
        10 -11.8762    159.7557     22.9386   3.2656844239e+01   4.1419919114e+01     0.436704    0.3217521   7.53  0.000520229    1.798    0.444
        11 -11.5829     29.7652     19.4460   7.1823594574e+01   7.3658999822e+01    0.3640599    0.2328509 -40.98 0.0003050031    1.495    0.331
        12 -10.7034     34.1966     15.7854   6.6425123268e+01   7.3656746417e+01    0.3570803    0.2590778  -5.51   0.00147973    1.746    0.427
        13 -12.2110     40.7428     16.5818   6.2764762604e+01   7.2370470883e+01    0.9351471     0.555752  41.37    0.0033817    1.710    0.415
        14 -11.3747     40.0285     10.8445   5.9262890560e+01   7.3463304103e+01    0.8253058    0.4156613  41.61  0.003733461    2.015    0.504
        15 -10.2673      9.7455     15.7189   8.6137681591e+01   7.6817448424e+01    0.3623937    0.2046175 -35.11  0.001313893    1.806    0.446
        16 -11.9320      3.6813     16.2019   9.2118760921e+01   7.7164076531e+01     0.377037    0.2446846  34.31  0.001605208    1.722    0.419
        17 -12.1549    237.9682     17.5866   2.4739799338e+01   2.3366105551e+01    0.3041915    0.2107387 -59.33 0.0004288315    1.286    0.222
        18 -12.1190    234.9789      4.8089   2.1810343156e+01   2.5212119757e+01    0.4932826    0.3024921  25.33  0.002517917    2.747    0.636
        19 -10.8973     73.7731      6.5482   4.1516909602e+01   6.6466800870e+01    0.3164297     0.237234 -34.53  0.001055579    1.375    0.273
        20 -10.2729     74.0019      2.1030   3.8704228175e+01   6.6870084171e+01    0.3250554    0.2182159 -89.92  0.001561158    1.754    0.430
        21 -11.3627     77.3620     10.5165   4.2787469830e+01   6.5110856768e+01     0.909591    0.5289544  35.96  0.002727908    1.981    0.495
        22 -10.4766     70.3857     13.3597   4.6761394844e+01   6.6481565769e+01      0.29263    0.2292281  13.75  0.001275711    1.477    0.323
        23 -10.1919    117.2320     14.0702   3.5388506428e+01   5.4069268318e+01    0.4399667    0.2372141  21.90  0.001591397    3.061    0.673
        24 -11.7507    233.8405     11.0002   2.3363434406e+01   2.4863292465e+01    0.3518909    0.1405642 -30.52  0.001133238    1.955    0.488
        25 -11.1237     60.4826     13.6287   5.0767196918e+01   6.8766991865e+01    0.4922161    0.2738928  61.89   0.00219327    1.942    0.485
        26 -11.3788    164.6008      8.2809   2.7194679393e+01   4.1674918386e+01    0.6867584    0.2298804 -19.85  0.002385077    3.237    0.691
        27  -9.6189     30.9094     12.0369   6.6145306878e+01   7.4874868770e+01     0.151223    0.1418058   2.80 0.0004530464    1.043    0.041
        28 -10.3327    175.6185     11.0890   2.7155422876e+01   3.8511110061e+01     0.269753    0.1974231  72.42  0.001142382    1.376    0.273
        29  -9.7527    107.8667     10.6781   3.5548145370e+01   5.7009189422e+01    0.2034309    0.1743662  82.87 0.0005216592    1.109    0.099
        30 -10.9832      8.2376      9.1422   8.3921402808e+01   7.8364613097e+01    0.4589731     0.302262   3.09  0.002584777    1.719    0.418
        31 -12.6752    213.8516      5.9016   2.3097766554e+01   2.9703125847e+01    0.8174718    0.4823657 -59.71  0.004428309    1.493    0.330
        32 -11.4133    146.3039      7.3630   2.8661269455e+01   4.6708053707e+01    0.4575016    0.3711758 -22.93  0.002070931    1.321    0.243
        33  -9.6898    150.5612      5.5367   2.7553993797e+01   4.5714684197e+01    0.1964258    0.1262866  64.90 5.521488e-05    1.522    0.343
        34 -10.9490    240.9307      9.1655   2.2586266180e+01   2.3584513537e+01    0.1955778    0.1258784 -50.98 0.0004939208    1.248    0.199
        35 -10.6243    118.3266      7.9239   3.2502417461e+01   5.4400736822e+01    0.2712343    0.2119531 -13.88 0.0006965331    1.430    0.301
        36 -11.7775    120.0786      3.9459   3.0495248760e+01   5.4285590809e+01    0.3878114    0.2254675  85.88  0.001007677    1.711    0.415
        37 -10.2349     25.8289      8.5496   6.7418667954e+01   7.6302428838e+01    0.3923305    0.2276939  63.64   0.00155134    3.751    0.733
        38 -11.0413    190.1514      6.6848   2.4723028469e+01   3.5258316064e+01    0.4634799    0.3148476 -69.30  0.002498443    1.355    0.262
        39 -10.9555    246.3986      6.8343   2.1804236001e+01   2.2712969021e+01    0.1665123    0.1029256 -14.24 0.0009511422    1.787    0.440
        40 -10.3077    156.2158      6.0911   2.7209333570e+01   4.4128882753e+01    0.2409939    0.2115791  64.17 0.0004504109    1.209    0.173
        41 -10.1166    100.5168      6.9560   3.5161708711e+01   5.9395035218e+01    0.2695266    0.1860685   7.40  0.001264586    1.807    0.446
        42 -10.8360     97.8238      4.5008   3.4449436358e+01   6.0362832322e+01    0.3435617    0.2557623   7.32  0.001053231    1.592    0.372
        43  -9.9943     91.8716      6.7601   3.6882464843e+01   6.1745061335e+01    0.2512595    0.1600323  63.52 0.0004985097    1.454    0.312
        44  -9.6668    109.4376      5.4890   3.2826847558e+01   5.7091886446e+01    0.1445749    0.1354614  78.25 0.0001914605    1.028    0.027
        45 -11.2600     19.4920      3.4570   6.8734505965e+01   7.8145595455e+01    0.5959646    0.3365784  14.59  0.002708034    2.648    0.622
        46 -11.4670     11.3021      2.8949   7.6328860803e+01   7.9309239832e+01    0.3175593    0.2394987  -9.20  0.001083751    1.399    0.285
        47 -11.2966    148.6738      1.9046   2.6412055594e+01   4.6554711236e+01    0.2898296    0.1946517  75.87 0.0004278558    1.403    0.287
        48 -10.7625    202.1154      3.7100   2.3142353552e+01   3.2634073472e+01     0.303939    0.2091702  67.72  0.001090281    1.582    0.368
        49 -10.3260    179.0097      3.8188   2.4616834208e+01   3.8331830565e+01    0.2320881    0.1827417 -42.99 0.0004337547    1.155    0.134
        50 -10.4824     68.1744      3.6449   4.1452708636e+01   6.8173645953e+01    0.2125612    0.1861356 -36.93 0.0007549658    1.197    0.165
        51 -11.7262     28.5967      2.7924   6.0644959609e+01   7.6804875376e+01    0.5184611    0.2857143  36.26  0.001941098    1.886    0.470
        52 -10.4820    243.0278      2.4944   2.0931943674e+01   2.3782536328e+01    0.1921549    0.1318273 -36.28 0.0006833924    1.172    0.147
        53 -10.8224    194.4986      1.6505   2.2990803369e+01   3.4655323925e+01    0.3780639    0.1497754  88.29  0.001544612    2.635    0.620
        54  -9.7416     34.1933    173.8015   1.0243446652e+02   3.5412296874e+01    0.1477685    0.1416601  67.92 0.0002424011    1.259    0.206
        55 -10.6740    247.5002    249.9771   6.8645964022e+01  -3.6073380948e+00    0.1509766   0.09041646  19.70  0.001249098    1.211    0.174
        56 -12.6161    232.5020    245.3116   7.0182561987e+01  -1.6848562912e+00    0.4184638     0.225366 -12.46   0.00306414    1.803    0.445
        57 -11.7516     88.9218    249.3823   9.5601564220e+01   1.5054900848e+01    0.3252844    0.1846856  33.66 0.0009705838    1.302    0.232
        58 -10.2416     72.4194    250.1108   9.8857331766e+01   1.6891403765e+01    0.1904908    0.1261079  22.99  0.001130798    1.545    0.353
        59 -13.0137     19.1032    237.1199   1.0882753594e+02   2.4659710499e+01    0.6059992     0.269427  41.24  0.003812927    1.480    0.324
        60 -11.6822      5.2075    235.5610   1.1155922529e+02   2.6204413103e+01    0.3673412    0.2344506  35.90  0.002650294    1.294    0.227
        61 -12.2058     29.1318    247.2204   1.0717052736e+02   2.2019439920e+01    0.4670996     0.232596  60.56  0.003100855    1.657    0.397
        62 -13.0311      6.6816    244.7948   1.1144928891e+02   2.4535271107e+01     0.692742    0.4476475  46.57  0.004006765    1.045    0.043
        63 -11.8871     22.4035    248.7233   1.0852071029e+02   2.2439124173e+01      0.34969    0.1788896  45.43  0.001326869    1.275    0.215
        64 -12.2858     16.2426    246.4229   1.0964501891e+02   2.3394948746e+01    0.5464585    0.1999168  49.19  0.002060591    1.737    0.424
        65 -10.6144     18.5279    173.0811   1.0651843089e+02   3.7158461229e+01    0.2558842    0.1243384  45.45  0.001070317    1.591    0.372
        66 -12.0046     36.6535    165.6541   1.0117735696e+02   3.6962173142e+01    0.6447735    0.3391677  67.24   0.00320781    1.831    0.454
        67 -11.0953     35.2898    161.3998   1.0122273069e+02   3.8083817766e+01    0.3189765    0.2160078  13.67 0.0003334243    1.886    0.470
        68 -10.0817      5.4907    168.5203   1.0976345228e+02   3.9315904041e+01    0.1246656   0.09515069  60.34 0.0001283886    1.004    0.004
        69 -11.9254     51.6359    162.1612   9.6727234719e+01   3.5982750948e+01    0.6501542    0.4469571  61.16  0.003224298    1.296    0.229
        70 -10.5057    186.4033    164.9876   6.5340930138e+01   1.3660334536e+01    0.2563472    0.1773114  78.91  0.001091788    3.924    0.745
        71 -11.8648     43.0651    162.5604   9.9148105343e+01   3.6934006203e+01    0.4328988    0.2436531  27.78  0.002179592    1.786    0.440
        72 -12.4987     21.2043    157.3014   1.0491480988e+02   4.0478458187e+01    0.6141087    0.3986647  20.63 0.0008855389    1.736    0.424
        73  -9.6296    216.2999    154.9537   5.8395762020e+01   1.0239863411e+01    0.1649704    0.1346574 -11.45 0.0003365782    1.077    0.071
        74 -11.1121     10.0420    152.4709   1.0785326460e+02   4.2602055090e+01    0.3801418    0.1667259  46.35  0.001392011    1.812    0.448
        75 -10.1878    177.3390    150.3747   6.4244410113e+01   1.7437579048e+01    0.2529946    0.2195462  87.38  0.001194138    1.641    0.391
        76 -10.5315    207.0484    146.4823   5.8228199764e+01   1.2876005794e+01    0.1887281    0.1560344 -16.60  0.000777224    1.103    0.094
        77 -10.0975    220.1904    143.8078   5.5631568436e+01   1.1081840455e+01    0.1703734    0.1270304   2.60 0.0008864697    1.309    0.236
        78  -9.9835      3.0349    143.6434   1.0952882093e+02   4.5235876520e+01    0.1707862    0.1389033  52.80 0.0004046199    1.115    0.103
        79 -12.4788      9.2151    136.4151   1.0728155162e+02   4.6511986463e+01    0.2626105    0.2039272  86.25 0.0003161889    1.150    0.130
        80 -11.0962     17.5111    137.0194   1.0469291306e+02   4.5672504884e+01    0.2589393    0.1722149  45.36  0.000122287    1.329    0.247
        81 -10.4340      2.7026    136.5101   1.0933314490e+02   4.6973898669e+01     0.312585    0.1422019 -74.66  0.001509614    2.050    0.512
        82  -9.3473    143.7571    137.0352   6.8493263967e+01   2.6048794748e+01    0.1756958    0.1206591 -45.36 0.0004531916    1.536    0.349
        83  -9.9782    249.1323    133.8271   4.9645011275e+01   7.8452684881e+00    0.1646748    0.1385387 -23.25 0.0003972398    1.178    0.151
        84  -9.4198    122.7006    134.6756   7.3033990039e+01   3.0610439163e+01    0.1429308    0.1153713  -2.52 0.0003800981    1.631    0.387
        85 -11.4849     54.2994    132.2729   9.2382854304e+01   4.2746155616e+01    0.4386181    0.2276406  39.75 0.0009929031    1.744    0.427
        86  -9.7028     47.9799    133.4762   9.4569594672e+01   4.3276266006e+01    0.2109791    0.1282478  35.01  0.001024112    1.571    0.363
        87  -9.8553     79.8812    132.4696   8.4458935669e+01   3.8855068773e+01     0.215301    0.1357694  38.18 0.0006182519    1.508    0.337
        88 -11.3887     37.0199    130.1553   9.7737465525e+01   4.5419671031e+01    0.3609276    0.3000439 -44.46  0.001043244    1.472    0.321
        89  -9.3216      5.2864    131.2960   1.0826634510e+02   4.8062503729e+01    0.1192996   0.09141934 -53.44 0.0001919772    1.548    0.354
        90 -11.3707     74.0065    128.9484   8.5635319868e+01   4.0649941925e+01    0.3431603    0.3001167 -83.36 0.0008746808    1.131    0.116
        91 -11.3787     23.9031    125.7738   1.0168197303e+02   4.7889555654e+01    0.3289268    0.2104939  31.69  0.001118592    1.554    0.356
        92 -10.7674     15.6999    125.5187   1.0444705000e+02   4.8688656039e+01    0.3792809    0.2054372  18.96  0.001846408    2.095    0.523
        93 -11.1156     10.8838    122.5888   1.0588010865e+02   4.9813829559e+01    0.3612526    0.2088913  49.82  0.001119577    1.531    0.347
        94  -9.7954    220.2294    123.9618   5.1549234667e+01   1.3722048418e+01    0.1783985    0.1442372 -21.11 0.0004646065    1.087    0.080
        95 -10.0218    243.8127    122.5886   4.8070495162e+01   9.9988768412e+00     0.132825    0.1172396  61.63 0.0003929677    1.538    0.350
        96 -10.1521     20.0226    121.7122   1.0264641850e+02   4.9276664242e+01    0.1840998    0.1615974  65.35 0.0006176122    1.065    0.061
        97  -9.4816      3.2812    122.3335   1.0847048110e+02   5.0424083609e+01    0.1257887    0.0885876 -54.88 0.0003467479    1.613    0.380
        98  -9.2413     32.3328    121.3365   9.8316105184e+01   4.8166095905e+01     0.138704    0.1003546 -40.90 0.0007052092    1.739    0.425
        99 -10.5279     73.1695    117.5512   8.3798253906e+01   4.3562358492e+01    0.4353893    0.2469352 -86.24  0.001269188    2.507    0.601
       100 -10.0061      1.4088    118.8098   1.0893449415e+02   5.1427595880e+01    0.1866056    0.1090788 -87.31 0.0005376102    1.494    0.331
       101  -9.9076     33.1280    117.9246   9.7629225074e+01   4.8953486598e+01    0.2558567     0.131582  65.85  0.001098587    2.075    0.518
       102 -10.3418     23.6146    117.8044   1.0100661202e+02   4.9944794835e+01    0.2083805    0.1834692  17.03 0.0004539918    1.346    0.257
       103  -9.3767    179.3936    115.8133   5.6391725405e+01   2.2656461561e+01    0.1926458    0.1280116 -24.45 0.0009371688    1.609    0.378
       104  -9.8861     85.9617    115.7405   7.9338419458e+01   4.1792960256e+01    0.2087946    0.1892291  64.06 0.0005171149    1.030    0.029
       105 -11.1515     16.1364    115.1283   1.0344292851e+02   5.1291006974e+01    0.3468878    0.2366262 -26.85 0.0009886409    2.031    0.508
       106  -9.9657    214.1281    115.1256   5.0521837940e+01   1.6022712472e+01    0.1962114    0.1592364   0.68 0.0004655643    1.251    0.201
       107 -10.8790    249.3980    112.2394   4.5262300155e+01   1.0365541111e+01    0.2125677    0.1727349 -30.87 0.0006079287    1.152    0.132
       108 -10.5854     94.5757    112.2584   7.5910631791e+01   4.1011674161e+01    0.3051688    0.2914821  19.38  0.001670641    1.190    0.160
       109 -11.5942     37.0892    110.1591   9.5155514650e+01   5.0514642911e+01    0.5153428    0.2700767  63.00   0.00220782    2.085    0.520
       110 -11.8884     55.1258    109.6546   8.8478186679e+01   4.8322158935e+01    0.2926985    0.2700379 -89.60 0.0003446137    1.057    0.053
       111 -11.7098     14.5726    108.8202   1.0345559811e+02   5.3039765747e+01    0.5039675    0.3429817   6.79  0.002678551    1.853    0.460
       112 -11.2400     23.4369    106.2145   9.9801199220e+01   5.2954550312e+01    0.3878757     0.264235  74.31  0.001426607    1.382    0.276
       113 -10.1890     25.8828    102.1234   9.8337461895e+01   5.3789354507e+01    0.2092636    0.1814225  77.12 0.0003050926    1.027    0.026
       114 -10.6354      1.9146    106.0773   1.0804329261e+02   5.4620241635e+01    0.3869038     0.133336 -69.10  0.001533319    2.533    0.605
       115  -9.5824      5.4686    106.4731   1.0671847491e+02   5.4298431293e+01    0.1306301    0.1136049 -86.18 0.0008072547    1.101    0.092
       116 -10.9695    120.1999    101.1160   6.5802500851e+01   3.8209979100e+01    0.7084517     0.298364 -32.12  0.001962781    4.597    0.782
       117 -10.4886     52.0179    103.9234   8.8547983308e+01   5.0227860602e+01    0.2257642    0.1732034 -33.65 0.0007394967    1.656    0.396
       118  -9.9259     38.1840    103.8007   9.3777326253e+01   5.2037790044e+01    0.1911673     0.165529 -43.37 0.0005743397    1.335    0.251
       119 -10.1495     70.9326    102.2895   8.1346609583e+01   4.7709760977e+01    0.2134829    0.1870779  51.38 0.0008644967    1.115    0.103
       120 -11.6606     19.7244    100.7848   1.0061935048e+02   5.4701130555e+01    0.3699969    0.2632224 -14.22  0.001922898    1.908    0.476
       121 -11.6057    144.4274     98.0706   5.9035176490e+01   3.3387585183e+01     0.580056    0.4631352  58.76  0.002373179    1.275    0.215
       122 -10.7508     50.6910     99.0766   8.8110132773e+01   5.1659083860e+01    0.3089301    0.2441068  -5.93  0.001118073    1.736    0.424
       123 -10.2490     10.0468     98.7603   1.0430000855e+02   5.5982284362e+01    0.2270689    0.1597556  82.23 0.0005510236    1.261    0.207
       124 -11.5650     14.7994     96.3227   1.0211337186e+02   5.6268141521e+01    0.4973301    0.2152704 -65.21  0.002178409    2.054    0.513
       125 -10.1286      5.3781     97.8916   1.0611441661e+02   5.6514848473e+01    0.2524027    0.1651917  28.61 0.0007911944    1.603    0.376
       126 -10.1884      1.3783     95.7348   1.0758200587e+02   5.7305449577e+01    0.5010778    0.1570227 -59.27  0.001938018    2.984    0.665
       127  -9.5570    205.5531     97.4623   4.7708049327e+01   2.0182255709e+01    0.1335198    0.1201032 -31.43 0.0002787788    1.035    0.033
       128 -11.8663    162.6516     91.3354   5.3389327091e+01   3.0439354161e+01     1.098616    0.3800194 -31.50  0.003439055    3.489    0.713
       129 -12.0138    158.1381     89.8895   5.3886570764e+01   3.1734438262e+01    0.6265318    0.2758841 -36.59  0.002374207    2.253    0.556
       130 -12.1620    166.4717     83.5380   5.0525654352e+01   3.0883958751e+01    0.8507646    0.4867834  60.52  0.003378595    1.872    0.466
       131 -11.4335    157.0890     82.2659   5.1957348048e+01   3.3317259442e+01    0.7931172    0.3949508  36.93  0.002854093    2.822    0.646
       132  -9.6153     37.8982     95.0000   9.2406762567e+01   5.4364354229e+01    0.2264818   0.08061896  27.38 0.0008043725    2.956    0.662
       133  -9.0744    113.3138     93.2972   6.5547120028e+01   4.1398685644e+01    0.1510675    0.1255718   5.95 0.0003180833    1.603    0.376
       134 -10.1412     66.7640     93.2272   8.0718617939e+01   5.0670072171e+01     0.249138    0.1901344  51.36 0.0003323194    1.290    0.225
       135 -10.6354     62.9967     93.4890   8.2192840437e+01   5.1227398263e+01     0.356723    0.1224667  41.96  0.001211621    2.782    0.640
       136 -11.2639     57.8640     90.0341   8.3347284467e+01   5.2914606248e+01    0.4834542    0.3403473  10.69  0.001809582    2.011    0.503
       137  -9.7314     31.0676     92.9821   9.4880350665e+01   5.5657177692e+01    0.2239751    0.1524716 -43.75  0.001109352    1.675    0.403
       138 -11.7359     63.3933     98.4164   8.3183226326e+01   4.9923080853e+01    0.5971586    0.3163262  28.11   0.00240557    2.222    0.550
       139  -9.2441     46.5398     92.4289   8.8400330845e+01   5.3942048325e+01    0.1450653    0.1322569  82.83 0.0002743606    1.012    0.012
       140 -10.5728     37.7531     90.1278   9.1568321530e+01   5.5652116853e+01    0.4148305    0.1933952 -50.33  0.001234981    2.249    0.555
       141 -12.2574     10.4991     90.5489   1.0330306141e+02   5.8089266402e+01    0.2852714    0.2621003  56.99 0.0001166414    1.131    0.116
       142 -10.6365    153.1745     90.7833   5.5148402585e+01   3.2727942520e+01    0.2125802    0.1789599  22.81  0.001075927    1.383    0.277
       143 -10.3135     25.5389     90.7458   9.6863435651e+01   5.6801542717e+01    0.2481398    0.2124924 -87.26 0.0006629536    1.048    0.045
       144 -11.6149     21.9578     87.5089   9.7926433466e+01   5.7982307342e+01    0.4408169    0.2519869 -60.74  0.001376829    1.627    0.385
       145 -10.0526     83.1263     88.3873   7.3572106937e+01   4.8864807855e+01    0.2399022    0.2085464 -45.68 0.0005574549    1.225    0.183
       146 -10.9829     78.3392     87.5739   7.5024334036e+01   4.9981016343e+01     0.346783    0.2993826 -72.23  0.001095174    1.144    0.126
       147 -11.6367      4.2283     84.5161   1.0545858953e+02   6.0052512035e+01    0.4066949    0.2604598 -72.93  0.001223697    1.379    0.275
       148 -10.1247      7.6892     82.6605   1.0370399319e+02   6.0331249360e+01    0.3708427    0.1536099 -61.56  0.001612024    2.139    0.532
       149 -10.4083     96.6615     88.8129   6.9223011692e+01   4.6006436567e+01    0.2966978    0.1181341  42.45  0.001003498    2.554    0.609
       150  -9.9520     62.8718     82.4996   7.9449713193e+01   5.3993345655e+01    0.2828178    0.1396966  41.73  0.001130037    2.006    0.502
       151 -10.2404     65.2272     87.2362   7.9788429645e+01   5.2420656763e+01    0.2740383    0.2095253  66.70 0.0008838994    1.390    0.281
       152 -11.0039     67.4504     83.7272   7.7995372865e+01   5.2903886917e+01    0.3544079    0.2847067   5.41  0.001378722    1.688    0.407
       153 -10.5176     47.2080     87.6381   8.7099677541e+01   5.5087127131e+01    0.3298541    0.1997568  60.22  0.001153131    1.863    0.463
       154  -9.7650    120.9855     86.6949   6.1552423840e+01   4.1045894376e+01    0.2171128    0.1976956  58.52 0.0004990059    1.081    0.075
       155 -10.0954     14.9250     84.0271   1.0057440855e+02   5.9475707069e+01    0.1992142    0.1789987  86.86 0.0004248769    1.027    0.026
       156 -10.0296    116.2622     83.2303   6.1786800046e+01   4.2856181822e+01    0.3924676    0.2057069  35.85  0.001413332    2.501    0.600
       157 -11.5525     30.8615     80.7142   9.2761670388e+01   5.8887204257e+01    0.4434372    0.3114288 -54.28  0.002062557    1.403    0.287
       158 -10.4121     74.1185     82.1949   7.5039686213e+01   5.2067224616e+01    0.2284244     0.213741 -27.14 0.0005813497    1.226    0.185
       159  -9.9515     42.0297     82.0248   8.8046905120e+01   5.7224215333e+01     0.225787     0.157908  68.74 0.0003455898    1.566    0.361
       160 -11.3545      6.1541     50.7014   9.9959047271e+01   6.8673178685e+01    0.6068891     0.388961  87.41  0.002600561    1.555    0.357
       161 -11.2829     13.0297     57.9480   9.7290181965e+01   6.6389021941e+01    0.5198189    0.2518538  50.91  0.001711406    2.338    0.572
       162 -12.2723     37.0115    243.0928   1.0546606428e+02   2.1883694123e+01    0.5415478    0.2437589  75.32  0.002547787    2.472    0.595
       163 -14.1359     16.5757     67.3819   9.7168103336e+01   6.3691696502e+01    0.7433978    0.5374292  87.77  0.001018585    1.342    0.255
       164 -12.0375     12.8674     50.5494   9.5794065456e+01   6.8280591698e+01    0.4667546    0.3601702 -84.09  0.001228388    1.242    0.195
       165 -11.4408      8.6762     42.4626   9.6560316006e+01   7.0590169643e+01    0.6936497     0.340504  54.03  0.003073714    2.531    0.605
       166 -12.1647     13.5690     77.2359   1.0027042255e+02   6.1353005635e+01    0.4747669     0.282379  36.20 0.0003079005    1.714    0.416
       167 -12.2335      8.3046     73.7005   1.0234884167e+02   6.2628260852e+01    0.6620254    0.3152039  14.92  0.002545469    2.410    0.585
       168  -9.4300    183.6220     80.6794   4.6802216425e+01   2.7387010786e+01    0.1493096    0.1085674  20.04 8.841784e-05    1.821    0.451
       169 -10.1439    122.7986     79.7623   5.8982103291e+01   4.2022950195e+01    0.2192726    0.2092342  30.56 0.0004359559    1.147    0.128
       170  -9.9637    113.9939     79.5573   6.1281692317e+01   4.4144251584e+01    0.4349479     0.150998  49.98  0.001384899    2.851    0.649
       171 -10.5178     60.1472     78.2004   7.9361097920e+01   5.5512695558e+01    0.3354118    0.2769611 -20.68   0.00109267    1.541    0.351
       172  -9.7459      3.4069     77.9854   1.0520756868e+02   6.1793980818e+01    0.2020281    0.1125511 -80.16 0.0003838495    1.558    0.358
       173  -9.7233    169.1795     77.1658   4.8250045941e+01   3.1297015695e+01    0.2054319    0.1663675 -62.96 0.0005175857    1.304    0.233
       174 -12.8774     44.7704     74.8275   8.5081889486e+01   5.8700543225e+01    0.3735496    0.2842616  51.98 0.0005478473    1.347    0.258
       175 -10.9253     37.0622     68.9751   8.7176000148e+01   6.1198935766e+01    0.6641851    0.2769739  54.98  0.002229892    3.548    0.718
       176 -10.5580     42.7039     68.2554   8.4269769292e+01   6.0644123646e+01    0.2501495    0.2303604  -4.00  0.001417429    1.252    0.201
       177  -9.0390    184.4409     76.5191   4.5550626514e+01   2.7837878494e+01    0.1428624    0.1311517 -46.05 0.0001805246    1.024    0.023
       178  -9.7527    145.5616     74.7253   5.2086519729e+01   3.7436372614e+01    0.2892869    0.1516023 -31.89 0.0009392508    2.057    0.514
       179 -10.4631     75.9240     74.4422   7.2017593900e+01   5.3558160342e+01    0.3998596    0.2639382  22.04  0.001229892    2.172    0.540
       180 -11.3919     77.2858     69.7829   6.9987241584e+01   5.4363198635e+01    0.5461256    0.3531793  39.20  0.001175312    1.626    0.385
       181 -10.2447     91.4563     74.4544   6.6517273594e+01   5.0341416277e+01    0.1555649    0.1467284  88.00 -3.818555e-06    1.023    0.023
       182 -10.3103     47.5893     60.6151   7.9601901986e+01   6.1823703609e+01    0.3613022    0.2549561  22.39  0.001751342    1.671    0.402
       183 -10.5921     51.8346     62.4934   7.8208468317e+01   6.0706942521e+01    0.3300495     0.257337 -56.52    0.0010274    1.228    0.186
       184 -10.9070     54.2159     74.0083   8.0673584742e+01   5.7510761975e+01    0.3314941    0.2617023  56.58  0.001698938    1.305    0.234
       185 -11.9207     50.5221     68.1176   8.0587134098e+01   5.9542356687e+01    0.5258594    0.3448962 -54.04   0.00113875    1.460    0.315
       186 -10.8006    207.5967     73.0464   4.1381328191e+01   2.3209803274e+01    0.2166552    0.1975319  62.76  0.000314327    1.220    0.180
       187  -9.7741    138.2534     72.7278   5.3057477282e+01   3.9599546538e+01    0.2433261    0.1337211 -25.06 0.0008965958    2.403    0.584
       188 -10.7123    101.3241     71.9480   6.2526528665e+01   4.8673566773e+01    0.5012522    0.2851096  75.33  0.001635176    3.278    0.695
       189 -10.1689    194.9262     69.8335   4.2215545105e+01   2.6439664320e+01    0.1952635    0.1843074   6.12 0.0003721226    1.167    0.143
       190 -10.4189    167.8672     69.6057   4.6301686952e+01   3.2825918153e+01    0.2215654     0.195774 -24.43 0.0003517924    1.178    0.151
       191 -10.6492    130.5638     68.6868   5.3529513682e+01   4.2250738954e+01    0.3784606     0.273188 -14.93 0.0009361623    1.865    0.464
       192 -10.1253    127.5761     66.2302   5.3429576492e+01   4.3449776685e+01    0.2349917    0.2078324  87.09 0.0003142477    1.148    0.129
       193  -9.5865     68.7668     69.9891   7.3361466722e+01   5.5972380360e+01    0.2043374    0.1916854 -66.53            0    1.042    0.040
       194 -12.6528    122.4491     63.8252   5.3872735497e+01   4.5179186546e+01    0.4969272    0.4370204 -70.23 0.0005081297    1.149    0.130
       195  -9.1357    230.2877     68.6586   3.7683677228e+01   1.9136800728e+01    0.1346494   0.08252908 -51.36 0.0003740263    1.643    0.391
       196 -11.3491     95.2919     65.6927   6.2277593506e+01   5.1370376505e+01    0.6235365     0.364516  35.06  0.001490301    2.150    0.535
       197 -10.9678     29.2313     60.6164   8.8959190058e+01   6.4235886279e+01    0.5500143    0.2825046  24.06  0.002106197    2.164    0.538
       198 -11.4007     26.4042     55.3845   8.9075688267e+01   6.5856156254e+01    0.3351162    0.2424706 -71.86 0.0006550188    1.311    0.237
       199 -11.7251     26.6905     49.5835   8.7188154595e+01   6.7263780368e+01    0.6033641    0.4235033  76.81  0.001983859    1.740    0.425
       200 -12.4333    226.5201    244.9953   7.1024161937e+01  -1.0190348917e+00    0.5734842    0.2683943   8.78  0.003414718    2.507    0.601
       201 -11.3451     29.0776     65.6917   9.0334295596e+01   6.2962451272e+01    0.3081678    0.2454432 -76.03  0.000403949    1.177    0.150
       202 -11.1646     32.7491     63.6667   8.7933214474e+01   6.3065607106e+01    0.4060843    0.1948591  35.70  0.001742486    2.107    0.525
       203  -9.3548    143.8258     64.3740   4.9202987437e+01   3.9672580572e+01    0.2072406    0.1385597  49.56 0.0003648074    1.547    0.354
       204  -9.7377     69.5204     64.0365   7.1044351425e+01   5.7209529252e+01    0.2408282    0.1451044 -49.53  0.001041014    1.633    0.387
       205  -9.4987    185.4400     63.5440   4.1816127471e+01   2.9530416591e+01    0.1408379    0.1322749 -39.66 5.938095e-05    1.049    0.046
       206 -10.4078    152.7601     63.3707   4.7123765345e+01   3.7577527007e+01    0.4013114   0.09380857  50.29   0.00107836    4.389    0.772
       207 -10.2428     77.1397     62.8232   6.7620346988e+01   5.5956430771e+01    0.2814682    0.2434119 -84.61 0.0007699347    1.234    0.190
       208  -9.9138    202.6147     61.2516   3.8929991360e+01   2.5901854271e+01    0.2370362    0.1630363 -21.62 0.0008252084    1.480    0.324
       209  -9.6887    113.5347     60.8359   5.5141174392e+01   4.7964747269e+01     0.218899    0.1414327 -53.55 0.0006401494    1.639    0.390
       210 -10.9928     86.4328     57.2348   6.2139004615e+01   5.5138845095e+01    0.3353952     0.151622 -43.18  0.001233846    2.224    0.550
       211 -11.5494     58.6904     58.6848   7.3754214348e+01   6.0449763530e+01    0.4585921    0.3742492 -39.87  0.002379292    1.285    0.222
       212 -10.3094     61.6098     55.1983   7.1154587265e+01   6.0714845394e+01    0.3017671    0.2263765 -36.38  0.001474844    1.452    0.311
       213  -9.7913    168.8532     60.1732   4.3338895587e+01   3.4045028663e+01    0.1940985    0.1741801  17.58 0.0003944571    1.305    0.234
       214 -10.9407     94.3062     59.5793   6.0375642108e+01   5.2855467328e+01    0.4778134    0.2873065  24.26  0.001669552    3.043    0.671
       215 -11.1645    147.6333     57.1255   4.6089818345e+01   3.9898293141e+01    0.4380544     0.261459 -59.37  0.001795041    1.961    0.490
       216  -9.8153    124.6439     58.0067   5.1309762421e+01   4.5675797959e+01    0.2135768    0.1907968 -44.48 0.0005120303    1.124    0.111
       217  -9.7867     69.2008     57.6359   6.8842142300e+01   5.8712378214e+01    0.3610253    0.1863307 -65.03  0.001264211    2.854    0.650
       218 -11.2156    132.2877     55.5477   4.8694461946e+01   4.4130453123e+01    0.4122308    0.3612151   9.65  0.002081495    1.390    0.281
       219 -10.7672     75.3860     55.7192   6.5628556226e+01   5.7865301955e+01    0.3023847    0.2310818 -60.82 0.0005402412    1.371    0.271
       220  -9.8200     48.3320     55.8883   7.7623392581e+01   6.2840090597e+01     0.196804    0.1773257 -49.95 0.0004805566    1.088    0.081
       221  -9.7511    230.7990     54.8052   3.4294840180e+01   2.0728306413e+01    0.1854904    0.1287944 -50.22  0.001072084    1.324    0.245
       222 -12.9958    105.3080     52.3866   5.4282313399e+01   5.1586090921e+01    0.5347223    0.3842909  48.48  0.000482791    1.409    0.291
       223 -10.4485    104.3390     47.0854   5.2466820479e+01   5.2782278292e+01    0.3170981    0.2368807  21.94 0.0006847426    1.807    0.447
       224 -10.8722     88.2021     52.0434   5.9487559504e+01   5.5779448806e+01    0.5450252    0.2264763 -46.78  0.001925959    2.460    0.594
       225  -9.8756     55.6407     53.0999   7.3070867227e+01   6.2268965223e+01    0.2978748    0.2030476  17.33  0.001325306    2.030    0.507
       226  -9.4813    173.3018     52.3286   4.0291409757e+01   3.4088075366e+01    0.1449837    0.1133229  22.65 0.0007032592    1.645    0.392
       227  -9.8408    120.0246     52.0487   5.0271936410e+01   4.7903718143e+01    0.2436493    0.1885888  22.62 0.0009295546    1.692    0.409
       228 -12.1144    129.6772     49.2329   4.7017201473e+01   4.5856703547e+01    0.4313368    0.4002857  10.97 0.0005286316    1.250    0.200
       229 -10.7478    131.4776     41.7665   4.3895103338e+01   4.6547867904e+01    0.3792554    0.2619646 -59.39 0.0008252382    1.542    0.351
       230 -10.9121     34.9537     42.4854   7.9774013932e+01   6.7946908357e+01    0.3889043     0.271857  15.64  0.001936319    1.719    0.418
       231  -9.9836    237.4511     50.4668   3.2663175516e+01   1.9916125493e+01    0.1274666    0.1031469 -39.77 5.890916e-05    1.017    0.017
       232 -10.0816     77.7824     50.4111   6.2575802402e+01   5.8457226173e+01    0.2938213    0.1456566  52.05  0.001138504    2.077    0.519
       233  -9.4611    200.1406     49.1884   3.5960814899e+01   2.8050481574e+01    0.1883096    0.1408512 -55.29 0.0003024103    1.264    0.209
       234 -11.0898     58.2199     46.1326   6.9029477824e+01   6.3341576457e+01     0.461859    0.2838153 -75.96  0.001770061    2.793    0.642
       235 -10.8397    151.4813     45.9214   4.1668538133e+01   4.0615647745e+01    0.2733627    0.2527851 -48.86 0.0006260584    1.065    0.061
       236  -9.7745     78.6763     46.9427   6.0781588025e+01   5.8953752047e+01    0.2096556    0.1836128 -45.97 0.0004161539    1.141    0.124
       237 -10.2569    143.2791     45.6537   4.3023913368e+01   4.2820338425e+01    0.2542761    0.2105204 -70.46 0.0005702136    1.213    0.176
       238 -10.6163    112.7827     45.3263   4.9504665041e+01   5.0921207608e+01    0.3708811    0.2646777  31.68  0.001356707    1.763    0.433
       239 -11.1792     91.7232     43.4046   5.4727493497e+01   5.6568997591e+01    0.5671296    0.2747908 -48.76  0.001946829    2.232    0.552
       240 -10.6505    100.1715     35.3814   4.8704952705e+01   5.5807031476e+01    0.3278132     0.228357 -81.64 0.0006858861    1.833    0.454
       241  -9.8983     95.4976     42.7748   5.3276615673e+01   5.5753494773e+01    0.2613737    0.2019046  45.95 0.0002440227    1.327    0.247
       242 -10.7068     97.5252     38.4912   5.0821880913e+01   5.5977629554e+01    0.4478076    0.3739679 -40.59  0.001338036    1.211    0.174
       243 -10.0486    138.9831     43.3070   4.2994143938e+01   4.4312751419e+01    0.2753127     0.198524 -48.91  0.001296885    1.359    0.264
       244  -9.0898     83.3139     44.6715   5.8110955099e+01   5.8335899953e+01    0.1566855    0.1182061 -78.78 0.0007043912    1.672    0.402
       245 -11.4683     52.6082     41.0114   6.9491211363e+01   6.5467393707e+01    0.4953607    0.3996532 -30.70  0.002411388    1.328    0.247
       246 -12.1497     45.4181     38.5985   7.2150948950e+01   6.7231348769e+01    0.7134574    0.3395657  53.20  0.001325501    2.850    0.649
       247  -9.3544     72.2964     41.7910   6.0987447935e+01   6.1368147431e+01     0.409831    0.2178399 -65.10  0.001342879    3.541    0.718
       248 -10.1222    108.0657     42.0848   4.9420908447e+01   5.2682470246e+01    0.4329154    0.1639154  47.59 0.0009635582    2.810    0.644
       249 -10.1566     18.6407     42.1793   8.9845896981e+01   6.9884433571e+01    0.3318347    0.2059071 -52.95  0.001178132    1.452    0.311
       250 -11.2141     23.8758     41.1738   8.6107456407e+01   6.9605994139e+01    0.8166388    0.4409632  73.43  0.003024382    3.595    0.722
       251 -12.9258     28.0033     37.7799   8.2158808135e+01   6.9932903041e+01    0.5616605    0.4072939 -26.48  0.002092636    1.568    0.362
       252 -11.9720     24.5137     34.5232   8.3129351109e+01   7.1097345973e+01    0.3165981    0.2419378   5.19  0.001189249    1.508    0.337
       253  -9.7623    148.6503     40.1116   4.0158442496e+01   4.2197618937e+01    0.3166451    0.1106439 -38.14  0.001087551    2.564    0.610
       254  -9.7031     81.9484     41.2679   5.7095929493e+01   5.9288008187e+01     0.252537    0.1721951  26.14   0.00107998    1.995    0.499
       255  -9.1124    142.4849     40.5386   4.1365259226e+01   4.3782779622e+01    0.1541089    0.1405252 -72.42 0.0008089368    1.037    0.036
       256 -10.1473    121.7722     40.4043   4.5430698452e+01   4.9346411881e+01    0.2219886    0.1347404  51.61 0.0003731583    1.657    0.397
       257 -11.0857     69.4016     37.6606   6.0243938005e+01   6.2787797117e+01    0.4791396    0.3182517  -6.20  0.001620711    2.643    0.622
       258 -11.2339     74.9189     35.4785   5.7002653123e+01   6.1960518146e+01    0.3972331    0.2967047  14.91  0.001169136    1.819    0.450
       259 -10.7654     79.8304     29.0286   5.2026141593e+01   6.1905442345e+01    0.5122431    0.2457143 -29.72  0.001411412    2.318    0.569
       260  -9.9992    152.4870     38.9078   3.9124491622e+01   4.1344286980e+01    0.2201339    0.1960576  88.98 0.0004503372    1.087    0.080
       261 -11.1656    225.1876     37.9140   3.0603062078e+01   2.3859740626e+01    0.2667907    0.1925227  88.61 0.0003526942    1.538    0.350
       262 -11.4301    221.7943     32.0600   2.9385802195e+01   2.5243384514e+01    0.3428133    0.1745303 -34.22 0.0003375506    1.600    0.375
       263  -9.0632    160.2793     38.2608   3.7731968294e+01   3.9373217600e+01    0.1386116    0.1125141  34.53 0.0006864411    1.475    0.322
       264  -9.8141     86.0461     38.5239   5.4435807296e+01   5.8809865108e+01    0.2129253    0.1466921  56.76 0.0002953568    1.438    0.305
       265  -9.6953      1.3267     37.5436   1.0055540958e+02   7.2206090300e+01    0.2143125      0.10491 -74.23 0.0004954124    1.789    0.441
       266 -10.7189     81.3594     36.5310   5.5132672420e+01   6.0277625821e+01    0.3528667    0.2711873 -66.67  0.001707289    1.512    0.339
       267  -9.3838     84.5873     34.5839   5.3102867764e+01   5.9840036936e+01    0.2286138    0.1818001  42.40   0.00012144    1.300    0.231
       268 -12.9562     57.8715     34.1467   6.3632075199e+01   6.5861498268e+01    0.3897447      0.31948  32.19  0.001147052    1.292    0.226
       269  -9.3384    172.6197     35.7206   3.5257245664e+01   3.6498024824e+01    0.1475734    0.1063557  37.92  0.000671344    1.715    0.417
       270  -9.5576    134.4218     35.2180   4.0876528615e+01   4.6706938231e+01     0.218528     0.131861 -43.25 0.0009418842    1.610    0.379
       271 -11.3966     17.6798     30.9619   8.6504685755e+01   7.2645595634e+01    0.4615134    0.2866753  29.16  0.002427215    1.713    0.416
       272  -9.9780     12.3445     32.6927   9.1107107377e+01   7.2709086296e+01    0.2416675    0.1638228  76.31 0.0006363029    1.846    0.458
       273 -10.0280      9.1685     34.7873   9.4132438495e+01   7.2440147798e+01    0.2927169    0.1761589 -47.10  0.000804061    1.528    0.346
       274 -11.2243      8.1605     31.1454   9.3766128431e+01   7.3385353275e+01    0.2888026    0.2068289 -27.98 0.0003897354    1.465    0.318
       275 -10.6529    247.0210     32.6889   2.7768765564e+01   2.0017847684e+01    0.1600937    0.1408823 -57.11 0.0004676646    1.151    0.131
       276  -9.5925    192.6907     33.6838   3.2393871316e+01   3.1737359412e+01     0.134583    0.1059125  28.11 0.0004147378    1.634    0.388
       277  -9.3110    184.3115     33.6691   3.3267102381e+01   3.3796542619e+01    0.1556082   0.09228509 -57.34 0.0002494346    1.672    0.402
       278 -10.1645    232.8532     32.1930   2.8602899365e+01   2.2893351941e+01    0.1568597    0.1421871  -5.68 0.0004012676    1.299    0.230
       279 -10.1539    205.9314     32.0419   3.0686508087e+01   2.8795373211e+01    0.1995421    0.1758687 -49.13  0.000310339    1.035    0.033
       280 -10.0417    166.5795     32.2743   3.4915671259e+01   3.8495362851e+01    0.1978853    0.1419394 -13.89 0.0009494146    1.623    0.384
       281 -11.1499    102.8125     29.1521   4.5223652892e+01   5.6064225637e+01    0.5273276    0.3317706 -85.59  0.001764965    2.146    0.534
       282 -10.4419     97.8155     31.1845   4.7474814328e+01   5.7066795353e+01    0.2496048    0.2013921  42.35 0.0006425024    1.304    0.233
       283 -13.3207     74.4082    237.9442   9.7655323293e+01   1.8525142281e+01    0.6947364    0.5911643  65.62  0.005465176    1.275    0.216
       284 -10.5566    237.3839     29.3253   2.7597792203e+01   2.2276166713e+01    0.1762205    0.1405944  18.65 0.0009289098    1.678    0.404
       285 -11.8898    111.8289     27.5828   4.2375621753e+01   5.3881730922e+01    0.3037671    0.2459081 -30.48 0.0001203324    1.287    0.223
       286 -11.2644     59.5604     20.5151   5.5390476149e+01   6.7931742498e+01    0.3753853    0.3032118 -36.56 0.0009844828    1.242    0.195
       287 -10.3152    204.2062     25.9290   2.9156353408e+01   2.9884516747e+01    0.3636313    0.1364568 -45.99  0.001488556    2.273    0.560
       288 -10.7670    174.9521     26.3646   3.2043031118e+01   3.7035175420e+01    0.3127574    0.1861563 -33.83  0.001472388    1.546    0.353
       289 -10.6627     61.8432    242.0383   1.0045331526e+02   1.9346268057e+01    0.4101824   0.07315556  42.56  0.001747377    3.050    0.672
       290  -9.7024    109.5103    242.4749   9.1039222382e+01   1.3507219460e+01    0.1147835   0.08131675  40.38 0.0008083398    1.094    0.086
       291 -11.2153    128.4774     25.0409   3.8004170642e+01   4.9680225140e+01    0.4736655    0.2835781 -16.94  0.002012666    1.984    0.496
       292  -9.6531     98.2135    242.3479   9.3236027497e+01   1.4942222712e+01    0.1707107   0.07144213  39.88 0.0006347495    1.697    0.411
       293 -11.1642     88.5136    241.0816   9.5053044326e+01   1.6329655706e+01    0.2002255     0.146138 -39.56  0.001397942    2.003    0.501
       294 -10.1249    195.5137    238.5004   7.5039525299e+01   3.1451349317e+00    0.1850955    0.1298419  -3.27  0.001412735    1.358    0.263
       295  -9.7838    134.6402    238.1948   8.5795047741e+01   1.0872815549e+01    0.1347857   0.09926707 -28.84 0.0009519106    1.761    0.432
       296 -11.0830      8.3622     24.7539   9.1372999493e+01   7.4880939129e+01     0.429839    0.1869638  13.67  0.001911874    2.664    0.625
       297 -11.1837     14.1078     23.0049   8.5864857446e+01   7.4805413785e+01    0.2376698    0.1855439 -21.25 0.0003837371    1.338    0.253
       298 -11.1666     60.0691     26.6579   5.8665251489e+01   6.6791452543e+01    0.3076907    0.2486935 -17.63 0.0003816708    1.376    0.273
       299 -10.0377     69.0877     26.1536   5.4535181630e+01   6.4892914702e+01    0.3986681    0.1653011  39.28  0.001355411    3.117    0.679
       300 -10.0190      1.5229     25.6555   9.7435277953e+01   7.5082057472e+01    0.2237279    0.1012603 -64.61 0.0004653051    1.830    0.454
       301  -9.0439    219.2792     25.3449   2.7844963326e+01   2.6525561266e+01    0.1215993   0.09809078  16.76 0.0004456543    1.633    0.388
       302 -10.2999    193.4885     25.0016   2.9810737472e+01   3.2545377217e+01    0.2134724   0.07667647 -46.59 0.0005085832    2.450    0.592
       303 -12.2135    165.1562     22.7182   3.1951560793e+01   4.0010418634e+01    0.3256441    0.2712414  71.67 0.0002420668    1.214    0.176
       304 -10.7399    244.1452    236.8930   6.7390042068e+01  -2.1782365976e+00     0.140633    0.1072656   8.06   0.00119536    1.257    0.205
       305 -10.7636     99.5806     23.0829   4.3238425680e+01   5.7765373256e+01    0.4605632     0.296193  47.48  0.002093764    1.584    0.369
       306 -10.2369     93.9939     22.2825   4.4305546656e+01   5.9341681815e+01    0.2700749    0.2415403 -78.89 0.0006519762    1.147    0.128
       307 -10.0280    186.1773     22.2274   2.9654593978e+01   3.4655789772e+01      0.21001    0.1396298 -55.52  0.001064835    1.375    0.273
       308  -9.2123     25.8550     30.1245   8.0277466119e+01   7.1935327364e+01    0.1713188    0.1381818 -34.65 0.0002522857    1.221    0.181
       309  -9.4865    226.5437     21.5076   2.6375658646e+01   2.5353408399e+01    0.1291366    0.1050124 -46.32 7.285526e-05    1.006    0.006
       310 -10.1050    120.3802     20.9619   3.7791473564e+01   5.2407668812e+01    0.2007649    0.1751805 -34.35  0.000231041    1.185    0.156
       311 -10.3220     67.3624     21.0534   5.2400302330e+01   6.6099436434e+01    0.3441018     0.206374  57.30  0.001573097    1.678    0.404
       312 -11.0913     31.3161    235.9833   1.0632520374e+02   2.3644883246e+01    0.2539834   0.09782689  69.01   0.00133224    2.708    0.631
       313  -9.8094    177.3713    234.8367   7.7637774119e+01   5.7847037129e+00    0.1367118   0.09047549 -18.03 0.0009473442    1.719    0.418
       314 -10.2075    160.1606    235.6141   8.0779804413e+01   7.8926911509e+00    0.1584155   0.08073829  26.14 0.0004276765    1.655    0.396
       315  -9.9092    221.0110    234.4973   7.0471473768e+01   5.6260160563e-01    0.1471762   0.06469962  17.43 0.0007893173    2.461    0.594
       316 -10.8516     86.7645    232.8776   9.4754804822e+01   1.7812349784e+01    0.2389987   0.09811178  48.96  0.001234817    2.110    0.526
       317 -11.6097      6.0767     20.4994   9.1679184877e+01   7.6025383540e+01    0.3113207    0.2360661  24.90 0.0006506793    1.444    0.307
       318 -10.1450     38.2983    232.4727   1.0474704112e+02   2.3515311418e+01    0.1665613    0.1282506  71.49  0.000447869    1.293    0.227
       319 -10.1374     24.0888    232.1694   1.0765979531e+02   2.5019009032e+01    0.1514558    0.1271406  42.13 0.0006146261    1.267    0.211
       320 -10.0003    152.4756    228.9833   8.1398096013e+01   9.7421397376e+00    0.1304074   0.09941952  85.26 0.0008100161    2.561    0.610
       321 -10.1926    173.4839     19.9834   3.0175615238e+01   3.8135116364e+01    0.2196187   0.08207668 -47.03 0.0007972404    2.451    0.592
       322  -9.5907     88.1880     20.4083   4.4981726376e+01   6.1098702029e+01    0.2190012    0.1397915  78.17 0.0009558885    1.801    0.445
       323 -10.4022    107.9556     17.4595   3.8688261073e+01   5.6226798463e+01    0.2820661    0.2168807  29.24  0.001384898    1.520    0.342
       324 -10.2858     53.1894     18.1866   5.6978742638e+01   6.9663709233e+01    0.4839619    0.1643424  57.72   0.00130471    4.221    0.763
       325 -10.3684    194.8758     16.8694   2.7347691596e+01   3.3084613598e+01    0.2124566    0.1803661 -82.45   0.00038273    1.150    0.131
       326  -9.1488     82.3067     17.3197   4.5096504776e+01   6.3010509004e+01    0.1508706    0.1083163  28.27 0.0007031473    1.636    0.389
       327  -9.2194     58.4891    229.4896   1.0037974706e+02   2.1785116501e+01    0.1167114   0.08462511  45.81 5.318109e-05    1.002    0.002
       328  -9.4978    170.0070    228.7433   7.8166260738e+01   7.4541114657e+00     0.144243   0.07496565  33.05  0.000367036    1.494    0.331
       329 -11.1495      4.4565    226.3388   1.1152863712e+02   2.7870416306e+01     0.312007    0.1762673  71.17   0.00213969    1.522    0.343
       330 -10.7007     69.2118     16.9637   4.9323036557e+01   6.6271332988e+01    0.3735097      0.19958  59.40 0.0009951181    1.872    0.466
       331 -11.2493    121.3914    226.1131   8.7085734027e+01   1.4328684512e+01    0.2545591     0.144912  53.39    0.0014562    1.952    0.488
       332  -9.5144    143.4937     16.5052   3.2403669926e+01   4.6549763913e+01    0.1462117    0.1372793 -89.20  0.000183543    1.059    0.055
       333  -9.3703    224.3022     15.3034   2.4946571963e+01   2.6468419514e+01    0.1152821   0.09616609  25.76  0.000284557    1.592    0.372
       334  -9.6828     66.4635    226.4600   9.8499067433e+01   2.1358120231e+01    0.1170852   0.08750278  44.06 0.0008080694    1.024    0.023
       335 -11.9494     10.3500    216.8627   1.1007089927e+02   2.9056044531e+01    0.3302201    0.1945314  33.44  0.002177521    1.432    0.302
       336  -9.8522     83.9645     13.6841   4.2632464808e+01   6.3048951154e+01    0.2001792    0.1740053  71.10 0.0003370916    1.125    0.111
       337  -9.9178     38.0797    217.2879   1.0406514279e+02   2.6221965419e+01    0.1715175      0.11319  45.03 0.0007480704    1.114    0.102
       338 -11.5222     29.3456    215.5762   1.0589973142e+02   2.7455334198e+01    0.2899131    0.1841444  31.09  0.001519954    1.429    0.300
       339  -9.2443     96.4932     12.5058   3.8809030795e+01   5.9895182777e+01    0.1466429    0.1376111 -88.14 0.0001532045    1.042    0.040
       340 -11.3155    235.9314    214.3032   6.5376461342e+01   8.0446194719e-01    0.1952678    0.1228034 -12.47 0.0007067986    1.397    0.284
       341  -9.9268    136.4984    215.5143   8.2842155240e+01   1.3813109103e+01    0.2156059   0.09627565  26.93  0.001023626    2.259    0.557
       342  -9.5487    169.7679    213.0264   7.6125698351e+01   9.4769917494e+00    0.1289775   0.09430217 -34.53 0.0005275682    1.600    0.375
       343 -10.3801     20.5257    212.0319   1.0770027269e+02   2.8999812714e+01    0.2410161    0.1026933  44.92  0.001359678    1.616    0.381
       344 -10.9338      1.4756    211.0105   1.1184953561e+02   3.0929918051e+01    0.2202531    0.1382338  81.63 0.0009528653    1.498    0.333
       345 -12.1136      5.5786    208.2949   1.1089090843e+02   3.1091333490e+01    0.4038603    0.2436709  78.96  0.002685456    1.514    0.339
       346 -11.5293    238.6722    210.3004   6.4378191629e+01   8.7792246567e-01    0.2484584     0.190313  34.41  0.001949082    1.630    0.387
       347  -9.0796    208.4932    211.4849   6.9197823380e+01   4.4601652452e+00    0.1116444   0.08249031  11.41 6.367309e-05    1.055    0.052
       348 -10.3908     10.9559    208.0097   1.0969082793e+02   3.0666007418e+01    0.1800455    0.1498927  34.78  0.000575321    1.317    0.241
       349 -10.3211    246.1896    202.1535   6.2054221756e+01   8.0025777109e-01    0.1891301    0.1520931 -49.94  0.001351368    2.553    0.608
       350 -10.7245     20.1876    199.6902   1.0729901176e+02   3.1422527222e+01    0.2655692    0.1323059 -65.42  0.001301587    2.384    0.581
       351 -10.5782    175.3442    202.3364   7.3566298512e+01   1.0107137307e+01    0.2061313    0.1663399  29.53 0.0004589848    1.134    0.119
       352  -9.7980    117.0649    201.5020   8.5151604165e+01   1.8837620535e+01    0.1950306    0.1019593  36.76 0.0007341044    1.547    0.354
       353  -9.0836    188.2870    204.6960   7.1595865722e+01   7.9685543676e+00   0.09885663   0.08687661  48.29 0.0003511507    1.564    0.361
       354  -9.4961    223.0265    200.5096   6.5221113008e+01   3.8086474110e+00    0.1295258   0.09134973  52.69 0.0008089509    2.436    0.590
       355 -11.5580     16.1009    192.9973   1.0799744977e+02   3.3160609787e+01     0.455996    0.2094042  28.16  0.002432993    1.980    0.495
       356  -9.4201    222.3155    192.3580   6.4032513592e+01   4.8082809074e+00    0.1182263   0.07049149   4.20 4.666308e-05    1.750    0.429
       357 -10.2697    244.8404    187.9352   5.9974340003e+01   2.4008310341e+00    0.1682954    0.1120252   1.72 0.0005491188    1.261    0.207
       358  -9.6180    212.0099    187.7549   6.4912748263e+01   6.7464250377e+00    0.1460236   0.08420976  34.45 0.0006066562    1.578    0.366
       359  -9.3883      2.3198    187.3392   1.1112191698e+02   3.5540812595e+01    0.1033469   0.08613913 -47.77 0.0005096717    1.712    0.416
       360 -11.4072     15.7970    181.9603   1.0762570143e+02   3.5490389585e+01     0.453559    0.1888078  63.35  0.002153552    2.062    0.515
       361 -10.4325    168.1736    183.4560   7.1976061845e+01   1.3862921387e+01    0.2290579    0.1765208  53.71  0.001395505    1.582    0.368
       362  -9.9446     58.8053    181.6063   9.6689132038e+01   3.0816811115e+01    0.1891536   0.09462642  42.50 0.0005667864    1.597    0.374
       363  -9.0771      1.6916    180.2956   1.1109326554e+02   3.7068851457e+01    0.1294664   0.06062113  54.41   0.00031971    1.589    0.371
       364  -9.8895    244.4948    178.0157   5.8365201148e+01   3.4940084606e+00    0.1647681   0.08951948 -23.25  0.001034314    1.616    0.381
       365 -10.6886     46.5396    177.5122   9.9480989437e+01   3.3200435302e+01    0.2717423    0.2162151  57.65  0.001068655    1.024    0.023
