#   1 NUMBER                 Running object number                                     
#   2 MAG_AUTO               Kron-like elliptical aperture magnitude                    [mag]
#   3 X_IMAGE                Object position along x                                    [pixel]
#   4 Y_IMAGE                Object position along y                                    [pixel]
#   5 X_WORLD                Barycenter position along world x axis                     [deg]
#   6 Y_WORLD                Barycenter position along world y axis                     [deg]
#   7 A_WORLD                Profile RMS along major axis (world units)                 [deg]
#   8 B_WORLD                Profile RMS along minor axis (world units)                 [deg]
#   9 THETA_WORLD            Position angle (CCW/world-x)                               [deg]
#  10 FWHM_WORLD             FWHM assuming a gaussian core                              [deg]
#  11 ELONGATION             A_IMAGE/B_IMAGE                                           
#  12 ELLIPTICITY            1 - B_IMAGE/A_IMAGE                                       
         1 -14.0337    168.1832     65.5257   8.9511716419e+01   3.4782835971e+01     3.885673     1.144584 -41.71   0.00799042    3.638    0.725
         2 -16.0460    204.4993     61.1290   8.2060478852e+01   2.6927248608e+01      10.3662     6.512768 -60.69    0.0461543    2.228    0.551
         3 -14.8070    233.5746      5.4794   6.3615944290e+01   2.6306695726e+01     1.525301    0.8942255  49.53  0.001665289    1.949    0.487
         4 -14.2445    248.2975     24.2320   6.7333422770e+01   2.1488808159e+01    0.8197236    0.2571732 -34.80   0.00301768    2.411    0.585
         5 -16.4760    247.1065     12.7107   6.4548776915e+01   2.2798112993e+01      3.79725     2.768553  18.06   0.01716933    1.663    0.399
         6 -10.1008    142.9798      8.7754   7.4049411375e+01   4.8324785001e+01    0.5874634    0.2588924  -6.26  0.002058665    2.881    0.653
         7  -8.9871    171.9857      2.8797   6.8078136713e+01   4.1301885090e+01    0.3604005    0.1556288 -32.17  0.001494754    2.147    0.534
         8 -10.1813    182.3517      4.2813   6.7461489067e+01   3.8544739770e+01    0.4838407     0.462474 -27.47   0.00258625    1.035    0.034
         9  -8.5259    188.4547      2.2566   6.6228692859e+01   3.7178358895e+01    0.2228768    0.1481066  30.57  0.001110753    1.723    0.420
        10  -9.7027      1.6373    197.1981   1.5307081808e+02   3.3406952985e+01    0.1919032   0.07103771 -75.30   0.00110814    2.581    0.612
        11 -11.5124    247.1642    247.9483   1.1342117843e+02  -2.3743694413e+00    0.5560452    0.2588558  27.77  0.003842344    1.557    0.358
        12 -11.6052     60.8160    162.0883   1.3795623131e+02   3.4752168955e+01    0.6487192    0.4503507  60.47  0.001832229    1.371    0.270
        13 -11.5149     49.0789    172.0620   1.4167016214e+02   3.4006603912e+01    0.4182079     0.351407  10.10  0.001371206    1.524    0.344
        14 -11.8898     55.3381    167.0710   1.3976442848e+02   3.4344531241e+01    0.6953314    0.5174138  56.56  0.002710659    1.200    0.167
        15  -8.8784    218.1846    169.4569   1.0549126874e+02   9.4827993225e+00    0.2664373    0.1118694  49.18  0.001123685    3.280    0.695
        16 -10.0666     74.6923    154.5446   1.3366999574e+02   3.4645584293e+01    0.2077692    0.1582901 -57.10  0.001259148    1.377    0.274
        17  -9.7950    189.7516    190.3715   1.1425121631e+02   1.1189320274e+01     0.286701    0.2522115 -70.31  0.001891606    1.949    0.487
        18  -9.2962     69.6062    244.2955   1.4282295642e+02   1.9415918870e+01    0.1669651    0.1283153  41.13 0.0002862645    1.121    0.108
        19  -9.7821    135.0249    120.4628   1.1221511551e+02   3.2123759062e+01    0.3306294    0.2040758 -47.54   0.00119661    1.686    0.407
        20  -8.7224    130.9881    122.0333   1.1356812182e+02   3.2570379421e+01    0.2090819    0.1984626   6.86 0.0003391317    1.021    0.021
        21  -9.6664    220.9431    119.2981   9.4486158044e+01   1.5608671978e+01    0.2441476    0.2044418 -26.85 0.0007414311    1.225    0.184
        22 -11.9151    206.5625    109.7720   9.4637829262e+01   1.9698488014e+01    0.7074564    0.4346135  42.65  0.003060375    1.654    0.395
        23 -11.0866    167.9853    114.1604   1.0314993083e+02   2.6790421605e+01     0.394913     0.392343  -1.48  0.001084325    1.177    0.150
        24 -10.2608    134.6854    111.6219   1.1019142255e+02   3.3917617362e+01    0.5552173    0.1314886 -44.11  0.001580851    4.241    0.764
        25  -9.5771    151.6934    106.8368   1.0490899453e+02   3.1417998753e+01    0.3774467    0.2767098 -88.00  0.001186075    2.435    0.589
        26 -10.4196    215.0394    116.4935   9.4807578830e+01   1.7101131625e+01    0.3906036    0.2609697  37.76  0.002083566    1.501    0.334
        27  -8.5803    140.7694    104.4012   1.0686685785e+02   3.4105355215e+01    0.2028649     0.136172  33.13 0.0005491382    1.555    0.357
        28  -9.6841    146.2785     99.5164   1.0424956583e+02   3.3891458983e+01    0.3896326    0.2538875 -40.99  0.001807516    1.529    0.346
        29 -11.3326    220.0914    114.6455   9.3538463649e+01   1.6399699291e+01    0.6928374     0.409357  71.91  0.002626667    4.199    0.762
        30  -9.5649    133.2472     96.8144   1.0671903419e+02   3.7102880625e+01    0.2722933    0.2472495  71.37 0.0007390628    1.290    0.225
        31  -7.7382      4.3298    233.7368   1.5358875446e+02   2.7102297793e+01   0.09944482   0.04382313  53.64 0.0002716954    1.571    0.364
        32 -10.8302    155.7882     93.1290   1.0030104359e+02   3.3026835332e+01    0.4839023    0.3253128  18.57  0.002137726    1.876    0.467
        33  -9.8302    139.7068     89.6951   1.0311332747e+02   3.7115407593e+01    0.3455672    0.3133473 -56.64 0.0007811654    1.232    0.188
        34  -8.2463     17.5172    151.5073   1.4756899641e+02   4.1151595601e+01    0.1134354   0.09410605  77.88 3.013516e-05    1.022    0.022
        35 -10.5207     68.4503    145.0719   1.3400623180e+02   3.7443872485e+01    0.5799302    0.3142143  55.25  0.002508475    1.992    0.498
        36 -10.9015    153.1110     82.9852   9.7995776229e+01   3.5400012854e+01    0.4499183    0.3011815 -20.02 0.0006751932    1.632    0.387
        37  -8.2700     47.1479    223.1863   1.4561399778e+02   2.4963223510e+01    0.1355029    0.1187032  44.22 0.0003281773    1.235    0.190
        38 -10.6356      2.7604    209.6045   1.5322431674e+02   3.1152684867e+01    0.3354144     0.162199 -79.40  0.002295384    2.030    0.508
        39  -8.4345    142.5081    145.9685   1.1588332859e+02   2.5935925930e+01    0.1923499    0.1336847 -42.47 0.0004182553    1.516    0.341
        40  -8.9398    145.9302     72.9087   9.6574398224e+01   3.8775316767e+01    0.2948601     0.185274 -55.58 0.0009397629    2.091    0.522
        41  -9.4997    133.8530    137.2723   1.1615071427e+02   2.9084631353e+01    0.2348814    0.2032444 -12.48 0.0002025131    1.229    0.187
        42 -11.9736    211.2694    134.8183   9.9630205502e+01   1.5240520241e+01    0.5934922    0.3659798  35.99  0.003129214    1.569    0.363
        43  -8.4533    147.9486     58.3324   9.1373043900e+01   4.0725755629e+01    0.2051555    0.1934144  29.69  0.001107625    1.066    0.062
        44 -11.5504    218.1810    130.8262   9.7561228997e+01   1.4547778996e+01    0.4960362    0.3839855  75.08  0.002616182    2.344    0.573
        45 -12.4520    196.6387    132.0255   1.0165106250e+02   1.8326044111e+01    0.7696249    0.5553111 -43.76  0.004137964    1.629    0.386
        46 -10.1731    113.6940     42.3384   9.3975897344e+01   5.1371304009e+01    0.2405263    0.1832541 -66.79  0.001121532    1.797    0.444
        47 -10.6390    197.9817    125.9975   1.0003181892e+02   1.8974936548e+01    0.2776441    0.2477567  37.45 0.0006496464    1.245    0.197
        48  -8.7148    123.9974    206.0092   1.2918589594e+02   1.8569620962e+01    0.1635455    0.1337213  37.58  0.001150998    1.021    0.021
        49  -9.6954    135.9995    129.3605   1.1397231480e+02   3.0217795431e+01    0.2900696    0.1444891 -54.57  0.001164673    2.502    0.600
        50 -10.3022    160.3879    128.6140   1.0821371546e+02   2.5773979941e+01    0.2861539    0.2782264  13.79  0.001720879    1.129    0.114
        51 -12.5158     19.6863    195.7430   1.4948653946e+02   3.2236658580e+01    0.6722163     0.487556  10.70  0.004812814    1.926    0.481
        52 -11.8210    186.4398    122.1212   1.0131725975e+02   2.1798338484e+01    0.6476334    0.3553044 -42.88  0.002925419    1.998    0.500
        53 -12.3661     17.5346    189.8159   1.4964913657e+02   3.3507626507e+01     0.629375    0.4186779  12.55  0.004271016    2.075    0.518
