#   1 NUMBER                 Running object number                                     
#   2 MAG_AUTO               Kron-like elliptical aperture magnitude                    [mag]
#   3 X_IMAGE                Object position along x                                    [pixel]
#   4 Y_IMAGE                Object position along y                                    [pixel]
#   5 X_WORLD                Barycenter position along world x axis                     [deg]
#   6 Y_WORLD                Barycenter position along world y axis                     [deg]
#   7 A_WORLD                Profile RMS along major axis (world units)                 [deg]
#   8 B_WORLD                Profile RMS along minor axis (world units)                 [deg]
#   9 THETA_WORLD            Position angle (CCW/world-x)                               [deg]
#  10 FWHM_WORLD             FWHM assuming a gaussian core                              [deg]
#  11 ELONGATION             A_IMAGE/B_IMAGE                                           
#  12 ELLIPTICITY            1 - B_IMAGE/A_IMAGE                                       
         1 -13.1050    197.7123     46.4769   1.1991478300e+01   3.1919950482e+01    0.9132909    0.8144692 -43.68  0.004624743    1.329    0.247
         2 -11.7262    229.4431     19.9798   4.5658630663e+00   2.9512910418e+01    0.5188051    0.3831664 -15.36  0.003718713    2.275    0.560
         3 -12.8497    224.3000     16.2942   4.1597289024e+00   3.0755355871e+01    0.9078525    0.7249185  -0.34  0.005956529    2.398    0.583
         4 -11.2116    119.1458     10.0168   1.1410372140e+01   5.2732903156e+01    0.5914178    0.3662376  55.74  0.002698309    1.632    0.387
         5 -10.8736      7.1483      9.2450   5.2948569456e+01   7.6518877525e+01    0.3041376    0.2264162  13.99  0.001937054    1.151    0.131
         6  -8.9144     57.6646      5.3258   2.2369586369e+01   6.7511430809e+01    0.1259338   0.09175631 -80.47 0.0007051466    1.718    0.418
         7  -8.3092     91.4712     16.1344   1.8200000139e+01   5.8613694072e+01    0.1632945    0.1289971 -34.37 0.0003925448    1.471    0.320
         8 -11.0992    247.4860    247.5277   4.0274018086e+01  -3.5950020260e+00     0.509617    0.2327372 -24.49   0.00346513    1.700    0.412
         9  -8.6530    151.2609    249.2519   5.7171730898e+01   4.1387615728e+00    0.1923863    0.1297387 -37.95 0.0009563576    1.479    0.324
        10 -10.0952    138.0016    249.8289   6.0025900645e+01   5.3451327734e+00    0.3098195    0.1609984  27.92  0.001699355    1.709    0.415
        11 -10.1895    133.8148    249.5725   6.0895561931e+01   5.8062073391e+00    0.2490712    0.1995756 -29.98  0.001258208    1.271    0.213
        12 -10.9593    124.6422    248.2287   6.2747247789e+01   6.9664312468e+00    0.5231188    0.3363369 -29.21  0.002058053    1.573    0.364
        13 -10.4708    120.6200    245.5730   6.3333036465e+01   7.8516144985e+00    0.3244157    0.2195448 -67.25  0.001021616    2.117    0.528
        14 -18.4975     17.2930    227.1347   8.7546575901e+01   2.1946943600e+01     5.377502     4.925573 -40.81   0.03509612    1.276    0.217
        15  -9.9357     75.4324    248.0527   7.4261541099e+01   1.2048661793e+01    0.4644494    0.1963881 -58.79  0.002177494    2.623    0.619
        16  -9.7605    144.3170    181.7495   4.8650024327e+01   1.7371229685e+01    0.2939282    0.2295154 -79.48  0.001183954    1.903    0.474
        17  -9.3564    221.4097    177.1056   3.3671664272e+01   8.5095135392e+00    0.2719239   0.09011585 -48.98  0.001154101    3.288    0.696
        18 -10.3793    124.2062    177.2399   5.2625975013e+01   2.1173814262e+01     0.261526    0.2527786  48.29 0.0006669699    1.176    0.149
        19 -11.1088    124.2110    172.6939   5.1830939266e+01   2.2169114392e+01    0.5793371    0.4203374  50.91   0.00204652    1.635    0.388
        20  -9.5269     86.3282    176.6947   6.2761957269e+01   2.6696020745e+01    0.4588529    0.3019954  89.06   0.00167244    2.244    0.554
        21 -10.1542     89.4469    174.5204   6.1516402358e+01   2.6793707209e+01     0.331479    0.3157049  73.83 0.0009561602    1.153    0.133
        22  -9.4032    141.7032    176.0273   4.8245373079e+01   1.8908999695e+01    0.1928207    0.1652537 -32.62 0.0005134336    1.094    0.086
        23  -9.0900     77.3532    174.6968   6.5107728793e+01   2.8406029857e+01    0.3169178    0.1679802 -56.69 0.0006524876    1.902    0.474
        24  -9.8409    139.4079    172.0407   4.8063300978e+01   2.0068717316e+01    0.2558956    0.2017847  35.95 0.0006039721    1.328    0.247
        25  -9.3049    187.8938    170.1247   3.7888094072e+01   1.3672892512e+01    0.3997647    0.1559272 -48.34  0.001766809    2.435    0.589
        26  -9.1385    126.5313    190.9189   5.4337455429e+01   1.7907674568e+01    0.2836446    0.1323477 -52.51 0.0007258059    2.175    0.540
        27  -9.0146    144.8249    169.2103   4.6317899192e+01   1.9858508896e+01    0.1919132    0.1512733 -16.20 0.0005773153    1.315    0.239
        28 -10.3412    125.0279    186.4963   5.3983231535e+01   1.9054207152e+01    0.3101246    0.1932031 -47.10  0.001152608    1.580    0.367
        29 -11.3067    121.5382    183.6455   5.4375125252e+01   2.0155690011e+01    0.4610247    0.3948277 -10.16   0.00209092    1.138    0.121
        30  -9.9766    107.2674    156.8441   5.3385384758e+01   2.8374444562e+01    0.4301657     0.190513  44.76  0.001593381    2.487    0.598
        31 -11.0816     98.5184    150.9539   5.4744803744e+01   3.1169390475e+01    0.6687164    0.4048639 -87.82   0.00237438    3.210    0.688
        32 -10.4386     85.9590    154.8441   5.9218065493e+01   3.2163857702e+01    0.3356128    0.2784181  21.34 0.0003964586    1.202    0.168
        33 -11.3614     92.0091    149.1460   5.6324839686e+01   3.2644785880e+01     0.725445    0.5646386 -20.09  0.001701317    1.483    0.326
        34 -11.1951    133.7382    145.1684   4.4265026843e+01   2.6670443086e+01     1.466518    0.3561402 -55.05  0.003454724    6.613    0.849
        35  -9.5604    137.0531    143.0264   4.3046545328e+01   2.6569728779e+01    0.2884082    0.1965929 -60.68 0.0008858572    1.636    0.389
        36  -8.6015    122.5031    154.9642   4.8982662651e+01   2.6370520960e+01    0.2137078    0.1399459 -52.01 0.0004991395    1.519    0.341
        37  -9.1106     48.4583    155.3203   7.1574045305e+01   3.7134833955e+01    0.2702351      0.21698 -71.99 0.0005367532    1.286    0.222
        38 -10.4429    111.5310    150.7027   5.1038311052e+01   2.9123912925e+01    0.4050468    0.3140763  81.31  0.001622588    1.748    0.428
        39  -9.0630    113.9733    144.9649   4.9233902491e+01   3.0044164899e+01    0.2355066    0.1813236  76.76  0.001005783    1.748    0.428
        40  -9.7595    124.9770    141.3143   4.5620531955e+01   2.8996262639e+01    0.2004374    0.1842599  28.80 0.0003800108    1.112    0.100
        41 -10.0714    113.8385    139.0423   4.8049258565e+01   3.1425524583e+01    0.3308441     0.230591 -82.41  0.001355929    2.117    0.528
        42 -11.5098    104.8943    135.9943   4.9887850765e+01   3.3679106432e+01    0.9408247    0.5939829  -0.41  0.003534679    2.827    0.646
        43 -11.3925     92.6306    135.7509   5.3464385055e+01   3.5830748141e+01    0.4369946    0.3948303  46.64  0.002314638    1.118    0.105
        44 -10.5065     98.5152    131.7516   5.0838393637e+01   3.5789647508e+01    0.6023664    0.3963352  75.84  0.002384728    2.481    0.597
        45  -9.2870    120.9899    134.9806   4.5301982215e+01   3.1093523547e+01    0.2322989    0.1799978  80.05  0.000622663    1.724    0.420
        46 -10.7984    135.4508    128.9652   4.0452688937e+01   2.9815288753e+01    0.7532627    0.2897713 -48.33  0.002816461    2.493    0.599
        47  -9.8995    112.9266    128.3263   4.5985879939e+01   3.4026484243e+01    0.3570859    0.2782041  39.38 0.0009630985    1.296    0.229
        48  -8.9416    167.1888    224.8589   5.0619275406e+01   6.5745518942e+00    0.1713641    0.1514105  -8.10 0.0004495233    1.185    0.156
        49  -9.6620    100.5591    123.8841   4.8491441964e+01   3.7284519877e+01    0.2871081    0.2477242  -5.97 0.0006549689    1.334    0.251
        50  -7.9635    168.1940    124.4427   3.2707676410e+01   2.4952527517e+01    0.1551795    0.1273505  67.30 0.0009040561    1.446    0.308
        51 -10.5698     14.6181    122.9557   8.0078249906e+01   4.9385184402e+01    0.4826047    0.2530024  55.38  0.001946819    2.204    0.546
        52  -8.0721    181.4002    123.2005   3.0154112185e+01   2.2974319589e+01    0.1732928    0.1068397 -51.68 0.0003741097    1.514    0.339
        53 -10.1401    120.5595    122.3508   4.2623332020e+01   3.3953511791e+01    0.4540153    0.2904504 -21.59  0.001862298    2.413    0.586
        54 -10.8439     98.2839    194.9368   6.2170743189e+01   2.0788100831e+01    0.7408324    0.3253736 -65.43  0.002804862    2.918    0.657
        55  -8.0243    232.4160    119.4908   2.2388139662e+01   1.6013575744e+01    0.1128861     0.084429 -45.65 0.0001135084    1.049    0.047
        56  -8.8087    108.9705    118.0020   4.4719397036e+01   3.7080934966e+01     0.211569    0.2108797 -49.77  0.001194211    1.019    0.018
        57  -8.8772    240.6062    116.8193   2.1012317115e+01   1.5334468495e+01    0.1618246   0.07638147 -47.75 0.0005572568    1.686    0.407
        58 -14.7540     68.7220    142.8752   6.2600453362e+01   3.7786493150e+01     4.995502     2.837989  76.37   0.01692864    3.251    0.692
        59  -9.4926     97.1972    111.5561   4.6598248463e+01   4.0755304592e+01    0.3739721    0.2835969  56.48  0.001808778    1.410    0.291
        60 -10.5456    116.2260    109.7095   4.0774494095e+01   3.7506442667e+01    0.5036665    0.2988118  54.89  0.002192937    1.875    0.467
        61  -8.5958     86.1030    109.8958   4.9692480578e+01   4.3199484400e+01    0.2420614    0.2017771  67.28  0.001159319    1.333    0.250
        62 -10.7364    120.2044    103.3969   3.8200487847e+01   3.8045226288e+01    0.4041539    0.2882322 -52.93  0.001429769    1.396    0.283
        63 -10.1700    193.0535    194.7944   4.1131770924e+01   8.8155315246e+00     0.628488    0.3751603 -64.97  0.002834307    3.693    0.729
        64  -9.5323     71.9781    241.2709   7.4489789994e+01   1.3754724134e+01     0.379346    0.2111219 -73.28   0.00189685    2.312    0.567
        65  -9.6018     58.3111     97.2253   5.6653685565e+01   5.1056555524e+01    0.3044993    0.1932121  43.96 0.0009028052    1.582    0.368
        66  -7.9498     79.8054    250.6139   7.3438206498e+01   1.1110970969e+01    0.2765873    0.1027848  24.36  0.001202784    2.165    0.538
        67  -8.3136     70.1586     93.1663   5.0970527757e+01   5.0005981960e+01    0.2137206    0.1980237  -7.37 0.0002820814    1.157    0.136
        68 -10.1475     39.1788     88.7569   6.2822729773e+01   5.5966426588e+01    0.3588838    0.2433039  37.04  0.001224027    1.447    0.309
        69  -9.6126     24.2753     88.8945   7.0031908395e+01   5.7689456880e+01     0.334926     0.198032  25.68 0.0009679059    1.634    0.388
        70  -8.4456      9.3885     86.2007   7.7101485787e+01   5.9667316220e+01    0.1916311    0.1345827 -86.73  0.000612889    1.604    0.376
        71  -7.8414    122.0389     79.9656   3.1660126713e+01   4.2231195514e+01    0.1624421    0.1496962 -69.16 0.0009348004    1.053    0.050
        72  -8.1128    157.4978     85.4614   2.5960904657e+01   3.3910906005e+01    0.1322723    0.1187804 -66.84 0.0008094154    1.005    0.005
        73  -8.8464    161.9959     65.5849   2.0496450473e+01   3.6201550294e+01    0.1924149    0.1527603 -52.79 0.0001347664    1.149    0.130
        74 -12.4363    182.0777     59.1037   1.6348300369e+01   3.3167149304e+01    0.8693394    0.7794126  19.48   0.00197852    1.656    0.396
        75  -9.4826    237.2256    249.8168   4.2065736028e+01  -3.1727885275e+00    0.1418256   0.08163861 -14.97 0.0003872605    1.338    0.253
        76 -12.0850    203.6398     41.0884   1.0360213951e+01   3.1518728773e+01    0.4686049    0.3263464 -48.96  0.001046478    1.200    0.166
        77  -8.9334    141.8092     42.1544   1.7525582311e+01   4.3857455990e+01    0.1643313    0.1468233  54.49 0.0004170929    1.323    0.244
        78  -8.6413     90.4104    246.9229   7.0530714310e+01   1.0739859342e+01    0.2391897    0.1555238  -6.38  0.001296088    1.657    0.397
        79 -10.7763    109.3217    243.9350   6.5733926704e+01   9.3315902858e+00    0.3698109    0.2254881   4.65  0.001657922    1.618    0.382
        80  -8.2122    189.5469     15.5230   6.0849234226e+00   3.7081255847e+01    0.1121832   0.08572942 -67.89 0.0003113063    1.017    0.017
        81  -9.4924    185.5666    224.9798   4.7124365288e+01   4.6793962110e+00    0.5079989      0.11561 -49.60  0.001717443    5.407    0.815
        82 -10.4426    181.6699    181.7766   4.1024829059e+01   1.2410472983e+01    0.7209213    0.1687881 -45.10  0.002559403    3.685    0.729
        83 -10.9941    116.1389    187.0939   5.6300168454e+01   2.0150068750e+01    0.4700304    0.2430972 -37.78  0.002011797    2.101    0.524
