#   1 NUMBER                 Running object number                                     
#   2 MAG_AUTO               Kron-like elliptical aperture magnitude                    [mag]
#   3 X_IMAGE                Object position along x                                    [pixel]
#   4 Y_IMAGE                Object position along y                                    [pixel]
#   5 X_WORLD                Barycenter position along world x axis                     [deg]
#   6 Y_WORLD                Barycenter position along world y axis                     [deg]
#   7 A_WORLD                Profile RMS along major axis (world units)                 [deg]
#   8 B_WORLD                Profile RMS along minor axis (world units)                 [deg]
#   9 THETA_WORLD            Position angle (CCW/world-x)                               [deg]
#  10 FWHM_WORLD             FWHM assuming a gaussian core                              [deg]
#  11 ELONGATION             A_IMAGE/B_IMAGE                                           
#  12 ELLIPTICITY            1 - B_IMAGE/A_IMAGE                                       
         1 -13.6085     30.6244     59.6518   1.1839431625e+02   6.1174151962e+01     1.556869    0.8215076  29.55  0.005794191    2.148    0.534
         2 -13.1998    215.8629     15.7454   5.3497998487e+01   2.8690327766e+01     1.238301    0.9156806  51.96  0.003647413    1.408    0.290
         3 -12.4861    203.5402     21.0635   5.6305975071e+01   3.1204153965e+01    0.5341287     0.372131 -89.81  0.002462632    1.566    0.361
         4 -12.9836     42.6516     20.4629   9.8983596249e+01   6.8035404798e+01    0.7034415    0.4468913  11.49  0.003830175    1.712    0.416
         5 -11.4891    127.1058     16.6693   6.7154324467e+01   5.1602216935e+01    0.5142872    0.3843684 -14.70  0.002629644    1.394    0.283
         6 -13.2572    190.6400      9.2489   5.4317332224e+01   3.5666804830e+01     1.095767    0.4853102  73.73    0.0044762    2.242    0.554
         7 -12.4686    183.4696      4.0630   5.3550400194e+01   3.7994005395e+01    0.6588206    0.4359782  66.37  0.002231631    1.395    0.283
         8 -10.1748     65.1173     10.9036   8.3619884655e+01   6.6068348339e+01    0.2851228    0.2409853  -4.86 0.0009952532    1.069    0.065
         9 -11.0544     65.9711      7.4797   8.1434623489e+01   6.6362511713e+01    0.4233099    0.2003158  35.56  0.001925076    2.061    0.515
        10 -12.3706     58.3226      7.9693   8.4980102298e+01   6.7660000049e+01    0.7090354    0.4093009  35.61   0.00369931    1.670    0.401
        11 -11.1699     53.7013      2.0912   8.3758394618e+01   6.9217872195e+01    0.4041172    0.2630658  53.31  0.002146654    2.108    0.526
        12 -11.9439     43.8139      8.6879   9.2381859343e+01   6.9825610465e+01    0.3292515     0.290793   8.87  0.001121789    1.240    0.193
        13 -10.4380    109.7710      8.9797   6.7991498823e+01   5.6711513337e+01     0.246802    0.1877476  78.83  0.001258005    1.635    0.389
        14 -10.6084    165.8676      7.6721   5.6924271646e+01   4.2317063299e+01    0.2553641    0.2077848 -32.06 0.0004416645    1.299    0.230
        15 -12.2474    166.6595      2.2143   5.4987323549e+01   4.2577046712e+01    0.8327825    0.2633904  65.17  0.002815752    2.637    0.621
        16 -10.4761    149.1695      8.1055   5.9600542565e+01   4.6709749912e+01    0.2235008    0.1796848  38.20 0.0004633665    1.198    0.165
        17  -9.8884    103.5036      4.5139   6.7556120023e+01   5.8654817541e+01    0.1419206    0.1243071  30.05 0.0004930106    1.016    0.016
        18 -11.0218    238.8545    212.1548   9.5744160659e+01  -1.5183491565e+00    0.2755675     0.251629 -31.94  0.001998463    1.822    0.451
        19 -11.1316    219.9705    249.4509   1.0466609276e+02  -2.7192541504e+00    0.2358758    0.1698228  34.34  0.001612278    1.385    0.278
        20 -11.0573     21.2243    248.8493   1.3934496529e+02   2.2783552363e+01    0.2179803    0.1751665 -19.46   0.00173702    2.514    0.602
        21 -11.9406    232.8350    218.8209   9.7872396195e+01  -1.3692300044e+00    0.3082789    0.1893604  50.39  0.001691599    2.618    0.618
        22 -11.4305    231.3848    211.9046   9.6983010012e+01  -4.0147826589e-01    0.3997282    0.2292729 -13.05  0.002337527    1.810    0.448
        23  -9.6162    101.6645    218.2953   1.2277179993e+02   1.8472044804e+01    0.1219057   0.07346277  58.06 0.0007028598    1.646    0.393
        24 -11.6272    221.4874    214.5322   9.9149267977e+01   7.7170985711e-01    0.5290546    0.2307196  22.74  0.002450675    2.512    0.602
        25 -10.0025     56.4984    205.9832   1.3070365414e+02   2.6345004625e+01    0.1591926   0.07645428  73.91 0.0008098343    2.492    0.599
        26  -9.7248     48.6758    202.3170   1.3200161921e+02   2.7888589374e+01    0.1205175    0.0647215  61.00 0.0007043905    1.669    0.401
        27  -9.8166     41.3643    201.9780   1.3343883570e+02   2.8726016193e+01    0.1509998    0.1183033  82.94 0.0005771587    1.168    0.143
        28 -11.5693      5.0739    199.6278   1.4031092078e+02   3.2479150011e+01    0.3448762    0.1497828  55.34  0.001167348    1.772    0.436
        29  -9.7275    112.3440    198.0193   1.1827191295e+02   2.0428123507e+01    0.1874815    0.1012647 -87.45 0.0007050612    4.421    0.774
        30 -12.5491    160.7739    192.0258   1.0713954570e+02   1.3662476061e+01     0.712392    0.4853741  58.02  0.003104609    1.880    0.468
        31  -9.5910    133.4895    196.0544   1.1349995181e+02   1.7496111657e+01    0.1666543    0.1295013 -55.41 0.0007740331    1.544    0.352
        32  -9.6966    215.2438    193.5024   9.6684914665e+01   4.3049452406e+00    0.2381528   0.09161893 -44.94 0.0008937825    4.421    0.774
        33  -9.7725    183.3523    182.8184   1.0092243183e+02   1.1208095692e+01    0.3255608    0.1136217 -30.63  0.001103369    4.322    0.769
        34 -10.1003    224.1906    183.6040   9.3240707980e+01   4.1172191524e+00     0.185401    0.1001897  29.31 0.0009501505    1.635    0.388
        35  -9.8447     67.2562    180.6328   1.2617874521e+02   2.9940790882e+01    0.1633973    0.1097566  26.32 0.0007958615    1.674    0.403
        36  -9.3923    128.2270    177.8547   1.1193486344e+02   2.1601626023e+01    0.1808148    0.1502113  11.38 0.0005011089    1.351    0.260
        37 -10.0930     61.1971    177.2361   1.2720343421e+02   3.1357688773e+01     0.179452     0.121989  64.03  0.001085212    1.377    0.274
        38 -11.0427     38.2590    174.6111   1.3212396940e+02   3.4387508759e+01    0.2505512    0.1330258  33.47     0.001212    1.853    0.460
        39  -9.0505     47.3242    173.3261   1.2998152838e+02   3.3718602273e+01    0.1104538    0.0880105 -38.79 0.0007048869    1.691    0.409
        40 -11.8765     55.5901    167.6433   1.2753241717e+02   3.3992862076e+01    0.5561923    0.2814292 -86.46  0.002565174    2.279    0.561
        41 -11.2018     51.3100    159.3668   1.2770141638e+02   3.6232020510e+01    0.3963037     0.216679  69.41  0.002021884    2.047    0.511
        42  -9.7736    121.4644    169.9633   1.1223266917e+02   2.4222419048e+01    0.1803407    0.1184466 -87.67 0.0008092645    2.523    0.604
        43  -9.8378    112.0297    167.9897   1.1413817035e+02   2.6148493347e+01    0.2174449    0.1536453  67.26  0.001131582    1.691    0.409
        44  -9.4580     13.8022    168.1893   1.3707059189e+02   3.7881790850e+01    0.2047085   0.07080036  60.74 0.0009512795    2.859    0.650
        45  -9.9034     99.3850    166.1953   1.1688426236e+02   2.8482764122e+01    0.1830868    0.1239438 -76.91  0.000951817    1.766    0.434
        46 -10.5921     46.8279    164.3310   1.2926985374e+02   3.5652782534e+01    0.1748012    0.1357747  78.94  0.001145259    1.151    0.131
        47 -11.1620    131.4271    159.7303   1.0813978952e+02   2.4513455848e+01     0.431574    0.2139531  36.17  0.001873734    1.900    0.474
        48 -11.5355    119.5030    157.2631   1.1056886347e+02   2.7070923611e+01    0.5119755    0.3141124  52.02  0.002261558    1.700    0.412
        49 -11.3260     24.6156    159.5090   1.3406733654e+02   3.8801068022e+01    0.4453038    0.2096916  37.37  0.001637312    1.993    0.498
        50 -11.2803     28.0781    155.8516   1.3296976591e+02   3.9281116182e+01    0.3874042    0.1421821 -85.21  0.001686731    2.943    0.660
        51 -10.5927    167.9099    157.5257   9.9357443158e+01   1.8181246263e+01    0.3778153    0.2770845  75.43  0.001742346    2.353    0.575
        52 -10.0561    218.3111    156.0935   8.8846921439e+01   8.8857309740e+00    0.3404477   0.09968074 -41.42  0.001100247    4.342    0.770
        53  -9.4842      6.7765    155.9907   1.3793284958e+02   4.0933585343e+01    0.1452629   0.07529039 -82.38 0.0005701236    1.621    0.383
        54  -9.8735     81.8250    155.0043   1.1958431162e+02   3.3392706946e+01    0.2261049    0.1412651  76.27  0.001086395    2.075    0.518
        55 -10.9050     23.1808    152.0283   1.3383780237e+02   4.0523046772e+01    0.3753245    0.1675739 -83.57  0.001930954    2.079    0.519
        56 -12.1370    240.8808    151.4912   8.3886637697e+01   5.4909885544e+00    0.4756826    0.2757948  21.36  0.002390996    1.789    0.441
        57 -10.5042     41.0646    150.4403   1.2930973097e+02   3.9244752503e+01    0.3092643     0.192862 -73.60  0.001808917    1.467    0.318
        58 -10.8530    106.9338    158.9583   1.1393063776e+02   2.8797646664e+01    0.4885187    0.1822429  46.54  0.001859543    2.688    0.628
        59  -9.7908    189.2749    150.2738   9.3288500435e+01   1.5281375744e+01    0.2159166    0.1162272 -48.15 0.0009016449    2.428    0.588
        60 -10.3660     12.0193    148.5095   1.3625408599e+02   4.2147995194e+01    0.2061878    0.1315604 -65.57 0.0007059439    1.493    0.330
        61 -10.4975    233.5416    147.4398   8.4274966027e+01   7.3340692048e+00    0.2745166    0.1211951 -29.43  0.001205554    2.164    0.538
        62 -10.0739     55.9998    146.4780   1.2506070206e+02   3.8535258196e+01    0.2683687    0.1252197  70.81  0.001031039    3.443    0.710
        63 -10.2153    106.7691    145.4731   1.1166434871e+02   3.1660642939e+01    0.4051187    0.2387644  75.09  0.001517942    3.310    0.698
        64  -9.7547    148.6514    145.3374   1.0124123560e+02   2.4123295669e+01    0.1467045    0.1156676  76.53 0.0007046895    1.784    0.440
        65  -9.4070    182.6529    142.3297   9.2939739601e+01   1.7921905380e+01    0.1397269    0.1190616  86.58 0.0007049664    1.759    0.431
        66 -11.0924    242.1879    134.9638   8.0090272310e+01   7.4679431801e+00    0.2429797    0.1841365  80.04  0.001195675    2.669    0.625
        67 -10.2520     82.9798    132.0075   1.1563025257e+02   3.8326140357e+01    0.2244918    0.1588854  72.48 0.0008080078    1.709    0.415
        68 -11.6735     99.3683    129.1761   1.1055725534e+02   3.6434208733e+01    0.6927282    0.3899374  67.13  0.002558513    3.201    0.688
        69 -11.0980     95.1960    123.0985   1.1050190684e+02   3.8472093910e+01    0.6421213    0.2396168  49.67  0.002127477    3.481    0.713
        70  -9.9279     60.3281    130.3718   1.2170529014e+02   4.1684868851e+01     0.212103    0.1507165 -53.12 0.0006596974    1.403    0.287
        71 -10.2021     59.7704    125.2299   1.2107911441e+02   4.2938751182e+01    0.4280744    0.2226761  69.96  0.001713227    3.058    0.673
        72 -10.2018     98.0129    119.7035   1.0899047752e+02   3.8774704924e+01    0.2859261    0.2160413 -41.69  0.001128245    1.369    0.269
        73 -10.6863     44.4999    124.3619   1.2534662678e+02   4.4806889540e+01    0.6573439    0.2784293  61.49  0.002459621    3.714    0.731
        74 -10.9921     27.7920    122.0054   1.2982740151e+02   4.6862889721e+01    0.7042519     0.274625  76.84  0.002327875    5.003    0.800
        75 -11.9705    193.1759    117.9614   8.5009286346e+01   1.9849260258e+01    0.6329702    0.5085415 -58.73   0.00241468    1.651    0.394
        76 -10.5722     15.6433    120.9352   1.3313534383e+02   4.8011219230e+01    0.3208643    0.1953567  30.43  0.001938106    1.823    0.451
        77  -9.6702    131.3350    119.6621   9.9819847366e+01   3.2676565994e+01    0.1526479    0.1209278  82.45 0.0004035319    1.749    0.428
        78 -10.2147      2.3237    115.6664   1.3638915695e+02   5.0011629249e+01    0.2618525    0.1298192 -85.04  0.001100351    1.689    0.408
        79 -10.7874    232.0597    114.4180   7.7033017739e+01   1.2260467869e+01     0.285468    0.1660791 -43.94 0.0008421316    1.984    0.496
        80 -10.0537    109.3084    114.8553   1.0469163502e+02   3.7895357870e+01    0.2359965    0.1901634 -74.26  0.001187623    1.475    0.322
        81 -10.2186     78.8009    112.8282   1.1321152857e+02   4.3327581151e+01    0.3539325    0.2131726  87.06  0.001395197    2.913    0.657
        82 -11.1727     19.0484    112.7029   1.3133057315e+02   4.9667433949e+01    0.2712127    0.2315301  69.49  0.001071026    1.176    0.150
        83 -10.7382     14.4548    111.3430   1.3253859350e+02   5.0287320379e+01    0.6475368    0.2107034 -80.87  0.002638494    2.993    0.666
        84 -10.9681    174.6251    110.7121   8.7083571908e+01   2.5176326408e+01    0.4751436    0.3107974 -28.56  0.001412155    1.575    0.365
        85 -12.0884    161.2160    112.1193   9.0494547910e+01   2.7887474030e+01    0.5420821    0.4806868  69.67  0.002453213    1.357    0.263
        86 -10.9404    141.8755    112.2390   9.5259552915e+01   3.2035229751e+01    0.3019639    0.2036362 -11.10  0.001249568    2.095    0.523
        87  -9.3978     99.0523    112.2846   1.0705298728e+02   4.0265807458e+01    0.1978633    0.1775827  35.43 0.0003529613    1.125    0.111
        88 -10.1767     91.5508    110.7176   1.0891954396e+02   4.1863235322e+01    0.3632368    0.1417945 -57.24  0.001306294    2.712    0.631
        89 -11.6467    151.6857    111.3417   9.2577722645e+01   3.0115426144e+01    0.5428035     0.362044  88.83  0.001868312    3.555    0.719
        90 -11.8690    157.7222    106.2767   8.9791393446e+01   2.9760186245e+01    0.4303892    0.3266488  84.04  0.001883737    2.058    0.514
        91 -10.6999    132.9336    106.1260   9.6009644735e+01   3.5149792162e+01    0.3641417    0.2182844 -39.98 0.0009021303    1.699    0.411
        92 -12.1507    127.2950    100.0378   9.5912368080e+01   3.7575523726e+01    0.9236451     0.563124 -65.28  0.003490879    2.647    0.622
        93 -12.5239    142.2502    105.5643   9.3427592287e+01   3.3289787667e+01    0.6876376    0.3462492  51.14  0.002626158    2.155    0.536
        94 -11.8277    143.8932    101.0216   9.1784494282e+01   3.3831527261e+01    0.6040956    0.4357533  77.24  0.002536922    2.187    0.543
        95 -11.7491     45.2024    101.9932   1.2172207842e+02   4.9984199674e+01    0.6133686    0.3408106  69.13  0.002714522    2.633    0.620
        96  -9.7232      6.8747    103.5686   1.3402423959e+02   5.2522039381e+01     0.232215     0.114953  65.79  0.001187163    2.270    0.560
        97 -11.5889    108.3850     99.2191   1.0109415199e+02   4.1489753241e+01    0.7201071    0.4874834  76.49  0.002890067    2.593    0.614
        98 -11.9138    116.4881    101.9953   9.9465132141e+01   3.9339248726e+01    0.4683859    0.3392681  33.20  0.002087787    1.408    0.290
        99 -10.2071     22.9660    102.9660   1.2898890595e+02   5.1656719441e+01    0.2585016    0.1040445  62.73 0.0009526659    4.081    0.755
       100 -10.8907     82.2842    100.6795   1.0947929550e+02   4.5613407478e+01    0.2852066    0.2487305  58.93 0.0007430898    1.255    0.203
       101  -9.8990     89.7277     97.9366   1.0646776016e+02   4.5059945873e+01    0.2109374    0.1799472 -47.52  0.000728086    1.129    0.115
       102 -10.7906     63.0912     95.9880   1.1466291987e+02   4.9379951066e+01    0.4932235    0.2636843 -88.46  0.001646748    4.241    0.764
       103 -13.0901    170.4399     90.6852   8.2577427215e+01   2.9681978217e+01    0.5830344    0.4644045 -26.18  0.001125223    1.254    0.202
       104 -11.8643     42.4081     87.6602   1.2002806142e+02   5.3640859886e+01    0.7212371     0.397012   1.51  0.002121391    2.804    0.643
       105 -10.7150     45.1288     81.8804   1.1785969959e+02   5.4727772871e+01    0.3068061    0.2094406 -70.85 0.0008505846    1.449    0.310
       106 -10.9465     86.9514     87.0249   1.0452915451e+02   4.7968091144e+01    0.4984077    0.3679073  80.16  0.002309531    2.049    0.512
       107 -10.4974    105.4036     84.4347   9.7895266826e+01   4.5234756847e+01    0.3981308      0.28648  82.35  0.001671086    2.380    0.580
       108 -11.0091      9.9752     80.9137   1.3040657134e+02   5.7601929198e+01    0.2330834    0.1928758 -87.03 0.0004267129    1.154    0.134
       109 -10.1625     24.0013     80.3087   1.2526981844e+02   5.6897194323e+01    0.2617218    0.1390137  81.36  0.001174623    2.696    0.629
       110 -10.0794      1.8979     77.8573   1.3287451659e+02   5.8678696770e+01    0.1882614    0.1254541 -54.38 0.0006364679    1.299    0.230
       111  -8.9982    153.3119     77.3812   8.2574034074e+01   3.6100352562e+01    0.1686751     0.119195  10.47 0.0007023997    1.804    0.446
       112  -9.3065    127.8163     76.6178   8.8906537469e+01   4.2157019019e+01    0.2173044     0.146681  56.75  0.000546648    1.694    0.410
       113 -10.6159     82.9734     73.7302   1.0206829064e+02   5.1548221861e+01    0.3784963    0.2921037  78.12  0.001827437    1.939    0.484
       114 -10.4599     62.4916     70.0228   1.0841651697e+02   5.5421578055e+01    0.2851407    0.1167947 -49.08  0.001100357    2.150    0.535
       115 -11.3230    223.3232     71.3017   6.7566038958e+01   2.0234827771e+01     0.308134    0.2852389 -49.27 0.0006467022    1.152    0.132
       116 -10.6564     51.5658     70.6772   1.1276791610e+02   5.6623365003e+01    0.3415017    0.2321153 -53.13  0.001617643    1.298    0.229
       117 -10.3265    196.2630     68.0086   7.0976402071e+01   2.7092331237e+01    0.3928455    0.2147956  51.47  0.001664181    1.806    0.446
       118 -11.5777     10.3447     58.7088   1.2672573430e+02   6.2699935839e+01    0.8404238    0.4356952  54.91  0.004163095    2.786    0.641
       119 -10.9418     28.4853     52.3185   1.1743499422e+02   6.2991785977e+01    0.4857719    0.2693003 -20.96  0.002019682    2.191    0.544
       120 -11.0498     19.4467     59.4828   1.2306357769e+02   6.2016357431e+01    0.4094969    0.2134888 -65.03  0.001741021    1.601    0.375
       121 -10.4944    187.2524    248.4841   1.1017778592e+02   1.9169786535e+00    0.3206739    0.1331883  27.17  0.001612823    2.310    0.567
       122  -9.9061    102.6648     62.3354   9.1714263245e+01   5.0270781367e+01    0.1483882    0.1226794 -83.48  0.000705204    1.742    0.426
       123 -11.3579     40.0844     51.2235   1.1199014916e+02   6.2190544830e+01    0.5980085    0.2114095 -50.85  0.002501289    2.272    0.560
       124 -12.2511    240.3911     63.7290   6.3296806981e+01   1.7444595635e+01    0.6105307    0.4045966  69.09  0.003120448    1.784    0.439
       125 -11.6400    232.1616     59.7643   6.3333364248e+01   1.9765781257e+01    0.4117824    0.3306648  89.15  0.001686818    1.499    0.333
       126  -8.9566    189.2967     54.7480   6.8287670588e+01   3.0716449501e+01    0.1429953    0.1146489 -69.03 0.0001711825    1.492    0.330
       127 -11.8514    149.4363     52.2589   7.5335300938e+01   4.1218919332e+01    0.3880124    0.3260757  57.66  0.000477478    1.218    0.179
       128 -10.4462    161.8728     53.1123   7.2922228392e+01   3.7935140137e+01    0.3833253    0.2330437  61.37  0.001578886    1.723    0.419
       129 -10.3451     82.7176     47.4418   9.3159564306e+01   5.6932987001e+01    0.2984887    0.2472497  60.29  0.001172302    1.588    0.370
       130 -10.8557    157.0721     44.9918   7.1206098850e+01   4.0339968776e+01     0.332925    0.2181093  55.32 0.0004742453    1.473    0.321
       131 -11.3637      7.5407     43.2795   1.2480027788e+02   6.6295211913e+01    0.5066049    0.2705966  35.28  0.002812741    2.370    0.578
       132 -11.2696     75.4956     43.4738   9.4345843144e+01   5.8947215177e+01    0.2709343    0.2490595   7.60  0.001050645    1.101    0.092
       133 -11.2451     71.2650     42.9784   9.5815674954e+01   5.9750060816e+01    0.5077683    0.3614334  68.75  0.002297457    2.634    0.620
       134  -9.3909     45.2950     45.6610   1.0787471778e+02   6.2822249637e+01    0.1224962    0.1044294  89.31 0.0003189514    1.654    0.395
       135 -12.4256     42.3850     37.5793   1.0632074778e+02   6.4814415624e+01    0.6692499    0.4497924   3.89   0.00133925    1.675    0.403
       136 -11.6962     46.8947     35.8280   1.0353083336e+02   6.4633366590e+01    0.4305032    0.2743549   5.97 0.0007221714    1.852    0.460
       137 -11.4949     82.6535     38.2867   8.9522402109e+01   5.8595777986e+01    0.4676618    0.3365807  36.23  0.001778952    1.393    0.282
       138  -9.4102     96.3657     39.6777   8.5270555683e+01   5.5645667787e+01    0.1430835    0.1195621 -78.62 0.0007038765    1.790    0.441
       139 -10.3086     29.0134     36.2224   1.1231653539e+02   6.6424138611e+01    0.1959085     0.143158 -27.32 0.0006456607    1.238    0.192
       140 -11.1014    120.0258     34.1275   7.5922024334e+01   5.1170028172e+01    0.3277732    0.2957557  47.85 0.0007802581    1.134    0.118
       141  -9.7589     63.1418     34.1670   9.5565707345e+01   6.2683049962e+01    0.1700854    0.1654389  37.76 0.0004141827    1.330    0.248
       142 -10.0373     74.3739     32.8926   9.0396580967e+01   6.1033994313e+01    0.2347895    0.1903436  41.44 0.0008982409    1.371    0.271
       143 -11.4718    104.6104     30.3109   7.8749663486e+01   5.5307211974e+01    0.7097545    0.4128169  63.93  0.002271252    2.296    0.565
       144 -10.0175    228.6593    248.6974   1.0310769730e+02  -3.8094842431e+00    0.1157561   0.06215271  15.40 0.0007038788    1.675    0.403
       145 -10.2494     83.0201    247.4415   1.2879896061e+02   1.6306213499e+01    0.1882967    0.1244597  70.30  0.001314325    1.550    0.355
       146 -12.3589     22.2375    240.1218   1.3885572360e+02   2.4047759120e+01    0.4826966    0.2081198  62.85  0.003198368    1.853    0.460
       147 -11.7819     19.4918    236.5198   1.3917485416e+02   2.4878558925e+01    0.4690438    0.1378377  35.33  0.002630784    2.672    0.626
       148 -11.5029    239.5807     20.7057   5.2573148726e+01   2.2615823510e+01    0.3191983    0.2676262  70.04 0.0007484001    1.251    0.201
       149 -10.5731    134.1931     17.9364   6.6122958014e+01   4.9653191470e+01     0.303849    0.1924564  54.55 0.0006091319    1.438    0.304
       150  -9.7080     89.4999     18.2886   7.8193457194e+01   6.0275625874e+01    0.2766947    0.1759072  63.82  0.001266668    2.116    0.527
       151 -10.5117    151.0242     16.5635   6.2364690089e+01   4.5400769071e+01    0.2615097    0.1816632  22.50  0.000863103    1.600    0.375
       152  -8.9411     11.6938     15.7378   1.1425136466e+02   7.1869955996e+01    0.1218025   0.06892908 -30.63 0.0002579814    1.525    0.344
       153 -10.7260     32.8797    242.1410   1.3716402796e+02   2.2701263759e+01    0.1634224   0.09276471  57.29  0.001215026    1.291    0.225
       154 -10.7367      8.3897    240.3764   1.4112517818e+02   2.5259019932e+01    0.1658539    0.1481744  44.94   0.00109276    1.482    0.325
       155 -11.2537    109.4923     13.1605   6.9921659789e+01   5.6339725619e+01    0.2826342    0.1970146  79.67  0.001325424    1.958    0.489
       156  -9.7378      2.6692    240.2046   1.4203435324e+02   2.5775460827e+01    0.1359344   0.08258834  55.12  0.001119537    1.144    0.126
       157  -9.4074    158.1608    231.1781   1.1327555126e+02   8.2957189760e+00     0.153252       0.1205  48.86 0.0004698164    1.332    0.249
       158 -10.7414     12.7169    227.4800   1.3998281676e+02   2.6968199439e+01    0.1813077    0.1279681  67.16 0.0005498818    1.062    0.058
       159 -10.8814    104.5088    225.3908   1.2292659385e+02   1.6925679199e+01    0.2284855    0.1877785  86.72  0.001656272    1.402    0.287
       160  -9.8019    185.6956    222.9932   1.0698317403e+02   5.1932274534e+00    0.1617766    0.1355228  16.75  0.001137225    1.134    0.118
       161  -9.8630    149.2094    223.3989   1.1399610412e+02   1.0732189144e+01    0.1784737   0.08953812  44.40 0.0009479309    1.689    0.408
       162 -11.8475    226.1534    221.2125   9.9409296715e+01  -6.6360900377e-01    0.3196929    0.2100117  49.36  0.001883397    2.232    0.552
       163  -9.2777     36.3033    222.6519   1.3562162400e+02   2.5556893528e+01    0.1133156   0.05579943  61.22 0.0007040327    1.694    0.410
       164 -12.0729    238.6219    218.4868   9.6833290891e+01  -2.1593002032e+00    0.4083793    0.2058142   7.27  0.002094347    2.379    0.580
