#   1 NUMBER                 Running object number                                     
#   2 MAG_AUTO               Kron-like elliptical aperture magnitude                    [mag]
#   3 X_IMAGE                Object position along x                                    [pixel]
#   4 Y_IMAGE                Object position along y                                    [pixel]
#   5 X_WORLD                Barycenter position along world x axis                     [deg]
#   6 Y_WORLD                Barycenter position along world y axis                     [deg]
#   7 A_WORLD                Profile RMS along major axis (world units)                 [deg]
#   8 B_WORLD                Profile RMS along minor axis (world units)                 [deg]
#   9 THETA_WORLD            Position angle (CCW/world-x)                               [deg]
#  10 FWHM_WORLD             FWHM assuming a gaussian core                              [deg]
#  11 ELONGATION             A_IMAGE/B_IMAGE                                           
#  12 ELLIPTICITY            1 - B_IMAGE/A_IMAGE                                       
         1 -11.7359     10.4061     36.9193   7.8599685748e+01   6.5570588474e+01    0.2948141    0.1817048 -34.02  0.001070235    1.377    0.274
         2  -9.9263    178.5837     28.4595   2.6337532088e+01   3.6613567977e+01    0.1411766    0.1344226  59.00 7.860639e-05    1.019    0.019
         3 -10.9609     53.9210     11.0637   5.1193471692e+01   6.5340150150e+01    0.2808115    0.1774734  13.11  0.001638751    1.629    0.386
         4 -11.8234     84.9368      9.8639   4.0182740377e+01   6.0331464008e+01    0.3117251    0.1927097 -39.35  0.001661902    1.909    0.476
         5 -10.9268    144.4421      7.7135   2.5462500981e+01   4.7448777323e+01    0.3532094    0.1382553 -20.09  0.001381017    2.863    0.651
         6 -10.9518    240.0390      5.0253   1.2769223897e+01   2.3991033024e+01    0.1898465     0.168021 -75.82            0    1.027    0.026
         7  -9.8872    139.5166    247.4630   8.2316944227e+01   6.8063640211e+00    0.1155132   0.09006818  46.47 6.039388e-05    1.071    0.066
         8 -11.5622     93.1150    249.1364   9.0269107608e+01   1.3505982221e+01    0.1752043    0.1330931  87.87 0.0003586555    1.325    0.245
         9 -14.4570     10.8053    203.1903   1.0057328467e+02   3.1352650361e+01     1.492449    0.7122545  46.27    0.0099361    1.877    0.467
        10 -15.0985     64.9894    244.8979   9.4479664837e+01   1.7959660758e+01     1.259406    0.6565859 -84.38  0.008042059    2.025    0.506
        11 -13.8528      5.9861    214.8346   1.0199563915e+02   2.9681615174e+01    0.9184382    0.2609827  60.97  0.004589688    3.192    0.687
        12 -14.7750     53.0268    225.0190   9.4958336172e+01   2.2821441866e+01    0.9439452    0.7394485 -84.17  0.007324456    1.281    0.220
        13 -15.2018     87.9563    204.1324   8.6751950920e+01   2.1973076941e+01     1.396239    0.8747626  88.11  0.008040576    1.752    0.429
        14 -15.7110     94.8165    194.1681   8.4241607570e+01   2.2855464057e+01     1.750219     1.099234  85.63  0.009479581    1.864    0.463
        15 -11.6252    102.3459    234.7087   8.7368446826e+01   1.4472249478e+01    0.2636856    0.2152771  10.77  0.001743046    2.075    0.518
        16 -12.4561     88.7741    232.6315   8.9514142359e+01   1.6783597776e+01     0.668242    0.3127487 -86.71  0.003110883    3.475    0.712
        17 -10.8175     95.3679    238.1411   8.8900880746e+01   1.4931577817e+01    0.1990706    0.1763826 -35.38  0.001472446    1.793    0.442
        18 -17.3052     68.3569    188.3193   8.8806128373e+01   2.7781831699e+01     4.251767     3.251088 -42.84   0.02681769    1.862    0.463
        19 -10.8073     81.8519    234.6169   9.0877071167e+01   1.7418177814e+01    0.2798624    0.1733191  69.08  0.001832602    1.442    0.307
        20 -11.5241     82.7630    227.1313   9.0043440742e+01   1.8564510141e+01    0.4514069    0.2509942  88.04  0.002286441    2.108    0.526
        21 -10.5758    109.3038    236.7568   8.6369203919e+01   1.3101446670e+01    0.2503762    0.1208399 -48.63  0.001334318    2.872    0.652
        22 -10.3534    127.9998    235.3054   8.2939218547e+01   1.0440587456e+01     0.206232    0.1500044  30.22 0.0004265058    1.599    0.374
        23 -10.8399    130.9705    232.5039   8.2087292045e+01   1.0405193783e+01    0.4860339    0.1674627  35.76  0.001883806    3.604    0.723
        24 -12.2366    113.7437    230.2026   8.4893525889e+01   1.3486495992e+01    0.5152676    0.2648926 -62.07  0.002893531    2.282    0.562
        25 -11.5266    181.4228    232.4568   7.3069801027e+01   2.0582182591e+00    0.2662056    0.1478363  29.93  0.001421549    1.837    0.456
        26 -11.1087    220.0879    230.9840   6.6081580923e+01  -4.1538192804e+00    0.2416684    0.1352796  38.69 0.0006886252    1.450    0.310
        27 -10.2658    194.0000    229.9196   7.0469188459e+01   2.8520446069e-01    0.1701043   0.07003756 -40.29 0.0002562809    2.963    0.662
        28  -9.9268    178.2305    228.9938   7.3143169619e+01   3.0735018826e+00    0.1289411    0.1035912 -40.16            0    1.530    0.346
        29 -10.5240    148.9731    230.0000   7.8548835630e+01   7.8517355933e+00    0.2080832   0.05709831  43.17 0.0001819739    2.955    0.662
        30 -11.2705    207.8036    238.1874   6.9294534086e+01  -3.0291867843e+00    0.2546597    0.1364821  29.35 0.0007790456    1.727    0.421
        31 -12.2395    125.8195    222.7092   8.1844484036e+01   1.2813181742e+01    0.4670685    0.2691208 -68.75  0.002313842    2.221    0.550
        32 -10.3705    215.1265    226.7569   6.6270488424e+01  -2.8319453876e+00    0.1740131    0.1425039  38.96 0.0005180021    1.205    0.170
        33 -10.1671    119.1790    231.7644   8.4100531093e+01   1.2388842373e+01    0.1488466    0.1265508  37.11 0.0005000212    1.328    0.247
        34 -10.9550    152.0000    226.9798   7.7604715350e+01   7.8059437890e+00    0.1705328   0.07104424 -49.67 0.0008014598    2.936    0.659
        35  -9.5803    134.3078    227.2834   8.0857682859e+01   1.0690705131e+01    0.1107284   0.08890848  22.66 0.0002227707    1.565    0.361
        36 -15.4432     15.9771    238.1668   1.0163642056e+02   2.4686615918e+01     1.305263    0.5361593  56.85  0.008660366    1.802    0.445
        37 -10.3425    138.2881    226.0121   7.9975346519e+01   1.0240105060e+01    0.1686105    0.1484678  61.87  0.001177076    1.105    0.095
        38  -9.8479    222.2980    225.6539   6.4850631178e+01  -3.8735551104e+00     0.106199   0.09386142  66.40 0.0004025364    1.677    0.404
        39 -11.0164    159.4974    222.0597   7.5559856111e+01   7.2857544896e+00    0.2173693    0.1422939  31.11  0.001016869    1.560    0.359
        40 -12.1049    173.5263    219.8322   7.2655988014e+01   5.1985728342e+00    0.2597246    0.2321008 -72.93  0.001249154    1.423    0.297
        41 -10.8346    193.3960    219.2533   6.8940276839e+01   1.8304029612e+00     0.149231    0.1207755 -50.46 0.0007303416    1.600    0.375
        42 -10.3429    139.5613    218.7335   7.8797201099e+01   1.1201591461e+01    0.2608176    0.2295026  79.61  0.001780884    1.206    0.171
        43 -11.5150    142.5234    212.0710   7.7332146757e+01   1.1800803390e+01     0.295338    0.2324683 -19.84  0.001761182    1.851    0.460
        44 -12.5859    138.7541    210.4979   7.7830438046e+01   1.2711574795e+01    0.4065714    0.3395413 -71.59  0.001771855    1.365    0.268
        45 -11.7835    116.0393    218.8988   8.3186206703e+01   1.5022283814e+01    0.2004191    0.1666553 -86.28  0.001238258    1.265    0.209
        46  -9.8672    242.0108    214.9016   5.9674003491e+01  -5.7788769607e+00    0.1424264    0.1145348  12.55 0.0004033388    1.046    0.044
        47 -10.1500    223.4808    220.4869   6.3799755591e+01  -3.4360904646e+00    0.1224714   0.09907011  25.25 5.513487e-05    1.034    0.033
        48 -11.3821    184.1617    213.8392   6.9774373154e+01   4.2191908493e+00    0.1876587    0.1568868  50.71 0.0004765671    1.201    0.167
        49 -12.0244    124.3504    205.8763   7.9966343122e+01   1.5949476860e+01    0.3430327    0.2495642  13.52  0.001837488    2.251    0.556
        50 -12.3808    124.9938    212.5159   8.0718305936e+01   1.4675516164e+01     0.350871    0.2632231 -42.88   0.00194081    1.722    0.419
        51 -12.0806    122.1667    209.6018   8.0878280432e+01   1.5650054892e+01    0.2557497     0.186233  30.31  0.001507071    1.610    0.379
        52 -11.1083    103.1456    213.9800   8.5004897955e+01   1.7894427294e+01    0.1983172    0.1453049  52.01 0.0003742646    1.162    0.139
        53 -12.3130    153.8902    210.8344   7.4994983931e+01   1.0033017955e+01    0.3345882     0.292555  13.39  0.002165003    1.350    0.259
        54  -9.8266    146.3002    212.3032   7.6648040245e+01   1.1112037847e+01     0.118531   0.09525262  15.75 0.0003265626    1.588    0.370
        55 -10.1578    227.5317    211.5225   6.1575382006e+01  -2.9882210983e+00    0.1252113    0.1014836  21.26 0.0002681844    1.001    0.001
        56 -10.4706    209.6685    211.3236   6.4706713800e+01   9.3844223786e-02    0.1173073   0.09794906  69.10 0.0003479962    1.703    0.413
        57 -11.9373    231.0411    204.8466   5.9788533699e+01  -2.7261377313e+00    0.3310383    0.2131023  10.34  0.001408253    1.712    0.416
        58 -11.9539    159.8632    206.5732   7.3214913982e+01   9.6733664411e+00    0.3285297    0.1800067  56.94  0.001574555    2.020    0.505
        59 -10.1862    248.6685    206.3160   5.7034647019e+01  -5.8244834683e+00    0.1047606   0.09897767  69.26 0.0006195441    1.684    0.406
        60 -12.2951    168.4323    205.6105   7.1425575663e+01   8.2924113079e+00     0.385573    0.1963985  53.98  0.001788728    2.081    0.520
        61 -13.2289    135.0606    198.2177   7.6790176038e+01   1.5497039835e+01    0.5995492     0.330648  27.36    0.0013926    2.656    0.624
        62 -13.4783    147.2856    203.3796   7.5158493712e+01   1.2443545097e+01     0.544633    0.4049707  36.62  0.003209378    1.290    0.225
        63 -12.6230    114.9199    198.2249   8.0780950850e+01   1.8904638793e+01    0.7196942    0.3816918  87.00  0.002635986    4.348    0.770
        64 -12.1363    114.8516    184.9637   7.8927240882e+01   2.1449119024e+01    0.2935305    0.1942107 -85.54  0.001084439    1.893    0.472
        65 -13.0010    111.1761    189.9040   8.0389012604e+01   2.1098112723e+01    0.5533583    0.2956958 -61.81  0.002774431    2.023    0.506
        66 -10.4038    212.4894    200.4991   6.2318048736e+01   1.0949974550e+00    0.2019561    0.1207557 -47.92  0.001022868    2.223    0.550
        67 -11.2199    121.4957    200.1689   7.9747868793e+01   1.7457353773e+01    0.2375433     0.187573 -69.12  0.001470324    1.372    0.271
        68 -13.4349    124.1062    196.0762   7.8657258056e+01   1.7772176224e+01    0.5966913    0.4023831  41.07  0.003347577    1.401    0.286
        69 -11.4439    225.4369    199.3234   5.9779741405e+01  -1.0314937425e+00    0.2772974    0.2449825  85.13  0.001720274    1.790    0.441
        70 -12.0651      8.3386    248.1368   1.0319935376e+02   2.3821137884e+01    0.1951689    0.1185047  43.77  0.001561851    1.708    0.415
        71 -10.6763    245.1558    197.7769   5.6068126996e+01  -4.1978269636e+00    0.1931399    0.1591542 -25.13 0.0004250467    1.339    0.253
        72 -10.4407    238.0156    196.9432   5.7137957602e+01  -2.8878991744e+00    0.1926096    0.1564151  17.20 0.0003947201    1.023    0.022
        73 -13.1249    149.1715    192.0453   7.3024412284e+01   1.4087599441e+01    0.4494538    0.2955287  57.36  0.002361848    1.537    0.349
        74 -12.8343    190.7701    194.4296   6.5281303501e+01   5.9643478828e+00    0.6485307     0.285908  38.81  0.002834566    2.076    0.518
        75 -10.7667    212.1589    193.2700   6.1070194778e+01   2.1899600307e+00    0.2312017    0.1754117 -65.48  0.001236115    2.152    0.535
        76 -11.7865    163.6811    193.0838   7.0307806127e+01   1.1235637929e+01    0.3055322     0.158763  47.55  0.001177054    1.736    0.424
        77 -10.4019    233.3594    192.3154   5.7085340858e+01  -1.4704079673e+00    0.1379234   0.08737535  13.72 0.0007043297    1.753    0.430
        78 -12.3841    133.5088    191.7394   7.6128807780e+01   1.6950417371e+01    0.2718764    0.2362087  58.46  0.001696026    1.023    0.022
        79 -10.5522     22.1119    192.1413   9.7897029106e+01   3.2362233268e+01    0.1472621    0.1168261 -79.54 0.0006190442    1.275    0.216
        80 -10.2724    240.9485    190.4722   5.5417456319e+01  -2.5411815721e+00    0.1855353    0.1127908  39.53 0.0003864999    1.519    0.342
        81  99.0000      8.6528    188.5319   1.0004783068e+02   3.4322475326e+01    0.3235744    0.1981871  50.15  0.002344087    1.543    0.352
        82 -10.8816    173.8632    189.2985   6.7650309860e+01   9.9706477696e+00    0.2176625    0.1580877  55.93 0.0009059805    1.420    0.296
        83 -13.4833    127.5696    185.0627   7.6313933836e+01   1.9249590903e+01    0.5587453    0.3869253  18.53  0.002348254    2.200    0.545
        84 -16.5372     63.6673    205.0339   9.1397876844e+01   2.5141103648e+01     3.800337     1.340754  57.13   0.01685578    2.997    0.666
        85 -10.4974    248.2873    185.9769   5.3302475202e+01  -3.2066010066e+00    0.1811859    0.1473389   1.13 0.0006497281    1.076    0.070
        86 -11.3627    186.1056    185.1899   6.4513582799e+01   8.3247958964e+00    0.2112411    0.1710757  20.77 0.0005392595    1.252    0.201
        87 -10.1769     18.6409    184.0182   9.7939078784e+01   3.4285496377e+01    0.1476538    0.1025738 -87.06 0.0002235514    1.136    0.119
        88 -10.6178     10.0580    183.3731   9.9459821268e+01   3.5199275921e+01    0.1979754    0.1046245  75.39 0.0008338873    1.621    0.383
        89 -11.1950     36.5124    182.0096   9.4408220264e+01   3.2879644009e+01    0.2643524     0.144287  61.39  0.001138758    1.684    0.406
        90 -11.6746    144.0121    182.0028   7.2420891631e+01   1.6868414474e+01    0.2170805    0.1692003   9.30  0.001147219    1.782    0.439
        91 -11.2314     23.9967    179.7611   9.6612201063e+01   3.4616139436e+01    0.2679081    0.1334642 -79.52  0.001101466    1.682    0.406
        92 -10.0759     22.3039    175.3008   9.6575853701e+01   3.5677562694e+01    0.1542102   0.08426373 -87.30 0.0004934821    1.548    0.354
        93 -12.4772    154.4242    178.2883   6.9627673776e+01   1.5606505705e+01    0.3916734    0.2539375 -23.64  0.001703494    2.353    0.575
        94 -12.6052    136.8340    186.9112   7.4700308906e+01   1.7257172465e+01    0.2525429    0.2421032  25.30  0.001032484    1.187    0.157
        95 -14.1615    132.0073    169.4766   7.2810722401e+01   2.1497688423e+01    0.7355154    0.3662127  52.00  0.003200449    2.022    0.505
        96 -14.4992    124.3120    168.9443   7.4384800720e+01   2.2997424320e+01    0.6358433    0.5508087 -48.43  0.003760321    1.272    0.214
        97 -13.5885    123.2946    176.9438   7.5925440699e+01   2.1578911192e+01    0.5548857    0.3379751  35.56   0.00274843    1.756    0.431
        98 -11.8069    164.8500    177.4614   6.7336936040e+01   1.3755681325e+01    0.2518414     0.209898  76.57 0.0006562063    1.418    0.295
        99 -12.5572    137.8114    166.1246   7.0959457820e+01   2.1085566647e+01    0.3202853    0.2334999 -36.03 0.0009259295    1.634    0.388
       100 -13.0686    112.3451    175.9754   7.8099854307e+01   2.3653813587e+01    0.5096102    0.2321482 -55.11  0.002283651    2.277    0.561
       101  -9.3628     14.9236    176.0000   9.8037776702e+01   3.6222882036e+01    0.1465044   0.05814473  33.45 0.0007880657    2.844    0.648
       102 -11.2174     26.9524    172.6535   9.5448205985e+01   3.5764405349e+01    0.3040144    0.1718024  79.85  0.001024683    1.628    0.386
       103 -12.0409    117.1972    169.6909   7.6055065218e+01   2.4098449912e+01     0.314532    0.1826794  63.34  0.001373781    2.070    0.517
       104 -13.7273    153.6417    167.0847   6.7741626920e+01   1.7861079085e+01    0.6680252    0.3897583 -32.62  0.002945696    2.248    0.555
       105 -10.8608    197.2052    170.6062   5.9552188887e+01   8.5712355371e+00    0.2059805    0.1197928  35.06 0.0006477752    1.692    0.409
       106 -11.6132     40.4056    167.5438   9.2251348684e+01   3.5429235209e+01    0.4345275    0.1636499 -76.70  0.001976019    2.652    0.623
       107 -10.4223      4.8669    170.1875   9.9516024964e+01   3.8252050936e+01    0.1273071    0.1031001 -78.69 0.0005486203    1.255    0.203
       108 -11.8110    172.6030    167.6828   6.3894964785e+01   1.3995134002e+01    0.3669344    0.1380632 -43.75  0.001366445    2.864    0.651
       109 -10.8411     33.5259    167.3611   9.3645667082e+01   3.6194175272e+01     0.244513    0.2003181  75.90  0.001269861    1.108    0.097
       110 -10.5394     26.0950    167.1217   9.5129212478e+01   3.6985219982e+01    0.2335018    0.1014817 -53.08  0.001192064    2.680    0.627
       111 -10.2162     11.5253    168.0400   9.8084445637e+01   3.8126811127e+01    0.1566069    0.0844233 -79.55  0.000364597    1.466    0.318
       112 -10.5372     18.8092    166.7454   9.6552116198e+01   3.7746739574e+01    0.1571074    0.1237654 -74.34  0.001167042    1.234    0.190
       113 -10.9583    205.4341    164.7641   5.6777108677e+01   7.8963423726e+00    0.1879647    0.1315598 -21.07  0.000410421    1.583    0.368
       114 -10.9699     35.8023    163.0608   9.2749116187e+01   3.6858559651e+01    0.1861378    0.1295792  78.03 0.0007733034    1.270    0.213
       115 -12.3569    171.2678    160.4053   6.2720691426e+01   1.5597233285e+01     0.416434    0.2907936  20.12  0.001958631    1.808    0.447
       116 -13.0186     37.2063    141.1727   8.9982517583e+01   4.1411072392e+01    0.6982227    0.2039744 -59.35   0.00300825    2.742    0.635
       117 -10.7632     34.0015    149.5327   9.1691300276e+01   3.9921396707e+01    0.1579056    0.1347072  81.26 0.0004145244    1.113    0.101
       118 -12.0604     29.6673    147.0341   9.2375123309e+01   4.0881838161e+01    0.3586276     0.199991  70.53  0.001553456    1.922    0.480
       119 -11.3579     24.9875    144.5709   9.3148396920e+01   4.1846649213e+01    0.2618764     0.172382 -72.02 0.0008703116    1.239    0.193
       120 -11.7101     27.9729    160.2603   9.4103824958e+01   3.8232990162e+01     0.282157    0.1753904 -76.56 0.0006856882    1.318    0.241
       121 -14.0290     22.3386    152.8726   9.4572845662e+01   4.0317661082e+01     0.803319    0.6533499  72.51  0.005054324    1.168    0.144
       122 -10.9279    147.5312    161.4753   6.7984409775e+01   2.0140569088e+01    0.1406175    0.1328516  45.93 1.365198e-05    1.038    0.037
       123 -11.0953     14.7212    150.3883   9.5955216111e+01   4.1504625404e+01    0.2331666    0.1649947  40.49 0.0009198004    1.625    0.385
       124 -10.4266     39.2374    159.5347   9.1653445101e+01   3.7243004143e+01    0.2510952    0.1168859  31.89  0.001077701    2.565    0.610
       125 -17.0327     31.9143    233.6369   9.8961108117e+01   2.3769863992e+01     2.294393     1.211667  63.60   0.01600206    1.456    0.313
       126 -12.8026    126.8111    156.5052   7.1620592042e+01   2.5086606922e+01    0.2972352    0.2555813  31.38  0.001266406    1.274    0.215
       127 -12.4827     81.1652    155.9321   8.1901663089e+01   3.2768409661e+01    0.3406087    0.2413851  60.21  0.001351717    1.401    0.286
       128  -9.8707      9.2694    157.3136   9.7682828376e+01   4.0511094223e+01    0.1026675   0.06925258 -59.32  0.000250255    1.550    0.355
       129 -10.7152    209.3090    155.3179   5.4049215741e+01   8.6719905423e+00    0.3027799    0.1622871  29.91 0.0007676942    2.225    0.551
       130 -11.5864    212.3085    153.6827   5.3129275667e+01   8.3294423785e+00     0.257604    0.2167758  84.05  0.001047208    1.664    0.399
       131 -11.7075     37.3756    154.3020   9.1481889705e+01   3.8554450394e+01    0.3102155    0.2016143  20.78 0.0009316273    2.253    0.556
       132 -13.0372     46.0898    150.5081   8.9108869481e+01   3.8436803542e+01    0.5951407    0.3106151  78.64    0.0028654    2.440    0.590
       133 -10.6441      3.9523    153.2441   9.8434253860e+01   4.1769584702e+01    0.2327135    0.1682207  -4.73   0.00158623    2.455    0.593
       134 -12.7685    126.1115    151.5602   7.0846274479e+01   2.6243803915e+01    0.4136918    0.2410816  43.48 0.0006948378    1.674    0.402
       135 -11.3129    181.0509    150.9955   5.8722369501e+01   1.5306512181e+01    0.2350333    0.1850621  84.14 0.0007046044    1.758    0.431
       136 -12.1557    171.4725    151.0159   6.0726711092e+01   1.7309814317e+01    0.3912455    0.1930707  50.86   0.00157759    2.055    0.513
       137 -12.9636    145.8551    149.5935   6.5997375787e+01   2.2837671429e+01    0.4265915    0.2952326  53.15  0.001062995    1.442    0.307
       138 -11.4896     39.8980    148.5562   9.0263871352e+01   3.9528538674e+01    0.2800669    0.1382087 -65.74 0.0009255207    1.708    0.415
       139 -10.8493    223.9820    148.1105   4.9755457552e+01   6.8569449301e+00    0.3034351    0.1990541 -45.75  0.000975787    1.722    0.419
       140 -12.2725    133.0016    148.4893   6.8674182730e+01   2.5581790983e+01    0.2819146    0.2381044 -12.22  0.001496805    1.513    0.339
       141 -11.4804    128.8080    147.1421   6.9366846575e+01   2.6661853160e+01    0.2106948    0.1860695  81.27 0.0003570024    1.170    0.145
       142 -10.0690    103.3161    151.2741   7.6043742222e+01   3.0325786393e+01    0.1263513    0.1093336 -11.41 0.0001665231    1.564    0.360
       143 -12.6483     52.7062    144.6273   8.6831810319e+01   3.8966959680e+01    0.4745619    0.2272427  55.58  0.001405601    2.375    0.579
       144 -11.3450     58.0774    143.8533   8.5466870152e+01   3.8496222526e+01    0.3185171    0.1771418  72.39  0.001517544    2.341    0.573
       145 -12.2580     11.4998    143.0151   9.5961001810e+01   4.3322020578e+01    0.3941879    0.2013347 -81.81  0.001667335    1.613    0.380
       146 -12.2395    103.6227    244.0485   8.8061842691e+01   1.2790516254e+01    0.3030982    0.2081359  74.48  0.001166762    1.423    0.297
       147 -10.5693     71.1427    142.9828   8.2241284516e+01   3.7007843336e+01    0.1954289     0.156811  87.40 0.0005048541    1.193    0.162
       148 -10.5950     83.4057    246.0976   9.1599037677e+01   1.5330826703e+01    0.2084118    0.1506371  38.13  0.001479269    1.591    0.372
       149 -10.4114    151.4861    141.5407   6.3039897427e+01   2.3317425355e+01    0.1457045    0.1407703  38.81 9.559157e-05    1.032    0.031
       150 -12.7205     31.6728    139.1298   9.1014513445e+01   4.2400427091e+01    0.3463207    0.2517135 -56.39  0.001705248    1.381    0.276
       151 -10.3262      6.8036    139.3074   9.6640274307e+01   4.4465177758e+01    0.1595779    0.1133384  66.57 0.0004705782    1.367    0.268
       152 -11.6634    159.5697    137.2775   6.0297263415e+01   2.2476559675e+01    0.3484364     0.145809 -41.03 0.0009857791    2.514    0.602
       153 -10.3363     83.2204    241.8488   9.1273106525e+01   1.6038483294e+01     0.312474    0.1332369  63.49  0.001585523    2.560    0.609
       154 -11.8363     44.5270    137.1296   8.7737913410e+01   4.1533905201e+01    0.2638623    0.1822204 -48.11  0.000898837    1.585    0.369
       155 -12.6709     53.0430    135.9568   8.5524791816e+01   4.0840692272e+01    0.3620011    0.2656103  36.38  0.001131297    1.564    0.361
       156 -11.7808     12.3694    133.9017   9.4869051120e+01   4.5193605800e+01    0.3411398    0.1609606  86.20  0.001409535    2.285    0.562
       157 -12.0792    133.4049    131.3628   6.4976312211e+01   2.9085069298e+01    0.3338936    0.2326414  23.72 0.0009680066    1.863    0.463
       158 -12.4153    138.8304    131.9830   6.3835372151e+01   2.7866048517e+01     0.515954    0.3644027 -88.57 0.0007842139    2.119    0.528
       159 -12.9231     62.1450    134.1933   8.3031833308e+01   4.0132539266e+01    0.6196873    0.2491552  41.80  0.002262175    2.575    0.612
       160 -11.9032     69.7492    129.9858   8.0440741299e+01   4.0084584762e+01    0.2667571    0.1733841 -60.18 0.0004431293    1.381    0.276
       161 -12.1335     19.3441    133.3200   9.3201384091e+01   4.4760612703e+01    0.2961289    0.2079235 -67.43  0.001135375    1.199    0.166
       162 -11.4963     24.4968    134.5664   9.2143726624e+01   4.4050534026e+01    0.1696719    0.1116993  36.57 0.0006218316    1.769    0.435
       163 -10.7767      3.2511    134.0714   9.6940609996e+01   4.5826365745e+01    0.2262504    0.1085469 -78.39  0.001326373    1.628    0.386
       164 -12.4172     94.4076    133.9401   7.5003183067e+01   3.5569924662e+01    0.3799572    0.1702289  43.75  0.001605087    2.277    0.561
       165 -12.5971     76.4245    132.4790   7.9203760241e+01   3.8610110637e+01    0.4099865     0.212504 -69.15    0.0018588    2.056    0.514
       166 -12.9412     33.8146    127.2413   8.8989920698e+01   4.4800002872e+01    0.3709573    0.3110633 -68.68  0.001464147    1.104    0.094
       167 -12.1183    127.2394    132.5242   6.6700138851e+01   3.0048380888e+01    0.3526377    0.2195921 -87.09   0.00128933    3.158    0.683
       168 -12.2054    150.8238    130.1538   6.0643300819e+01   2.5757923547e+01    0.3130165      0.26464  55.58  0.001158291    1.194    0.162
       169 -13.7841    157.8490    128.8117   5.8739413396e+01   2.4528262876e+01    0.7664736     0.561107  51.90   0.00355991    1.372    0.271
       170 -11.7665     70.9530    133.8819   8.0805702560e+01   3.9053509336e+01    0.2239477    0.2030575 -82.80 0.0003230202    1.037    0.036
       171 -12.6412     91.3864    129.3466   7.4869883871e+01   3.7068247622e+01    0.3507821    0.2403082 -61.56  0.001824917    1.394    0.282
       172  -9.9993     45.2973    129.3291   8.6449490105e+01   4.3176042212e+01    0.1224945   0.08446091 -44.10 0.0003257834    1.637    0.389
       173 -12.1109     15.9528    126.9756   9.3283114108e+01   4.6405049328e+01     0.384904    0.1965571 -55.03  0.002233299    1.792    0.442
       174 -11.4927     84.4667    127.9443   7.6347966441e+01   3.8447810059e+01    0.2169477    0.1240401 -57.69  0.001041412    1.622    0.384
       175 -12.9190     58.7087    126.7509   8.2683774360e+01   4.2217092847e+01    0.3434974    0.2605518 -82.21  0.002061841    1.259    0.206
       176 -12.7223     53.4585    124.6045   8.3668221264e+01   4.3318598667e+01    0.3108904     0.253124 -32.80  0.001528707    1.510    0.338
       177 -12.7076     40.5698    120.8598   8.6377205641e+01   4.5548237855e+01    0.6721039    0.3879758  16.08  0.002153573    2.633    0.620
       178 -11.4099     48.8910    122.7754   8.4542249834e+01   4.4242395960e+01    0.3276682    0.1886564  89.82 0.0006839579    2.194    0.544
       179 -12.6794     54.5680    117.4330   8.2174271859e+01   4.4791357488e+01    0.4482046    0.3044395  55.38  0.002087871    1.659    0.397
       180 -13.3702    143.9676    132.2879   6.2707246591e+01   2.6752863935e+01    0.7116338     0.409967 -24.44  0.002634885    2.888    0.654
       181 -12.3170     29.6033    128.7664   9.0219679358e+01   4.4857922356e+01    0.4083432    0.1911264 -86.58   0.00190804    2.525    0.604
       182 -12.8953     35.4886    131.5102   8.9153145315e+01   4.3699045491e+01    0.3568557    0.2986223 -52.01  0.002464884    1.309    0.236
       183 -11.0344     10.4444    123.3397   9.4189052332e+01   4.7604193916e+01    0.2175172    0.1814566  79.07  0.001571572    1.195    0.163
       184 -11.1668    189.8136    122.2397   5.0318179965e+01   1.8684436717e+01     0.371195    0.2709442  70.79  0.001597975    1.761    0.432
       185 -11.9972    107.8091    122.3022   6.9255636015e+01   3.5864746753e+01    0.3062527    0.2284598  81.72  0.001207608    1.707    0.414
       186 -12.7342    101.1702    119.8249   7.0410295126e+01   3.7563970000e+01    0.5208693    0.2948919  55.51  0.002282285    2.106    0.525
       187 -12.2083     67.5379    122.4446   7.9669926646e+01   4.2064059138e+01    0.2430524    0.2118468 -50.23 0.0007113375    1.175    0.149
       188 -12.1293     23.4280    117.2837   9.0241980103e+01   4.7912482566e+01    0.5049249     0.204409 -74.68  0.002395438    2.275    0.560
       189 -10.5856      2.4555    120.9597   9.5839916567e+01   4.8662205031e+01    0.2018855    0.1317174  55.78  0.001374842    1.672    0.402
       190 -10.8767    201.7643    120.3565   4.7494865804e+01   1.6321000258e+01    0.2060977    0.1343441  40.42 0.0003523878    1.557    0.358
       191 -11.3287     30.4627    118.8409   8.8665970249e+01   4.6961552837e+01    0.3352492    0.2053102  21.49   0.00196118    2.184    0.542
       192 -11.3892    155.0373    117.2585   5.6595892875e+01   2.7450558760e+01    0.2175579    0.1992082  48.47 0.0004333052    1.085    0.079
       193  -9.9330    197.0206    115.2283   4.7157071291e+01   1.8310668236e+01    0.1964012    0.1236731  49.27 0.0005213685    1.585    0.369
       194 -11.1025     49.2012    116.1521   8.3372497481e+01   4.5684620902e+01    0.2768834    0.2177054 -88.88  0.001114355    1.269    0.212
       195 -11.6365    105.4401    114.7951   6.8180954192e+01   3.7922947273e+01    0.2511954    0.2041214  43.86 0.0006352709    1.282    0.220
       196 -11.7849     82.7037    113.3923   7.3881054714e+01   4.1952171377e+01    0.2775643    0.2320129 -75.45 0.0004199822    1.200    0.167
       197 -11.6848     64.9671    114.5100   7.8870715078e+01   4.4172472575e+01    0.2872854    0.1137086  41.63  0.001219675    2.725    0.633
       198  -9.7646    165.3961    113.4783   5.3315949139e+01   2.5884519470e+01    0.1498255     0.146887 -15.00 9.511605e-05    1.022    0.022
       199 -11.1056     74.2389    112.0814   7.5888357114e+01   4.3470767319e+01    0.3371987    0.2215184  -4.09  0.001495285    2.849    0.649
       200  -9.9932     30.0265    112.9869   8.7927817153e+01   4.8290198913e+01    0.1437129    0.1206263 -72.96 0.0004929974    1.039    0.038
       201 -12.6217     53.5100    110.8390   8.1279719017e+01   4.6384658664e+01    0.3480203    0.2497456 -76.68 0.0008821517    1.362    0.266
       202 -11.7239     50.7360    107.3089   8.1388820430e+01   4.7483477139e+01    0.2678409    0.1877927 -30.34 0.0009992521    1.775    0.437
       203 -10.4192    242.0299    111.4602   3.8257665502e+01   8.9357154755e+00    0.2068751    0.1394847  51.22 0.0006285214    1.578    0.366
       204 -10.7321    122.7475    110.3844   6.2682679918e+01   3.5635005382e+01    0.2092055    0.1399958  34.30 0.0009546995    1.651    0.394
       205  -9.6917     84.4825    238.5049   9.0774450527e+01   1.6409989064e+01    0.1666671    0.1350157 -36.45  0.001155463    2.149    0.535
       206 -11.7499     58.9994    109.5098   7.9530944343e+01   4.6033121195e+01    0.2877283    0.1775759 -39.15 0.0009221255    1.821    0.451
       207 -10.8108     62.3120    108.3091   7.8385663705e+01   4.5892016372e+01    0.1860667    0.1508698 -51.18 0.0005186834    1.145    0.126
       208 -12.3031      2.2535    248.7571   1.0407666642e+02   2.4310118410e+01    0.2261995    0.1513162  80.00  0.001994279    1.135    0.119
       209 -11.8081    153.5122    107.2024   5.4397877047e+01   2.9791289319e+01    0.2953393    0.2168749  47.74 0.0006989136    1.359    0.264
       210  -9.4805     19.2925    105.3063   8.9649689391e+01   5.0857962405e+01    0.1169327   0.07234303 -47.38 0.0002829561    1.579    0.367
       211 -10.2095    116.9726    103.7470   6.2503494527e+01   3.8164011578e+01    0.1979818    0.1906347  46.38 0.0004118083    1.071    0.067
       212 -12.1548     78.8938    100.5503   7.2086504550e+01   4.5352104210e+01     0.427563    0.2774229 -79.27  0.001985268    2.156    0.536
       213 -11.5062     59.8644     92.0792   7.5649403912e+01   4.9771840910e+01       0.2823    0.2015406  49.67  0.001598066    1.653    0.395
       214 -12.6734     58.1545     99.8829   7.7840270612e+01   4.8269737042e+01    0.4201669    0.3061683 -56.83    0.0017057    1.185    0.156
       215 -10.6925     60.0053     95.9975   7.6477665154e+01   4.8898923127e+01    0.2293676    0.1947962  57.54  0.001421745    1.353    0.261
       216 -10.5765     22.1639     99.8978   8.8048260989e+01   5.1814527051e+01    0.2226065    0.1240101 -74.94  0.001071727    1.612    0.380
       217 -10.3560    236.3867     98.2021   3.5975857158e+01   1.2234869538e+01    0.3157237    0.1843488  83.67  0.001117732    3.625    0.724
       218 -10.2139    173.2023     98.4051   4.7686682646e+01   2.6944760337e+01    0.2126435    0.1487262  62.56 0.0004399441    1.601    0.375
       219 -10.7681     34.5226     94.4713   8.3601695155e+01   5.1954163561e+01    0.1232337    0.1002322 -59.66 4.439643e-05    1.023    0.023
       220 -10.5790    183.5054     91.9666   4.3815110960e+01   2.5656149700e+01    0.2378803    0.2023703  50.80 0.0004951712    1.175    0.149
       221 -10.9994     21.5255     91.1225   8.6791630576e+01   5.3767423487e+01     0.164879    0.1455684 -60.70 0.0009663135    1.119    0.106
       222 -10.9310      3.1659     90.3652   9.1948809954e+01   5.5147691095e+01    0.2870417    0.1139291 -63.25  0.001132217    1.791    0.442
       223 -11.6946    146.6208     87.9675   5.0796455549e+01   3.5093978122e+01    0.3595854    0.2890246 -29.19  0.001777361    1.278    0.217
       224 -12.0258    116.2133    240.1962   8.5530884484e+01   1.1510289543e+01      0.20157    0.1712603  72.93 0.0003497081    1.159    0.137
       225 -10.6906     11.8827     87.9819   8.9085329030e+01   5.5123087827e+01    0.3120772    0.1310715 -79.37  0.001424617    2.758    0.637
       226  -9.9850    171.4357     88.4682   4.5353125144e+01   2.9186247232e+01    0.1510005    0.1499808 -27.55 0.0001083785    1.023    0.022
       227 -13.6816     53.4370     85.1273   7.5993582682e+01   5.2039279046e+01    0.6848373    0.4782973  33.46  0.003352468    1.653    0.395
       228 -12.1389     50.6238     79.2585   7.5479806999e+01   5.3609879907e+01    0.2933198    0.1843748  43.24  0.001270539    1.912    0.477
       229  -9.7923     66.3207     87.2899   7.2599177897e+01   4.9983841310e+01    0.1321943    0.0955909 -25.51  0.000351317    1.603    0.376
       230 -10.0255    208.6448     86.6780   3.7671946937e+01   2.0501929434e+01    0.1586988     0.114987  19.48 0.0007046247    1.760    0.432
       231 -10.8608    211.9739     81.6557   3.5781564498e+01   2.0521610440e+01    0.2025073    0.1878463  56.69 0.0002719041    1.102    0.093
       232 -10.6502    172.0289     81.9621   4.3404861771e+01   3.0204811771e+01     0.182547    0.1802256  -5.27 0.0003937389    1.010    0.010
       233 -10.4469    207.0325     80.2839   3.6264833181e+01   2.1936148162e+01    0.2927369    0.1975783 -16.87  0.001301914    1.750    0.429
       234 -10.9610    153.0488     80.0847   4.7026783289e+01   3.5079760936e+01    0.2256693    0.2218032   9.09 0.0003487977    1.004    0.004
       235 -10.8403     87.6488     79.2618   6.4095387827e+01   4.8520802260e+01    0.2636924    0.2406955   9.78  0.001566406    1.161    0.139
       236 -12.4446     29.3764     79.8995   8.2308921669e+01   5.5549307933e+01    0.3021519    0.1892837  36.57  0.001603065    1.929    0.482
       237 -10.0912    214.6474     79.3034   3.4718161725e+01   2.0256128443e+01    0.1542535    0.1135351 -70.43 0.0007040144    1.705    0.414
       238 -11.3113    182.9687     78.0140   4.0075945609e+01   2.8210855533e+01    0.3784957    0.2996396  22.47  0.001821023    1.457    0.314
       239 -12.8159     22.8536     75.3722   8.3442722218e+01   5.7030926150e+01    0.4809625    0.1341858 -60.74  0.002025174    2.716    0.632
       240 -11.4248    112.0221     75.9492   5.6145503843e+01   4.4785855946e+01    0.2892666    0.2554579   6.68 0.0005160432    1.194    0.163
       241 -10.9719    115.6704     74.6936   5.4770803884e+01   4.4300942118e+01    0.2860756    0.2236413 -23.32  0.001075955    1.337    0.252
       242 -10.3257    164.2959     87.3385   4.6578608619e+01   3.1097087612e+01    0.1581179    0.1210742   9.67 0.0004043473    1.654    0.396
       243 -11.5115     74.6772     75.6897   6.7021557621e+01   5.1259554827e+01    0.3192557    0.2367548  19.48 0.0009630191    1.573    0.364
       244 -10.1481     15.9833     76.2393   8.5792649039e+01   5.7343558578e+01    0.1268733   0.09923394  17.14 0.0008828886    1.615    0.381
       245 -12.5618     32.1754     74.2996   8.0217585113e+01   5.6493900097e+01    0.3261895    0.2158212  -9.56   0.00190259    2.011    0.503
       246 -10.8127     51.2665     73.9763   7.3967246079e+01   5.4647429846e+01     0.180261    0.1479428 -49.78 0.0004312468    1.053    0.050
       247 -10.8328    219.7267     72.7236   3.2183991939e+01   2.0066707353e+01    0.2781146    0.2222011 -61.69 0.0007719253    1.359    0.264
       248 -11.9185    100.8989     69.2388   5.7240192315e+01   4.8198204951e+01    0.4816891    0.1994806 -40.91   0.00187471    2.303    0.566
       249 -11.7129    197.7896     66.7964   3.4206880975e+01   2.6360275342e+01    0.4880686    0.2863327  27.00  0.001716137    2.574    0.612
       250 -10.0737      2.2300     68.4129   8.8735276551e+01   5.9801643091e+01    0.1224708      0.10384  40.88 0.0005253747    1.535    0.348
       251 -12.9324     31.1605     64.2215   7.8190196966e+01   5.8671946400e+01    0.3585812    0.2764178  46.67  0.002356205    1.678    0.404
       252 -12.7063     24.3003     63.3269   8.0319124301e+01   5.9420723654e+01    0.3610797    0.2220864  -6.82     0.002097    2.175    0.540
       253 -10.2160    177.9536     64.7081   3.7245102472e+01   3.1648721148e+01    0.2075892    0.1969241  68.69  0.000493752    1.068    0.064
       254  -9.6158     78.7199     65.7104   6.2849378591e+01   5.2648061728e+01    0.1332356   0.09823043 -15.83 0.0002667809    1.525    0.344
       255  -9.5310    240.2822     63.3016   2.6824716761e+01   1.6631708041e+01    0.1346139    0.1079553  16.96 0.0002182934    1.550    0.355
       256 -10.2648    113.8123     62.8858   5.1590434769e+01   4.6864675923e+01    0.1851379    0.1703892 -69.85 0.0003050124    1.285    0.222
       257 -11.1667    188.6252     67.6025   3.6067007441e+01   2.8519320825e+01    0.5980453    0.1836242 -37.65  0.001904425    3.075    0.675
       258 -10.8799    208.0645     61.5279   3.1055339682e+01   2.4612941132e+01    0.2742374    0.2104919  -4.89 0.0008035107    1.583    0.368
       259 -10.6403     45.5232     61.1165   7.2450312924e+01   5.7905448910e+01     0.207008    0.1557676 -24.51  0.001016635    1.327    0.247
       260 -11.8495     53.3236     57.6034   6.8750117864e+01   5.7712389187e+01    0.3393803    0.2998011  85.89  0.000898617    1.558    0.358
       261 -10.8073      3.4589     59.3511   8.6602735387e+01   6.1588772577e+01      0.20498     0.150304 -29.25  0.001484161    1.418    0.295
       262 -10.3837    108.9665     59.7697   5.1920717772e+01   4.8394554999e+01    0.1929381    0.1174501  44.14 0.0008880632    1.679    0.404
       263 -11.3360    153.7047     57.4337   4.0025398685e+01   3.8801685180e+01    0.2684025    0.2563047  -4.00 0.0003163406    1.050    0.047
       264 -10.5233    225.4053     57.2049   2.7317972691e+01   2.1007098767e+01    0.2113721    0.1209064 -43.11 0.0009449574    1.684    0.406
       265 -11.1554    192.9939     57.0204   3.2293835237e+01   2.9056759339e+01    0.2512738    0.1791225 -69.16  0.001143706    1.741    0.426
       266 -10.4140     99.5497     57.2008   5.3772710332e+01   5.0668559220e+01    0.2220242    0.1993351  74.15  0.001260873    1.421    0.296
       267 -11.4219     27.5060     55.3351   7.7199011162e+01   6.0771993751e+01    0.2988625    0.1939157  46.58  0.001642334    2.151    0.535
       268 -10.6069    133.0423    240.1858   8.2611473710e+01   8.8954738181e+00    0.2700942    0.1205282  49.20  0.001420749    1.811    0.448
       269 -10.2580     93.7998     51.9367   5.3707199141e+01   5.2651859956e+01    0.2251725    0.1490646  -8.29 0.0007376492    1.942    0.485
       270 -11.1076    182.2741     51.4418   3.2554826915e+01   3.2592198218e+01    0.2988103    0.1339726  54.80  0.001144468    2.102    0.524
       271 -11.1964    173.0767     50.8008   3.4049095664e+01   3.5012342659e+01    0.4329772    0.2194154  59.22  0.001747004    1.940    0.484
       272 -10.8175     30.7985     50.8552   7.4777725318e+01   6.1368164944e+01    0.1897583    0.1674318  13.15 0.0005938138    1.331    0.249
       273 -10.1806    152.9517     50.5667   3.8021050352e+01   4.0051828275e+01    0.2193125    0.1410078  53.39 4.450084e-05    1.504    0.335
       274 -11.2825     44.7425     49.2019   6.9200411864e+01   6.0304454946e+01    0.1873249     0.164711  34.40  0.001272902    1.403    0.287
       275 -11.0037     18.6200     48.2425   7.8560770002e+01   6.2855490350e+01    0.3917106    0.1073235 -44.98  0.001209864    2.754    0.637
       276 -11.3785    195.9408     44.3752   2.8225808712e+01   3.0122937050e+01    0.3625222    0.2271757 -86.98  0.001520457    2.190    0.543
       277  -9.9529    153.5186     44.5001   3.5959277467e+01   4.0808424216e+01     0.146671    0.1405725  35.40 3.320199e-05    1.004    0.004
       278  -9.6669    131.3263     41.3180   3.9848638423e+01   4.6558257667e+01    0.1529415    0.1061969  20.62 0.0007045617    1.677    0.404
       279 -10.2227    122.4850     41.5492   4.2099403419e+01   4.8518555802e+01    0.1423689    0.1327725  15.20 5.342314e-05    1.011    0.011
       280 -10.1553     95.5225     41.5228   4.9513465492e+01   5.4057974160e+01    0.1379595    0.1226741  -2.01 0.0001863201    1.016    0.016
       281 -11.6196     34.8857     39.8215   6.9866085895e+01   6.3064500198e+01    0.4316166    0.2134323  17.40  0.002227416    2.573    0.611
       282 -10.6701     60.5733     38.7780   5.9956786139e+01   6.0221934241e+01    0.2446593    0.1495693 -51.90  0.001274115    1.933    0.483
       283 -12.0688     55.6719     37.1560   6.1131597630e+01   6.1156339321e+01     0.402695    0.2764721  19.40  0.001158664    1.564    0.361
       284 -10.4905    238.1544    248.8535   6.5806475547e+01  -8.9052163210e+00    0.1608826     0.129427  29.97 0.0006351423    1.226    0.184
       285 -11.3621     43.9653     33.2689   6.4095697288e+01   6.3255587093e+01    0.2608165    0.1796364  -1.64  0.001584699    1.565    0.361
       286 -12.1406     31.5858     32.3519   6.8627168810e+01   6.4717232501e+01    0.4116018    0.1973903 -36.30  0.002227291    1.766    0.434
       287 -11.4073    169.5311     31.2153   2.8690521238e+01   3.8581029604e+01    0.2540074    0.2342547  58.93 0.0002686833    1.029    0.028
       288 -11.0309    106.6050     31.6547   4.2695231964e+01   5.3332480061e+01    0.2508011    0.2246073 -25.14 0.0008139422    1.164    0.141
       289  -9.7568    222.6940     31.6435   2.1077991639e+01   2.5093696254e+01    0.1406686    0.1044406  28.45 8.515926e-05    1.722    0.419
       290 -11.7805     77.3872     30.6644   5.1106666802e+01   5.8952358185e+01    0.2060148    0.1563555  48.02 0.0007363677    1.569    0.363
       291 -10.7174     67.5023     29.4895   5.3993973037e+01   6.0714139465e+01    0.1278009    0.1087208 -11.06 0.0008104299    1.029    0.028
       292 -10.7402     39.1587     28.9035   6.4357337150e+01   6.4529909684e+01    0.2382417    0.1355533 -27.44  0.001345736    1.623    0.384
       293  -9.8237    208.4620    249.5766   7.0830318618e+01  -4.4591250426e+00    0.1155938   0.08676749  32.39 0.0001388275    1.014    0.014
       294 -11.7800    118.8088     25.9843   3.7422292512e+01   5.1464961093e+01    0.2600602    0.2154741   8.37 0.0003373902    1.189    0.159
       295 -12.1319     84.8337     24.4068   4.6239961498e+01   5.8549304786e+01    0.3355184    0.2986985  85.22  0.001771105    1.694    0.410
       296 -10.4292    249.9199     22.1276   1.5842815847e+01   1.9811879923e+01     0.207954    0.1561637 -64.21 0.0006916694    1.243    0.196
       297 -10.2532    140.7720     37.6012   3.6416034584e+01   4.4868248114e+01    0.1943756    0.1382667  67.49 0.0005276577    1.569    0.363
       298 -11.3081     47.1702     27.9492   6.0858430711e+01   6.3758606792e+01    0.1786793    0.1569549 -37.69  0.001232067    1.318    0.241
       299 -10.1241    134.7966     18.2162   3.0986592532e+01   4.8699929905e+01    0.1917215    0.1462725  28.29 0.0002737732    1.303    0.233
       300 -10.8282     30.3459     15.8231   6.2824818268e+01   6.7561822336e+01    0.2055935    0.1160895 -32.88 0.0008103909    1.433    0.302
       301 -10.6379    215.7428     15.4525   1.7705865717e+01   2.8706473078e+01    0.1881598    0.1168114  58.97 0.0007253044    1.552    0.356
       302 -10.2326     41.3032     13.6827   5.7322577721e+01   6.6651115200e+01    0.1014751   0.09118909 -46.98 0.0003267981    1.623    0.384
       303 -10.2989    177.5117    249.0689   7.6008002872e+01   5.2123523900e-01    0.1362221    0.1165764 -36.18 0.0005067993    1.505    0.336
       304 -12.2059    179.6322    244.6223   7.5060610856e+01   7.4601037973e-01    0.2261675    0.1887139  37.79 0.0005419552    1.077    0.072
       305 -10.3126    114.7980    247.9780   8.6563759545e+01   1.0531629115e+01    0.1849079    0.1221652 -37.21  0.001118213    2.646    0.622
       306 -11.2446    213.5254     10.4937   1.6665097350e+01   2.9789983467e+01    0.2897305    0.1246611  70.98  0.001218607    2.194    0.544
