#   1 NUMBER                 Running object number                                     
#   2 MAG_AUTO               Kron-like elliptical aperture magnitude                    [mag]
#   3 X_IMAGE                Object position along x                                    [pixel]
#   4 Y_IMAGE                Object position along y                                    [pixel]
#   5 X_WORLD                Barycenter position along world x axis                     [deg]
#   6 Y_WORLD                Barycenter position along world y axis                     [deg]
#   7 A_WORLD                Profile RMS along major axis (world units)                 [deg]
#   8 B_WORLD                Profile RMS along minor axis (world units)                 [deg]
#   9 THETA_WORLD            Position angle (CCW/world-x)                               [deg]
#  10 FWHM_WORLD             FWHM assuming a gaussian core                              [deg]
#  11 ELONGATION             A_IMAGE/B_IMAGE                                           
#  12 ELLIPTICITY            1 - B_IMAGE/A_IMAGE                                       
         1 -10.9029    237.0706     30.3192   3.9328930829e+01   2.3245916266e+01    0.6879192    0.3487225 -39.82  0.003497448    1.735    0.424
         2 -11.0181    101.5047     17.2816   5.6696951708e+01   5.7097324263e+01    0.7096701    0.4242112   8.08  0.002908173    2.110    0.526
         3 -10.0872     29.5253     17.8551   8.3991669628e+01   6.9394132287e+01    0.3142206    0.1760631 -24.42 0.0007026848    1.594    0.373
         4 -11.5559    111.6369     19.3331   5.4969223461e+01   5.4609726070e+01    0.4997585    0.3541688  40.97  0.002731417    1.276    0.216
         5 -10.9218    149.9193     18.5765   4.7024916875e+01   4.5503132289e+01    0.3203445    0.3051836  88.15 0.0005879468    1.076    0.071
         6 -10.0395    154.7138     16.0893   4.5462406699e+01   4.4569828147e+01    0.3939329    0.2516469 -12.25  0.001969323    1.923    0.480
         7 -10.0881    156.7150      9.7162   4.3181020635e+01   4.4693985969e+01    0.4800529    0.3006245  16.23  0.002318393    2.235    0.553
         8  -9.8126     63.0429     18.8991   6.9667368652e+01   6.4480041265e+01     0.442808    0.3255987 -71.16  0.001967591    3.373    0.704
         9 -10.8266     57.2677     13.6887   6.9462669204e+01   6.6091647304e+01    0.5047194    0.2675942  24.27  0.001832528    1.980    0.495
        10 -10.0778     87.1150     18.1295   6.1099591760e+01   6.0054812591e+01     0.360736    0.2524515 -35.05 0.0009613959    1.602    0.376
        11 -10.4684     37.8688     17.6170   7.9818862606e+01   6.8423873834e+01    0.3455648    0.1958067  19.32   0.00135563    1.789    0.441
        12  -9.8787     23.0454     16.0985   8.6483234038e+01   7.0356198796e+01    0.2615024    0.2415307 -27.50  0.001941394    1.500    0.333
        13 -10.2386     10.7439     15.4651   9.2846928711e+01   7.1563326435e+01    0.4340518    0.3026821 -29.55  0.003007294    1.096    0.087
        14 -10.2530     18.6273     10.6070   8.6205228329e+01   7.1626077374e+01    0.3097936    0.2394338  28.13  0.001173943    1.623    0.384
        15 -10.5488     12.0897      6.8784   8.8019767726e+01   7.2787780203e+01    0.3517411    0.2809403   9.92  0.002638818    1.350    0.259
        16  -9.8387      7.0004      3.0498   8.9071030175e+01   7.3784813678e+01    0.3085556    0.1998383  -1.08  0.001736483    1.355    0.262
        17 -11.1824    181.1587     13.1189   4.0957790738e+01   3.8320117966e+01     1.058638    0.3018338  50.05  0.003583512    3.820    0.738
        18 -11.5836    122.3490     11.1241   4.9521218217e+01   5.2933514934e+01     0.567326    0.3040276  52.12 0.0007013275    1.597    0.374
        19 -10.2143    127.2102      4.9372   4.6357466891e+01   5.2320035255e+01    0.3105019    0.2061051  39.95  0.001027889    1.439    0.305
        20  -9.3646     33.5766     12.0795   7.9179381955e+01   6.9745175031e+01    0.2748572    0.2376803 -50.61  0.001857476    1.882    0.469
        21  -9.5790    216.5190      8.6535   3.6194452080e+01   3.0348530957e+01    0.2757637    0.1867126 -41.68  0.001619104    1.419    0.295
        22 -10.5168    210.7942     10.5259   3.7154025489e+01   3.1475652550e+01    0.3770673    0.2318768 -48.59  0.002082008    1.515    0.340
        23 -10.2548    212.8405      5.9777   3.5881872634e+01   3.1471067439e+01    0.3112336    0.2202795 -39.13  0.001020374    1.413    0.292
        24  -9.0679     93.2055     10.2797   5.6006345992e+01   5.9599025460e+01    0.2175452    0.1579606 -53.10  0.001052998    1.935    0.483
        25  -9.1936     47.2254      9.5707   7.1600556943e+01   6.8175722898e+01    0.2354788    0.1738925  21.59  0.001528211    1.189    0.159
        26  -8.6131    193.6382      9.3145   3.8537993651e+01   3.5668002929e+01    0.1425535   0.08500662 -67.05 0.0007041778    1.757    0.431
        27 -10.5288     78.5490      6.8385   5.8721085539e+01   6.2945588581e+01    0.3283823    0.2544804  36.06  0.002053411    1.115    0.103
        28  -9.9282     17.2909      3.0574   8.3059137616e+01   7.2831771958e+01    0.2692644    0.2221775 -28.63  0.002001198    1.455    0.313
        29 -10.1800     25.3482      6.8551   8.0684749608e+01   7.1442056259e+01    0.2245063    0.1592684 -21.87 0.0002673355    1.188    0.158
        30 -10.5979     22.3797      2.8247   8.0119800872e+01   7.2313293125e+01    0.3801936    0.1802284  35.14  0.001977775    2.276    0.561
        31  -9.4420      2.0114      5.5060   9.3330978108e+01   7.3792346602e+01    0.3102991    0.1503269 -45.50  0.001871378    1.792    0.442
        32  -9.7792    108.3967      5.0411   5.0153389986e+01   5.6710644172e+01    0.3549133    0.2230833 -18.21  0.001917962    1.741    0.426
        33  -9.6083    104.1823      2.0582   4.9902625112e+01   5.7907547882e+01    0.4222906     0.211337  78.06  0.001745052    3.010    0.668
        34 -10.3430     90.4747      3.6329   5.3890008195e+01   6.0779900279e+01     0.279042    0.2470728  69.17 0.0007267004    1.337    0.252
        35 -10.7943     84.5294      1.3728   5.4500136576e+01   6.2216266160e+01    0.3259811    0.1485332  61.87  0.001489285    2.353    0.575
        36 -10.0969     38.3921      4.9188   7.3169234486e+01   7.0020573298e+01    0.2281395    0.1599201  32.78 0.0002711067    1.445    0.308
        37  -9.5081     40.7078      1.6745   7.0363160379e+01   7.0057652832e+01    0.3062001    0.1840679  45.32   0.00180124    1.951    0.487
        38  -8.8055     69.5052      7.5186   6.1973756139e+01   6.4620485939e+01    0.1274618    0.1035721  18.92 -7.887574e-06    1.007    0.007
        39  -9.0824     68.9986      2.2320   5.9609699102e+01   6.5221416999e+01    0.2392111   0.09154481  54.85 0.0009812242    2.683    0.627
        40  -8.6531    242.0093      1.4688   3.2661183807e+01   2.5469183390e+01    0.1697804    0.1030363  80.01 0.0004555578    1.534    0.348
        41 -10.0016    186.0226     13.5285   4.0494182066e+01   3.7086405816e+01    0.3269201    0.2260874  55.73 0.0009027292    1.432    0.302
        42  -8.5336    170.4089      1.2541   3.8904699888e+01   4.2076682356e+01    0.1383829   0.08160581  48.75 0.0006946625    1.725    0.420
        43  -8.1590    137.0088      1.0000   4.3340236259e+01   5.0277964452e+01    0.2134751   0.06608198  67.34 0.0004311353    2.818    0.645
        44 -10.9507     21.2067    109.9328   1.1342976846e+02   5.0851414686e+01    0.3860559    0.2241273  38.52  0.002088121    1.999    0.500
        45  -9.0909    127.4783    109.9739   8.0791306521e+01   3.5396850104e+01     0.246024     0.151902 -43.98 0.0005031858    1.581    0.367
        46  -9.1246     28.7256    109.8137   1.1104492807e+02   5.0283886861e+01    0.2167255    0.1281675 -50.88 0.0005585608    1.478    0.323
        47  -8.8116    100.3115    108.9940   8.8273908776e+01   4.0964376597e+01    0.2199665    0.1824195 -46.51 0.0006280757    1.146    0.127
        48 -10.6377      6.4464    107.4256   1.1765004935e+02   5.2422287497e+01    0.4377739    0.3018474  70.64  0.001678835    1.624    0.384
        49 -10.0631      8.5900    103.7369   1.1648259076e+02   5.3173061816e+01    0.3163775    0.1865022 -76.24  0.001032642    1.442    0.306
        50  -9.3706     11.5407    101.5168   1.1522072547e+02   5.3522515968e+01    0.2309993    0.1849612 -80.68 0.0005576847    1.163    0.140
        51  -9.4124    118.2412    107.4352   8.2656597924e+01   3.7870984714e+01    0.2203026    0.1493954  53.20 0.0005694584    1.645    0.392
        52  -8.0028     72.2997    107.2959   9.6528324862e+01   4.5947717485e+01    0.1458098    0.1061202 -27.25 0.0002382981    1.573    0.364
        53 -10.5526     79.5505    103.8283   9.3365157989e+01   4.5686606282e+01     0.371706    0.2834776  -5.62 0.0008701563    1.652    0.395
        54  -8.4226    123.3054    104.3074   8.0389227980e+01   3.7526400415e+01    0.1576918    0.1235753  -4.89 0.0003770987    1.607    0.378
        55  -9.0299     64.9122    103.9215   9.8119706929e+01   4.7786668362e+01    0.2093041    0.1715285 -37.66  0.001143875    1.186    0.157
        56  -8.9826     16.7937    104.3815   1.1397018775e+02   5.2499766288e+01    0.1573032    0.1172127 -12.79 0.0004697646    1.672    0.402
        57  -9.4190    134.5314    103.0314   7.7006902688e+01   3.5402728596e+01    0.2479479    0.1526943 -43.24 0.0005508047    1.591    0.371
        58  -9.9484    108.6996    103.0662   8.4208821802e+01   4.0749279874e+01    0.4396839    0.2249159  32.29  0.001009562    2.311    0.567
        59 -10.2544     45.3612    101.9798   1.0415361845e+02   5.0602734539e+01    0.2487161    0.2264253  73.10 0.0004065271    1.250    0.200
        60  -8.9516     94.9759    101.5100   8.7914922849e+01   4.3656515056e+01    0.2412734    0.1943796 -48.21 0.0005561855    1.177    0.150
        61 -10.4655     53.6132     98.8592   1.0069810921e+02   5.0424186949e+01    0.4388367    0.2717781 -47.80  0.002196107    1.423    0.297
        62  -9.9163     69.3883     96.8425   9.4907933733e+01   4.8844564503e+01    0.3476142    0.2456829 -63.04  0.000977473    1.453    0.312
        63 -10.2843     16.2869     95.6646   1.1272823644e+02   5.4605376096e+01    0.6397007    0.2357386  43.58   0.00264622    3.627    0.724
        64  -9.2438    147.7953     96.1669   7.1699746848e+01   3.3856776642e+01    0.2263447    0.2145616 -84.07 0.0004263199    1.138    0.121
        65 -10.0505     78.9733     95.2919   9.1329698063e+01   4.7769020608e+01    0.3889359    0.3152552   0.87  0.001273306    1.424    0.298
        66 -10.2666     35.3281     95.1566   1.0613448762e+02   5.3226083951e+01    0.4833792    0.2542917 -26.85   0.00179438    2.559    0.609
        67  -8.9819    103.9828     96.0000   8.3638398114e+01   4.3240551765e+01    0.2480836   0.08757796  40.94 0.0008034924    2.950    0.661
        68 -10.0753    132.6536     93.3532   7.4741290847e+01   3.7857645174e+01    0.3434601    0.2317314  28.16  0.001030604    1.769    0.435
        69  -8.9077      1.3774     94.0053   1.1743444130e+02   5.5843329551e+01    0.1871805   0.09353931 -71.51 0.0007420115    1.580    0.367
        70  -9.0950     89.4958     92.4549   8.7132925789e+01   4.6674913824e+01    0.2600703    0.2397188   2.99 0.0007020157    1.120    0.107
        71  -9.6770     87.0000     89.0179   8.6953599112e+01   4.7870970382e+01    0.4364125    0.2276611 -62.98  0.001230599    2.816    0.645
        72  -9.6451    125.9003     91.5088   7.6016606391e+01   3.9721783562e+01    0.2352128    0.1539168  45.07  0.001021828    1.557    0.358
        73  -8.9373     51.9367     91.1606   9.9452120607e+01   5.2437166513e+01    0.2782309    0.1539376 -46.40  0.001320122    1.585    0.369
        74  -8.9196     32.4871     89.8679   1.0601748799e+02   5.4728681910e+01    0.2047994    0.1125807 -62.39  0.001019984    1.560    0.359
        75  -9.0723     16.0996     89.0782   1.1164014653e+02   5.6164111381e+01    0.3146488     0.100078 -59.38  0.001351168    2.227    0.551
        76 -11.2974    119.8458     87.8600   7.6610394694e+01   4.1780008450e+01    0.5646403    0.4069811  37.88  0.002631896    1.429    0.300
        77 -10.2615    124.4864     85.5146   7.4608983992e+01   4.1260719555e+01    0.3280893      0.25504  87.04  0.001139463    1.827    0.453
        78  -8.5888     56.9540     89.2238   9.7209478250e+01   5.2279971083e+01    0.1686839    0.1154745  28.83 0.0004078316    1.626    0.385
        79  -9.2035     47.8585     88.9304   1.0034569099e+02   5.3421308121e+01    0.2048759    0.1561273 -37.92 0.0002757394    1.216    0.178
        80  -8.7719    139.5145     88.5117   7.1539740763e+01   3.7296123828e+01    0.1551669    0.1513379  -9.41 0.0001248533    1.012    0.012
        81 -11.7385    131.8388     86.5882   7.2952480272e+01   3.9418455621e+01    0.3527558    0.2995807  35.54 0.0002867072    1.200    0.167
        82  -9.9383    134.9832     82.9642   7.1034799138e+01   3.9425231921e+01    0.4626258    0.3142196  86.01  0.001487151    2.603    0.616
        83  -9.3230    109.3054     87.9567   7.9690374976e+01   4.3941340729e+01    0.3332864    0.2289457 -81.12  0.001173878    2.645    0.622
        84  -8.2270      5.3637     87.2679   1.1507005936e+02   5.7208697544e+01    0.1269598   0.07122508 -41.64 0.0003560368    1.651    0.394
        85  -9.3584    173.9843     84.7679   6.2579131736e+01   2.9860296688e+01    0.2161728    0.1955078  54.08 0.0003819634    1.126    0.112
        86  -9.6713    176.1989     81.6021   6.1243859336e+01   2.9896969408e+01    0.2591172    0.2178546  21.40  0.001288668    1.381    0.276
        87 -10.6875    157.4837     83.4825   6.5752355243e+01   3.4056317328e+01    0.3584941    0.2520884  20.35  0.001524231    1.920    0.479
        88  -8.8664     81.7316     84.8564   8.7476018956e+01   4.9673691144e+01    0.1997239    0.1742076 -39.79 0.0003055262    1.066    0.062
        89  -8.3945     29.6998     85.2956   1.0603118084e+02   5.6033691584e+01    0.1210726   0.09650654  78.83 0.0002258172    1.573    0.364
        90 -10.3316     76.0125     83.0311   8.8873447553e+01   5.0993772505e+01    0.2902975    0.2662111 -31.59 0.0004103491    1.018    0.017
        91  -9.1303     70.7973     83.3929   9.0777458007e+01   5.1709599736e+01    0.2329974    0.1835551  15.04  0.001240065    1.399    0.285
        92  -9.0397     45.9773     83.9876   9.9798425646e+01   5.4768319808e+01    0.2085218    0.1716067 -43.87 0.0003824475    1.043    0.041
        93  -8.9610     33.9094     83.9921   1.0420549602e+02   5.5968326701e+01    0.1942606    0.1501929  79.36 0.0005684614    1.697    0.411
        94 -10.2346      6.6398     80.6239   1.1349135888e+02   5.8669416414e+01    0.3401284    0.1810669 -37.50  0.001871552    1.805    0.446
        95  -9.5949    143.6726     80.9079   6.8228124283e+01   3.7811890756e+01    0.2217264    0.1957667 -39.56 0.0005258703    1.128    0.113
        96 -11.3928    104.9252     78.1383   7.7975863096e+01   4.6852358899e+01    0.5935859    0.4172407  -9.94  0.001817787    1.863    0.463
        97  -8.3358     16.3335     80.9846   1.1001678490e+02   5.8021249900e+01    0.2048924   0.09497491 -88.64 0.0007048069    4.481    0.777
        98 -10.4778    154.9834     79.3382   6.5096445425e+01   3.5421865829e+01    0.4006889    0.2671714  32.59  0.001724017    1.769    0.435
        99  -8.7568     22.0504     80.4807   1.0779946478e+02   5.7742678203e+01    0.1567344    0.1258275  13.31 0.0004247142    1.474    0.322
       100 -10.3114     97.5658     76.2705   7.9663933959e+01   4.8669618796e+01    0.5168744    0.3733055 -42.83  0.002158877    1.344    0.256
       101 -10.4507     97.4702     69.5322   7.7492925733e+01   5.0025753235e+01    0.4357291      0.28034 -52.53  0.001775608    1.781    0.438
       102 -10.5597     78.0064     75.0480   8.5758079104e+01   5.2390077312e+01    0.3380307    0.2630758   4.11  0.001082557    1.437    0.304
       103 -10.2058     74.4884     75.4554   8.7111129468e+01   5.2867287059e+01    0.3553545    0.2729803  -7.87  0.001201394    1.452    0.311
       104  -8.9949     49.2731     77.3548   9.6836336974e+01   5.5895852728e+01     0.144181   0.08906911 -32.01  0.000288715    1.642    0.391
       105 -10.3310    129.8089     75.4544   7.0057798944e+01   4.2043236133e+01     0.333079    0.2351117  34.17  0.001016075    1.512    0.339
       106  -9.3840      4.8067     76.0850   1.1334539298e+02   5.9792530102e+01    0.1897407     0.145752 -57.56 0.0004748213    1.008    0.008
       107  -8.8585      2.0334     73.2107   1.1385825608e+02   6.0569822682e+01    0.1553336    0.1339376 -44.17 0.0003776291    1.159    0.137
       108 -10.8579    152.1876     73.6054   6.4008936204e+01   3.7129608096e+01    0.3400248    0.3184942 -32.65 0.0008743188    1.070    0.065
       109 -10.0922     55.3060     73.6988   9.3539612948e+01   5.5968387050e+01    0.5288498    0.2666615 -16.84  0.001754162    4.302    0.768
       110  -8.3228     20.5668     75.4712   1.0726571306e+02   5.8987865987e+01    0.1286186    0.1011848 -49.77 0.0001280896    1.019    0.019
       111  -8.2846     11.4643     75.4496   1.1072427823e+02   5.9579500868e+01    0.1261266   0.09656824 -51.72  0.000603624    1.037    0.036
       112  -9.1492    173.7614     74.4404   5.9696111190e+01   3.1742209009e+01    0.2142548    0.1394609  44.78 0.0006483084    1.610    0.379
       113 -10.1089     45.5639     72.8948   9.6998175958e+01   5.7300071003e+01    0.2674615    0.2022759 -45.21 0.0004335462    1.129    0.114
       114  -9.5272     86.2791     73.2848   8.2377198961e+01   5.1351568798e+01    0.3451669    0.1774737  38.18  0.001460972    2.031    0.508
       115  -8.8647     31.2434     72.9519   1.0254655548e+02   5.8706893638e+01    0.1804744    0.1426798 -46.75 0.0004103722    1.039    0.037
       116 -11.0234    137.0524     69.6333   6.6363109538e+01   4.1438375497e+01    0.3461921    0.3118186  -7.52 0.0004906072    1.159    0.137
       117  -9.7211    142.6437     68.7144   6.4714868502e+01   4.0279477721e+01    0.2556355    0.1808204  35.76 0.0005450277    1.516    0.341
       118  -8.1736    184.0000     70.9809   5.6787520065e+01   2.9832388381e+01    0.2342973   0.08335066 -34.77            0    2.767    0.639
       119  -9.8532     55.2816     80.3339   9.5441015833e+01   5.4509950328e+01    0.3055362    0.2042477 -32.55  0.001082389    1.477    0.323
       120 -10.2126     64.5733     70.5962   8.9152881483e+01   5.5380721520e+01    0.3600887    0.2351724  45.67   0.00178491    1.865    0.464
       121  -9.2895     17.6287     69.7859   1.0711707980e+02   6.0462189364e+01    0.3023032    0.1351313 -53.50  0.001517258    1.684    0.406
       122  -9.4666    121.3849     67.6727   6.9810185964e+01   4.5376188383e+01    0.3391546    0.2196354  24.17 0.0007742372    1.965    0.491
       123  -9.5303     90.0169     67.4945   7.9221777096e+01   5.1831579377e+01    0.3188148      0.26181  33.01  0.001142278    1.242    0.195
       124 -10.6686    153.1362     66.1929   6.1532066779e+01   3.8184962773e+01    0.3966185     0.244282 -50.57   0.00169687    1.809    0.447
       125  -9.9472     59.7888     66.2418   8.9555282478e+01   5.6956927182e+01     0.351242    0.2242345 -21.38  0.001280775    1.775    0.437
       126  -8.4955     70.8449     66.6197   8.5577453130e+01   5.5264697306e+01     0.183054    0.1304135  43.57 0.0004954197    1.613    0.380
       127  -8.7716     49.1416     65.4999   9.3428096071e+01   5.8475322564e+01    0.1763162    0.1301554  21.34 0.0005808011    1.471    0.320
       128 -10.0683     44.0456     63.4317   9.4810266717e+01   5.9496237259e+01    0.3293004    0.2628175 -42.92   0.00199001    1.104    0.094
       129  -9.4091     32.7254     64.3007   9.9640286614e+01   6.0462587207e+01    0.2553105    0.2026005 -18.51  0.001317834    1.236    0.191
       130  -8.3701    201.2876     64.6492   5.2168127565e+01   2.6681384902e+01    0.1534513    0.1034937 -63.16 0.0003668534    1.664    0.399
       131 -12.1544      7.1754     57.5574   1.0851710043e+02   6.3748022140e+01    0.5330827    0.2104473 -36.06  0.002568922    2.336    0.572
       132 -10.6331    172.8004     61.1881   5.6049592396e+01   3.4166577380e+01    0.4499082    0.3499514 -35.63  0.002275848    1.293    0.227
       133  -9.1641    108.9673     63.0021   7.1765641469e+01   4.8914479301e+01    0.2300016    0.1886683 -82.54  0.001131291    1.719    0.418
       134 -10.0898     69.7198     62.4133   8.4575583144e+01   5.6278216337e+01    0.5423853    0.2215805  35.81  0.002179458    2.590    0.614
       135  -9.3499     97.4742     61.0766   7.4605085047e+01   5.1613932647e+01    0.2427806    0.2140413 -50.78  0.000660905    1.283    0.221
       136 -10.4278     95.3547     56.7558   7.3749524978e+01   5.2804719901e+01    0.5220657    0.3128181 -17.30  0.002220369    2.160    0.537
       137  -8.5366    121.7133     60.2727   6.7250239896e+01   4.6604898311e+01     0.247052    0.1121974  39.55 0.0009023324    2.398    0.583
       138 -10.1996     50.7662     59.5526   9.0884549810e+01   5.9501726881e+01    0.2216902    0.1818457 -40.20  0.000280721    1.124    0.111
       139 -10.0109     59.1984     57.6627   8.6920770121e+01   5.8762377778e+01    0.3593612    0.2581121  15.80  0.001969036    1.479    0.324
       140  -9.4301    211.9662     49.9359   4.6826317510e+01   2.6338898649e+01    0.2696668    0.1934976  70.31  0.001427417    1.408    0.290
       141  -9.9261    199.9195     56.3411   5.0172961007e+01   2.8273552170e+01    0.3876635    0.2707176  -0.31  0.001483089    2.174    0.540
       142 -10.4591    204.2066     52.5551   4.8554015616e+01   2.7801144918e+01    0.6782146    0.3858357 -74.01  0.002777644    2.502    0.600
       143  -9.6852    207.4149     49.8564   4.7410687598e+01   2.7423754859e+01     0.291252    0.2516587  80.55 0.0009026796    1.139    0.122
       144  -9.8811    160.0309     56.9008   5.7233354978e+01   3.7997624887e+01    0.3467823    0.2783249  41.28  0.001124798    1.284    0.221
       145 -10.0773    162.9799     52.9708   5.5457977432e+01   3.7866410757e+01    0.3679026    0.3054152 -35.09  0.001106677    1.232    0.188
       146 -11.0511    150.4208     57.3372   5.9363699645e+01   4.0294759416e+01    0.4874369    0.3403169  86.30   0.00215546    1.951    0.487
       147  -9.1741     34.1918     57.7086   9.7089800317e+01   6.1710590849e+01    0.2137748    0.1555971 -57.02  0.000753777    1.386    0.278
       148  -9.2329     69.2371     55.9188   8.2482430174e+01   5.7602378210e+01    0.3343394    0.2085784 -46.77  0.001658387    1.629    0.386
       149  -8.6790    185.6300     56.7091   5.2516010165e+01   3.1693944797e+01    0.1502366    0.1098428  30.53 0.0007024555    1.718    0.418
       150  -9.3410    112.4916     55.9786   6.8314324446e+01   4.9376881114e+01    0.2747706    0.1887961  34.06 0.0008968484    1.489    0.328
       151  -8.8178    105.7893     56.1493   7.0319142207e+01   5.0783920143e+01    0.2067565    0.1613096  20.20  0.001050259    1.347    0.258
       152  -9.6864     84.5149     48.4256   7.4253003755e+01   5.6309076973e+01    0.2874939    0.2108224 -12.22 0.0007677241    1.423    0.297
       153  -9.3817     79.7817     54.9650   7.8320685774e+01   5.6023089804e+01    0.4017774    0.2382455   8.27  0.001616432    2.682    0.627
       154  -8.7447     81.7455     50.7602   7.6082942159e+01   5.6417910020e+01    0.2203644    0.1816927 -71.50   0.00106605    1.820    0.450
       155  -8.7000     25.8431     56.3612   1.0022247483e+02   6.2739109248e+01    0.1823578    0.1580064 -49.95 0.0006615171    1.184    0.155
       156  -9.8470     22.3396     55.3678   1.0143810038e+02   6.3226405107e+01    0.3853149    0.1364856 -46.80 0.0007763284    2.133    0.531
       157 -10.3127    173.7394     53.3686   5.3595082891e+01   3.5133409279e+01    0.3187953    0.2741126 -29.19  0.001315296    1.218    0.179
       158  -8.8108     85.8493     53.9815   7.5868474979e+01   5.5106983626e+01    0.2790253    0.1591419 -37.32  0.001287093    1.697    0.411
       159  -8.7849     36.5107     53.9765   9.4929248634e+01   6.2240627821e+01     0.185121    0.1093496 -48.29 0.0003357647    1.461    0.316
       160  -9.8927    136.7342     51.8629   6.0656546041e+01   4.4465348539e+01    0.2962598    0.2001079 -17.84 0.0007916743    1.720    0.419
       161  -9.9792     44.2282     51.7964   9.0935402524e+01   6.1827513518e+01     0.609563    0.2925957 -58.05  0.002620242    2.677    0.627
       162  -9.8527     49.2463     49.5361   8.8041896659e+01   6.1649805920e+01    0.2888426    0.1884334 -16.62 0.0009200741    1.625    0.384
       163  -9.8374     46.0322     47.2399   8.8553249564e+01   6.2481880242e+01    0.2054736    0.1835393 -31.65 0.0002055412    1.186    0.157
       164  -8.7861    183.2168     52.3742   5.1694671015e+01   3.2932718518e+01    0.1959039    0.1347318  76.57 0.0002373969    1.569    0.363
       165 -11.2689    106.5545     50.6651   6.8128985341e+01   5.1531556102e+01    0.4840035    0.3140515  64.42 9.988021e-05    2.061    0.515
       166  -8.4901     29.4830     52.4866   9.7472076349e+01   6.3218159905e+01    0.1289625    0.1017252 -33.27 9.634146e-05    1.027    0.026
       167  -8.5961      1.4341     51.9568   1.0964837207e+02   6.5212582677e+01    0.1713213   0.08957057 -58.61 0.0003864015    1.467    0.318
       168  -9.5245    126.6153     50.2351   6.2548770306e+01   4.7108024970e+01    0.2619431    0.2132189  25.42 0.0003225241    1.274    0.215
       169 -10.0665     17.4510     50.9284   1.0229082775e+02   6.4504349213e+01    0.3469946    0.1821408   5.62  0.001553368    2.278    0.561
       170  -9.0653    114.2469     49.7648   6.5627209407e+01   4.9998694123e+01    0.3726493    0.1827662  65.44  0.001267211    3.424    0.708
       171  -8.8750     55.4028     50.4683   8.5865546086e+01   6.0662398511e+01    0.2070298    0.1626666 -25.29 0.0004941897    1.108    0.097
       172 -10.3685     59.2635     47.6940   8.3292246044e+01   6.0626614511e+01     0.281357    0.2265489  -7.45 0.0009360794    1.146    0.128
       173 -10.2183      5.8418     48.2172   1.0674009004e+02   6.5774381717e+01    0.2388128     0.132492 -39.76 0.0002499817    1.428    0.300
       174  -9.1628    121.9233     48.9390   6.3290972204e+01   4.8392304132e+01    0.2250972    0.1783733 -70.13 0.0007161584    1.679    0.404
       175  -9.2097    170.1426     48.1565   5.2694904084e+01   3.6788540165e+01    0.2171003    0.1948892  35.90 0.0004343893    1.194    0.163
       176  -9.4583     95.8846     47.7101   7.0268101497e+01   5.4223777607e+01    0.3146055    0.2318054  11.78  0.001258596    1.498    0.333
       177  -9.8349     34.8973     47.3019   9.3384104475e+01   6.3721799288e+01      0.25349    0.1957687 -79.94  0.001425549    2.143    0.533
       178  -9.0550     25.6378     48.3045   9.7830977794e+01   6.4395463472e+01    0.2640084    0.1436078  18.63  0.001429119    2.047    0.511
       179 -10.3121    153.2169     46.2725   5.5285840044e+01   4.1268160179e+01     0.302752    0.2370935  44.61 0.0003230694    1.267    0.210
       180 -10.4247    142.6651     43.6042   5.6595246056e+01   4.4242135883e+01     0.483633    0.3428601  17.14  0.001423697    1.791    0.442
       181 -10.4552    167.2556     43.0419   5.1673208449e+01   3.8224153887e+01    0.4528797    0.3328127 -10.05  0.002240003    1.681    0.405
       182  -9.9026    109.0773     43.7767   6.4889272932e+01   5.2055048610e+01    0.2925977    0.2776103 -61.40 0.0007322624    1.248    0.199
       183  -9.3481     20.5441     43.1560   9.8468938581e+01   6.5828272916e+01     0.313224      0.21786 -30.60  0.001984557    1.185    0.156
       184  -9.2232     76.0617     43.9704   7.5493197579e+01   5.8573800094e+01    0.2233589    0.1522835   3.57 0.0006749938    1.706    0.414
       185  -9.6817     55.3205     42.2700   8.2796493918e+01   6.2153619477e+01    0.3576513    0.2215068 -12.90  0.001791689    1.862    0.463
       186  -8.9782    187.2345     43.1613   4.8482996523e+01   3.3242680311e+01    0.2025991    0.1554046 -70.58  0.000824335    1.371    0.270
       187  -8.4282     69.8767     43.1898   7.7454545304e+01   5.9757298973e+01    0.1788871    0.1373692  -2.09 0.0002738597    1.277    0.217
       188  -9.4580    204.9084     41.6990   4.5632682504e+01   2.9145624881e+01    0.2475876    0.1806517 -47.63  0.001329186    1.298    0.230
       189  -8.6955    118.5557     41.7759   6.1614261704e+01   5.0223774885e+01    0.1870918    0.1338578 -41.16 0.0007358218    1.512    0.338
       190  -9.6597     35.9704     38.8042   8.9804749648e+01   6.5198037728e+01    0.2634683    0.1953293 -16.80 0.0008689433    1.186    0.157
       191  -9.7302     32.4125     38.4850   9.1309535948e+01   6.5633188187e+01    0.2089761    0.1786045 -51.48 0.0007403779    1.424    0.298
       192  -9.9003     33.6902     34.9793   8.9363423303e+01   6.6127716681e+01    0.2526028     0.178469  -4.95 0.0003688796    1.360    0.265
       193  -9.0096     27.8393     41.4147   9.4493183426e+01   6.5536343539e+01    0.2578609    0.1381299 -26.72 0.0009519722    1.839    0.456
       194 -10.5759     63.1830     39.6259   7.8595109658e+01   6.1427633082e+01    0.4731126    0.3140425 -43.75  0.001344851    1.622    0.383
       195  -9.4166    112.3974     39.4349   6.2376000362e+01   5.1948923711e+01    0.2503453     0.207605 -13.42 0.0007708453    1.233    0.189
       196  -9.1536      3.6541     39.6622   1.0536550003e+02   6.7613402536e+01    0.2216415    0.1388115  20.96  0.001408959    1.903    0.475
       197  -9.5492    161.7242     37.9682   5.1099721189e+01   4.0283923749e+01    0.2515594    0.1968721  66.85 0.0005836819    1.225    0.184
       198  -9.1296     48.7341     37.0784   8.3484464160e+01   6.3951872999e+01    0.2431346    0.1534893 -60.34  0.001138313    2.791    0.642
       199  -9.7706    127.6913     36.6273   5.7544760477e+01   4.8801148441e+01    0.3013391     0.247825  48.36 0.0009106811    1.135    0.119
       200  -9.1113     69.1599     36.8305   7.5164914102e+01   6.0904341247e+01    0.1914169    0.1421554   4.71 0.0007641124    1.337    0.252
       201  -8.5926     86.2780     33.6709   6.7864153433e+01   5.8253173705e+01    0.1851716    0.1505134  10.47 0.0005626086    1.154    0.134
       202  -9.7957     82.7870     35.8830   6.9921041924e+01   5.8606843323e+01    0.3905537    0.2389665 -46.70  0.001428712    2.044    0.511
       203 -10.7079     78.6196     31.5358   6.9554762195e+01   6.0014913355e+01    0.3306776    0.2375382  -5.12 0.0002471616    1.422    0.297
       204  -8.5426    215.8456     35.3398   4.2698947048e+01   2.7398964542e+01    0.1882399    0.1110781  58.88 0.0005547015    1.728    0.421
       205  -9.8898    192.6754     34.0729   4.5222518644e+01   3.3098209148e+01    0.3975828    0.2147617  58.06  0.001738447    1.780    0.438
       206  -9.9346    106.9391     34.9889   6.2188595369e+01   5.3771782279e+01    0.2035275    0.1851369  21.00  0.001195071    1.008    0.008
       207 -12.4880     75.9845    219.1927   1.1320131100e+02   1.9200111377e+01    0.8995527    0.6395205  49.19   0.00428659    1.226    0.184
       208 -10.0635    239.1838     22.4907   3.7393129685e+01   2.3739335336e+01    0.2687213    0.2246427 -76.37 0.0008515397    1.062    0.058
       209  -9.5142    114.5648     32.2185   5.9129597987e+01   5.2428488991e+01    0.2483327    0.1896768  58.82 0.0002652925    1.332    0.249
       210  -9.8112    110.5112     29.1667   5.9016900726e+01   5.3730442551e+01    0.3178502     0.228915  54.79 0.0009921486    1.350    0.259
       211  -8.8206    221.2878     30.9974   4.1048696796e+01   2.6691237321e+01    0.1756507    0.1510005 -55.06 0.0002280847    1.086    0.080
       212  -9.5915    149.1071     38.2337   5.3524001450e+01   4.3387687118e+01    0.3596645    0.2043588 -45.98 0.0006421315    1.942    0.485
       213 -10.1066     43.0088     29.5661   8.2860375776e+01   6.5943271488e+01    0.2765835    0.1613504 -38.27  0.001528181    1.574    0.365
       214  -8.8819    151.2198     30.2232   5.0543081069e+01   4.3873232883e+01     0.237529    0.1270409  30.67   0.00093261    2.646    0.622
       215  -8.6115     65.4662     30.2195   7.3786812386e+01   6.2523675518e+01    0.1741891    0.1172741 -41.12 0.0009412487    1.662    0.398
       216  -8.7114    201.2514     29.4111   4.2901781457e+01   3.1596540643e+01    0.1813841    0.1204613  86.87 0.0003463771    1.535    0.349
       217 -10.2776    181.7164     27.6011   4.4924633423e+01   3.6587618680e+01    0.4575283    0.2723323  37.25  0.001455533    2.157    0.536
       218  -8.1901    158.4647     29.4313   4.9022148201e+01   4.2164382767e+01    0.1404156    0.1273992  54.60 0.0002081137    1.066    0.062
       219 -10.0444     47.6730     28.4638   8.0316806315e+01   6.5497834119e+01    0.2380034    0.2134055  23.36 0.0009092327    1.348    0.258
       220  -9.9530     15.9781     28.1709   9.5326190737e+01   6.8984534238e+01    0.3561835     0.173162 -25.38  0.001721212    2.024    0.506
       221  -8.5671     14.8655     24.0813   9.4278835155e+01   6.9790288221e+01    0.1621252    0.1223434 -26.31 0.0003934812    1.013    0.012
       222  -9.2225    215.9490     27.3084   4.0718265975e+01   2.8376030702e+01    0.3130844    0.2146458   5.99  0.001534781    2.443    0.591
       223  -9.4373    206.7359     26.2201   4.1449039424e+01   3.0670807920e+01    0.2407627     0.181751 -19.38  0.000881439    1.589    0.371
       224 -10.2925    120.9741     25.8769   5.5232869842e+01   5.1720142416e+01    0.3651919    0.2540483  51.26  0.001169035    1.304    0.233
       225  -9.6609     81.5099     26.5223   6.6463457603e+01   6.0148642392e+01    0.2458679    0.2399162 -45.81 0.0009447155    1.339    0.253
       226  -9.0370    229.9731     29.5971   3.9840463172e+01   2.4901142356e+01    0.1887481    0.1503653 -50.33 0.0002118764    1.138    0.121
       227  -9.8303     75.7900     23.4812   6.7090713744e+01   6.1624651641e+01    0.4400539    0.2504404 -22.72  0.002232588    1.773    0.436
       228 -11.1344     69.2040    217.5184   1.1443271348e+02   2.0458233090e+01    0.3745002     0.294367  86.29  0.001082637    1.181    0.153
       229  -9.9774     90.5088    214.6832   1.0966117741e+02   1.8057159863e+01    0.4098402    0.1161295  34.34  0.001428464    3.677    0.728
       230  -9.1208    226.8040     22.9882   3.8612077472e+01   2.6411017975e+01    0.2187865    0.1662303  85.71 0.0006163138    1.237    0.191
       231  -9.6214    178.9661     22.9009   4.3974065114e+01   3.7811736597e+01    0.2513818    0.2112707  71.44  0.001118513    1.100    0.091
       232 -10.1087    164.2762     22.1987   4.5871430701e+01   4.1543917540e+01    0.3218237    0.2372684  42.44 0.0009135567    1.429    0.300
       233  -9.2162      7.9106     22.5884   9.7377605873e+01   7.0561714095e+01    0.1855197    0.1449842 -24.14 0.0006494385    1.079    0.073
       234  -9.0589    218.1215     21.5870   3.9114732380e+01   2.8552105392e+01    0.1816701    0.1732656  45.98 0.0006505671    1.294    0.227
       235 -10.2490    141.9906     21.4693   4.9359752673e+01   4.7153165688e+01    0.2612574    0.2545882  10.41 0.0003714786    1.103    0.093
       236  -8.6348    164.4784    211.9771   9.3453470337e+01   6.5627175263e+00    0.1663996    0.1214216 -82.08 0.0007241498    2.328    0.571
       237  -9.3710     19.1164     21.6772   9.1049139142e+01   6.9838703933e+01    0.2128232    0.1316008 -32.06 0.0005879262    1.284    0.221
       238  -9.7155      1.8270     21.7415   1.0035675312e+02   7.1088741857e+01    0.2073981    0.1336113 -47.58 0.0007547283    1.301    0.231
       239  -8.9559    222.2457     20.7092   3.8508856113e+01   2.7709363357e+01    0.1588969    0.1465996  46.30 0.0006863875    1.347    0.258
       240  -8.5156    205.5558     21.4247   4.0368756098e+01   3.1511683088e+01    0.1295289    0.1166789 -87.30 2.025969e-05    1.055    0.052
       241  -8.4092    132.4713    210.5174   1.0005328292e+02   1.2267196234e+01    0.1351836    0.1205418  46.99 4.026519e-05    1.022    0.021
       242  -9.2618      1.3930    184.9784   1.2584433895e+02   3.4752133632e+01    0.2934812   0.08823768 -78.33  0.001207433    2.682    0.627
       243  -9.0782     13.6671    173.6964   1.2245029561e+02   3.6260690924e+01    0.1145821   0.08121628 -51.58 0.0002632079    1.659    0.397
       244  -8.6153     69.6121     20.1975   6.7816368237e+01   6.3168836654e+01     0.175404    0.1111827 -13.38 0.0005276126    1.599    0.375
       245  -8.8112      6.5205    168.5227   1.2365052864e+02   3.8022325913e+01     0.120448   0.09248284  87.74 0.0001809761    1.010    0.010
       246  -9.9014     55.0438     17.9658   7.2402214376e+01   6.5912864244e+01    0.3005235    0.1769276   9.84 0.0005512532    1.956    0.489
       247  -9.5087      7.2673    163.3845   1.2309182410e+02   3.9141585181e+01     0.185838    0.1369779  37.72 0.0004146951    1.551    0.355
       248 -10.0284     22.8967    162.1987   1.1932163205e+02   3.8117735169e+01    0.1966158    0.1408899  74.62  0.000406452    1.271    0.213
       249  -8.3665    213.2543     18.3174   3.8805869934e+01   3.0053748648e+01     0.116512   0.09865519  33.57 0.0003493572    1.533    0.348
       250 -10.1560      7.2014    155.8050   1.2249750602e+02   4.0902184249e+01    0.2168532    0.1713928  28.20 0.0007333506    1.584    0.369
       251 -10.5844      2.8993    152.8154   1.2327709666e+02   4.1905958432e+01    0.3276507    0.2494872 -39.65  0.002177628    1.674    0.403
       252 -10.3482     21.0007    152.5066   1.1882629156e+02   4.0581420622e+01    0.2649097    0.1394641 -60.15  0.001400571    1.681    0.405
       253 -10.6827     37.2568    141.1131   1.1322975573e+02   4.1840552433e+01    0.3824959    0.2534285 -22.73  0.001937827    2.232    0.552
       254 -10.0983     21.8419    141.9205   1.1747097756e+02   4.3050726782e+01    0.2002251    0.1691168  62.91 0.0003767475    1.240    0.193
       255 -10.7709      5.3716    141.0748   1.2165701192e+02   4.4489154107e+01    0.3522006    0.2329457  12.04  0.002144487    2.080    0.519
       256  -8.4110     77.6601     16.3040   6.3286165010e+01   6.2135006648e+01    0.1168203    0.1045334 -73.26 0.0007039871    1.676    0.403
       257  -9.8159     29.7176    137.9727   1.1487646260e+02   4.3324809437e+01    0.2576064    0.1956392  18.30 0.0008788003    1.664    0.399
       258  -9.0042    144.3725     14.0668   4.6486424628e+01   4.7327399113e+01    0.2055132    0.1591541  17.52  0.001138232    1.495    0.331
       259  -8.9158    129.5112     10.5178   4.7911361190e+01   5.1280632229e+01    0.1341927    0.1189546  53.22 -3.819209e-06    1.006    0.006
       260 -10.0537    226.8391    134.5276   6.5189028232e+01   9.0622571128e+00     0.368402    0.2782964  62.88  0.001898638    1.710    0.415
       261  -8.9699     15.5998    131.7441   1.1798569919e+02   4.5996406006e+01    0.1841347     0.101003 -84.28 0.0007767163    1.659    0.397
       262  -8.8261     66.9714     13.0117   6.5460948769e+01   6.4498174948e+01    0.2117289    0.1297387  16.42 0.0009405887    1.696    0.410
       263  -8.6340     36.6511    131.7247   1.1208133058e+02   4.4205609570e+01     0.131729   0.09119156 -39.19 0.0003282081    1.634    0.388
       264  -9.1598      4.6988    130.4678   1.2080719841e+02   4.7046040494e+01    0.2807071    0.1167635 -74.48 0.0002215917    1.881    0.469
       265  -8.3042     12.4564    128.4754   1.1847597226e+02   4.7008616015e+01    0.1264236   0.09998279 -73.39 0.0002454337    1.028    0.028
       266 -10.6980    231.1438    124.0758   6.2060245116e+01   1.0045257866e+01    0.5857139    0.3278278 -42.46  0.002139603    1.646    0.393
       267  -9.0713     38.2100    125.7708   1.1072825128e+02   4.5518529178e+01    0.1975898    0.1333126 -49.69  0.001069798    1.408    0.290
       268  -8.9429     88.8210     10.2917   5.7223566614e+01   6.0523114652e+01    0.2563691     0.115718  62.49  0.001079286    2.657    0.624
       269  -9.8876     28.3620    125.7732   1.1361172285e+02   4.6425568738e+01    0.2327945    0.1943451 -74.40 0.0008184358    1.019    0.018
       270  -9.0697     31.0000    123.9861   1.1258053627e+02   4.6631358425e+01    0.1992323    0.1292519 -50.43 0.0005040471    1.443    0.307
       271 -10.1270     30.1357     23.1813   8.6120029041e+01   6.8497607753e+01    0.3762556    0.1489928 -36.79  0.001748329    2.180    0.541
       272  -8.9086     23.2777    125.2470   1.1501154607e+02   4.6977921082e+01    0.1748187    0.1306905  81.40 0.0006814277    1.347    0.258
       273  -8.4927     69.3292    124.6406   1.0123836288e+02   4.2135813965e+01    0.1511002     0.107353  77.45 0.0007042304    1.792    0.442
       274  -9.7412      8.3477    123.6795   1.1907534686e+02   4.8432779138e+01    0.2563117    0.1255214 -47.02 0.0008387518    2.050    0.512
       275  -9.4735     93.9793    122.6868   9.3497942799e+01   3.8821045939e+01    0.2566731    0.2025867 -56.32 0.0004570223    1.207    0.172
       276  -9.6864    119.6291     18.9040   5.2964957686e+01   5.2806295259e+01    0.2518243    0.1834761  64.94 0.0007149337    1.370    0.270
       277  -9.9029     90.0841    122.0174   9.4489254522e+01   3.9634580276e+01      0.24274    0.2141206  46.89 0.0003259741    1.201    0.168
       278  -9.4130     78.1633    123.1229   9.8278421606e+01   4.1240061170e+01    0.2111268    0.1851249 -42.42  0.000292832    1.135    0.119
       279  -9.9481     57.6555    117.7853   1.0342426613e+02   4.5346662934e+01    0.2743498    0.2315606 -86.80 0.0005983585    1.236    0.191
       280  -9.5975     70.1442    118.0848   9.9632043499e+01   4.3634915881e+01    0.2490985    0.2197971 -54.43 0.0006416195    1.037    0.036
       281 -10.3208     48.7376    125.2667   1.0752202117e+02   4.4542361583e+01    0.3715285    0.2753061 -23.84  0.001970004    1.701    0.412
       282  -9.7010     98.5478    117.1162   9.0837648854e+01   3.9365899885e+01    0.2555155    0.2202412  22.14 0.0004498808    1.272    0.214
       283 -10.3424     26.0760    116.5760   1.1294233068e+02   4.8861070429e+01    0.2981723    0.2118213  41.24  0.001259626    1.619    0.382
       284 -11.1860     11.5814    114.4963   1.1701917194e+02   5.0423653078e+01    0.2421678    0.2225338 -34.06  0.001701397    1.285    0.222
       285  -9.2391    131.4806     20.0132   5.0872923656e+01   4.9869152082e+01    0.2472728    0.1841353  79.88  0.000669315    1.491    0.329
       286  -9.3751     38.4460    114.4938   1.0878895051e+02   4.8264330149e+01    0.2272055    0.1625621  73.74 0.0005623928    1.657    0.396
       287  -9.3856     46.2151    113.1951   1.0611224536e+02   4.7788885631e+01    0.1871122     0.152804  81.30 0.0008046688    1.357    0.263
       288  -9.2013     49.9520    111.8007   1.0465771590e+02   4.7719632542e+01    0.2417875    0.1883337 -76.26 0.0007247053    1.274    0.215
       289  -9.5849     62.9693    111.4606   1.0044662525e+02   4.6222478232e+01    0.1943853    0.1426556  29.42 0.0004288061    1.526    0.345
