#   1 NUMBER                 Running object number                                     
#   2 MAG_AUTO               Kron-like elliptical aperture magnitude                    [mag]
#   3 X_IMAGE                Object position along x                                    [pixel]
#   4 Y_IMAGE                Object position along y                                    [pixel]
#   5 X_WORLD                Barycenter position along world x axis                     [deg]
#   6 Y_WORLD                Barycenter position along world y axis                     [deg]
#   7 A_WORLD                Profile RMS along major axis (world units)                 [deg]
#   8 B_WORLD                Profile RMS along minor axis (world units)                 [deg]
#   9 THETA_WORLD            Position angle (CCW/world-x)                               [deg]
#  10 FWHM_WORLD             FWHM assuming a gaussian core                              [deg]
#  11 ELONGATION             A_IMAGE/B_IMAGE                                           
#  12 ELLIPTICITY            1 - B_IMAGE/A_IMAGE                                       
         1 -11.8910    164.8215     22.9473   6.8943064727e+01   4.1192519104e+01    0.8266493    0.6893301  18.02  0.004909216    1.495    0.331
         2  -9.1787    120.4588      9.2457   7.2651448743e+01   5.2901384759e+01    0.2550172    0.2144982  47.56  0.001306758    1.013    0.013
         3  -9.2200    174.1190      6.3980   6.3216727576e+01   4.0642311583e+01    0.1903519    0.1747115  23.96 0.0006423057    1.357    0.263
         4  -9.0802    229.9039     20.2220   6.0317051200e+01   2.6049302466e+01    0.2805102    0.1699034 -42.73 0.0008345236    1.616    0.381
         5  -9.8654    136.6116    248.6802   1.2637476302e+02   3.8721229047e+00     0.836211    0.3473946  43.96  0.003288848    1.997    0.499
         6 -18.2045     81.6482    216.3611   1.3334709959e+02   1.9247707885e+01      5.09168     4.220146  73.20   0.01410405    1.007    0.007
         7 -10.5744    164.7062    212.0058   1.1509419878e+02   5.5970130960e+00    0.4094262     0.301227 -69.49  0.002087563    1.742    0.426
         8  -9.0663      9.5153    214.8194   1.4721204642e+02   2.8650054908e+01    0.2279006    0.1398602  89.37 0.0005298388    1.250    0.200
         9  -8.8364     14.4423    178.5632   1.4339132658e+02   3.6055317747e+01    0.2222008    0.1537926 -65.34 0.0005746094    1.347    0.257
        10  -8.4677    175.3094    205.1310   1.1164168651e+02   4.9082574927e+00    0.2244218    0.1891033 -70.81 0.0005358318    1.431    0.301
        11  -7.3436    167.2803    177.3302   1.0801362304e+02   1.2121326159e+01    0.1490546    0.1195864  -5.75 0.0003101559    1.604    0.377
        12  -9.1341    154.2743    170.7593   1.0959994987e+02   1.6223503484e+01    0.5118845    0.2653438  25.13  0.001379739    3.540    0.718
        13  -7.5743    176.2695    167.6238   1.0400835005e+02   1.2303397548e+01    0.1542405    0.1201221 -81.58 0.0001637832    1.683    0.406
        14  -9.9594    153.0183    164.5798   1.0860074219e+02   1.7854509287e+01    0.5559566    0.3480153  59.54  0.002321112    1.857    0.462
        15 -10.7241    146.8117    158.3167   1.0871916942e+02   2.0560837612e+01    0.7793375    0.5662656  -1.65  0.003063778    2.240    0.554
        16  -9.5323    157.7849    156.2094   1.0568727090e+02   1.8709363776e+01    0.5742547    0.3538612 -81.57  0.001527125    3.287    0.696
        17  -9.6260    189.1741    154.8482   9.8437615876e+01   1.2224288454e+01    0.5109137    0.4112971  47.25  0.002549077    1.258    0.205
        18 -10.8267    192.2365    193.4900   1.0590895378e+02   3.8773218753e+00     1.065536    0.4861819 -55.83  0.003794041    3.261    0.693
        19  -8.5012     16.7734    195.9585   1.4443408556e+02   3.1962502034e+01    0.2167302    0.1687333 -76.17 0.0005959632    1.224    0.183
        20  -8.6671    177.5345    148.9006   9.9589066746e+01   1.6006847708e+01    0.2373429    0.2064578  34.94  0.001191584    1.199    0.166
        21 -10.1067    144.2239    145.6414   1.0652880504e+02   2.3991004736e+01    0.4635494    0.3452168 -78.12  0.001758075    1.677    0.404
        22  -8.9756    140.2588    141.5471   1.0655665856e+02   2.5769365232e+01    0.2969965    0.2202258  47.65 0.0008324564    1.355    0.262
        23  -8.9107     17.4846    192.4716   1.4399945541e+02   3.2659693527e+01    0.2631531    0.1632351 -82.19 0.0009642344    1.281    0.219
        24  -7.7465      5.9633    223.5287   1.4839790370e+02   2.7213783531e+01    0.1613905    0.1063231  88.53 0.0003176352    1.136    0.120
        25  -8.4653    126.8476    146.0642   1.1092125719e+02   2.7500713583e+01    0.2388181    0.2037414  88.37 0.0004918106    1.272    0.214
        26 -10.0600    223.8186    143.0764   8.8994309898e+01   7.2282665630e+00    0.2568596    0.2455271  70.17 0.0004080012    1.139    0.122
        27 -10.2486    142.7738    154.0406   1.0875495778e+02   2.2379214865e+01    0.4720208    0.4153119  -0.64  0.001264129    1.386    0.279
        28 -11.6916    250.5303    232.5803   1.0209227141e+02  -1.2345366676e+01    0.2216955    0.1327307 -30.95 0.0005602993    1.622    0.383
        29  -9.8033    123.0574    139.3632   1.1038113933e+02   2.9829179199e+01    0.5620303    0.2988991  53.52  0.001368339    2.123    0.529
        30  -9.4677    203.3542    188.9055   1.0273583586e+02   2.5990508084e+00    0.2930654    0.2056303  32.52  0.001465814    1.433    0.302
        31  -9.2363     29.3581    135.7603   1.3484682085e+02   4.4587763387e+01    0.2636533    0.1995583 -20.32 0.0003907095    1.777    0.437
        32  -9.1223    168.2590    187.4516   1.0981574750e+02   9.8067705239e+00    0.3165596    0.2473572 -66.78  0.000763705    1.500    0.333
        33  -7.7732    153.5106    131.5158   1.0096467202e+02   2.5139078113e+01    0.1575622    0.1530943 -83.10 6.939434e-05    1.011    0.011
        34  -9.2376    193.9741    171.8717   1.0114208835e+02   7.7517386253e+00    0.3046759    0.2707118  87.95 0.0005783766    1.342    0.255
        35  -9.5504     81.3419    129.3938   1.1939127783e+02   3.9672969276e+01    0.3431028    0.2320334  62.66   0.00105525    1.840    0.456
        36  -8.7048    180.9279    185.3407   1.0666608447e+02   7.6968923303e+00    0.5167043    0.1869253 -44.22  0.001799716    2.855    0.650
        37  -9.4779    180.3388    178.8606   1.0547950798e+02   9.1281221454e+00    0.6308674    0.1853578 -51.37  0.001747026    4.490    0.777
        38  -9.5840    123.8323    126.9562   1.0726073783e+02   3.2546240837e+01    0.3953137     0.222276  41.55  0.001611752    1.836    0.455
        39  -7.9227    170.9832    126.2862   9.5663740112e+01   2.2306862852e+01     0.214531     0.199963  51.33 0.0002362854    1.087    0.080
        40  -9.1660    242.3773    124.6985   8.1752968623e+01   6.8534813761e+00    0.2426018    0.2259949 -41.96 0.0002386626    1.048    0.046
        41  -7.5831    228.1838    124.3526   8.4008963195e+01   9.8469002556e+00    0.1944522    0.1374016  66.60 0.0004398112    1.671    0.402
        42  -9.0134     84.2598    123.2961   1.1723079138e+02   4.0652391056e+01    0.2671361    0.2268986  50.63 0.0004935872    1.266    0.210
        43  -9.3936    111.9530    121.3464   1.0905359139e+02   3.6197317922e+01    0.3236504    0.2191526 -49.09 0.0005543475    1.426    0.299
        44  -8.7293     19.6209    120.9795   1.3526116402e+02   4.8854097050e+01    0.3778158    0.2091764 -15.66  0.001819215    3.040    0.671
        45  -7.2580    175.2482    121.6723   9.3585674471e+01   2.2291342936e+01    0.1563363    0.1203982 -72.79 0.0002363468    1.543    0.352
        46  -9.3668     85.9366    118.6685   1.1569002722e+02   4.1461321110e+01    0.3898975    0.2267415  47.61  0.001737937    1.913    0.477
        47 -10.5290    125.3590    112.8401   1.0330641350e+02   3.5401660337e+01    0.8138386    0.3934274  61.35  0.002542302    3.553    0.719
        48 -10.7644    115.2829    109.0239   1.0501102771e+02   3.8305989846e+01    0.5736493    0.4238712  45.21  0.002758937    1.389    0.280
        49  -8.4813    106.7123    115.0207   1.0891939178e+02   3.8639631448e+01    0.2186865    0.1864763 -48.16 0.0004270879    1.128    0.113
        50  -7.1115     14.2740    114.3090   1.3573482707e+02   5.0773749644e+01    0.1233354   0.07281657 -46.55 0.0002782572    1.550    0.355
        51 -11.1410    186.9243    176.2075   1.0352887690e+02   8.3226747193e+00    0.7489122    0.7108701  63.07  0.002416989    1.114    0.102
        52 -10.8325     64.3155    107.1472   1.1939895183e+02   4.7314437281e+01    0.7231826    0.4538929 -35.55  0.001250408    1.699    0.412
        53  -9.5634     66.0860    100.8699   1.1735200333e+02   4.8477805361e+01    0.3822991    0.2189753  33.81  0.001843198    1.922    0.480
        54  -9.8680    187.5443    166.9771   1.0144442217e+02   1.0072089054e+01    0.4814093    0.4168168  44.84  0.002528401    1.155    0.134
        55  -9.9663    116.5859    102.6850   1.0296074809e+02   3.9414731459e+01    0.3692886    0.2641352 -43.23  0.001747201    1.373    0.271
        56  -8.3230      3.6453    109.1341   1.3798118811e+02   5.2629144589e+01    0.1587804     0.134146 -80.17  0.001141177    1.169    0.145
        57  -7.8747    105.8004     98.2083   1.0474533023e+02   4.2497864381e+01    0.1994563    0.1711319   1.76 0.0004283884    1.317    0.241
        58  -8.4968     77.2611     94.8982   1.1234862455e+02   4.8151091666e+01    0.2534882    0.1753028  -0.75 0.0007030688    2.015    0.504
        59  -7.9767    195.9435    184.9011   1.0343492501e+02   4.7982721394e+00    0.2153173    0.1787144 -86.88 0.0005977991    1.621    0.383
        60  -8.1075     72.7415     90.4336   1.1256512840e+02   4.9782233821e+01    0.1807133    0.1318977  16.26 0.0005729065    1.587    0.370
        61  -8.1461    237.4752     85.4751   7.3749268462e+01   1.4791479566e+01    0.1431421    0.1217518 -65.15 0.0001170457    1.058    0.055
        62  -7.9287    185.7282    185.0401   1.0558867750e+02   6.7967906697e+00     0.206398    0.1812071 -37.43 0.0006041209    1.166    0.143
        63  -8.2338     47.1942     82.3198   1.1877294736e+02   5.4803667621e+01    0.2221923    0.1451841 -42.02 0.0005983669    1.320    0.242
        64  -8.2232    144.0000     80.9294   8.9781184123e+01   3.7727507372e+01    0.2187648    0.2119252  64.07  0.001199618    1.018    0.018
        65  -8.7726    181.6910     79.3364   8.1338941008e+01   2.8936540234e+01    0.2538438    0.2385324  36.28 0.0003924685    1.184    0.155
        66  -7.8926    100.7553     79.7489   1.0089182187e+02   4.7189587335e+01    0.1806329    0.1669977  81.52 0.0003866554    1.294    0.227
        67  -9.2310     22.9022    184.1434   1.4213567856e+02   3.3979887398e+01    0.3161898    0.1634448 -72.69 0.0004398531    1.578    0.366
        68  -9.9171    143.8450     59.4887   8.3520002471e+01   4.1408365159e+01    0.3208807    0.2272868 -60.81  0.001053158    1.733    0.423
        69  -9.6821    142.3641     72.0973   8.7597997638e+01   3.9681744291e+01    0.3539414    0.2213545  52.83  0.001598999    1.549    0.354
        70 -11.0191    145.2984     66.5478   8.5289912730e+01   3.9930764593e+01    0.6153996    0.4919245  71.71  0.002643473    1.346    0.257
        71  -7.2681     76.6958     71.7414   1.0587878435e+02   5.2906817324e+01    0.1325677   0.09874514  -5.06  0.000194582    1.515    0.340
        72  -9.8274    237.3720     68.9278   7.0071642290e+01   1.7525806994e+01    0.2440741    0.2201451 -62.15 0.0001567343    1.100    0.091
        73  -9.3019     19.5245    181.4888   1.4259386667e+02   3.4914187134e+01    0.3727935    0.2616726 -44.78  0.001783815    1.888    0.470
        74  -8.9766    241.4537     64.8428   6.8663266135e+01   1.7268148456e+01    0.2236753    0.1810331  81.25 0.0005952372    1.213    0.175
        75 -12.1308    154.9458     53.4502   7.9390170860e+01   3.9670195309e+01     1.053407    0.9422324 -18.71  0.004844448    1.254    0.202
        76 -10.9237    159.4538     43.7984   7.5733503057e+01   3.9940752686e+01     0.477421    0.4053324 -29.52 0.0008103296    1.309    0.236
        77  -8.5143    123.4719     64.4876   8.9921685588e+01   4.5254985355e+01    0.2405336    0.2263284  29.30  1.75229e-05    1.017    0.017
        78  -7.2554    179.7019     52.7137   7.4612675076e+01   3.3715812000e+01    0.1384399    0.1082162  33.80 0.0002585486    1.551    0.355
        79 -10.2722    134.8843     41.7072   8.0061988537e+01   4.6071102271e+01    0.2308528    0.2250933  19.95  0.000244878    1.081    0.075
        80  -7.7218    146.1609     37.8324   7.6526987488e+01   4.3924523968e+01    0.1848633    0.1508763  32.96 0.0002913921    1.299    0.230
        81 -10.6662    168.7355     26.1422   6.9212650445e+01   3.9883343076e+01    0.5701945    0.3254723  47.91  0.002784115    1.761    0.432
        82  -8.7050      4.1242    231.1277   1.4916125175e+02   2.5875425076e+01    0.1812861    0.1102901  81.26   0.00124969    1.210    0.174
        83  -7.5156    202.4620     14.4882   6.1857695311e+01   3.3060904038e+01    0.1288866    0.1085191  84.31 0.0002840034    1.054    0.051
        84  -8.4003     29.7324    246.5172   1.4584339183e+02   2.0076661355e+01    0.2842505    0.1334631  79.68  0.001556257    2.012    0.503
        85 -10.3792    161.6310    176.7287   1.0915028183e+02   1.3409244826e+01    0.6927429    0.3798541 -64.53  0.002162293    2.681    0.627
