#   1 NUMBER                 Running object number                                     
#   2 MAG_AUTO               Kron-like elliptical aperture magnitude                    [mag]
#   3 X_IMAGE                Object position along x                                    [pixel]
#   4 Y_IMAGE                Object position along y                                    [pixel]
#   5 X_WORLD                Barycenter position along world x axis                     [deg]
#   6 Y_WORLD                Barycenter position along world y axis                     [deg]
#   7 A_WORLD                Profile RMS along major axis (world units)                 [deg]
#   8 B_WORLD                Profile RMS along minor axis (world units)                 [deg]
#   9 THETA_WORLD            Position angle (CCW/world-x)                               [deg]
#  10 FWHM_WORLD             FWHM assuming a gaussian core                              [deg]
#  11 ELONGATION             A_IMAGE/B_IMAGE                                           
#  12 ELLIPTICITY            1 - B_IMAGE/A_IMAGE                                       
         1 -12.4087    140.2851     56.6972   3.1650182171e+01   4.2357141757e+01      1.46838     1.028198 -50.74  0.005120042    1.351    0.260
         2 -13.3801     92.2720     65.6953   4.6761555446e+01   5.2408317655e+01     1.880857     1.407642 -75.95  0.008524828    1.647    0.393
         3 -12.4408     74.7774      5.5529   2.3660221973e+01   6.5886006827e+01     1.111549    0.6539802 -84.25  0.002251452    2.039    0.510
         4 -12.7077     57.7248      4.3640   2.7763070720e+01   7.0297759008e+01     1.227602     0.707399 -88.86  0.005361527    2.395    0.583
         5  99.0000     30.3993     22.7294   5.5054405018e+01   7.3675596058e+01     1.114797    0.6524737 -42.36  0.005419858    1.726    0.421
         6  99.0000     41.7198     20.7725   4.6399526271e+01   7.1880861056e+01     1.303261    0.8393971 -16.19  0.006126651    2.005    0.501
         7 -12.5281     53.9317     34.1910   4.7945612950e+01   6.7074552947e+01     1.353848    0.8379278  25.65  0.003066286    2.157    0.536
         8 -13.1234     53.9022     17.7726   3.8204789534e+01   6.9678348509e+01     1.742533     1.144141  -6.25  0.008188761    2.030    0.507
         9 -12.8329     72.6665     24.6401   3.4978155591e+01   6.4270758714e+01    0.6069104    0.4432112 -64.75 0.0005382936    1.641    0.390
        10 -11.7499     79.7345     21.9474   3.1334020102e+01   6.2858013515e+01     1.082466    0.6595038  84.95  0.004706148    2.058    0.514
        11 -11.4209     38.8606     42.0535   6.0352561257e+01   6.8376480437e+01     1.129807    0.8601801  73.17  0.005520391    1.831    0.454
        12 -14.1038     10.4623     69.7522   8.7370773977e+01   6.4654631260e+01     2.089376      1.40111 -30.35    0.0103011    1.592    0.372
        13 -12.6220      3.6844     28.5496   8.1344701616e+01   7.5673173753e+01     1.026306    0.5252932 -21.37  0.004560817    2.206    0.547
        14 -11.9733     25.2679     43.6943   7.0000029848e+01   7.0000237522e+01     1.158125    0.7312542 -52.38  0.005645558    1.501    0.334
        15 -13.8262     11.3759     36.5717   7.7658576237e+01   7.3176492363e+01      1.75158    0.9397962 -31.75  0.005010033    2.021    0.505
        16 -13.4315     48.8404     51.7889   5.9163549870e+01   6.4509430652e+01     1.410528    0.8348934 -38.70  0.004266909    1.814    0.449
        17 -13.9854     27.4485     68.0090   7.6978909817e+01   6.3627971740e+01     1.530622     1.167291  62.31  0.007095157    1.492    0.330
        18 -11.7085    190.9964     20.8465   1.4824606158e+01   3.5157053673e+01    0.8431132    0.5458898  37.61  0.004434426    2.388    0.581
        19 -10.7851    201.7807     17.8949   1.3361165570e+01   3.3166747625e+01    0.5009785    0.3486396 -47.61   0.00289057    1.126    0.112
        20 -13.6601    192.0106     55.4887   2.3905465035e+01   3.0655087346e+01      1.55856    0.4838368 -39.41  0.006169313    2.463    0.594
        21 -12.6124    203.4142     41.1229   1.9110672498e+01   3.0160985296e+01    0.8332571    0.5123122 -59.12  0.002653223    1.477    0.323
        22 -12.5836    191.9476     35.2172   1.8571046746e+01   3.3297519090e+01     1.080561    0.2990222 -41.54  0.004281037    2.605    0.616
        23 -12.2566    222.0292      9.6182   1.0342426169e+01   2.9947676274e+01    0.7489337    0.3029882 -47.17  0.004046103    1.747    0.428
        24 -12.4536    229.0874     16.4675   1.1587455603e+01   2.7921618761e+01    0.8212404    0.5251325  14.87  0.004308056    3.256    0.693
        25 -12.9522    249.5340     10.3184   9.4483838549e+00   2.4909164105e+01    0.5164955    0.2947298 -33.64   0.00306052    1.381    0.276
        26 -13.2401    240.8920      6.5745   8.9596384738e+00   2.6768379186e+01    0.6296807    0.2484133 -63.85  0.003412483    2.239    0.553
        27 -11.4470    167.7940     33.7893   2.0507843872e+01   3.8934868960e+01     1.171288    0.4913243 -51.73  0.004892682    2.241    0.554
        28 -11.7537    160.6861     38.4669   2.2743176003e+01   4.0031445326e+01    0.8125304    0.2781378 -31.07  0.002201867    2.691    0.628
        29  99.0000    232.0421      2.0396   8.2725547042e+00   2.8794990031e+01    0.8400792    0.4371817  86.95  0.005193616    2.046    0.511
        30 -12.8820    222.7388     39.0910   1.7127173208e+01   2.6610059785e+01    0.8212754    0.4721559 -75.36    0.0024861    1.918    0.479
        31 -11.4144    148.7871     40.2523   2.4889735517e+01   4.2693725088e+01    0.8199517    0.3319184 -37.56  0.003292809    2.171    0.539
        32 -13.4038     64.7494     34.3134   4.3114905976e+01   6.4675655910e+01     2.709202    0.9938814 -32.85  0.009158498    3.193    0.687
        33 -12.1688    222.4012     30.3065   1.5109687311e+01   2.7687485959e+01     1.024066    0.4895569 -81.38  0.005258867    2.495    0.599
        34 -11.5075    150.5483     22.5132   1.8857791941e+01   4.4456539312e+01    0.5816097    0.3203229  37.47  0.000892569    2.789    0.641
        35 -11.8868    212.8123     20.1351   1.3272579333e+01   3.0673288885e+01    0.3832305    0.2044574 -29.81 0.0009936095    1.663    0.399
        36 -11.8456    124.3574     16.5303   1.9916475834e+01   5.1805563820e+01    0.4198423    0.2502077  68.55  0.001268277    1.573    0.364
        37  -7.5297    156.3564      8.2875   1.3719681681e+01   4.4487054770e+01    0.3199584    0.1327793 -16.38  0.001275746    3.055    0.673
        38 -10.8202    153.9589     15.9883   1.6388351149e+01   4.4314986603e+01    0.4949221     0.315417   8.06  0.002308082    2.516    0.603
        39 -11.3527    149.9632     12.9411   1.5764761878e+01   4.5615882761e+01    0.2917716    0.1901084 -53.80 0.0006231726    1.361    0.265
        40 -10.5682     94.1898     16.0119   2.4783901087e+01   5.9805124964e+01    0.2451512    0.1855844  65.65 0.0007922162    1.224    0.183
        41 -10.0485    131.6057     10.8819   1.6893225646e+01   5.0483467418e+01     0.611816    0.2698174 -47.79  0.002626091    2.109    0.526
        42 -12.1481    116.1142      9.7500   1.8326160960e+01   5.4637211641e+01    0.4516949    0.3168942   6.70  0.001590103    1.904    0.475
        43  -9.7840     88.5685     11.5957   2.3800885269e+01   6.1734202416e+01    0.2547326    0.1373665 -24.76   0.00114586    1.985    0.496
        44 -12.5265    172.9820      6.4940   1.2030219087e+01   4.0685406519e+01     0.484895    0.2680286  -8.87  0.002040154    2.532    0.605
        45 -10.7420    124.5704     10.0054   1.7366502845e+01   5.2394887678e+01    0.3114671    0.2512394  21.13  0.001541736    1.578    0.366
        46 -10.2457    103.3199     13.9663   2.2089262074e+01   5.7610058948e+01    0.3870727    0.1321732 -22.95  0.001374799    3.191    0.687
        47  -9.9027    145.5104     10.0114   1.5192972236e+01   4.7016541497e+01    0.2898891    0.1675393  76.01  0.001445151    1.636    0.389
        48  -9.6353     44.8165     10.2474   3.7293158230e+01   7.2710722972e+01    0.1823222    0.1463049  19.19 0.0008147453    1.313    0.239
        49 -11.1132     26.9018      9.6385   4.7892417047e+01   7.6487454781e+01    0.2727226    0.2082651  23.43 0.0006301369    1.298    0.229
        50 -11.3896    193.6353      7.2630   1.1082406259e+01   3.5975769227e+01    0.2496374    0.2241299 -48.91 0.0009648117    1.199    0.166
        51 -12.6491    226.3351     22.6236   1.3116023727e+01   2.7788668225e+01    0.3628473    0.2640253 -87.05  0.001235823    1.462    0.316
        52 -11.0480      2.8793      6.0656   6.9393054421e+01   8.0640755382e+01    0.2759308    0.1869677  12.40  0.001414556    1.447    0.309
        53  -9.7588    210.6633      6.0893   9.9931775220e+00   3.2530877118e+01    0.1546529    0.1003645 -21.02 0.0007239319    1.686    0.407
        54 -10.8936    146.4753      5.4006   1.3555501913e+01   4.7199313261e+01    0.2346188    0.1980484  60.45 9.319332e-05    1.329    0.247
        55 -10.3379    142.6161      2.6682   1.2934938919e+01   4.8407110619e+01    0.2748071    0.1954676 -63.12 0.0008841837    1.234    0.190
        56  -9.5231     91.2959      6.6783   2.0799407952e+01   6.1472947930e+01    0.1454566   0.09562695 -61.41 0.0003725878    1.617    0.382
        57  -9.4582    102.0255      4.3265   1.7931791930e+01   5.8834326207e+01     0.289434    0.1520103 -45.69  0.001324042    1.902    0.474
        58  -9.5986     97.7180      5.6981   1.9225028735e+01   5.9860289594e+01    0.1380201   0.09741802  42.15 0.0003044735    1.551    0.355
        59  -9.4501     13.7513      5.6526   5.6100035765e+01   7.9340432034e+01     0.128613   0.09070275 -10.80 0.0002743962    1.582    0.368
        60  -7.8269    183.5475      3.5454   1.0606898579e+01   3.8547115690e+01     0.451834    0.1515563 -60.76   0.00179752    2.752    0.637
        61 -10.7644    187.0821      1.3973   9.8529215504e+00   3.7956929380e+01    0.2094764    0.1048412  76.87  0.000588418    2.014    0.503
        62 -10.6829    112.0278      3.8812   1.6403793745e+01   5.6226569007e+01    0.2985944     0.190034 -80.53    0.0012684    1.522    0.343
        63 -10.6753     45.9959      1.2414   2.9862017013e+01   7.3410841810e+01    0.2829834    0.2168471 -77.07  0.001558946    1.630    0.387
        64  -9.5875     19.5055      4.0194   4.8940521697e+01   7.8653661053e+01    0.1619906    0.1116053 -60.54  0.000806522    2.324    0.570
        65 -10.9836    217.1708      2.4253   8.8679018098e+00   3.1584202949e+01    0.1995032    0.1949402 -82.54  0.001177628    1.390    0.281
        66  -8.9090    207.3282      2.3541   9.2258441376e+00   3.3562092594e+01    0.1070363    0.0891452  32.45            0    1.774    0.436
        67  -9.2151    135.4409      2.4805   1.3457077945e+01   5.0245753761e+01    0.1404705    0.1107873 -65.31 9.644156e-05    1.114    0.102
        68 -11.3897     49.8045      1.3407   2.8422151421e+01   7.2496566378e+01     0.260516    0.2112078  47.42 0.0002824009    1.119    0.106
        69 -10.2829    250.1243      1.4467   7.6129143381e+00   2.5657958806e+01    0.1318843   0.08729527 -72.20 0.0003029758    1.415    0.293
        70 -11.8600     86.9980      1.3309   1.8847346538e+01   6.3040293788e+01    0.4653208    0.1091158  72.11  0.001222939    3.624    0.724
        71 -12.5661     55.1790     72.2613   6.3844947550e+01   5.8554823767e+01     1.121766    0.5437688 -69.37  0.003667966    3.166    0.684
        72 -11.4495     65.0253    114.8262   7.1267491045e+01   4.5766724725e+01    0.2881947    0.2209624 -63.45 0.0006070183    1.281    0.219
        73 -10.8923    138.9737    111.9921   4.8138779508e+01   3.2275158987e+01    0.2369692    0.1854551  -5.75 0.0006670534    1.659    0.397
        74 -11.7549     26.3265     35.8999   6.5651344513e+01   7.1638415278e+01    0.3874483    0.2920213 -16.32  0.000731513    1.473    0.321
        75 -12.5500     14.5180     45.8238   7.8574358940e+01   7.0637441377e+01    0.7893798    0.5322619 -79.27  0.001736143    1.659    0.397
        76 -11.1878     96.8483    109.7836   5.9052807132e+01   4.1367900772e+01    0.3264619    0.2125898 -39.92  0.001087497    1.659    0.397
        77 -12.1645     60.5896     64.5695   5.8594398092e+01   5.9421374641e+01    0.8402728    0.5522151 -16.53  0.003273371    2.507    0.601
        78 -12.2718     57.3405     59.3942   5.8085968206e+01   6.1227839989e+01    0.7027219    0.3819306 -57.19  0.002509732    2.015    0.504
        79 -13.4672     38.9623     56.1498   6.6396205524e+01   6.5132202660e+01    0.9937599    0.8261623  25.57  0.003350806    1.238    0.192
        80  -9.9940    211.5755    112.0367   3.5026693880e+01   1.8538662838e+01    0.1679503    0.1618306  11.02 6.673677e-05    1.228    0.185
        81 -10.0437    222.3510     95.2890   2.9971864278e+01   1.9227916674e+01    0.1181044   0.09031703  -0.41 0.0004779642    1.668    0.400
        82 -10.5094    206.6340     94.7903   3.1808142726e+01   2.2029534221e+01     0.244387    0.1351496 -42.74  0.001256933    1.515    0.340
        83 -10.5698     50.3006    109.9539   7.5961813198e+01   4.9283040619e+01    0.2167698    0.1991921 -78.69  0.000418419    1.046    0.044
        84 -10.2934    210.8566     93.1785   3.0894286304e+01   2.1517817309e+01    0.1703317    0.1391481 -16.00 0.0003861861    1.311    0.237
        85 -11.0945    173.5875     92.1050   3.6051286675e+01   2.8848370117e+01     0.361634    0.2561703 -78.25  0.001050349    1.908    0.476
        86 -10.1268    167.9463     89.9376   3.6446781524e+01   3.0398021726e+01    0.2707466    0.2142832  75.42 0.0009964008    1.474    0.322
        87 -11.4768     96.7012     90.8272   5.3770442025e+01   4.5908386984e+01    0.6059801    0.4377877  68.31  0.002565376    1.670    0.401
        88 -10.0900     21.7551     91.5698   8.5200810643e+01   5.7714716359e+01    0.2091964    0.1300609  36.31 0.0009477051    1.633    0.388
        89  -9.7130    244.8915     90.1258   2.6466365883e+01   1.6339794095e+01    0.1801506    0.1222674 -12.53  0.001107274    1.751    0.429
        90 -11.6436    220.9883     88.0173   2.8514670312e+01   2.0499391291e+01    0.2290118    0.1938412  64.58 0.0006997658    1.476    0.323
        91 -11.5254    182.5433     63.3366   2.7114398018e+01   3.1553216548e+01    0.9724168    0.3000804 -50.83  0.003104871    3.887    0.743
        92 -13.2012    201.0000     77.4590   2.8404432391e+01   2.5686715198e+01    0.6045597     0.388038  77.16  0.002751302    2.010    0.502
        93 -13.7204    194.5406     84.9730   3.1082081759e+01   2.5804451523e+01     0.784446    0.6702112 -87.09  0.003847755    1.345    0.256
        94 -12.9313    191.0452     76.2620   2.9375694349e+01   2.7837431282e+01     0.570312    0.4385325 -66.28  0.003282693    1.362    0.266
        95 -11.4967    237.5226     86.4081   2.6409665804e+01   1.7981872810e+01    0.4361853    0.2806757 -88.73 0.0006836469    2.448    0.592
        96 -10.6530    233.6695     84.6962   2.6428790725e+01   1.8834364269e+01    0.2718579    0.2069029 -17.27   0.00101425    1.408    0.290
        97 -13.3045     38.1399     80.3617   7.4594892746e+01   5.9035703807e+01    0.9726934    0.5511077 -51.70  0.002670547    1.684    0.406
        98 -12.4201    161.6222     84.8302   3.6184821571e+01   3.2645227255e+01     1.470078    0.7898751  30.09  0.005183267    3.659    0.727
        99 -11.4595    168.7613     80.5660   3.3796019113e+01   3.1823368132e+01    0.3116241    0.2399886  71.14  0.000764496    1.460    0.315
       100 -11.4345    167.3517     76.8001   3.2995282971e+01   3.2757415371e+01    0.2762342    0.2360846 -28.05 0.0006200678    1.211    0.174
       101 -11.2136    175.4265     86.0742   3.4183159741e+01   2.9486593992e+01    0.5025527    0.2490424  39.31  0.001902608    2.891    0.654
       102 -11.0712    180.5066     82.4788   3.2458508067e+01   2.9020970063e+01    0.2933685    0.2116462 -85.97  0.001152172    1.766    0.434
       103 -12.9133    177.5576     72.4418   3.0242242201e+01   3.1241467455e+01     1.210204    0.3583939 -44.62  0.002582846    3.008    0.668
       104  -9.8866    244.3157     79.7147   2.4353506779e+01   1.7789158281e+01    0.3512135    0.1635878 -66.55  0.001006354    4.677    0.786
       105  -9.7451    250.7156     85.3128   2.4934526817e+01   1.6086790236e+01    0.1897944    0.1141073 -43.17 0.0005942729    1.297    0.229
       106 -10.6749    250.3733     81.9247   2.4272245478e+01   1.6571712565e+01    0.4494112    0.2740719  12.06  0.001542039    3.657    0.727
       107 -12.7934    215.1061     83.2113   2.8093814158e+01   2.2219131891e+01    0.3862495    0.3381329 -48.71  0.002605502    1.112    0.101
       108 -11.5144    147.3278     83.1067   3.8409868994e+01   3.6131475823e+01     0.645999    0.4034935 -48.17  0.002949967    1.519    0.342
       109 -11.5446     83.3355     83.7650   5.6103645476e+01   5.0369876143e+01    0.3019437    0.2690639  54.89 0.0003526612    1.130    0.115
       110 -12.2137    222.5576     79.6826   2.6470000374e+01   2.1398809320e+01    0.2983039       0.2503  85.59   0.00125799    1.456    0.313
       111 -11.0663    231.0544     77.9721   2.5225445855e+01   2.0175189130e+01    0.4088206    0.2067815  77.78  0.002006774    3.222    0.690
       112 -12.4081     10.4507     81.5742   8.9371799654e+01   6.1385093760e+01    0.5473475    0.2833047 -70.74  0.001190442    1.722    0.419
       113 -13.8950     45.4191     72.9504   6.8793845278e+01   5.9965196881e+01     1.235756    0.8794637 -63.73  0.003108568    1.406    0.289
       114 -12.1442    249.8459     75.2672   2.2947994431e+01   1.7496626420e+01     0.253338    0.1671755 -32.40 0.0003298561    1.191    0.160
       115 -10.7421    155.1833     76.6254   3.5035930371e+01   3.5504660342e+01    0.3520172    0.2488287  64.99  0.001170326    1.539    0.350
       116 -12.9471    221.3213     69.9211   2.4376755231e+01   2.2955404797e+01    0.4853449    0.3421364  59.29  0.003029805    1.754    0.430
       117 -13.9706    199.6508     68.8671   2.6448554980e+01   2.7204734797e+01      1.31062    0.7289146  80.81  0.006279041    2.482    0.597
       118 -10.7949     38.4687    110.0502   8.0859321159e+01   5.0768051112e+01    0.2404228    0.1446417 -70.22  0.000819089    1.592    0.372
       119 -11.1747    196.6113    108.0991   3.6295925189e+01   2.1742697408e+01    0.4451636    0.2937273 -60.83  0.002284438    1.913    0.477
       120 -12.6917    223.6656     61.4257   2.2208814414e+01   2.3660070906e+01    0.7501511     0.287221 -44.40  0.002442145    2.028    0.507
       121  -9.3255     89.6580    108.3552   6.1006158512e+01   4.3115471519e+01      0.16975     0.123213  78.87  0.000703925    1.817    0.450
       122 -11.8197    185.8137     59.1900   2.5597177258e+01   3.1452499173e+01    0.4854391    0.2375219 -51.41  0.002201225    1.931    0.482
       123 -11.5084    198.0247     26.1285   1.5711802265e+01   3.3059552293e+01    0.4645662    0.2622679  61.72  0.001551637    2.053    0.513
       124 -13.2089    203.5992     60.9359   2.4042434301e+01   2.7534525821e+01    0.9698536    0.4923086 -75.70  0.004094474    3.154    0.683
       125 -13.0313    210.8597     47.2680   1.9994360917e+01   2.7898385866e+01     1.366528    0.5870953 -61.63  0.005953551    2.775    0.640
       126 -11.5570    161.4531    106.6403   4.1970597669e+01   2.8728786899e+01    0.3165482    0.1938626 -54.08  0.001432596    1.759    0.432
       127 -11.9947    201.6325     32.3722   1.7042770244e+01   3.1583576126e+01    0.5701771    0.4567649 -48.81  0.003702589    1.040    0.038
       128 -13.1170    215.8983     61.9988   2.3063375368e+01   2.5015958387e+01    0.5092551    0.4294749  52.81  0.002394292    1.507    0.336
       129 -12.5116    209.5059     58.4740   2.2840152335e+01   2.6707276624e+01    0.4725253     0.324224  71.01 0.0001308928    1.703    0.413
       130 -12.1363    186.6721     37.5660   1.9678749450e+01   3.4159215429e+01    0.5116393    0.2966193 -32.61  0.002657899    1.553    0.356
       131 -12.1338    197.3093     48.7841   2.1616731509e+01   3.0446353080e+01    0.6093486    0.2752639 -45.49  0.001015549    1.807    0.447
       132 -10.0588    209.9187    105.6603   3.3842342567e+01   1.9793929023e+01    0.2324659    0.1518389 -51.19  0.001050968    1.547    0.354
       133 -13.7207    240.0706     61.3630   2.0810931317e+01   2.0812876102e+01     1.004466    0.9405866 -28.66  0.002353635    1.294    0.227
       134 -11.8006    236.4689     38.0039   1.5975154798e+01   2.4233419322e+01    0.7003572    0.3449661 -72.04  0.003786497    2.375    0.579
       135 -12.9993    234.3509     48.1200   1.8348863731e+01   2.3418358533e+01    0.7879554    0.6354274 -72.48  0.002466368    1.302    0.232
       136 -10.2343     15.4049    106.2544   9.0271680777e+01   5.4064488864e+01    0.2077095    0.1302389  87.50 0.0006829709    1.565    0.361
       137 -11.7699    155.8998    104.7105   4.2579405780e+01   3.0226882302e+01    0.3051198    0.2053721 -46.06  0.001407421    1.388    0.279
       138 -10.7371    183.2935    103.2558   3.7236778248e+01   2.5016943406e+01    0.3404712    0.2478353 -47.38  0.001652398    1.270    0.213
       139 -11.2151    144.8353    102.9213   4.4440745608e+01   3.2888667891e+01     0.387706    0.3130795   4.16   0.00191963    1.603    0.376
       140 -11.1882    247.6972     56.4367   1.9188605460e+01   2.0159438450e+01    0.2866518    0.2356073 -74.52  0.002158744    1.368    0.269
       141 -11.8080    218.4248     75.5872   2.5973974562e+01   2.2699955520e+01    0.2773928    0.1958995 -32.43  0.001324179    1.214    0.176
       142 -11.4504    215.3071     42.6752   1.8522550500e+01   2.7599571927e+01    0.3483055     0.193749 -38.56  0.001585643    1.398    0.285
       143 -11.4612    166.6855     64.8130   2.9733958344e+01   3.4834157668e+01    0.5590544    0.4151724  76.54  0.002967546    1.470    0.320
       144 -10.7584    249.9377     67.1188   2.1253441650e+01   1.8498930870e+01    0.3984471    0.1380692 -26.56  0.001700996    3.054    0.673
       145 -10.2890    161.3796     66.8334   3.1141421921e+01   3.5722765920e+01     0.270066    0.1835358 -34.85 0.0003458186    1.395    0.283
       146 -11.6795    127.1692     58.8452   3.4978462569e+01   4.5233472579e+01    0.5466506    0.2920365  43.26  0.002167631    2.273    0.560
       147 -11.9752    161.4838     55.7534   2.7868230513e+01   3.7416879787e+01    0.6191869    0.3677138 -48.55  0.002270456    1.534    0.348
       148 -10.2516    162.1025     47.9243   2.5436739843e+01   3.8408653315e+01    0.3985329    0.2911087 -74.10  0.002105551    1.389    0.280
       149 -11.8963    179.5432     52.1332   2.4434173983e+01   3.3817130819e+01    0.6116819    0.3191125  64.79  0.001411914    2.067    0.516
       150 -11.2492    174.1086     54.4292   2.5748887382e+01   3.4708846398e+01    0.3945624    0.2319446 -47.55 0.0009846085    1.494    0.331
       151 -10.3167    170.4231     56.3242   2.6773496318e+01   3.5269094778e+01    0.2918933    0.2009165 -86.65  0.001345134    1.640    0.390
       152 -10.4405     69.1984     55.2298   5.1096359364e+01   5.9737429768e+01    0.3974536    0.3432674  66.07  0.001726599    1.225    0.184
       153 -10.7987    167.1430     51.3236   2.5768287641e+01   3.6745980191e+01    0.2280864    0.2071001  -4.55 0.0002372969    1.353    0.261
       154 -10.6729    181.9261     31.3463   1.8408556187e+01   3.5973628481e+01    0.5282137    0.2620352 -19.39  0.002241903    2.503    0.600
       155 -13.5604    117.5394     95.1175   4.8913472293e+01   4.0422918568e+01     1.424491    0.7218028 -64.94  0.004373294    3.625    0.724
       156 -10.7318    177.9455     37.7458   2.0587286186e+01   3.6088403819e+01    0.3170387    0.2490473  10.37  0.001185399    1.833    0.455
       157 -12.3996    172.8951     44.4846   2.3063874279e+01   3.6365274890e+01    0.6325932    0.5512579  13.75  0.002425676    1.521    0.343
       158 -13.4609    106.2437     95.4956   5.2220721914e+01   4.2795598268e+01      1.20593    0.6104164 -41.18  0.002235359    2.057    0.514
       159 -10.8106    164.8858     38.8401   2.2348487085e+01   3.8980870681e+01    0.3671702    0.1978004 -51.79  0.001223452    1.703    0.413
       160 -10.5955    246.0532     50.2975   1.8006905870e+01   2.1161201676e+01    0.2837106    0.1803377  89.34 0.0009518339    1.951    0.488
       161 -10.5803    249.4844     38.0311   1.5212030792e+01   2.2004388662e+01    0.2238758     0.142717 -53.64 0.0005698017    1.267    0.211
       162 -10.6625    248.4164     46.9641   1.7148904114e+01   2.1161955742e+01     0.303724     0.173508 -79.09  0.001307421    2.150    0.535
       163 -12.2342    246.5755     42.0907   1.6235993086e+01   2.2029010638e+01    0.3197313    0.1854178 -58.23  0.001002621    1.543    0.352
       164 -11.0157     90.3541     51.0130   4.1617246325e+01   5.5705265914e+01    0.2446454    0.2091616  51.92 0.0004831934    1.164    0.141
       165 -14.4891    124.0832     86.9306   4.4780326726e+01   4.0682861387e+01     2.789545     1.730772  74.78   0.01082316    2.405    0.584
       166 -11.2109     99.9666     47.4770   3.7331856108e+01   5.3956266778e+01    0.6566846     0.299956  42.51  0.002322831    2.687    0.628
       167  -9.7732    105.5142     43.4128   3.4237620158e+01   5.3217553170e+01    0.1979418    0.1381003 -48.05 -0.0001561389    1.432    0.302
       168 -13.0908    136.8184     82.1326   4.0335654228e+01   3.8711905836e+01     1.566277    0.5872927 -40.13  0.001434636    2.520    0.603
       169  -9.5562    179.3660     47.8001   2.3253025946e+01   3.4451920719e+01     0.180494    0.1213472 -23.40 0.0002750064    1.622    0.383
       170  -9.9916    182.4913     45.5222   2.2275551030e+01   3.4061361109e+01      0.23899    0.1913782  42.33  0.001377461    1.611    0.379
       171 -10.6118    142.3774     46.3126   2.7866181256e+01   4.3429613239e+01    0.5254441    0.3672146  82.95 0.0008946306    1.502    0.334
       172 -14.1248    116.3425     63.5519   3.9116010298e+01   4.7065880437e+01     1.969311     1.309588  77.10  0.004985798    1.828    0.453
       173 -11.5257     62.7767     46.3481   4.9919710597e+01   6.2909377796e+01    0.5847421    0.4346514  59.15  0.002283522    1.449    0.310
       174 -10.8769    125.2040     43.9070   3.0098752911e+01   4.8112961492e+01    0.3704121    0.2440641 -33.17   0.00173834    1.538    0.350
       175  -9.8798    121.2527     45.1935   3.1364625316e+01   4.8926240091e+01    0.2597674    0.1539476 -68.92  0.001047481    2.169    0.539
       176 -10.2111     93.8847     42.2237   3.6836864444e+01   5.6346709248e+01     0.395027    0.2497883 -26.62  0.001737564    1.816    0.449
       177 -12.9892    151.8728     62.5687   3.1448372821e+01   3.8622134683e+01     1.299232    0.9632004  38.60   0.00648985    1.682    0.406
       178 -10.9155     99.3892     41.0705   3.4835085694e+01   5.5142288694e+01    0.3549849    0.2925922 -66.74  0.001537384    1.257    0.205
       179 -10.9982    132.2144     39.8562   2.7356296439e+01   4.6911341862e+01    0.3457634    0.2732949  67.94 0.0008522688    1.256    0.204
       180 -10.0432     21.2354     37.8919   7.0384880321e+01   7.1846965234e+01     0.189889    0.1630461 -36.54 0.0003220528    1.100    0.091
       181 -11.0106     36.2459    248.8624   9.4118696184e+01   1.7556084434e+01    0.1934459    0.1431414 -78.02  0.001346765    1.647    0.393
       182 -10.4807    122.5038     33.5674   2.6754912596e+01   5.0266816556e+01    0.3318563    0.1265641 -34.59 0.0007927037    2.447    0.591
       183  -9.6438    104.5618     29.4451   2.8641246451e+01   5.5483283947e+01    0.8523207     0.140742 -44.15   0.00192206    6.879    0.855
       184 -11.1187    112.8218     32.8490   2.8322351235e+01   5.2877878407e+01     0.366248    0.2821781  16.70 0.0004549605    1.743    0.426
       185  -9.6786    108.6687     32.2820   2.8952462354e+01   5.4035103972e+01    0.2756296    0.1432239  72.68 0.0005217957    2.011    0.503
       186 -10.2010    206.7823     32.8604   1.6779065688e+01   3.0467089354e+01    0.3948112   0.09253325 -39.37   0.00156682    2.739    0.635
       187 -10.2768    152.2748     33.8369   2.2339887110e+01   4.2674816717e+01    0.1975332    0.1615656 -58.80  0.000392643    1.086    0.079
       188 -10.5048    131.6746     33.5470   2.5186997774e+01   4.7903960037e+01    0.3005302    0.1768063 -63.99 0.0004479504    1.860    0.462
       189 -11.1097     92.5793     33.0968   3.3160392368e+01   5.8076238089e+01    0.3704695    0.2747652 -18.32  0.001453472    1.586    0.370
       190 -10.3172     75.1425     33.6472   3.8797899978e+01   6.2338770907e+01    0.2878437    0.2120897  63.10  0.001421129    1.352    0.260
       191  -9.4951    140.6891     28.7832   2.2172888505e+01   4.6203232001e+01    0.1933082    0.1121069 -40.63 0.0004403757    1.584    0.369
       192 -10.6201    128.6993     26.8444   2.3198275776e+01   4.9514126768e+01    0.3914159    0.1918368 -24.17  0.001285055    2.257    0.557
       193 -10.0347    124.6025     28.7373   2.4557761417e+01   5.0344705645e+01    0.3387735    0.1729956 -67.49   0.00104915    2.500    0.600
       194 -11.5239     85.8951     28.4789   3.2842647532e+01   6.0430447112e+01    0.4184696    0.2677335  62.65 0.0006606612    1.488    0.328
       195 -10.1276    240.8167     30.4784   1.4084725187e+01   2.4314965880e+01    0.4200271    0.1862135  74.12  0.002355788    2.680    0.627
       196  -9.7749    149.9574     27.5377   2.0575633089e+01   4.4022968056e+01    0.2708766    0.1531057  27.13  0.001038679    3.377    0.704
       197 -11.3095    113.2390    246.4243   7.7140531949e+01   9.9297058845e+00    0.2748423    0.1711912 -32.69  0.001603056    1.933    0.483
       198 -10.3744    114.5032     27.9938   2.6034911868e+01   5.3071777787e+01    0.2380954    0.1799226  52.96 -0.0002155829    1.371    0.270
       199 -10.3881    234.0505     24.2562   1.3081119927e+01   2.6192002325e+01    0.2958044    0.1504436 -27.92  0.001680804    1.764    0.433
       200 -10.7076    176.1492     24.7020   1.7043601018e+01   3.8062819357e+01    0.3717115    0.1508097 -33.31  0.001646533    2.089    0.521
       201 -10.1935    168.0187     26.0777   1.8185504534e+01   3.9804856683e+01      0.20677    0.1762963 -68.14   0.00125632    1.044    0.042
       202 -10.2246    135.9531     25.3030   2.1593826577e+01   4.7827809732e+01       0.2884    0.1742252 -64.66   0.00134654    1.695    0.410
       203 -11.8628    243.2701     22.7559   1.2306515838e+01   2.4718930414e+01     0.527164    0.2081589  78.63  0.002714388    2.984    0.665
       204 -10.1843    245.0071     18.6904   1.1367606266e+01   2.4841885724e+01    0.2092939    0.1539102 -82.11 0.0008980882    1.456    0.313
       205  -9.3509     90.5177     26.5784   3.0679753267e+01   5.9503542386e+01    0.1453883    0.1342273  84.07 0.0001342842    1.031    0.030
       206 -10.9473    209.4356     21.4959   1.3799552275e+01   3.1206010436e+01    0.2481502    0.1398858 -48.32 3.575251e-05    1.365    0.267
       207 -10.0162    180.5069    243.5054   6.3607196342e+01   3.0662879000e+00    0.1103998   0.08175093   4.45 0.0008106239    1.007    0.007
       208  -9.5107    106.2859     17.7242   2.3225750149e+01   5.6433747147e+01    0.1938708    0.1184536  64.10 0.0001734904    1.517    0.341
       209 -10.8096     98.5539     21.8631   2.6589510941e+01   5.8001118472e+01    0.5717437     0.302071  69.05  0.002486569    1.798    0.444
       210 -10.4201    103.4553     19.5077   2.4534649985e+01   5.6983914583e+01    0.2389102    0.1818456 -32.41 0.0005866245    1.370    0.270
       211  -9.9329    163.1323     21.1239   1.7148294346e+01   4.1529481115e+01    0.2304513    0.1790625  39.80 0.0005509212    1.680    0.405
       212 -10.8899    170.1625     19.7348   1.6108852133e+01   4.0007853752e+01    0.3217471    0.2644607  -2.43  0.001555658    1.589    0.371
       213  -9.9623    180.1764     20.1011   1.5411305410e+01   3.7650394298e+01    0.1739839    0.1641489  81.95 0.0004710193    1.255    0.203
       214 -11.3418    130.2672     19.3814   2.0203364624e+01   4.9963587287e+01     0.297055    0.2344004 -89.86 0.0004641741    1.177    0.150
       215 -10.1940     20.0148     19.4065   6.1060027165e+01   7.5944153818e+01    0.2180634    0.1919453 -70.20 0.0008274947    1.429    0.300
       216  -9.7578     14.4773     19.4644   6.6155853257e+01   7.6673675688e+01     0.228271    0.1308824 -66.33  0.001029633    2.408    0.585
       217  -9.9027    186.3380     18.2969   1.4462991650e+01   3.6458111631e+01    0.3307738   0.09731435  56.67  0.001209999    4.166    0.760
       218 -10.2277     57.3279    232.3347   8.8391873312e+01   1.8529130773e+01    0.1174973   0.08872215 -15.41 0.0007051827    1.722    0.419
       219 -10.5492    220.7877    123.3907   3.6190744495e+01   1.5358115371e+01    0.3742368    0.2155804 -42.79  0.002095179    1.532    0.347
       220 -10.4567    152.9767    124.0712   4.7979876334e+01   2.7050906195e+01    0.2100935    0.1953588 -38.71  0.000297958    1.032    0.031
       221 -13.3829     81.4519     42.0416   4.0628811244e+01   5.9437846142e+01     1.339246    0.7252148  59.51  0.005543759    1.886    0.470
       222  -9.6130    139.4245     16.6589   1.8103004193e+01   4.7896761455e+01    0.1732129    0.1348059 -17.09 0.0009422725    1.489    0.329
       223 -10.8630     57.4432    120.2841   7.5226708553e+01   4.5430235491e+01    0.2720973    0.2659039  76.45 0.0003788504    1.041    0.040
       224  -9.4632     36.5411     14.4200   4.5039170153e+01   7.3907876928e+01    0.1322672    0.1249418  32.72 0.0008027834    1.069    0.065
       225 -10.1992    187.3161     13.0612   1.2978868526e+01   3.6785272950e+01     0.224911    0.1288903 -60.51 0.0003845464    1.496    0.332
       226  -9.5622     72.9704    119.0033   6.9296394565e+01   4.3365950966e+01    0.1841573    0.1774544  66.92 0.0003109835    1.021    0.021
       227 -10.4497    181.2239    116.5010   4.0732783229e+01   2.3130384916e+01    0.4249936    0.1565411 -43.01  0.001646035    2.436    0.589
       228  -9.2739    167.2696    117.6791   4.3555708364e+01   2.5535194478e+01    0.1379181    0.1064053 -64.96 0.0002096355    1.565    0.361
       229 -12.8548     79.6473     59.2280   4.8647023850e+01   5.6617039731e+01    0.7830119    0.5645064  37.03  0.003619977    1.503    0.335
       230 -13.0677     79.6410     50.7778   4.5140408684e+01   5.8290020948e+01    0.8967541    0.5680429  38.41    0.0038996    1.752    0.429
       231 -12.7247     99.9781     79.3356   4.9093082420e+01   4.7766568252e+01     1.138694    0.6174535 -53.25  0.003989538    1.946    0.486
       232 -11.9405     75.7092    103.5139   6.4609174320e+01   4.6944654070e+01    0.3786303    0.2647297 -80.20 0.0008419833    1.753    0.430
       233 -10.6889    165.2218    102.4731   4.0194425703e+01   2.8731233799e+01    0.2876729    0.1859654 -39.63  0.001286589    1.400    0.286
       234  -9.1965    242.6812    101.2701   2.8983397655e+01   1.5186193657e+01    0.1122682   0.07532728 -52.89 0.0002834173    1.562    0.360
       235 -12.7937     85.5480     98.8941   5.9852088698e+01   4.6259469146e+01    0.7473875    0.4262819  32.37   0.00189048    1.981    0.495
       236 -10.8118     89.3267     93.9321   5.7131657292e+01   4.6714269947e+01    0.2842654    0.2527017  13.03 0.0001549531    1.306    0.234
       237 -11.4601     33.9298    100.3910   8.1073432771e+01   5.4007380546e+01    0.2946208    0.2393705  79.36 0.0006691592    1.254    0.203
       238 -10.7238    170.4174     97.7958   3.8058211379e+01   2.8509629663e+01    0.3443599    0.2429134 -42.79   0.00177716    1.267    0.211
       239 -10.5555    158.9440     99.0721   4.0509613276e+01   3.0651637787e+01    0.2164919    0.1947133 -47.78 0.0003185272    1.031    0.030
       240 -11.8811    153.3298     96.5336   4.0944482595e+01   3.2313292620e+01    0.6481261    0.4669689  58.33  0.001786027    1.529    0.346
       241 -11.4009    226.3349     97.6386   3.0021262712e+01   1.8234404041e+01     0.254168    0.1978171  43.43  0.001672379    1.626    0.385
       242 -11.3160    199.6829     96.0416   3.3039460108e+01   2.3103349046e+01    0.3414458    0.2141994 -52.47 0.0007255641    1.607    0.378
       243 -12.0908     73.1970     96.5954   6.3694196390e+01   4.9179601989e+01    0.4260522    0.3456819  53.51  0.002047313    1.265    0.209
       244 -10.9238     27.9647     97.3952   8.3254379093e+01   5.5484650119e+01    0.3519471    0.1817007  82.99  0.001295698    2.505    0.601
       245 -11.6667     11.8565     97.6272   9.0851287361e+01   5.6767529583e+01    0.3825567    0.2485243 -63.38  0.001241074    1.414    0.293
       246 -11.0705     13.3529     93.7215   8.9632574586e+01   5.7771806246e+01    0.2468984    0.1866001  15.47 0.0004410943    1.445    0.308
       247  -9.3377    244.5418     97.5124   2.8021053307e+01   1.5413073661e+01    0.1189575   0.08876953 -34.25 0.0001525565    1.014    0.014
       248 -13.9903     56.2862     94.7984   7.0003381308e+01   5.2535114961e+01     1.552113    0.5958602  35.87  0.004312133    2.536    0.606
       249 -14.0382     60.5299     89.0701   6.6661906721e+01   5.3356657384e+01      1.49803     0.890328  69.62  0.005393079    2.684    0.627
       250 -13.2131     80.2897     73.2223   5.3673490010e+01   5.3449508303e+01     2.176952    0.7028929  45.10   0.00670973    3.113    0.679
       251 -13.2686      4.9786     54.6766   8.7879926816e+01   6.9032549797e+01       1.0095    0.7104849 -65.63  0.002645379    1.281    0.219
       252 -10.4646    203.6284    116.0688   3.7047735523e+01   1.9242954794e+01    0.3203778    0.1904023  67.54  0.001529204    2.796    0.642
       253 -13.2330     67.0076     83.1150   6.2187846749e+01   5.3732448219e+01     1.377251    0.8610442  82.96  0.004336734    2.894    0.654
       254 -11.6369     88.7922    114.8560   6.2927370827e+01   4.1652563541e+01    0.4389548    0.2991708  50.87  0.001400775    1.533    0.348
