#   1 NUMBER                 Running object number                                     
#   2 MAG_AUTO               Kron-like elliptical aperture magnitude                    [mag]
#   3 X_IMAGE                Object position along x                                    [pixel]
#   4 Y_IMAGE                Object position along y                                    [pixel]
#   5 X_WORLD                Barycenter position along world x axis                     [deg]
#   6 Y_WORLD                Barycenter position along world y axis                     [deg]
#   7 A_WORLD                Profile RMS along major axis (world units)                 [deg]
#   8 B_WORLD                Profile RMS along minor axis (world units)                 [deg]
#   9 THETA_WORLD            Position angle (CCW/world-x)                               [deg]
#  10 FWHM_WORLD             FWHM assuming a gaussian core                              [deg]
#  11 ELONGATION             A_IMAGE/B_IMAGE                                           
#  12 ELLIPTICITY            1 - B_IMAGE/A_IMAGE                                       
         1 -13.0995    188.1556     42.1036   4.9729764273e+01   3.2942079918e+01     1.256994    0.9744716  24.52  0.004720499    1.661    0.398
         2 -12.4803    212.4142     11.5464   3.8712831760e+01   3.0682089504e+01    0.8616411    0.7429518 -76.31  0.004620045    1.018    0.017
         3  -9.4846     62.0294    244.0612   1.1951472744e+02   1.6497660373e+01    0.1638385    0.1254517  83.64  0.000449509    1.210    0.174
         4 -10.2475    150.8539    249.4524   1.0335028202e+02   2.5625955335e+00    0.2427602    0.1911386 -69.61  0.001589284    1.714    0.417
         5 -19.4478     22.7175    146.9228   1.1921436752e+02   4.1875507203e+01     19.64538     3.463707 -73.10   0.05715429    5.242    0.809
         6  -9.7743     58.2914    220.6484   1.1833669857e+02   2.1452022887e+01    0.2374304    0.1611288  48.57   0.00149534    1.293    0.227
         7  -9.7639     56.2982    217.6758   1.1847513363e+02   2.2305856504e+01    0.2209916    0.1287067  77.17 0.0008236677    1.671    0.402
         8  -8.5951     44.3415    221.6062   1.2111787222e+02   2.2983466791e+01    0.1586846    0.1068543  78.28 0.0005617951    1.249    0.199
         9 -10.2778     75.0752    249.8898   1.1760575794e+02   1.3736356665e+01    0.1847322    0.1430237 -71.70 0.0007439583    1.488    0.328
        10 -10.7050     52.1498    250.1331   1.2170432619e+02   1.6653132324e+01    0.1575919    0.1218686  76.45 0.0004982615    1.140    0.123
        11  -9.3751     89.9975    212.5184   1.1105695907e+02   1.8695868585e+01    0.2153111    0.1582455  81.49 0.0004403781    1.367    0.268
        12  -8.9193     93.7243    205.4624   1.0941814597e+02   1.9585617557e+01    0.1767179    0.1223517  30.64 0.0009484547    1.621    0.383
        13  -9.2053     66.4555    204.6543   1.1517006715e+02   2.3686111560e+01    0.2480151    0.1576658 -49.13 0.0008630123    2.029    0.507
        14  -9.2551     57.9676    201.1312   1.1661406156e+02   2.5555039822e+01    0.1599883     0.150697 -85.65 0.0003351535    1.280    0.219
        15 -11.1496    140.7405    198.2984   9.8076550439e+01   1.3191063281e+01    0.2960746    0.2713806 -50.71  0.001771472    1.201    0.168
        16  -8.9765     82.0826    194.8405   1.1066167254e+02   2.3606801139e+01    0.2076102    0.1563271  67.24 0.0005833953    1.224    0.183
        17 -10.3600     61.6445    193.4953   1.1503780460e+02   2.6745616937e+01    0.2846861    0.2177897 -38.50  0.001460287    1.873    0.466
        18  -9.4493    191.8067    192.4029   8.6171371883e+01   4.9818417270e+00    0.2674717    0.1693369 -72.50 0.0009544431    4.246    0.764
        19 -10.5098     95.0017    187.7295   1.0678588536e+02   2.3203686627e+01    0.3954095    0.3045991 -58.43   0.00165842    1.366    0.268
        20 -10.4912     99.2185    180.9037   1.0480102602e+02   2.4053408147e+01    0.2995297     0.224638  25.79  0.001044383    1.588    0.370
        21  -9.5055    148.0009    187.5012   9.4628891782e+01   1.4025874640e+01    0.2021535    0.1229554  18.12 0.0008100709    2.496    0.599
        22 -11.1084    124.3678    186.5287   9.9823253694e+01   1.8527901689e+01    0.3526399    0.1839601 -47.24  0.001535746    2.108    0.526
        23 -10.9907     72.3811    179.7552   1.1097803107e+02   2.8390707854e+01    0.6943775    0.5282343 -58.28  0.003983268    1.381    0.276
        24 -11.3894    114.3563    174.3567   1.0013216212e+02   2.2965735610e+01    0.4606039    0.2596168 -67.54  0.001968614    2.103    0.524
        25  -8.6656    148.7454    176.3793   9.2416463688e+01   1.6166408451e+01    0.1449967    0.1142973  89.18 0.0006330866    1.659    0.397
        26  -9.9295    186.9524    175.3537   8.3826696069e+01   8.9627459349e+00    0.3158801    0.3051944  77.47   0.00104538    1.229    0.187
        27 -10.7482     81.6731    169.2918   1.0728850656e+02   2.9479112551e+01    0.3026048    0.2714683 -87.81 0.0005080859    1.037    0.036
        28 -11.7711     85.5586    164.2208   1.0554234290e+02   3.0087421514e+01    0.5333503    0.4595703 -79.56  0.003056094    1.089    0.082
        29 -10.4806     96.7915    168.9984   1.0351380355e+02   2.7178661039e+01    0.2558088    0.2059423  45.96  0.001067847    1.221    0.181
        30  -9.9514     92.1371    156.4541   1.0257258542e+02   3.0900964398e+01    0.2573012    0.2304391 -72.47 0.0003419488    1.069    0.065
        31  -8.5669     71.4124    242.4866   1.1767098602e+02   1.5549672437e+01    0.1130215   0.09388489  62.37 0.0002213137    1.119    0.106
        32 -11.1064     97.3185    150.3934   1.0012501417e+02   3.1499979755e+01    0.5208577    0.3656112 -29.51  0.002390242    1.943    0.485
        33  -9.9627    134.5006    149.5121   9.0390106688e+01   2.4826323457e+01    0.3826612    0.1518568 -54.78  0.001269635    2.839    0.648
        34 -10.8757     96.9666    136.5337   9.7487591019e+01   3.4907287487e+01    0.3753956    0.2830328 -57.47 0.0003303375    1.269    0.212
        35 -10.3839    108.5331    136.8966   9.4406117400e+01   3.2767415439e+01    0.4553251    0.2502373 -36.38  0.001749875    2.334    0.572
        36 -10.1654    105.9136    130.8903   9.3801797412e+01   3.4684019113e+01    0.3708662    0.3292413 -77.80  0.001135089    1.149    0.130
        37  -9.7077    115.0579    128.4615   9.0737353217e+01   3.3543348192e+01    0.2947466    0.2103252 -36.14 0.0006647302    1.539    0.350
        38  -9.5747    103.2074    124.0465   9.2998538848e+01   3.6815646754e+01    0.2838339    0.2387649  -4.14 0.0008138607    1.476    0.322
        39  -8.7505    110.4890    117.9040   8.9465120094e+01   3.6909711651e+01    0.2283797    0.1482421 -50.64 0.0004070442    1.490    0.329
        40 -10.7493     64.2818    114.2418   1.0237034720e+02   4.5361077993e+01    0.2546873    0.2343386  65.97 0.0006910613    1.174    0.149
        41  -8.5473    231.1721    113.8154   6.1524265478e+01   1.1236758346e+01    0.1936565    0.1640265  -3.69 0.0006278137    1.297    0.229
        42  -9.9849    119.6587    111.1541   8.5172853013e+01   3.6652290821e+01    0.2712671    0.2178289  56.26  0.000737038    1.341    0.254
        43  -9.4803     50.4350    224.6988   1.2018932479e+02   2.1632275059e+01    0.1932369    0.1071903  86.38 0.0006030668    1.768    0.434
        44  -9.3718     54.8070    222.1411   1.1914286019e+02   2.1595984824e+01    0.1510934    0.1266156  72.41 0.0002522704    1.111    0.100
        45 -11.7825    172.8390     56.0230   5.6314355654e+01   3.4793714086e+01    0.4439787    0.3971552  56.52  0.001012548    1.108    0.097
        46 -11.5109    247.9274    247.2088   8.5313236283e+01  -1.1484803055e+01    0.3695037    0.3122767  41.80  0.002687862    1.818    0.450
        47 -11.6352    193.2547     36.2289   4.7361133013e+01   3.2446990805e+01    0.4835167    0.4818972 -76.46  0.001270805    1.139    0.122
