#   1 NUMBER                 Running object number                                     
#   2 MAG_AUTO               Kron-like elliptical aperture magnitude                    [mag]
#   3 X_IMAGE                Object position along x                                    [pixel]
#   4 Y_IMAGE                Object position along y                                    [pixel]
#   5 X_WORLD                Barycenter position along world x axis                     [deg]
#   6 Y_WORLD                Barycenter position along world y axis                     [deg]
#   7 A_WORLD                Profile RMS along major axis (world units)                 [deg]
#   8 B_WORLD                Profile RMS along minor axis (world units)                 [deg]
#   9 THETA_WORLD            Position angle (CCW/world-x)                               [deg]
#  10 FWHM_WORLD             FWHM assuming a gaussian core                              [deg]
#  11 ELONGATION             A_IMAGE/B_IMAGE                                           
#  12 ELLIPTICITY            1 - B_IMAGE/A_IMAGE                                       
         1 -16.4479    242.2825     95.2318   4.2067652584e+01   1.4269203727e+01     11.01059     1.284574 -40.24   0.02775595    6.787    0.853
         2 -10.6232     12.6375     28.7696   8.5824573175e+01   6.9769236827e+01    0.4393186   0.09475709 -48.91  0.001619616    4.175    0.760
         3  -9.9753     40.9213     14.0861   6.4187210342e+01   6.8403841625e+01    0.1844183    0.1377441  16.17 0.0002805218    1.057    0.054
         4 -11.6034    159.6719    239.8839   8.6272497576e+01   9.6304800285e-01    0.5568537    0.2151037 -41.90  0.002300461    2.779    0.640
         5 -11.8404    165.3283    248.8614   8.6408024001e+01  -1.4187406754e+00    0.4030261    0.2427774   9.80  0.001696985    1.807    0.447
         6 -12.1038    161.8222    246.6323   8.6831387522e+01  -5.4156200686e-01    0.7203731    0.2360699 -41.12  0.002788464    3.372    0.703
         7 -11.0455    154.5577    240.2760   8.7466576450e+01   1.6370544206e+00    0.2977192    0.1267454 -46.28    0.0012871    2.536    0.606
         8  -9.8629    230.6472    232.7314   7.0561717824e+01  -7.3733782692e+00    0.1276517    0.0772361  -4.49 0.0006992248    1.629    0.386
         9 -10.2126    159.4193    231.8166   8.5057547165e+01   2.4836431500e+00    0.2563145    0.2107976  51.77  0.001449594    1.523    0.344
        10  -9.8441    144.5105    232.0266   8.8473120719e+01   4.6869158798e+00    0.1776384    0.1262641 -87.08 0.0008103473    2.589    0.614
        11 -11.4527    162.9049    225.7346   8.3281416530e+01   3.1066607824e+00    0.4825548    0.3276605  23.79  0.002033082    1.354    0.261
        12 -10.6413    191.9096    226.0731   7.7040916406e+01  -1.2251804326e+00    0.2109414    0.1704861  -3.49 0.0007565736    1.054    0.051
        13  -9.7417    171.1085    225.6700   8.1443554550e+01   1.8824891825e+00    0.1894932    0.1527511  14.89  0.000285587    1.100    0.091
        14 -10.7230     98.9578    225.4241   9.8287933808e+01   1.2924011343e+01    0.3704096    0.2363366  28.95  0.001624769    1.491    0.329
        15 -10.2253    123.4555    224.7536   9.2304234020e+01   9.3787993423e+00    0.2453141    0.1435783 -60.66 0.0007969106    2.031    0.508
        16  -9.9213     61.3502    224.0122   1.0713393831e+02   1.8410593288e+01    0.2965603    0.1047074  41.44  0.001189066    2.423    0.587
        17 -11.0501    125.9255    220.6209   9.1087442849e+01   9.8703334306e+00    0.2707728    0.2350714  41.84 0.0006946357    1.141    0.124
        18  -9.0821    114.3595    221.3191   9.3989306634e+01   1.1508945637e+01    0.1469987     0.107201  -9.88 0.0007043644    1.764    0.433
        19 -10.2180    204.6120    217.7692   7.2966907732e+01  -1.5698709710e+00    0.1755321    0.1193218 -45.52 0.0005423542    1.650    0.394
        20  -9.8223    143.8729    216.7127   8.6171916521e+01   7.8610317278e+00    0.2488922    0.1878535 -32.27  0.001300247    1.387    0.279
        21  -9.8814    199.0000    214.9039   7.3594119065e+01  -2.6777135716e-01    0.2119122   0.07108374 -43.28 0.0006860091    2.891    0.654
        22 -10.3685    185.8578    213.8199   7.6158902065e+01   1.8708455408e+00    0.2867039    0.1882153 -45.07  0.001097957    1.613    0.380
        23  -9.2316    131.3501    214.3139   8.8780849362e+01   1.0363974579e+01    0.1508935    0.1083959  -8.05 0.0007046519    1.725    0.420
        24 -10.9546    217.5517    209.8240   6.8973767562e+01  -1.9957005192e+00    0.3157701    0.1170859 -43.76  0.001296694    2.629    0.620
        25 -10.8583    185.9631    203.7079   7.4279153897e+01   3.7679112042e+00    0.3643682    0.1981438 -45.51  0.001554304    1.868    0.465
        26 -10.0338    198.4317    203.7659   7.1660785522e+01   1.8394334109e+00    0.2529071    0.1268778 -46.42   0.00112188    2.073    0.518
        27 -11.0467    164.6662    200.7107   7.8471166265e+01   7.7993318987e+00    0.6262854     0.280643 -40.36  0.002483128    2.263    0.558
        28 -11.6316    156.2805    248.4067   8.8304027327e+01  -6.5300115130e-02     0.345885    0.2406464  12.28  0.001935962    1.372    0.271
        29  -9.3696    179.3577    190.2659   7.3147536683e+01   7.4951167721e+00    0.1989295    0.1328078 -50.20 0.0009413231    1.625    0.385
        30 -10.0488    110.2678    185.6302   8.9299361302e+01   2.0417921035e+01     0.278883    0.2263739 -46.14  0.001394841    1.254    0.203
        31  -9.7929     13.2053    186.0436   1.1535766043e+02   3.2704621098e+01    0.2277832    0.1204816  71.70  0.001081424    1.964    0.491
        32 -10.1050    204.0604    183.9420   6.6686200065e+01   4.6957977710e+00    0.2963375    0.1767276 -53.18  0.001351344    2.035    0.509
        33 -10.1020    173.9806    182.3684   7.2780760347e+01   1.0042521313e+01    0.3295838    0.1991665 -51.39  0.001456878    1.793    0.442
        34  -9.3670     27.6577    183.3226   1.1140822330e+02   3.2088142609e+01    0.1468554   0.08835159  63.18 0.0007050526    1.727    0.421
        35  -9.5053    211.5237    182.4992   6.4931075340e+01   3.7906167464e+00    0.1415272    0.1175377 -17.50 0.0008096416    1.053    0.050
        36  -9.3135    197.4772    182.4949   6.7733623161e+01   6.0393253508e+00    0.1422867    0.1269045 -18.98 0.0008097833    1.047    0.045
        37  -9.8650     44.7912    182.6420   1.0676117633e+02   3.0473625162e+01    0.2024308     0.116599  40.40 0.0008666052    1.711    0.415
        38  -9.6553     13.9980    177.8031   1.1446167928e+02   3.4698211899e+01     0.205464    0.1254023  77.00  0.001050308    1.621    0.383
        39 -10.6378     96.7520    187.5951   9.3273394816e+01   2.2122785586e+01    0.5406696    0.2082611  40.18  0.001918177    2.480    0.597
        40 -10.3110     79.1132    176.8412   9.6396370354e+01   2.7525850700e+01    0.4404185    0.1116026  42.90  0.001226129    4.129    0.758
        41 -10.0689     61.1850    177.6716   1.0158194342e+02   2.9777526891e+01    0.3062991    0.1056269  37.36  0.001086393    2.709    0.631
        42  -9.9419    183.4189    174.7785   6.9137600256e+01   9.9730269026e+00    0.3576508    0.1335365 -42.81  0.001277907    2.525    0.604
        43 -10.0388    206.1660    169.1181   6.3273836519e+01   7.2022950289e+00    0.2588004    0.1884508 -55.93  0.001142524    1.630    0.387
        44  -9.7172    122.1546    169.7823   8.3102406710e+01   2.2236629154e+01    0.2686609     0.171081  72.81  0.000947905    2.883    0.653
        45 -10.2197     55.7961    170.2077   1.0205050602e+02   3.2401711757e+01    0.2643994    0.1355015  64.16 0.0009594614    2.847    0.649
        46 -10.1519    176.9618    170.0273   6.9569622960e+01   1.2114417657e+01     0.376468    0.2029143 -43.78  0.001472875    1.769    0.435
        47  -9.6944     99.9663    166.6515   8.8660028157e+01   2.6873044006e+01    0.2691593   0.09973162  50.87 0.0007047208    4.399    0.773
        48 -10.7846    172.7850    195.8664   7.5702276309e+01   7.4493006359e+00     0.248192    0.2019727  28.55  0.001330698    1.216    0.178
        49  -9.7406    192.3017    164.8956   6.5184081996e+01   1.0427933278e+01    0.2943064    0.1229581 -49.34  0.001073085    2.535    0.606
        50 -10.3784     80.3239    164.2673   9.3922505905e+01   3.0606681304e+01     0.521883     0.278647  67.94  0.001657044    3.643    0.726
        51 -11.0597    213.2943    163.2702   6.0708290488e+01   7.1359722923e+00    0.3946128     0.170564 -41.50  0.001635031    2.046    0.511
        52  -9.7751     47.9834    164.5002   1.0351121211e+02   3.4830184092e+01    0.2135661   0.09846494  50.16 0.0008100492    2.519    0.603
        53 -10.2651    205.6708    161.2650   6.1740857687e+01   8.8119947957e+00    0.3725624     0.166804 -45.60  0.001514359    2.095    0.523
        54 -10.4518     93.6977    160.9843   8.9383817629e+01   2.9360690204e+01    0.3388056    0.1731948  54.58  0.001174077    2.699    0.630
        55  -9.9255     62.9666    161.4782   9.8607177864e+01   3.3784630532e+01    0.2243839     0.105343  50.69 0.0008101563    2.595    0.615
        56  -9.7185      9.2245    160.6540   1.1418628031e+02   3.9422657180e+01    0.3011995    0.1144194  72.15 0.0009611204    4.377    0.772
        57 -10.1529    196.7453    156.8468   6.2564366585e+01   1.1257487305e+01    0.3329271    0.1785431 -48.79  0.001192638    1.867    0.465
        58  -8.8378    188.2726    156.6579   6.4261807669e+01   1.2839756573e+01    0.1430608      0.11649 -71.77  0.000699511    1.614    0.380
        59 -10.8938     83.0854    155.4482   9.1475918193e+01   3.2487975253e+01    0.4670217    0.2350874  52.90  0.001662474    2.616    0.618
        60 -11.0649     50.4127    155.5629   1.0146547855e+02   3.6910081221e+01    0.4280525    0.2048182  53.37  0.001606122    2.684    0.627
        61  -9.6243    215.4217    194.1704   6.6450593292e+01   1.0585651764e+00    0.1874142    0.1188355 -48.23  0.000943482    1.737    0.424
        62 -10.9394     68.9086    154.5487   9.5628133216e+01   3.4809726546e+01    0.4134415    0.2219075  53.12  0.001597981    2.321    0.569
        63  -9.7407    204.5137    154.0650   6.0443801060e+01   1.0421843415e+01     0.222351    0.1287338 -41.13 0.0007370237    1.550    0.355
        64 -10.7177    189.3574    148.6788   6.2290903987e+01   1.4276273892e+01    0.4996231    0.2214703 -45.07  0.001694009    2.113    0.527
        65  -9.4385     99.3362    151.6486   8.5843801563e+01   3.0810918946e+01    0.1665571    0.1239356  73.44 0.0007045567    1.789    0.441
        66 -10.0458     29.4477    150.6035   1.0715752053e+02   4.0400387387e+01    0.3555254    0.1670423  73.65  0.001219134    3.566    0.720
        67 -10.9676     40.1250    148.0496   1.0349934850e+02   4.0035407822e+01    0.4757228     0.224006  49.99  0.001867051    2.582    0.613
        68 -10.2223    200.0163    147.1970   5.9834273544e+01   1.2588307679e+01    0.3767565    0.1956318 -39.48  0.001492323    1.760    0.432
        69 -11.6903     57.0277    146.3631   9.7891231855e+01   3.8547203020e+01     0.671079    0.3380494  55.93  0.002456148    2.807    0.644
        70 -10.2416     78.9867    147.1896   9.1125027753e+01   3.5275738541e+01    0.2653892     0.166397  57.03  0.001079008    2.017    0.504
        71  -9.7132     13.4065    146.2094   1.1148097941e+02   4.2847638237e+01    0.1969202     0.114417 -87.40 0.0009400471    1.705    0.413
        72 -11.1333     89.1259    144.5030   8.7428903999e+01   3.4366730494e+01     0.445289    0.2580567  52.07  0.001740481    2.101    0.524
        73  -9.2780    148.3751    144.6678   7.0733839129e+01   2.3207632398e+01    0.1642268    0.1274189  83.14 0.0007023175    1.848    0.459
        74  -9.7898    125.8010    144.1836   7.6582063998e+01   2.7798961370e+01    0.2754378    0.1820329  79.68 0.0009574651    2.907    0.656
        75  -9.3293    209.4591    194.5089   6.7676623310e+01   1.8835259246e+00    0.1378532    0.1170096 -16.02 0.0001259736    1.020    0.020
        76 -10.9227     69.6882    140.4843   9.2739150465e+01   3.8403079545e+01    0.3966412    0.2360941  85.43  0.001396619    3.013    0.668
        77  -8.9636    203.2907    140.6771   5.7786201804e+01   1.3267879028e+01    0.1406556    0.1103949 -69.60 0.0004252095    1.609    0.379
        78 -10.0433    162.0394    193.2619   7.7674898789e+01   9.7991698904e+00    0.3230332    0.2044957 -54.76  0.001453492    1.818    0.450
        79 -10.8214    108.1530    145.8505   8.1991591311e+01   3.0717843081e+01    0.5911664    0.3357632  66.53  0.001825709    3.666    0.727
        80 -10.6485     23.6342    138.4659   1.0733505404e+02   4.4085891115e+01     0.401833    0.1976148  62.91   0.00155982    2.958    0.662
        81 -10.2657    197.5344    135.7834   5.7797620497e+01   1.5317357274e+01     0.437118     0.133106 -41.15  0.001419749    3.033    0.670
        82 -10.2918    219.5841    135.7775   5.3823880702e+01   1.1242040026e+01    0.2774784     0.119519 -37.59  0.001130628    2.129    0.530
        83 -10.3517     39.2327    136.1305   1.0190994404e+02   4.3273437592e+01    0.2788789    0.1667926  54.24  0.001171065    2.050    0.512
        84 -12.0515    225.9501    132.4009   5.2061535549e+01   1.0742478389e+01    0.5021778    0.2434519 -29.43  0.002059491    2.470    0.595
        85  -9.9304     44.6503    194.3101   1.0812493287e+02   2.7537377241e+01    0.1498718   0.09178104  61.85 0.0007044775    1.715    0.417
        86  -9.4727    204.5908    129.8269   5.5155898613e+01   1.5128905864e+01     0.210118    0.1226331 -50.60 0.0009445659    1.688    0.408
        87 -11.5791    100.4030    128.9449   8.0413915003e+01   3.6349816371e+01     0.594568     0.385888  62.74  0.002326123    2.229    0.551
        88 -11.5880     73.8338    129.7917   8.9148826984e+01   4.0574956392e+01    0.3923028    0.2595873  51.16  0.001453792    1.782    0.439
        89 -10.0840     12.7971    129.3024   1.0960829728e+02   4.7262558342e+01    0.3743127    0.1869129  66.28  0.001522285    2.879    0.653
        90  -9.7411    212.0000    128.9151   5.3644150264e+01   1.3905200870e+01    0.2386691   0.07220979 -41.66 0.0007992172    2.920    0.658
        91  -9.5674     78.7511    193.7535   9.9064020370e+01   2.3295288246e+01     0.242515    0.0956306  42.04 0.0007424282    2.433    0.589
        92 -12.4916     60.5013    124.8053   9.2574482165e+01   4.3746689287e+01    0.7884689    0.4706262  65.93  0.002983049    2.799    0.643
        93 -12.1973     44.6350    122.9223   9.7706543687e+01   4.6153484305e+01    0.9769483    0.5499897  81.36  0.003501165    3.328    0.700
        94 -10.5413    118.6945    125.7299   7.4149212017e+01   3.3624333148e+01    0.4676344    0.2439124  63.02   0.00131109    4.304    0.768
        95 -11.2273     28.6364    122.3482   1.0320239393e+02   4.7862295372e+01     0.729235    0.3580344  73.01   0.00236094    4.376    0.771
        96 -11.4774     71.7918    120.6079   8.7759375135e+01   4.3221396230e+01    0.3765415    0.2744521  53.43  0.001401781    1.640    0.390
        97  -9.3064    142.6658    120.3548   6.6266503216e+01   2.9878692540e+01     0.164083    0.1270262 -87.48 0.0007043979    1.793    0.442
        98  -9.9877      2.9862    116.9886   1.1128239903e+02   5.0969961534e+01    0.3493193    0.1432658  82.02   0.00114771    4.409    0.773
        99 -12.1227     84.6009    132.3232   8.6195445994e+01   3.8236641280e+01    0.6486677     0.387097  55.81   0.00212349    2.243    0.554
       100 -11.6051    110.5575    115.2463   7.3851460826e+01   3.7705776138e+01    0.6058236    0.3814306  68.74  0.002162385    2.817    0.645
       101 -12.5410     80.3834    113.5214   8.3100515142e+01   4.3629563519e+01    0.7073125    0.4772386  71.21  0.002796951    2.479    0.597
       102 -10.3648    211.9595    201.9631   6.8601105081e+01   1.6688825665e-01    0.1882469    0.1715991 -75.99 0.0009584982    1.705    0.414
       103 -12.5317     94.4980    113.3342   7.8362522650e+01   4.1221765618e+01    0.7966624    0.3614088  44.24  0.002653328    2.365    0.577
       104 -12.1929     67.4644    111.1263   8.7001471945e+01   4.6226963445e+01    0.4605101    0.3238506  53.31  0.001924534    1.771    0.435
       105 -10.4282     14.1933    110.3006   1.0635668790e+02   5.2015282019e+01    0.3502581      0.21794  85.01  0.001694423    2.013    0.503
       106 -10.9504     59.6864    109.5778   8.9422845518e+01   4.7703258937e+01    0.2494088     0.188198 -82.63 0.0009105378    1.726    0.421
       107 -12.3549     46.0373    102.5783   9.2847332333e+01   5.1126515269e+01    0.8533726    0.4908777  64.94  0.003105275    3.531    0.717
       108 -11.3368     22.9654    102.3174   1.0165982626e+02   5.3390945181e+01    0.6994157    0.3769525  69.96  0.002621649    3.656    0.726
       109 -12.3719    111.3504    100.2868   6.9532303656e+01   4.0910328999e+01    0.9501135    0.4760517  61.03  0.002851556    3.920    0.745
       110 -12.2252     83.1632    100.4621   7.8682422535e+01   4.6255548539e+01    0.4903965    0.3328515  60.54  0.002082828    2.107    0.525
       111 -13.0362     64.7242     96.2650   8.4158318960e+01   5.0190200477e+01    0.7635345    0.5048703  64.10  0.002710035    2.545    0.607
       112 -11.4001    221.1586    128.5757   5.2031098501e+01   1.2290625928e+01    0.3838708    0.1676738 -32.38  0.001487539    2.585    0.613
       113 -10.4627     43.6236     92.6548   9.1371790787e+01   5.3783913186e+01     0.233644    0.1477273 -28.10  0.001106629    1.630    0.387
       114 -10.1863    125.1467     91.4831   6.3074310365e+01   3.9802121538e+01    0.3537794    0.2205881  85.81  0.001086159    4.182    0.761
       115 -11.9789     96.3212     97.5860   7.3455098183e+01   4.4496226195e+01     0.506595    0.2758722  44.88  0.002046322    1.912    0.477
       116 -11.0033     34.8473     88.9927   9.4007205958e+01   5.5571251643e+01    0.6340587    0.2935209 -67.41  0.002497993    2.671    0.626
       117 -12.8652     88.4335     87.7880   7.3201284356e+01   4.8105725878e+01    0.7151822    0.4231146  58.17  0.002778446    2.550    0.608
       118 -12.1073     48.9712     84.1652   8.6950562180e+01   5.5102831241e+01    0.6787034    0.4706587  86.37  0.002918732    2.789    0.641
       119 -11.9992     75.0726     80.8923   7.5817618729e+01   5.1940416765e+01    0.4040097    0.3158373 -78.82   0.00163664    1.966    0.491
       120 -10.9055     24.4196     79.4530   9.6039708067e+01   5.8715813407e+01     0.643643    0.2407669 -62.01  0.002542733    2.663    0.625
       121 -11.8823     62.1629     77.4829   7.9672254970e+01   5.4731711046e+01    0.4564397    0.2608987 -60.22   0.00192126    2.363    0.577
       122  -9.8095    205.8580    190.6126   6.7637719601e+01   3.1537178670e+00     0.236261    0.1461267 -42.43  0.000964961    1.539    0.350
       123 -12.4549     83.1864     73.5905   7.0570693494e+01   5.1960288114e+01    0.4954395    0.3915981 -87.13  0.002365018    2.063    0.515
       124 -11.7638     95.5596     71.6265   6.5762210485e+01   4.9924244519e+01    0.4265487    0.2979033 -63.65  0.001919638    2.095    0.523
       125 -12.2152    106.1911     84.3516   6.6424887273e+01   4.5296037209e+01    0.6811919    0.4356813  70.72  0.002586379    2.769    0.639
       126 -10.5764    106.7715     72.5800   6.2595148224e+01   4.7413280297e+01    0.2141663    0.1382849  56.01 0.0009526809    1.709    0.415
       127 -11.6096     51.5092     68.5567   8.1178271250e+01   5.8105833095e+01    0.7616186    0.3210045 -57.96  0.002696218    3.547    0.718
       128  -9.6772    172.7117    190.7562   7.4731396372e+01   8.5124022912e+00    0.2774161    0.1848817 -67.82  0.001168841    2.456    0.593
       129  -9.4002     16.3970     69.6362   9.7130897239e+01   6.1520729814e+01    0.2353808    0.1214378 -77.02 0.0009559394    3.221    0.690
       130 -10.5930     37.1228     63.5889   8.5870013479e+01   6.0908422281e+01    0.3277644    0.1908079 -60.34  0.001549356    2.169    0.539
       131 -10.2135    110.4894     63.9934   5.8769052888e+01   4.8103419850e+01    0.1988884    0.1238737 -61.17 0.0008096508    2.469    0.595
       132 -11.4788     73.3679     59.4048   6.9316483224e+01   5.6372405726e+01    0.4206302    0.2581528 -48.70  0.001621227    1.935    0.483
       133  -9.8718     24.8537     58.7455   9.0060870931e+01   6.3140641764e+01    0.2384117    0.1534431 -61.68  0.001257563    1.864    0.464
       134 -10.5856      7.5553     54.1035   9.7197022773e+01   6.5389828897e+01    0.6716365   0.07094933 -54.83  0.002208544    4.302    0.768
       135 -10.2267     44.1922     54.8234   7.9704809057e+01   6.1750786602e+01     0.352947    0.1890785 -51.20  0.001660017    2.130    0.531
       136 -10.6540     45.2642     49.2573   7.7190859868e+01   6.2613144929e+01     0.268485    0.2028651 -19.93 0.0002920873    1.196    0.164
       137 -10.7681     54.0710     53.1919   7.4779504505e+01   6.0653040611e+01    0.5006351     0.221721 -54.24  0.001830771    3.745    0.733
       138  -9.5599    100.4903     54.4751   5.8506767910e+01   5.1812818740e+01     0.143249    0.1286537  29.28 5.015674e-05    1.017    0.017
       139 -10.7995     92.8043     51.0831   5.9676421687e+01   5.3960239676e+01    0.2890444    0.1934682 -47.48  0.001427257    1.806    0.446
       140 -10.4689     30.9386     50.0118   8.4206484033e+01   6.4235878921e+01    0.5496751    0.2056429 -54.00  0.002179343    3.201    0.688
       141 -10.5954     82.0908     46.7013   6.1595003486e+01   5.6796391190e+01    0.2279129    0.1917262 -39.41 0.0008597975    1.369    0.270
       142 -10.3033     16.7968     42.4361   8.8702778177e+01   6.7007436018e+01    0.4605547   0.08560071 -45.71  0.001643385    3.761    0.734
       143 -10.6393     58.0038     42.0278   6.8864138375e+01   6.1885156226e+01    0.2740477    0.1884892 -60.04  0.001320669    2.625    0.619
       144  -9.4134    113.8043     41.4076   5.0466946557e+01   5.0726418666e+01    0.1902756    0.1143696  45.78 0.0002823937    1.507    0.336
       145 -10.4450     69.0135     41.0175   6.4115420087e+01   6.0124357429e+01    0.1935723    0.1732064  87.30  0.001122361    1.710    0.415
       146 -10.2634     36.6991     39.0037   7.7240675829e+01   6.5492873598e+01    0.3787318    0.1250158 -37.30  0.001516112    2.984    0.665
       147 -11.3013     63.0723     53.5072   7.1172926618e+01   5.9172752758e+01    0.5383384    0.1580674 -43.19  0.001860164    3.573    0.720
       148  -9.5285     89.3077    199.6602   9.7131740480e+01   2.0304341287e+01    0.1535864    0.1075547  66.33  0.000320039    1.685    0.406
       149 -10.8394     92.7465    182.8768   9.3583803879e+01   2.3927566797e+01    0.4188249    0.2053432 -60.88  0.001635722    2.106    0.525
       150 -10.4942     27.2495     30.6112   7.8557140672e+01   6.7996369212e+01    0.5368456    0.1374622 -34.05  0.001727929    5.030    0.801
       151  -9.9672     56.2145    187.9763   1.0432958093e+02   2.7760656887e+01    0.2758678    0.1112118  56.86 0.0008865787    3.644    0.726
       152  -9.6894     60.5140     32.5211   6.3989984710e+01   6.2843371503e+01    0.1315157    0.1100397  16.71 0.0001178907    1.025    0.025
       153 -10.7462      4.9395     39.9736   9.4271825022e+01   6.8332741289e+01    0.5823757    0.1613961 -58.60  0.002229698    3.835    0.739
       154  -8.8182     13.7114    250.6979   1.1943869895e+02   1.7992640861e+01   0.09909292   0.08614858 -51.35 0.0002314207    1.563    0.360
       155  -9.7218     35.6366    188.3123   1.0982768456e+02   3.0026399150e+01     0.149753   0.08935775  61.63 0.0007040341    1.756    0.430
       156  -9.3924     40.7962     21.4022   6.7683766114e+01   6.7523093965e+01    0.1655018   0.09688792  24.02 0.0002420334    1.520    0.342
       157 -10.4887      3.5758     25.4795   8.9837168884e+01   7.1025138574e+01    0.3120773   0.09693933 -51.21  0.001401064    2.947    0.661
       158  -9.5666    126.3970    197.3127   8.7149885996e+01   1.4957472016e+01    0.2390832    0.1752213 -13.53  0.001105084    1.687    0.407
