#   1 NUMBER                 Running object number                                     
#   2 MAG_AUTO               Kron-like elliptical aperture magnitude                    [mag]
#   3 X_IMAGE                Object position along x                                    [pixel]
#   4 Y_IMAGE                Object position along y                                    [pixel]
#   5 X_WORLD                Barycenter position along world x axis                     [deg]
#   6 Y_WORLD                Barycenter position along world y axis                     [deg]
#   7 A_WORLD                Profile RMS along major axis (world units)                 [deg]
#   8 B_WORLD                Profile RMS along minor axis (world units)                 [deg]
#   9 THETA_WORLD            Position angle (CCW/world-x)                               [deg]
#  10 FWHM_WORLD             FWHM assuming a gaussian core                              [deg]
#  11 ELONGATION             A_IMAGE/B_IMAGE                                           
#  12 ELLIPTICITY            1 - B_IMAGE/A_IMAGE                                       
         1 -13.6178    220.2167      8.1298   3.5942935316e+01   2.9718248651e+01     1.200531    0.9412332  54.68  0.004551796    1.457    0.314
         2 -14.2099    194.4609     38.2600   4.6402793377e+01   3.2306373921e+01     2.091234     1.400978  14.74  0.009552144    2.361    0.576
         3 -10.9801     67.1383      2.9168   6.1032533597e+01   6.5609362333e+01     0.307884    0.1778512  50.19   0.00169527    1.703    0.413
         4 -19.4975     15.2561    145.9677   1.2008040460e+02   4.2496160980e+01     19.28228     4.615304 -76.32   0.06557945    3.923    0.745
         5 -11.7055    249.2322    247.8898   8.3840753445e+01  -1.1121977606e+01    0.9171764    0.3082484  33.34  0.004497495    2.581    0.613
         6  -9.0769     56.5104    209.3202   1.1673892505e+02   2.3815827408e+01     0.262711     0.112813 -77.48  0.001211146    2.469    0.595
         7 -10.9895     63.0008    250.4150   1.1888783153e+02   1.5021268052e+01    0.2312777    0.1104286  45.56  0.001341876    1.646    0.393
         8  -9.4290     58.3683    228.4387   1.1803495595e+02   1.9698829146e+01    0.1163457   0.09291822  70.32 0.0001356003    1.029    0.028
         9 -10.7483     65.7966    206.9886   1.1456336705e+02   2.3137083783e+01    0.2265959    0.1677518 -75.20 0.0003366004    1.313    0.238
        10 -10.6176     64.9987    203.7016   1.1439645388e+02   2.3942963142e+01    0.1935478    0.1556953 -75.24 0.0005805963    1.226    0.184
        11 -12.6348     31.5916    206.1386   1.2156070793e+02   2.7327641218e+01    0.3193774    0.1503263  53.14  0.001444615    1.864    0.463
        12  -8.5879     93.4485    205.5215   1.0842007662e+02   1.9598961559e+01    0.2399673     0.172994 -29.30 0.0008531478    2.094    0.522
        13  -9.3493     96.2261    201.9942   1.0735553229e+02   1.9928340200e+01    0.2353065    0.1928649 -65.41  0.001118439    1.274    0.215
        14 -10.9282    193.1447    195.0889   8.5060266150e+01   4.7878672920e+00    0.9263387    0.4901207 -62.00  0.002934888    5.360    0.813
        15 -11.2260     53.0115    200.5138   1.1664765537e+02   2.6127121077e+01     0.229718    0.1791704  61.18 0.0004951724    1.130    0.115
        16 -12.3965     54.8802    196.8643   1.1588833262e+02   2.6699610734e+01     0.500935    0.2728037 -47.81   0.00179967    2.387    0.581
        17 -10.7629    204.1268    199.1587   8.3625003055e+01   2.2166981566e+00     0.357327    0.1865745 -38.66  0.001692171    1.962    0.490
        18  -9.0819     38.3362    199.1418   1.1962829702e+02   2.8105865592e+01    0.1465774    0.1097554  79.94 0.0001682091    1.110    0.099
        19  -9.7139     39.8810    223.7252   1.2122055257e+02   2.2813973257e+01     0.176952    0.1297432  58.03 0.0006840734    1.141    0.123
        20  -8.8023     59.0714    220.1602   1.1719356185e+02   2.1258991474e+01    0.3226252    0.1855361  35.32  0.001556698    1.759    0.432
        21  -8.9683     81.7043    194.0902   1.0960445876e+02   2.3774164398e+01    0.2510666    0.1560945  60.65   0.00127944    1.642    0.391
        22 -11.2832    149.6839    188.3026   9.3135424182e+01   1.3848227209e+01    0.5562683    0.3450884 -70.84  0.002035293    2.586    0.613
        23  -8.4165     53.4389    221.0001   1.1838325039e+02   2.1780516267e+01    0.3303984    0.1158599  54.36  0.001449196    2.745    0.636
        24  -9.4386     93.5313    185.8763   1.0576336287e+02   2.3862734716e+01    0.3131033     0.217154  46.72  0.001087233    1.367    0.269
        25 -10.9321     98.7600    181.2090   1.0382943471e+02   2.4106026335e+01    0.4504432    0.3383642 -10.24  0.001882777    2.044    0.511
        26 -11.2282    143.2325    178.9164   9.2890862870e+01   1.6961067660e+01    0.4719621    0.2043181 -49.17  0.001327611    2.402    0.584
        27 -10.0014    188.1851    176.4443   8.2423507626e+01   9.0447262755e+00    0.3210264    0.3083286  37.42  0.001341042    1.176    0.150
        28  -9.5551    149.2321    176.8613   9.1113822227e+01   1.6284366349e+01    0.2064064     0.195538  87.64 0.0004081518    1.169    0.145
        29  -7.4384     48.8218    217.3703   1.1899833924e+02   2.3068968392e+01    0.1946306     0.140614  31.15   0.00110985    1.620    0.383
        30 -11.4080    238.9393    174.1491   7.2128274448e+01   4.4283913050e-01    0.4944023    0.1683312  36.04  0.001862208    3.269    0.694
        31 -11.0506    124.8426    173.9991   9.6338945246e+01   2.1352615902e+01    0.5216568    0.3120588   9.70   0.00183533    3.494    0.714
        32  -9.9572     55.9595    174.7859   1.1323133442e+02   3.1591151520e+01    0.3348598    0.1819362  52.67  0.001351213    1.845    0.458
        33  -9.9098     84.0948    173.4434   1.0621597605e+02   2.8133025172e+01    0.2277426    0.1763693 -57.58 0.0004022416    1.295    0.228
        34  -9.8231     46.3390    173.0752   1.1532530487e+02   3.3114560460e+01    0.3321374    0.2445717  10.92   0.00160708    1.942    0.485
        35  -9.7434    146.8208    172.7963   9.0887983478e+01   1.7592643031e+01      0.19901    0.1754507  83.43 0.0004957703    1.332    0.249
        36  -8.8241    194.0773    171.6609   8.0206571340e+01   8.8324108097e+00     0.204307    0.1773529  19.03 0.0006836822    1.097    0.089
        37  -9.5060    185.5051    169.9789   8.1652617930e+01   1.0774908461e+01    0.2192066    0.1405621 -39.36 0.0006293362    1.557    0.358
        38 -10.4942    138.1942    169.8073   9.2345328276e+01   1.9849667779e+01    0.3468266    0.2649076  31.92  0.001228067    1.327    0.246
        39  -8.9843    187.6443    162.4397   7.9591752631e+01   1.1813393546e+01    0.2823031    0.1260791 -53.48 0.0008706408    3.254    0.693
        40 -11.7773     94.6383    151.0002   9.9765158378e+01   3.1867764144e+01     0.702993    0.5736212 -38.47  0.002664638    1.341    0.254
        41 -10.8258    133.8381    145.7871   8.8439432240e+01   2.6065462508e+01     1.222899    0.3032478 -53.87  0.002885243    5.608    0.822
        42  -9.7791    187.0659    151.4947   7.7291248479e+01   1.4065414646e+01    0.2203728    0.1467451  41.78 0.0006043262    1.526    0.345
        43  -9.1518    112.5145    150.4695   9.4936637713e+01   2.8963674053e+01    0.1485794    0.1434813 -87.10 2.275335e-05    1.021    0.020
        44  -9.4565    174.7771    148.9479   7.9387652226e+01   1.7082620202e+01    0.2808768    0.2127656 -59.40 0.0008352001    1.571    0.363
        45  -8.7243    109.5853    147.7751   9.5161320951e+01   3.0121571428e+01    0.2071097    0.1418855 -67.60 0.0006316954    1.610    0.379
        46  -9.8523     86.8037    143.5872   1.0049263350e+02   3.4906527016e+01    0.2686506    0.1397535  41.68  0.001091491    1.980    0.495
        47 -10.9458    106.5316    137.3067   9.3786830495e+01   3.3165011212e+01    0.5759943    0.3438418 -34.45  0.002357334    2.068    0.516
        48 -10.6251    105.9475    130.8157   9.2512689883e+01   3.4826308926e+01    0.4273915    0.3384587 -65.19    0.0011805    1.305    0.234
        49 -11.6848     94.5683    137.2217   9.7080065090e+01   3.5225860897e+01    0.2925473    0.2632478 -37.58 0.0003627803    1.159    0.137
        50 -10.2255    136.0000    129.0580   8.3990423838e+01   2.9444910128e+01    0.5894343   0.08789708 -46.86  0.001218795    6.575    0.848
        51  -9.3443    160.7388    128.3910   7.7704421964e+01   2.4357713837e+01    0.2976921    0.1898836 -52.47  0.001248505    1.691    0.409
        52 -10.3674    101.5955    124.7429   9.2351777325e+01   3.7053668029e+01    0.2944603    0.2485745 -25.63 0.0005975492    1.299    0.230
        53 -10.6800    120.1375    122.8401   8.6686962568e+01   3.4056557172e+01    0.4317375    0.3274512  -5.99   0.00193157    1.766    0.434
        54 -10.5641    114.1359    129.0411   8.9831502831e+01   3.3751503043e+01    0.3395087    0.3013012 -20.11 0.0008929376    1.225    0.183
        55  -9.3364    109.8089    118.1524   8.8413384273e+01   3.7129440806e+01    0.2165609    0.2034765 -81.39   0.00035134    1.135    0.119
        56 -10.0825    231.3138    113.6959   6.0038444698e+01   1.2020863996e+01    0.2929478    0.2617063 -17.27 0.0007454742    1.098    0.089
        57  -9.8275    134.5920    106.3458   7.8458429028e+01   3.4801296262e+01    0.4401397    0.1458184 -49.09  0.001288371    3.314    0.698
        58  -9.0499    167.6980    112.6555   7.2049756857e+01   2.6105767344e+01    0.3143152    0.2286686 -78.86  0.001305491    2.068    0.516
        59 -11.6842    118.3620    109.5839   8.3772013868e+01   3.7454683443e+01    0.6431564      0.53486  86.43  0.002797593    1.524    0.344
        60  -9.4626    205.5940    110.1170   6.3615783361e+01   1.8085858640e+01    0.2673303    0.2212328  39.63 0.0006521995    1.292    0.226
        61  -9.1340    157.3012    233.3569   9.8753824376e+01   4.2958379907e+00    0.1269276   0.09297082   2.03 0.0007037714    1.710    0.415
        62  -7.9126     81.2526    220.3524   1.1271161949e+02   1.8302226997e+01     0.111399   0.09491426 -37.51 0.0003696599    1.598    0.374
        63  -8.4595    184.4687     77.4413   5.8907189156e+01   2.8821342069e+01    0.1479639    0.1453044 -11.34 0.0002219587    1.055    0.052
        64  -9.1934     66.6381     70.9087   8.9111903414e+01   5.5030503266e+01     0.213642    0.1791838  -5.26 0.0003777817    1.202    0.168
        65  -9.1299    167.8837    231.4578   9.6359416920e+01   2.9182042829e+00    0.1888026    0.1553459   9.76 0.0002405163    1.219    0.180
        66 -12.1205     48.9928    248.2789   1.2123748330e+02   1.7102803450e+01     0.187673    0.1333626  89.61 0.0006614199    1.321    0.243
        67 -12.7375    178.4967     52.7767   5.2955824737e+01   3.4224917319e+01    0.7194722    0.6712795 -25.68  0.000798303    1.126    0.112
        68 -10.4780     71.8490    245.5249   1.1688806011e+02   1.4770867337e+01    0.3342141    0.1541811 -71.39  0.001810033    2.383    0.580
        69  -9.8716     80.4016     15.2388   6.2395997755e+01   6.1827186770e+01    0.2287878    0.1977067  52.56 0.0008796164    1.356    0.262
        70  -9.4895    184.7834    212.6112   8.9923075273e+01   3.2384351510e+00    0.1910215    0.1134238  44.55 0.0009498341    1.695    0.410
        71  -9.6243    189.6479     14.8753   4.0670259716e+01   3.6227068590e+01    0.1909435    0.1688731   6.18 0.0008281002    1.397    0.284
