#   1 NUMBER                 Running object number                                     
#   2 MAG_AUTO               Kron-like elliptical aperture magnitude                    [mag]
#   3 X_IMAGE                Object position along x                                    [pixel]
#   4 Y_IMAGE                Object position along y                                    [pixel]
#   5 X_WORLD                Barycenter position along world x axis                     [deg]
#   6 Y_WORLD                Barycenter position along world y axis                     [deg]
#   7 A_WORLD                Profile RMS along major axis (world units)                 [deg]
#   8 B_WORLD                Profile RMS along minor axis (world units)                 [deg]
#   9 THETA_WORLD            Position angle (CCW/world-x)                               [deg]
#  10 FWHM_WORLD             FWHM assuming a gaussian core                              [deg]
#  11 ELONGATION             A_IMAGE/B_IMAGE                                           
#  12 ELLIPTICITY            1 - B_IMAGE/A_IMAGE                                       
         1 -14.4829     68.7844    144.3648   9.9944003472e+01   3.7269093441e+01     4.762542     2.461812  71.72   0.01187744    4.216    0.763
         2 -13.2692    200.5123     42.0689   4.1528360783e+01   3.0167888384e+01     1.189319    0.9886609 -33.97  0.003206557    1.317    0.241
         3 -13.6398    210.7263     32.1245   3.7971054195e+01   2.9133004070e+01    0.9960332    0.8860853  -0.23  0.001773668    1.554    0.356
         4 -12.3330    239.0688      6.3984   3.0030762847e+01   2.6056892626e+01    0.6421722    0.4600948 -31.74  0.004274072    1.630    0.387
         5 -12.2254    233.1820      5.6811   3.0286468488e+01   2.7339019763e+01    0.6284775    0.3913654 -34.15  0.003899284    1.711    0.415
         6  -9.4957     43.5079      6.5177   6.5774471983e+01   6.8929096854e+01    0.1208864    0.0949806  12.36 0.0008103197    1.017    0.016
         7 -11.5312    196.6343    204.3024   7.9542417037e+01   1.7588599658e+00    0.4957069    0.2231862  27.01  0.002001334    2.558    0.609
         8 -11.3208    139.4978    249.1491   9.8649233868e+01   2.9463703505e+00    0.4318416    0.3345312 -78.11  0.002607644    1.806    0.446
         9 -12.9448     54.2529    186.4065   1.1004684588e+02   2.8620379695e+01     1.487111      1.01913  84.31     0.007904    1.465    0.317
        10 -14.2504     41.1581    195.7025   1.1417332825e+02   2.7960925419e+01      4.92892      1.97018  71.75   0.01102979    4.322    0.769
        11 -10.9156    111.0131    203.2578   9.8517254284e+01   1.6411838086e+01    0.2714423     0.251446 -55.56 0.0007169988    1.157    0.135
        12 -10.3733    107.6045    203.8295   9.9410463948e+01   1.6835809038e+01    0.2702938    0.1783874 -76.23 0.0007711329    1.850    0.460
        13 -10.7007    192.6510    193.7775   7.8369720561e+01   4.3169846342e+00     1.018045    0.6293346 -73.92  0.002975298    6.519    0.847
        14 -11.0220    121.8261    197.6918   9.5068289192e+01   1.5846643595e+01    0.4612568    0.2910809 -76.52  0.002004739    2.251    0.556
        15  -9.7352     59.6121    197.0612   1.0997628616e+02   2.5403707329e+01    0.2224752    0.1836222  49.09  0.000302363    1.172    0.147
        16 -11.4863    131.2038    214.2951   9.5511155681e+01   1.0760787736e+01    0.4348318    0.2647553 -47.32  0.002129533    1.792    0.442
        17 -10.4977    183.9894    212.8396   8.3698812290e+01   2.3001756470e+00    0.2371143    0.1938242 -28.49 0.0009718308    1.232    0.188
        18  -8.7715     82.4248    194.7284   1.0418182529e+02   2.2801113486e+01     0.187271    0.1268673 -55.19 0.0008175776    1.530    0.347
        19  -9.9325    147.5257    187.3012   8.7129647405e+01   1.3603168899e+01    0.3787848    0.2851517 -50.91  0.001230285    1.398    0.285
        20  -9.0586     79.8626    182.8848   1.0315625256e+02   2.6002893611e+01    0.3275841    0.1972045 -83.01  0.001445272    2.001    0.500
        21 -17.0794     15.4801    242.8801   1.2288570979e+02   2.0528513129e+01     6.394094     2.295283  25.85    0.0280913    3.990    0.749
        22  -9.8081     99.3901    180.7304   9.7833228013e+01   2.3495402188e+01    0.2515346    0.2465584 -14.38 0.0005371851    1.123    0.110
        23 -10.6892    243.0779    178.6534   6.5837490015e+01  -1.1706911128e+00    0.2346144    0.1610215 -39.04  0.001330937    1.372    0.271
        24  -8.2933     89.2500    179.3585   1.0021594314e+02   2.5440112283e+01    0.1437913    0.1084182 -34.97 0.0006950444    1.606    0.377
        25 -10.8683     42.4953    177.4414   1.1194263304e+02   3.2196820208e+01     0.571425    0.3932382   5.09  0.001695707    2.157    0.536
        26 -10.1615    187.0531    175.4610   7.5890341225e+01   8.8030017752e+00     0.363623    0.3018185 -46.74  0.001213916    1.280    0.219
        27 -11.9287     54.5604    146.6980   1.0451051828e+02   3.8535393613e+01      2.20715     1.208232 -40.74  0.009531281    2.143    0.533
        28 -12.9375     69.4429    154.1297   1.0145856303e+02   3.4681163782e+01    0.6826469    0.4679305 -54.57 0.0009586263    1.387    0.279
        29  -9.1707     89.1929    211.0817   1.0472185923e+02   1.8078046898e+01     0.221915    0.1822059  85.34 0.0004833619    1.239    0.193
        30  -9.3845    231.6695    168.6855   6.5809893045e+01   2.2924932312e+00    0.1402317   0.09633754  -5.61 0.0005977381    1.678    0.404
        31  -8.7412    147.8596    174.1430   8.4501361336e+01   1.6410828937e+01    0.2170538    0.2053587  82.11 0.0003314219    1.181    0.153
        32  -8.8791    110.9891    167.9796   9.2577550946e+01   2.4604536719e+01    0.2402321    0.1817034  77.95 0.0005092021    1.644    0.392
        33  -8.3004    120.4966    165.5412   8.9626361036e+01   2.3488327497e+01    0.1504662    0.1483223  64.41 5.237609e-05    1.009    0.009
        34 -11.6358     88.5481    152.3359   9.5723714597e+01   3.2264994293e+01    0.7324392    0.4791594 -25.95  0.003066765    2.184    0.542
        35 -10.6588    133.7431    144.9082   8.1782328640e+01   2.5854407156e+01     1.217024    0.3540143 -55.78  0.002863903    5.430    0.816
        36  -8.6839    111.5016    149.8095   8.8814912911e+01   2.8942123832e+01    0.2957538    0.1680065  57.00  0.001083865    2.289    0.563
        37  -9.0487    175.1329    149.1985   7.2787521119e+01   1.6478230710e+01    0.2059464    0.1851079 -84.30 0.0004446455    1.343    0.256
        38 -10.0722     38.3589    145.9617   1.0909319581e+02   4.0550850929e+01    0.3612125    0.1523544  40.58  0.001522719    2.469    0.595
        39 -10.5530     28.6758    143.4948   1.1154176494e+02   4.2120045657e+01     0.338535    0.2166231 -39.48   0.00174252    1.785    0.440
        40 -10.4292    101.9747    138.7899   8.9110300508e+01   3.3384247274e+01    0.6388849     0.399575 -21.62   0.00239915    2.563    0.610
        41 -10.0948    105.9478    131.0450   8.6204403074e+01   3.4570245473e+01    0.4274525     0.309247 -54.19  0.001776034    1.355    0.262
        42 -11.4254     72.9265    167.5168   1.0266221335e+02   3.0801336419e+01     0.474867    0.3054749 -61.98  0.001839244    1.473    0.321
        43 -11.5825     89.7083    138.0192   9.2514947311e+01   3.5688216766e+01    0.2962936    0.2636381 -41.29 0.0003971444    1.130    0.115
        44 -11.3841     25.8456    137.0782   1.1151733311e+02   4.3996626434e+01    0.4350286    0.3393253 -76.60  0.001105485    1.108    0.098
        45 -10.9891     29.5751    128.7179   1.0920458481e+02   4.5784161499e+01    0.4518077    0.3073184 -47.41     0.002212    1.412    0.292
        46 -11.0136    240.6474    169.0712   6.4336234984e+01   7.9235501645e-01     0.267953    0.1807167 -26.62  0.000821999    1.304    0.233
        47 -10.2271    135.7670    129.8934   7.7694263350e+01   2.8939344973e+01     0.529957    0.1319622 -50.46  0.001312018    4.538    0.780
        48  -9.4707    111.4184    129.5210   8.4270678256e+01   3.3911335285e+01    0.3142233     0.263055  -9.41  0.000840095    1.405    0.288
        49 -10.2344     43.9816    129.4987   1.0484900793e+02   4.4160906652e+01    0.2403508    0.1796664  37.62 0.0008814479    1.474    0.321
        50 -10.8699     39.4812    126.2904   1.0571766056e+02   4.5450915449e+01    0.4333001    0.2251524 -69.05  0.001710497    1.773    0.436
        51  -9.2119    160.3862    128.1792   7.1164331752e+01   2.4076457524e+01    0.2342828    0.1444799 -52.85 0.0009568092    1.725    0.420
        52 -10.1733     98.7816    125.1986   8.6929476840e+01   3.7310165897e+01    0.3352609    0.2670226  -5.54  0.001575321    1.558    0.358
        53 -10.4428    118.5295    122.8617   8.0618490382e+01   3.4110004371e+01    0.5825789     0.363204   0.05  0.001880854    3.509    0.715
        54  -9.1249     87.5445    120.9572   8.9344768322e+01   4.0307550647e+01    0.3916577    0.2671562  85.58  0.001584212    2.326    0.570
        55  -9.2201    135.0000    119.9750   7.5395799435e+01   3.1367042183e+01    0.2710783   0.08929479 -45.81 0.0008073364    2.977    0.664
        56 -11.3909     33.5394    118.6941   1.0633034776e+02   4.7952726317e+01     0.361789    0.2820906 -52.67  0.001323279    1.141    0.124
        57  -9.2628    107.8884    118.4650   8.2566863115e+01   3.7241272182e+01    0.2620771    0.2052927 -31.56 0.0003304839    1.351    0.260
        58 -11.4414     68.2972    172.3398   1.0462138136e+02   3.0242588102e+01    0.4942378    0.3057443 -33.95  0.002146988    2.277    0.561
        59 -10.1745    231.2529    113.8496   5.4090937825e+01   1.2066187634e+01    0.2897177    0.2422302 -47.10   0.00080762    1.079    0.073
        60  -9.4347    134.8354    112.4064   7.3454062464e+01   3.3096603471e+01    0.3088595    0.1140389 -47.02 0.0009785355    2.709    0.631
        61  -9.4207    205.5623    110.1289   5.7452250540e+01   1.7928997992e+01    0.2611779    0.2177387  43.03  0.000773739    1.323    0.244
        62 -10.5431    115.6862    108.4828   7.7670613796e+01   3.8017450169e+01    0.4457293    0.3266809 -33.97  0.002033274    1.420    0.296
        63 -11.1153     33.7193    108.6151   1.0444704611e+02   5.0452836606e+01    0.3303566    0.2488309 -70.47  0.001472327    1.246    0.197
        64 -10.4947    244.1860    108.1565   5.0956517944e+01   1.0608219837e+01    0.1940666    0.1435686 -56.78  0.001090048    1.343    0.256
        65  -9.0100     34.6685    171.7327   1.1328852509e+02   3.4449136726e+01    0.2142417    0.1721118  57.91 0.0008598902    1.223    0.183
        66  -8.5257    137.6369    104.8239   7.0670907311e+01   3.4133635038e+01    0.2172479    0.1447784 -52.81 0.0003377103    1.588    0.370
        67 -11.1502     41.7036    104.0154   1.0074184628e+02   5.0796583574e+01    0.4222901    0.2829436  44.72  0.001461733    1.759    0.431
        68 -10.8317    241.2058    101.9876   5.0031370633e+01   1.2198417076e+01    0.2207481    0.2041706  67.39  0.001401899    1.251    0.201
        69 -10.8161     32.6483     99.3719   1.0299347444e+02   5.2818081888e+01    0.4118129    0.2142862  36.19  0.001944316    2.189    0.543
        70  -8.7672    125.4985     92.9772   7.0541097028e+01   3.9314642701e+01    0.2372905    0.1517828 -44.30   0.00101747    1.557    0.358
        71 -12.2230     81.2558    159.2451   9.9022887961e+01   3.1659816365e+01     1.295386    0.6700829  61.62 0.0005393135    2.907    0.656
        72  -9.7841     14.8295     89.4388   1.0756770592e+02   5.6591983500e+01    0.2648467     0.146759  26.00  0.001388786    2.091    0.522
        73  -9.3906    233.6142     85.8127   4.7490677837e+01   1.6353120853e+01    0.2023664    0.1062145 -46.86 0.0008347069    1.670    0.401
        74  -8.8372     74.9759     85.1396   8.4002967809e+01   5.0796756525e+01    0.2070836    0.1958105  69.76 0.0004263139    1.267    0.211
        75  -9.1107    158.8389     82.8548   5.9474555667e+01   3.3625054676e+01    0.2133162    0.1793682 -81.48 0.0005108247    1.347    0.257
        76  -9.1997    112.6363     82.3339   7.0977205182e+01   4.4267529835e+01    0.3473291    0.2492718  81.95  0.001316491    2.270    0.560
        77  -8.6075     70.0222     81.9423   8.4816356004e+01   5.2282588256e+01    0.2040004    0.1750221  75.24 0.0004572864    1.573    0.364
        78  -9.1352     54.9021     65.7496   8.5484235834e+01   5.7904913626e+01    0.2261751    0.1807287  45.25 0.0008572763    1.540    0.351
        79 -12.9701    190.1711     49.6777   4.4828736351e+01   3.1530913574e+01     1.042609    0.8154975  42.12 0.0009699016    1.514    0.340
        80 -11.6115    126.0598    243.6664   1.0074028636e+02   5.9347156616e+00    0.3354061    0.3034896  53.24  0.002226973    1.126    0.112
        81 -14.6991      9.3878    207.3461   1.2205821813e+02   2.8543783868e+01      1.14662     1.012332 -54.59  0.005270173    1.481    0.325
        82  -9.2674    187.8371     31.1306   4.0379977603e+01   3.4539247216e+01    0.1725771     0.155393  45.78 0.0005244235    1.307    0.235
        83 -10.8669     14.4526     32.2650   9.2144686458e+01   6.8681593432e+01    0.3291737    0.1308246  28.48  0.001241564    2.694    0.629
        84  -9.1156    198.2696     23.4067   3.7241214297e+01   3.3023228551e+01    0.2035314    0.1548955 -21.20 0.0006317102    1.647    0.393
        85  -8.7015    189.4936     15.0246   3.6134208357e+01   3.5992985889e+01    0.1758064    0.1204883 -37.30 0.0005366385    1.526    0.345
        86 -15.5585      3.2701    189.7643   1.2224940213e+02   3.3032598318e+01     17.21104          nan -75.14   0.03610237   11.427    0.912
        87  -7.9538    224.2674    206.6576   7.4589062705e+01  -2.9148657638e+00    0.1132747    0.1028698 -54.70 0.0002606692    1.604    0.377
