#   1 NUMBER                 Running object number                                     
#   2 MAG_AUTO               Kron-like elliptical aperture magnitude                    [mag]
#   3 X_IMAGE                Object position along x                                    [pixel]
#   4 Y_IMAGE                Object position along y                                    [pixel]
#   5 X_WORLD                Barycenter position along world x axis                     [deg]
#   6 Y_WORLD                Barycenter position along world y axis                     [deg]
#   7 A_WORLD                Profile RMS along major axis (world units)                 [deg]
#   8 B_WORLD                Profile RMS along minor axis (world units)                 [deg]
#   9 THETA_WORLD            Position angle (CCW/world-x)                               [deg]
#  10 FWHM_WORLD             FWHM assuming a gaussian core                              [deg]
#  11 ELONGATION             A_IMAGE/B_IMAGE                                           
#  12 ELLIPTICITY            1 - B_IMAGE/A_IMAGE                                       
         1 -14.5252    161.0014     56.6028   7.3851909386e+01   3.7824648151e+01     1.462792     1.281701  73.68 0.0009412367    1.054    0.051
         2 -14.7799    174.6514     41.6863   6.7610243247e+01   3.6679102205e+01     1.091723     0.996833  26.43  0.004207972    1.373    0.272
         3 -15.1506    198.3774      9.1726   5.6940339328e+01   3.5001285380e+01      2.69679    0.8990143  65.10     0.010381    2.436    0.589
         4 -10.5180     28.1603    218.0627   1.4032334891e+02   2.5200345883e+01    0.2023605    0.1813338 -81.69  0.001143717    1.281    0.220
         5 -14.0471    246.6519    241.8304   9.8247241680e+01  -1.3073532395e+01     1.444719    0.6735765 -34.23  0.007597603    2.008    0.502
         6 -11.5638    235.3787    248.1391   1.0137210725e+02  -1.2481879392e+01    0.1939543    0.1855428 -44.77  0.000645917    1.569    0.363
         7 -17.2269     68.4099    233.2698   1.3352500211e+02   1.6679354256e+01     10.92651     7.508894 -79.70   0.06095737    1.404    0.288
         8 -10.6899    185.1840    169.5918   9.6490104932e+01   1.0116845179e+01    0.3518189    0.2386275 -59.49 0.0009588893    1.693    0.409
         9 -10.5719     11.8112    205.9288   1.4264631396e+02   2.9648249993e+01    0.2941816    0.1422311  55.80   0.00156868    1.935    0.483
        10 -10.4355     17.5800    180.6143   1.3918389206e+02   3.4987494538e+01    0.1237328    0.1002792 -70.26 0.0007883435    1.176    0.150
        11 -11.3688    204.5408    175.4068   9.3685875215e+01   5.1388547348e+00    0.3709495    0.3390091 -53.68  0.001097641    1.152    0.132
        12 -11.1396    196.4857    175.6492   9.5379869293e+01   6.6260161233e+00     0.361717    0.2941806  52.97  0.001877336    1.355    0.262
        13 -10.0168    166.4709    235.5363   1.1292395089e+02   2.1769028582e-01    0.2479906    0.1357052 -49.89  0.001169582    2.049    0.512
        14 -12.1576    230.6041    167.9976   8.7187057921e+01   1.8105613739e+00    0.4176723        0.196 -50.36  0.001712518    2.259    0.557
        15 -10.5423    192.4512    164.9534   9.3958082897e+01   9.6457073582e+00    0.3016595    0.2439708 -71.56 0.0009411698    1.485    0.326
        16 -10.2951     25.5824    165.4206   1.3562770296e+02   3.7890587313e+01    0.2546644    0.1343571  22.36  0.001245462    2.466    0.594
        17 -11.8864    125.2813    162.0359   1.0902704349e+02   2.3964564438e+01    0.3300911    0.2623087 -49.03 0.0006890841    1.255    0.203
        18 -11.3197     36.6328    183.9995   1.3512769376e+02   3.2214773834e+01    0.2182642     0.178116  67.68  0.001109745    1.173    0.147
        19 -12.0941    141.5767    139.8589   9.9960796831e+01   2.5934274231e+01    0.5266531    0.2505457 -54.61  0.001874607    2.271    0.560
        20 -11.9259    155.5101    155.8446   1.0021177562e+02   1.9288618800e+01    0.5452411    0.3354192 -84.67  0.001743695    3.571    0.720
        21 -13.1720    149.9735    149.8654   1.0019981993e+02   2.1833624471e+01     0.758216    0.5121849  74.93  0.003010526    2.185    0.542
        22 -12.4040    143.7102    145.7131   1.0078856310e+02   2.4119650206e+01    0.5435146    0.3158741 -60.84  0.001721282    2.015    0.504
        23 -11.1950    129.5620    157.0723   1.0688395083e+02   2.4321470281e+01    0.2918494    0.2142657  60.07 0.0006257297    1.507    0.336
        24 -11.8061    188.7434    154.5479   9.2468042348e+01   1.2607902729e+01    0.5847085    0.4582442  55.98  0.002879601    1.384    0.277
        25  -9.6652    177.8419    156.1417   9.5166755314e+01   1.4533066116e+01    0.2013952    0.1787868 -12.57 0.0002501537    1.255    0.203
        26 -13.1866    134.0351    146.2559   1.0334809598e+02   2.6004835696e+01      1.53136    0.4103007 -55.53   0.00350846    5.588    0.821
        27 -11.3493    163.1166    151.1938   9.7383251219e+01   1.8743655525e+01    0.2957258    0.2201325  67.60 0.0007249692    1.616    0.381
        28 -11.3431    174.4276    148.7457   9.4261886127e+01   1.6879670742e+01    0.3520627    0.2927129 -80.33 0.0009362132    1.400    0.286
        29 -11.7577    134.6143    106.1155   9.3286632158e+01   3.4980646208e+01      0.69458    0.1695375 -45.25  0.001876707    4.099    0.756
        30 -13.0654    135.6393    127.3168   9.8450260008e+01   3.0088452487e+01     1.603091    0.3720307 -52.38  0.003505147    6.102    0.836
        31 -11.8804    160.8341    128.0615   9.2484615779e+01   2.4411762609e+01    0.4946016    0.3809472 -77.58  0.002130543    1.581    0.367
        32 -11.9109    118.3586    128.2459   1.0324944406e+02   3.3446634662e+01    0.3555142    0.3088054  -6.09  0.000696673    1.360    0.265
        33 -11.9822    121.7701    123.1316   1.0106595170e+02   3.3944130924e+01    0.4793949    0.3117609 -12.33  0.001732703    2.849    0.649
        34 -11.7013    107.0367    123.8092   1.0531060204e+02   3.6691797570e+01    0.3223126    0.2769648 -21.25 0.0006740073    1.298    0.229
        35 -10.7357    113.1010    117.9700   1.0215075119e+02   3.6867262312e+01    0.2485403    0.2215846  44.59 0.0003932507    1.147    0.128
        36 -11.5581    167.8181    112.7994   8.7145248129e+01   2.6093183350e+01    0.4530516    0.3267486 -81.72  0.001617286    1.843    0.458
        37 -12.0871    117.6721    109.3441   9.8648978868e+01   3.7877718150e+01    0.4001401    0.2821871  67.19  0.001751357    1.846    0.458
        38 -11.6737    130.4983    109.8485   9.5336957876e+01   3.5076644130e+01    0.3398432    0.2507375 -31.37  0.000949033    1.501    0.334
        39 -10.9109    205.4471    110.2616   7.9102542991e+01   1.8102288124e+01    0.3505529     0.249945  46.02  0.001110045    1.556    0.357
        40 -19.1413     46.7232     98.6800   1.1794553353e+02   5.1711718309e+01     16.10015    0.9834925 -56.68   0.02628221   14.729    0.932
        41 -10.0114    124.5107     92.0474   9.2080628701e+01   4.0056884436e+01     0.223701    0.1977257  47.45 0.0003797789    1.121    0.108
        42 -10.5988     74.9837     86.3085   1.0519588991e+02   5.0542295168e+01    0.1934088    0.1740082  12.84 0.0004615478    1.112    0.100
        43 -10.4156    149.0328     81.3486   8.3081771364e+01   3.6572951086e+01    0.2136331     0.184456  58.45 0.0005453598    1.120    0.107
        44 -11.4125    154.8747     79.2431   8.1220210934e+01   3.5585518631e+01    0.5894261     0.325284  85.55  0.001688295    4.935    0.797
        45 -11.0443     85.2425     78.6292   9.9613620048e+01   5.0359576399e+01    0.2497732    0.1736469  25.89  0.001216682    1.514    0.339
        46  -9.1231    119.3311     75.2709   8.8618997243e+01   4.4323752105e+01     0.145691    0.1105176  17.52 0.0003756391    1.588    0.370
        47 -10.1186    107.5360     74.4872   9.1626413893e+01   4.6921210303e+01    0.1413752    0.1351424  17.10 0.0001104638    1.011    0.011
        48 -11.1952    188.9401    176.2477   9.7087099963e+01   7.9652170714e+00    0.6329491    0.3116902 -59.50  0.002091188    3.052    0.672
        49  -9.9765    167.9339    245.7212   1.1422621250e+02  -1.8611384979e+00    0.1718184    0.1531776  33.53 0.0004572477    1.047    0.045
        50 -12.9943    178.8369     34.7486   6.5248799803e+01   3.6584318116e+01    0.3781835    0.3393149  48.71  0.001081554    1.287    0.223
        51 -10.7070     13.5034     59.6373   1.2028356969e+02   6.2750420752e+01    0.2020054    0.1566909 -33.81 0.0003755085    1.008    0.008
        52 -12.1065    187.6563     31.0864   6.3150467176e+01   3.4975715167e+01     0.257478    0.1714917  63.88 0.0007852725    1.358    0.264
        53 -11.4029    154.0763    239.3502   1.1613928499e+02   1.6122401543e+00    0.3415958    0.1919125 -51.31  0.001226876    2.006    0.502
