#   1 NUMBER                 Running object number                                     
#   2 MAG_AUTO               Kron-like elliptical aperture magnitude                    [mag]
#   3 X_IMAGE                Object position along x                                    [pixel]
#   4 Y_IMAGE                Object position along y                                    [pixel]
#   5 X_WORLD                Barycenter position along world x axis                     [deg]
#   6 Y_WORLD                Barycenter position along world y axis                     [deg]
#   7 A_WORLD                Profile RMS along major axis (world units)                 [deg]
#   8 B_WORLD                Profile RMS along minor axis (world units)                 [deg]
#   9 THETA_WORLD            Position angle (CCW/world-x)                               [deg]
#  10 FWHM_WORLD             FWHM assuming a gaussian core                              [deg]
#  11 ELONGATION             A_IMAGE/B_IMAGE                                           
#  12 ELLIPTICITY            1 - B_IMAGE/A_IMAGE                                       
         1 -10.5459    220.2223     23.7442   4.8244880949e+01   2.6248725884e+01    0.3060135    0.1640459 -32.03  0.001153582    1.624    0.384
         2  -8.9326    137.9453      4.6608   5.1390012175e+01   4.9609690740e+01    0.2363343    0.1910726   3.44 0.0005345877    1.326    0.246
         3  -8.8109    214.0000      2.9306   4.2888815466e+01   2.9720180884e+01    0.2212379   0.07194048 -20.12 0.0008008347    2.931    0.659
         4 -10.0806     62.9025    238.8248   1.2134476145e+02   2.1136079714e+01     0.236561    0.1598821  25.95  0.001455787    1.726    0.421
         5 -12.7746    197.7111    240.8025   9.8201002104e+01   3.4182016413e+00     4.042081     1.569052  19.72   0.01314875    7.491    0.867
         6 -12.6383    227.2400    197.4389   8.7209813813e+01   3.7143216695e+00     2.267134     1.220968 -27.64   0.01393319    1.953    0.488
         7 -12.2681    181.1423    240.2845   1.0083554926e+02   5.6791431119e+00     3.778291     1.694682  14.90   0.01264542    7.521    0.867
         8 -14.1716    153.5303    245.5202   1.0604687752e+02   8.8084957999e+00     5.360705     1.560596  38.13   0.02661241    2.472    0.595
         9 -11.8341    248.8339    202.1402   8.4661339934e+01   2.5636319600e-01    0.6838098    0.2836599 -11.90  0.003342164    3.202    0.688
        10 -15.7660    245.7734    130.8582   7.1820304197e+01   8.2266946976e+00     13.19689     2.516209 -30.76   0.04393068    4.385    0.772
        11 -10.7319     13.7099    239.6871   1.2988409861e+02   2.6025299163e+01    0.4946867    0.1015039  37.51  0.002680707    2.785    0.641
        12  -9.7241     36.4553    240.0291   1.2602683653e+02   2.3790658694e+01    0.2741717    0.1234865  31.60  0.001727933    2.087    0.521
        13 -10.4562     92.1995    235.6094   1.1588559775e+02   1.8112272636e+01    0.3994779    0.1969601  29.41  0.002169996    2.075    0.518
        14  -9.8921     42.9100    236.2744   1.2473613387e+02   2.3695644168e+01    0.2324412    0.1694653  34.71  0.001725283    1.417    0.294
        15 -10.2390     80.1306    235.7655   1.1807139313e+02   1.9572966876e+01     0.327228    0.1431831  40.89  0.001593437    1.637    0.389
        16  -9.2796      4.4815    235.1357   1.3131625894e+02   2.7539201105e+01    0.1662094    0.1134334  21.94  0.001138643    1.973    0.493
        17 -10.3392     57.1773    241.3915   1.2249602582e+02   2.1396519863e+01    0.3071436    0.1314649  44.59   0.00199204    1.591    0.371
        18  -9.8916    109.3391    232.8159   1.1254953979e+02   1.6308334440e+01    0.3306744    0.1267862  32.38  0.001669264    2.442    0.590
        19 -10.4691    101.6433    230.2200   1.1372170063e+02   1.7681870820e+01     0.351152    0.2098946  25.01  0.002195697    1.904    0.475
        20 -10.3329    107.3177    227.8454   1.1246524755e+02   1.7278790814e+01    0.3019623    0.1874478  13.28  0.001695534    2.718    0.632
        21  -9.6918     36.4294    230.8138   1.2563202139e+02   2.5209483085e+01    0.2617335    0.1980457   1.11  0.001891294    2.438    0.590
        22  -9.2166     85.9882    230.7307   1.1663423141e+02   1.9597595709e+01    0.2149476    0.1509775  17.59  0.001459003    1.933    0.483
        23 -10.1560     57.3343    230.5345   1.2185479223e+02   2.3016602614e+01    0.3478369    0.1917095  27.28   0.00221012    2.040    0.510
        24  -9.0450     11.2503    231.4236   1.3006892454e+02   2.7522803202e+01    0.1757384   0.08037993  30.20  0.001148201    2.152    0.535
        25 -10.1896    114.4228    228.1552   1.1118719279e+02   1.6286162275e+01    0.3208729    0.1610587  31.98  0.001878531    1.788    0.441
        26  -8.9041     46.5023    229.1944   1.2374444356e+02   2.4411702618e+01    0.2016679    0.1098098  40.20  0.001170322    1.419    0.295
        27  -9.0981     93.7302    227.6076   1.1495592005e+02   1.9084522099e+01    0.2465407    0.1460224  25.03  0.001515606    1.964    0.491
        28  -8.8108     80.2580    227.9434   1.1747680749e+02   2.0723377884e+01    0.1937122    0.1172863  30.43    0.0012743    1.634    0.388
        29  -8.5075     30.9828    228.5205   1.2650452221e+02   2.6119633683e+01     0.154042   0.07429814  39.06  0.001031562    1.592    0.372
        30  -9.6648     71.0936    226.9041   1.1909801589e+02   2.1989972913e+01     0.299573    0.1261856  35.17  0.001710779    1.966    0.491
        31  -9.4965     20.3348    227.1369   1.2834618588e+02   2.7369646949e+01    0.1616828    0.1275727  14.01  0.001290493    1.927    0.481
        32  -9.1116      3.2948    227.1377   1.3132900978e+02   2.8897203284e+01    0.1675314    0.1044534  21.50  0.001228101    2.139    0.533
        33  -9.9055    206.1943    223.5732   9.4553633641e+01   3.9928573817e+00    0.3016435    0.1902564   6.71  0.001334947    1.624    0.384
        34 -10.2149    130.3757    223.1989   1.0774398290e+02   1.4785599420e+01    0.3387515    0.1602484  32.10  0.001358456    1.887    0.470
        35  -9.3573    135.9214    222.6560   1.0666453782e+02   1.4079086312e+01    0.2080745    0.1440492  25.56  0.001405696    1.395    0.283
        36 -10.5823    122.5324    223.6594   1.0924170621e+02   1.5813557110e+01    0.3294492    0.2127374  17.31  0.002018102    2.024    0.506
        37  -8.6999    104.7832    223.3997   1.1252343082e+02   1.8263380411e+01    0.1599175   0.08747841  31.34 0.0008146164    1.701    0.412
        38  -9.1915    180.5685    221.1538   9.8515385370e+01   7.8662934024e+00    0.2338911    0.1504588  17.53  0.001118015    1.526    0.345
        39  -9.3802    186.0615    219.7238   9.7380325503e+01   7.2421635073e+00     0.249907     0.179406   8.11  0.001203913    1.398    0.285
        40 -12.7528    210.5174    246.3352   9.6873181781e+01   1.2415737150e+00     2.190011     0.892592  25.15   0.01230071    2.342    0.573
        41  -8.7905     51.3076    222.1158   1.2247187047e+02   2.5018141151e+01    0.1836987    0.1209677  35.69  0.001322127    1.411    0.291
        42  -8.0818     75.8101    221.6292   1.1783307628e+02   2.2245099715e+01    0.1649476   0.07087135  44.66 0.0009472084    1.708    0.414
        43  -9.0635    141.2982    220.1179   1.0538713112e+02   1.3657163916e+01    0.2016512    0.1268944  30.67  0.001093198    1.366    0.268
        44  -8.4484     61.0487    220.4708   1.2054128774e+02   2.4184966253e+01    0.1664453   0.08286853  38.26  0.001032407    1.594    0.373
        45  -8.7775     41.3360    220.1172   1.2422174739e+02   2.6418347147e+01    0.1764505    0.1238456  35.36 0.0009884369    1.408    0.290
        46  -9.9607    202.6004    216.5860   9.4155921384e+01   5.2257866992e+00     0.354738    0.2340136  -6.35  0.001813459    1.652    0.395
        47  -8.4788    204.6688    211.6871   9.3099329440e+01   5.4578136141e+00    0.1555936   0.09686265  -3.92 0.0007019167    1.828    0.453
        48  -8.3709    154.4899    218.4708   1.0278088000e+02   1.1969727070e+01    0.1613192    0.1038608 -26.96 0.0006357075    2.112    0.526
        49  -9.2414    129.2697    218.8125   1.0746697977e+02   1.5553604243e+01    0.2107945     0.129521  19.63  0.001224153    2.043    0.511
        50  -9.9247    193.9659    216.0462   9.5525382091e+01   6.5197669366e+00    0.3407833     0.201548  13.31  0.001759579    1.863    0.463
        51  -8.7449    159.3587    217.4270   1.0176923102e+02   1.1394664081e+01    0.2448454    0.1494696  15.79  0.001255507    2.014    0.504
        52  -8.7318    136.4897    217.8223   1.0600871834e+02   1.4661406186e+01    0.2312432     0.124182  27.25  0.001291219    1.917    0.478
        53  -7.8800    104.3283    218.2942   1.1212431740e+02   1.9088417315e+01    0.1036108   0.08068953  15.16 0.0005992238    1.628    0.386
        54  -8.8486    180.0508    215.2504   9.7806489320e+01   8.6330802781e+00    0.2573631     0.135558  24.04  0.001147221    1.917    0.478
        55  -9.1246    171.1180    214.5364   9.9283491987e+01   1.0032328578e+01    0.2579182    0.1700608   0.66  0.001580346    1.981    0.495
        56  -8.4907    165.3147    214.5584   1.0032419867e+02   1.0885603357e+01    0.1813526    0.1273922  -6.60  0.001167435    1.822    0.451
        57  -9.2123    144.0861    214.0601   1.0414637468e+02   1.4078833507e+01     0.236347    0.1515769  10.42   0.00134358    2.241    0.554
        58  -8.4439    185.8794    213.8918   9.6604942546e+01   7.9399174624e+00    0.1741387     0.122044  16.29 0.0009033733    1.316    0.240
        59  -9.1812    132.9872    213.0064   1.0610342902e+02   1.5846961521e+01     0.179158    0.1263631  15.47  0.001130789    1.714    0.416
        60  -7.9837    189.6450    212.7123   9.5788687061e+01   7.5255594442e+00    0.1180278   0.07165512  17.16 0.0007024201    1.674    0.403
        61  -8.6305    155.0006    211.9879   1.0186379268e+02   1.2748332367e+01    0.1829385    0.1235597  14.27  0.001129187    1.720    0.419
        62  -8.3792    200.2306    209.5097   9.3520093771e+01   6.3408970726e+00    0.1721586    0.1207983   9.02 0.0006683911    1.347    0.258
        63  -8.9071    186.8662    209.3328   9.5784049787e+01   8.3309698372e+00    0.2060156    0.1334717  -1.62  0.001260757    1.879    0.468
        64  -8.7743    177.3010    208.6460   9.7369115507e+01   9.8429189235e+00    0.2566909    0.1686747   6.98  0.001566674    1.811    0.448
        65 -13.4608    237.2228    222.9148   8.9593689449e+01  -9.6430347740e-02     2.362515    0.7946251 -20.42   0.01101912    4.164    0.760
        66  -8.7371    193.1918    208.1499   9.4517312163e+01   7.5311692161e+00    0.2327648     0.156541  14.37  0.001026061    1.420    0.296
        67  -8.5749    161.5040    208.4997   1.0020521786e+02   1.2238996440e+01    0.2040696    0.1382206  12.93 0.0008203098    1.700    0.412
        68 -13.5063    245.0480    191.4823   8.3469086100e+01   1.7847168883e+00     2.575704    0.9541557 -13.98   0.01008452    4.690    0.787
        69  -9.2630    206.4470    206.0812   9.1961829848e+01   5.8126975041e+00    0.2851664      0.18907  -3.37  0.001235845    1.587    0.370
        70  -8.0769    206.2482    201.4015   9.1273012834e+01   6.3634309408e+00    0.1527411   0.08968985  25.22 0.0005138668    1.458    0.314
        71  -8.3994    146.3595    207.3201   1.0287042843e+02   1.4680265409e+01    0.1187443   0.08158245  13.61 0.0007043692    1.767    0.434
        72  -7.6325    171.3509    206.3278   9.8108710267e+01   1.1033352981e+01    0.1213493   0.07824301  13.98  0.000704815    1.764    0.433
        73  -8.0522    183.4642    205.4943   9.5822014459e+01   9.3035261605e+00    0.1198116   0.08941669  21.24 8.813124e-05    1.134    0.118
        74  -7.8917    156.5289    204.9694   1.0064687421e+02   1.3468583163e+01    0.1494528   0.09548395 -11.39 0.0008088162    2.451    0.592
        75  -9.0070    197.9671    201.8180   9.2743497822e+01   7.5549934150e+00    0.2557847    0.1616351  -8.25  0.001517951    1.851    0.460
        76  -8.3968    186.7144    201.8598   9.4708258258e+01   9.2558870338e+00    0.1776645    0.1296664  -1.19 0.0007683642    1.462    0.316
        77  -8.0563    179.4941    202.0115   9.6015810676e+01   1.0341684685e+01    0.1542683   0.09266026  -6.84 0.0008096739    2.467    0.595
        78  -7.6232    173.3121    202.3274   9.7178839361e+01   1.1250569588e+01    0.1193638   0.07966781  12.71 0.0004116281    1.665    0.400
        79  -9.1589    210.2519    199.2867   9.0270456297e+01   6.0048751629e+00    0.2811483    0.1680183 -27.08  0.001761375    1.819    0.450
        80  -8.2743    193.1496    200.8202   9.3422600592e+01   8.4018159109e+00    0.1591641    0.1138212  10.21 0.0006731075    1.347    0.257
        81  -8.6337    202.3417    195.5149   9.1004482446e+01   7.6298009240e+00    0.2672462    0.1687267  -0.82  0.001584814    1.813    0.448
        82  -7.7304    191.2806    196.3615   9.3058723867e+01   9.2302702156e+00    0.1203701    0.0786174   9.13 0.0004222755    1.673    0.402
        83  -8.8658    209.5908    193.1193   8.9387503582e+01   6.8021795740e+00      0.28854    0.1623849 -15.52  0.001448853    2.058    0.514
        84  -8.5883    210.4375    187.9953   8.8395702454e+01   7.2652992000e+00    0.1650537    0.1072681 -22.42  0.001024046    1.604    0.377
        85  -7.7052    194.0000    193.9734   9.2203422900e+01   9.1019980265e+00    0.1688255   0.06593183 -36.16 0.0006913405    2.928    0.658
        86  -8.2953    205.3511    189.7201   8.9546310428e+01   7.8506482532e+00    0.1520578   0.09962279 -14.12 0.0007265281    1.626    0.385
        87  -8.6498    198.9301    189.4073   9.0602015086e+01   8.8912383024e+00    0.2347625    0.1424552  -8.55  0.001307901    2.021    0.505
        88  -9.4859    211.0328    181.0885   8.7114645202e+01   7.9878520049e+00    0.3170511    0.1760486 -19.47    0.0014089    1.984    0.496
        89  -8.8948    210.3256    174.4664   8.6064325321e+01   8.9037036434e+00    0.2920084    0.1472228 -34.94  0.001291257    2.151    0.535
        90  -8.8633    203.3819    182.4666   8.8662460382e+01   9.0383056808e+00    0.2553425    0.1370283 -26.89  0.001395063    2.028    0.507
        91  -8.1331    183.5252    181.9723   9.2124359856e+01   1.2326226172e+01    0.1707381    0.1188638 -30.61  0.001033197    1.597    0.374
        92  -8.2520    190.6914    178.5110   9.0228292955e+01   1.1608428205e+01    0.1959929    0.1098772 -34.07  0.001062959    1.969    0.492
        93  -8.4575    147.7843    176.8666   9.8220341029e+01   1.9035974806e+01    0.1717397    0.1334937  52.21 0.0006481581    1.303    0.233
        94  -9.0226    215.3529    174.2719   8.5180048441e+01   8.1149980762e+00    0.4108469     0.143823 -27.18   0.00172993    3.314    0.698
        95  -8.5963    205.3047    175.5876   8.7127356533e+01   9.5824202651e+00    0.2226765    0.1410203 -23.22 0.0009113267    1.648    0.393
        96  -8.4636    196.5693    175.5233   8.8650890760e+01   1.1028560592e+01    0.3691147    0.1753082  50.82  0.001700316    2.569    0.611
        97  -8.2556    192.5545    172.4981   8.8834917586e+01   1.2100540409e+01     0.172086    0.1118224 -18.92 0.0009637521    1.701    0.412
        98  -8.8771    205.2099    168.7589   8.5907386890e+01   1.0464209447e+01      0.24931    0.1686887 -35.22  0.001474485    1.652    0.395
        99  -8.7821    199.4306    164.2972   8.6095806103e+01   1.2030013188e+01    0.2703792    0.1184802 -35.59  0.001262568    2.426    0.588
       100  -8.9630    191.6976    164.5558   8.7541539547e+01   1.3331902178e+01     0.229001     0.166974 -25.00  0.001244928    1.433    0.302
       101  -7.9333    184.4713    165.5164   8.9058810354e+01   1.4455444401e+01    0.1288657     0.110064  21.63 7.131367e-05    1.010    0.009
       102  -9.1950    205.0344    160.9521   8.4471797163e+01   1.1509378828e+01    0.2895767    0.2007517 -32.23  0.001703442    1.536    0.349
       103  -8.1236    176.4981    158.9978   8.9364343349e+01   1.6827066593e+01    0.1882259    0.1279436 -35.33  0.001034217    1.594    0.373
       104 -14.5343    247.3816     74.5038   5.8690203125e+01   1.4609849694e+01     7.208378    0.7593541 -26.55   0.01637346    7.799    0.872
       105  -8.6892    196.9708    156.4882   8.5042608022e+01   1.3524279190e+01    0.2497767    0.1662344 -12.39  0.001356147    1.656    0.396
       106  -8.6912    187.5395    155.2036   8.6527542442e+01   1.5397821893e+01    0.2901235    0.1259465 -32.36   0.00126327    2.526    0.604
       107  -8.9981    205.9548    153.4850   8.2854421938e+01   1.2341095056e+01    0.2443204    0.1619428  -9.02 0.0009898429    1.624    0.384
       108  -8.4988    202.4434    150.5666   8.2888535726e+01   1.3363243849e+01    0.2178625    0.1167842 -19.63 0.0007446743    2.182    0.542
       109  -8.5638    196.5841    149.6481   8.3754210734e+01   1.4552516672e+01     0.234026    0.1223725 -27.67 0.0009536699    2.038    0.509
       110  -7.9700    191.0000    147.9734   8.4439959666e+01   1.5818767442e+01    0.2060799   0.07346486 -35.69 0.0008001347    2.927    0.658
       111  -8.6102    200.2374    144.8078   8.2105227571e+01   1.4566029859e+01     0.229979    0.1561001 -32.18  0.001180851    1.510    0.338
       112  -8.7471    176.2938    145.0538   8.6658521000e+01   1.9017128526e+01    0.2126292     0.104519 -17.40  0.000703096    4.182    0.761
       113  -8.4623    194.4748    142.9816   8.2769171117e+01   1.5898807615e+01    0.1958134     0.126531 -30.68  0.001026737    1.575    0.365
       114  -8.7305    181.4687    140.9756   8.4800003848e+01   1.8667611170e+01    0.2005662    0.1310861 -34.92 0.0009329029    1.594    0.373
       115  -9.4995    198.8036    136.5395   8.0614784856e+01   1.6013586318e+01    0.3406755    0.1807291 -26.63  0.001381187    1.970    0.492
       116  -8.6426    192.6134    136.2199   8.1674751795e+01   1.7246532913e+01    0.1885165    0.1224994 -19.65 0.0009467433    1.651    0.394
       117 -13.6328    247.8399    228.5923   8.8841684927e+01  -1.9214737400e+00     1.609652    0.4665904 -27.07  0.008343699    3.711    0.731
       118  -8.3404    187.4714    134.9376   8.2358174174e+01   1.8436160998e+01    0.2006003    0.1307522 -32.28 0.0007083222    1.562    0.360
       119  -8.6225    179.5202    131.4569   8.3124916988e+01   2.0544869765e+01    0.2468631    0.1301873 -23.79  0.001034003    2.347    0.574
       120  -9.9368    205.7021    129.2431   7.7796471326e+01   1.5732903776e+01    0.4811436    0.2038441 -34.66  0.002054201    2.315    0.568
       121  -9.5178    203.0723    121.4867   7.6497340574e+01   1.7357062135e+01    0.3996118    0.1736132 -35.68  0.001684494    2.252    0.556
       122  -8.5537    192.4181    128.6411   8.0040919359e+01   1.8419146589e+01    0.2518066    0.1260321 -37.89  0.001118547    2.042    0.510
       123  -8.8720    199.8106    125.8260   7.8064635032e+01   1.7373997576e+01    0.1769448    0.1586284 -42.28 0.0006797419    1.304    0.233
       124  -8.5214    180.0423    122.9744   8.1100336021e+01   2.1797093706e+01    0.2339624    0.1655162   8.22  0.001135354    1.721    0.419
       125  -8.0187    188.2869    122.3669   7.9378888078e+01   2.0207327929e+01    0.1464904    0.1027695   6.97 0.0007021604    1.700    0.412
       126  -8.2844    194.5388    120.2178   7.7722838078e+01   1.9262627958e+01    0.1970233    0.1281122 -16.88 0.0009173445    1.672    0.402
       127 -12.5008    247.8559    215.1385   8.6845343012e+01  -7.8187732104e-01    0.4971998    0.2917593 -11.30  0.001952857    1.600    0.375
       128 -10.0610     73.7943    250.2595   1.2013638033e+02   1.8261059631e+01    0.3925234    0.1342649  35.41  0.001986036    2.271    0.560
       129  -8.1687    194.6191    112.2539   7.5814327250e+01   2.0448252870e+01    0.1996239    0.1281461 -19.47 0.0009465973    1.648    0.393
       130 -10.1337    213.0146    110.6775   7.2283615732e+01   1.6893936036e+01     0.376897     0.262791  56.66  0.001975402    1.666    0.400
       131  -9.1024    218.5216    108.9492   7.0991263210e+01   1.6025377560e+01    0.2472521    0.2001085  -8.30  0.000691278    1.137    0.121
       132  -9.1242    215.5271    107.4939   7.1117549429e+01   1.6825735794e+01    0.2269897    0.1692812  33.30  0.001243268    1.339    0.253
       133  -8.8344    159.1735    108.8819   8.1992566257e+01   2.8588105224e+01    0.2046559    0.1965754 -62.73            0    1.150    0.130
       134  -8.9180     76.0251    246.4753   1.1951702588e+02   1.8528054237e+01    0.2049965   0.08017326  33.35  0.001157737    2.213    0.548
       135  -8.2319    205.5803    104.2241   7.1944802079e+01   1.9335462089e+01    0.1951102    0.1271755 -16.09 0.0008115548    1.595    0.373
       136 -10.9710     82.6398    243.9544   1.1819814142e+02   1.8099993830e+01    0.5119735    0.1974619  30.75  0.002676337    2.656    0.624
       137 -10.6914     63.4948    248.7525   1.2180891806e+02   1.9636812305e+01    0.4404836    0.2119332  36.12  0.002862525    1.643    0.391
       138 -10.4054     49.9577    249.9721   1.2416894448e+02   2.0935201982e+01    0.5554366     0.126468  35.52  0.002731616    3.130    0.681
       139  -8.5752    211.4177     75.3551   6.3575452162e+01   2.2104258678e+01    0.2729164    0.1330893 -22.32  0.001120824    2.070    0.517
       140  -7.8364    206.2826     73.3655   6.3796352949e+01   2.3536884255e+01    0.1493762    0.1056625  12.45 0.0007016751    1.687    0.407
       141  -9.0495      3.6346    250.4187   1.3179035248e+02   2.5325419967e+01    0.2973421    0.1091208  33.23  0.001954438    2.263    0.558
       142  -9.8517    118.0059     65.7400   7.9481559704e+01   4.5923163428e+01    0.2599071    0.2150214 -38.60 0.0002508722    1.190    0.160
       143 -10.5413     17.6710    248.7897   1.2948743837e+02   2.4308908478e+01    0.5990551    0.1236362  33.17  0.002951941    3.665    0.727
       144 -10.0012     10.2645    248.5511   1.3068474859e+02   2.5015719641e+01     0.404111    0.1052339  36.10  0.002373895    2.552    0.608
       145 -10.5967     52.6107    240.5580   1.2324895942e+02   2.2018522784e+01    0.3342493    0.1977126  53.18  0.002016679    1.217    0.178
       146  -8.0682    217.2435     57.3874   5.7908146050e+01   2.3111392425e+01    0.1430514    0.1019191   8.74 0.0006936108    1.655    0.396
       147  -9.3495      2.5090    241.9872   1.3179578042e+02   2.6665438589e+01    0.1942424   0.07568915  47.34  0.001373739    1.591    0.371
       148 -10.9000     70.4432    239.8837   1.2007592203e+02   2.0117529801e+01    0.3775164    0.1862964  34.52  0.001932205    1.709    0.415
       149 -10.4775     26.9360    239.5332   1.2764051894e+02   2.4808276367e+01    0.3565267    0.2295967  25.05  0.002274214    1.915    0.478
       150 -10.8601     33.9035    247.7035   1.2676781619e+02   2.2910718930e+01    0.4461322    0.2028235  38.86  0.003121095    1.611    0.379
       151 -10.5023     42.9412    244.5441   1.2511000696e+02   2.2455025575e+01    0.3729016    0.1679049  32.62  0.002400053    1.999    0.500
