#   1 NUMBER                 Running object number                                     
#   2 MAG_AUTO               Kron-like elliptical aperture magnitude                    [mag]
#   3 X_IMAGE                Object position along x                                    [pixel]
#   4 Y_IMAGE                Object position along y                                    [pixel]
#   5 X_WORLD                Barycenter position along world x axis                     [deg]
#   6 Y_WORLD                Barycenter position along world y axis                     [deg]
#   7 A_WORLD                Profile RMS along major axis (world units)                 [deg]
#   8 B_WORLD                Profile RMS along minor axis (world units)                 [deg]
#   9 THETA_WORLD            Position angle (CCW/world-x)                               [deg]
#  10 FWHM_WORLD             FWHM assuming a gaussian core                              [deg]
#  11 ELONGATION             A_IMAGE/B_IMAGE                                           
#  12 ELLIPTICITY            1 - B_IMAGE/A_IMAGE                                       
         1 -13.4369    195.2134     29.3004   6.7537604117e+01   3.2699250696e+01     1.347069     1.226499 -41.97  0.007195645    1.130    0.115
         2 -13.6448    209.8887     10.9414   6.0994717123e+01   3.1148524225e+01     1.198645    0.9469262  32.32  0.006944603    1.617    0.382
         3 -12.0324      2.1028     11.7732   1.1826025334e+02   7.2495618664e+01     1.139238     0.128961 -52.03  0.003363279    7.212    0.861
         4 -11.0226    237.9029    247.8724   1.0947341004e+02  -8.9235556604e+00    0.1829808    0.1217136  13.92 0.0009075558    1.264    0.209
         5 -11.3809    249.1434    249.1232   1.0782491960e+02  -1.0576857540e+01    0.4391613    0.2074126  31.30  0.002621225    1.720    0.419
         6 -11.1111     98.8111    249.0254   1.3424315867e+02   1.1868399402e+01    0.3550526    0.1798936  46.79  0.002073824    1.540    0.350
         7  -9.7595     66.8425    250.1243   1.3991203834e+02   1.6045462042e+01    0.1685506    0.1107136  63.25 0.0002581089    1.193    0.162
         8 -12.8291     33.5579    246.9447   1.4527056786e+02   2.0605968446e+01    0.7750647    0.6601287  16.07  0.005998924    2.063    0.515
         9 -13.6690      8.7153    207.5528   1.4732563705e+02   3.0469120571e+01     1.012026    0.7281678 -86.75  0.004815843    1.208    0.172
        10 -15.4571     10.5056    157.7951   1.4358661506e+02   4.0757822187e+01     10.22825     4.018157  70.16   0.04491459    3.114    0.679
        11 -12.7607     35.5514    231.2492   1.4399759647e+02   2.3178073368e+01     0.280025    0.2382976 -89.24 0.0007665065    1.326    0.246
        12 -11.0980    128.5038    244.4774   1.2840771939e+02   8.1766463347e+00    0.2075779     0.137333  38.79  0.001292179    1.307    0.235
        13 -10.4084    185.7371    238.6199   1.1715036310e+02  -7.9246850441e-03     0.178005    0.1538893 -82.42 0.0007495317    1.757    0.431
        14 -10.4043    234.0112    237.3241   1.0846979267e+02  -7.1985331382e+00    0.1916247    0.1465869 -58.84  0.001159731    2.661    0.624
        15 -10.6831    124.7118    249.9999   1.2970775532e+02   7.8952444817e+00    0.3732157   0.07905223  42.82  0.001395367    3.541    0.718
        16  -9.8178    228.7673    228.2639   1.0789347464e+02  -5.3475026690e+00    0.2363226    0.1529059 -47.62  0.001159891    2.340    0.573
        17 -10.3801    149.0167    229.5040   1.2270429329e+02   7.2949711987e+00    0.2023209    0.1044456  40.95  0.001042457    1.619    0.382
        18  -9.8098     60.4681    227.4467   1.3927117370e+02   2.0885029899e+01    0.2615473     0.120681  67.02  0.001191236    2.300    0.565
        19 -10.9584    106.2315    246.7339   1.3269460028e+02   1.1166277895e+01    0.2101602    0.1155594  45.85 0.0008817876    1.437    0.304
        20  -8.9988    152.6850    212.9581   1.1962003392e+02   9.4214187209e+00     0.163893    0.1571755  50.58 0.0003179786    1.110    0.099
        21  -9.4895     25.6275    203.2099   1.4393327061e+02   2.9667956633e+01    0.2461149    0.1006323  53.49  0.001322545    2.082    0.520
        22 -11.5980     62.0600    197.5715   1.3622625051e+02   2.6569797427e+01    0.2896109     0.231017 -50.47  0.001063532    1.614    0.380
        23  -9.8873    192.4962    193.9832   1.0856587987e+02   5.5465981835e+00    0.2596773    0.1212967 -53.97 0.0009866479    3.488    0.713
        24  -9.6825     49.6319    196.8654   1.3870165999e+02   2.8276876923e+01    0.2820929    0.2110865 -30.03 0.0009382622    2.349    0.574
        25 -14.0048     41.5546    223.2051   1.4239303169e+02   2.3992076738e+01    0.7893482    0.6420817  67.22  0.002428935    1.146    0.127
        26 -11.8643     68.0176    189.4847   1.3410177400e+02   2.7482548577e+01    0.2611964    0.2254805 -71.49 0.0004586178    1.238    0.192
        27 -10.9064     77.9284    176.9070   1.3036160223e+02   2.8827927864e+01    0.2362175    0.2148252 -81.78 0.0003460303    1.131    0.116
        28 -13.1859     64.8560    174.8930   1.3306635222e+02   3.1085161680e+01    0.4818214    0.2754186 -46.31  0.001470993    2.238    0.553
        29  -9.8243     97.9398    174.4473   1.2543421115e+02   2.6312585708e+01    0.3032585    0.1864987 -70.33 0.0009601035    1.735    0.423
        30 -11.8572     85.4978    167.6575   1.2729668735e+02   2.9766714702e+01    0.6195588    0.5531017  69.99  0.003802971    1.054    0.051
        31 -10.0084     98.2780    151.6744   1.2154947266e+02   3.1362342675e+01    0.2543155    0.2442374 -49.62 0.0006790044    1.157    0.136
        32  -9.1920    101.1588    147.7825   1.2010834473e+02   3.1768187348e+01     0.213383    0.1714715 -25.06 0.0003446564    1.621    0.383
        33 -12.0872     86.7227    151.0024   1.2431729408e+02   3.3379666761e+01    0.2819635    0.2418257 -47.80  0.000549545    1.271    0.213
        34 -12.4417     67.5422    143.9019   1.2801523741e+02   3.7836914259e+01    0.7345147    0.4844401  71.13  0.003636607    1.739    0.425
        35 -11.5617     58.5178    134.5178   1.2885752864e+02   4.1233211014e+01     0.678481    0.2835729 -78.83  0.002241845    3.985    0.749
        36 -10.0931    198.5181    246.4918   1.1600614799e+02  -3.0242885874e+00    0.1181142   0.09260845  27.17 0.0008103579    1.004    0.004
        37  -9.8097    109.7372    136.9296   1.1575507627e+02   3.2743939157e+01    0.3712287    0.2360171 -28.77     0.001468    2.291    0.563
        38 -10.5277     96.9030    134.2709   1.1854173578e+02   3.5613436646e+01    0.2491878    0.2076459 -41.27 0.0005146175    1.283    0.221
        39  -9.1987    106.9050    123.7306   1.1358838551e+02   3.6282462084e+01    0.1930176    0.1823244  60.89 0.0003432445    1.084    0.077
        40  -8.4390    192.2893    144.2813   9.8402628088e+01   1.4330084777e+01    0.1452532    0.1127442   6.57  0.000183069    1.526    0.345
        41 -10.1520    167.8714    112.9370   9.5896354196e+01   2.5762780159e+01    0.3373209    0.2711098 -69.55 0.0009159163    1.485    0.327
        42  -9.2593    203.5751    111.2304   8.8282574203e+01   1.7917917379e+01    0.2107635    0.1405868 -24.07 0.0009401735    1.629    0.386
        43  -8.6740     43.4459     67.5392   1.1910813127e+02   5.8369578348e+01    0.1282268    0.1111634 -48.28  0.000544558    1.080    0.074
        44  -9.7557     35.2431     63.7186   1.2110647522e+02   6.0028987686e+01    0.2481244    0.1759913  50.32 0.0009393652    1.907    0.476
        45  -9.5661     23.3987     58.6002   1.2429456603e+02   6.2161513728e+01    0.2177446   0.08488602  39.78  0.000955601    3.457    0.711
        46  -9.7718     16.8371     56.0915   1.2624492300e+02   6.3184500921e+01    0.1690606    0.1472723 -64.47 0.0004310578    1.231    0.187
        47 -11.4383    139.9810    249.5985   1.2691062833e+02   5.6250333340e+00    0.4872228    0.1080002  43.12  0.001829039    3.471    0.712
        48 -13.6608      8.8244    244.6526   1.4911182955e+02   2.3608998121e+01     1.675488     1.032019  81.09   0.01297291    1.242    0.195
