#   1 NUMBER                 Running object number                                     
#   2 MAG_AUTO               Kron-like elliptical aperture magnitude                    [mag]
#   3 X_IMAGE                Object position along x                                    [pixel]
#   4 Y_IMAGE                Object position along y                                    [pixel]
#   5 X_WORLD                Barycenter position along world x axis                     [deg]
#   6 Y_WORLD                Barycenter position along world y axis                     [deg]
#   7 A_WORLD                Profile RMS along major axis (world units)                 [deg]
#   8 B_WORLD                Profile RMS along minor axis (world units)                 [deg]
#   9 THETA_WORLD            Position angle (CCW/world-x)                               [deg]
#  10 FWHM_WORLD             FWHM assuming a gaussian core                              [deg]
#  11 ELONGATION             A_IMAGE/B_IMAGE                                           
#  12 ELLIPTICITY            1 - B_IMAGE/A_IMAGE                                       
         1 -13.5283     66.0678    142.4594   1.3256806804e+02   3.8298721273e+01     2.616407     1.192137 -87.30  0.003199033    5.500    0.818
         2 -14.3823    197.3316     14.1991   6.8100901892e+01   3.3443868276e+01     2.805541     1.739394  24.95   0.01079781    2.168    0.539
         3 -13.4853    202.4531      7.7673   6.5709349538e+01   3.2782838702e+01     1.396074    0.6139601  51.84    0.0015006    2.268    0.559
         4 -15.2235     55.6006    218.9841   1.4322219222e+02   2.4191477095e+01     5.116114     1.115007  44.16   0.01888929    3.352    0.702
         5 -11.6015    140.5331    250.0694   1.3167970622e+02   7.2491403550e+00     0.540695    0.1129239  42.39  0.002059242    3.751    0.733
         6 -12.0244    126.0008    248.6728   1.3395741610e+02   9.6405254868e+00    0.5365438    0.3136519  22.71  0.002744311    3.168    0.684
         7 -10.8661    109.6452    250.0293   1.3680091314e+02   1.1844722121e+01    0.2029471    0.1561417  45.49  0.001179753    1.213    0.175
         8 -11.5972     98.3487    250.1249   1.3865778979e+02   1.3431310490e+01    0.3320458    0.2142368  65.85  0.001931646    1.376    0.273
         9 -11.4138    102.0355    247.4169   1.3781194782e+02   1.3318994849e+01    0.2741849     0.214474  86.23  0.001236176    1.323    0.244
        10 -10.2811     74.0236    250.0500   1.4255993474e+02   1.6710916696e+01     0.164553    0.1173717  62.11 0.0006680704    1.021    0.021
        11 -10.9444     66.5321    242.9871   1.4323224389e+02   1.8777281374e+01    0.2095394    0.1610197 -85.48 0.0005090656    1.332    0.249
        12 -11.1863     67.4688    249.6445   1.4356457431e+02   1.7608945080e+01    0.2611683    0.1952531 -82.33  0.001317814    1.408    0.290
        13 -10.0221     63.1060    250.5477   1.4430993488e+02   1.8013121412e+01    0.1919233   0.07112847  46.62 0.0007385545    2.020    0.505
        14 -14.7609      5.6438     15.9510   1.2231317478e+02   7.0685574501e+01     19.03598          nan -52.67   0.03042695   23.282    0.957
        15 -14.6084     32.4453    245.7864   1.4871614038e+02   2.2331024041e+01     7.067407     1.640461  34.15   0.01531137   11.565    0.914
        16 -15.6677      7.7485    239.2353   1.5206774188e+02   2.5914400189e+01     8.209577    0.8822423 -71.18   0.03411204    6.021    0.834
        17  -9.9868    186.1592    239.1566   1.2259243702e+02   1.4882854614e+00    0.1497872    0.1241968  53.42 0.0004825861    1.323    0.244
        18 -10.7614     35.1389    230.0643   1.4739820472e+02   2.4632962108e+01     0.238111    0.1437478  63.51 0.0006912346    1.244    0.196
        19 -10.4680     37.1790    226.1971   1.4682732918e+02   2.5071024981e+01    0.2186689    0.1244188 -81.77 0.0009570237    1.592    0.372
        20  -9.9208    229.1467    229.0383   1.1383020922e+02  -4.1679200277e+00    0.2268137    0.1496582 -54.81  0.001233879    3.106    0.678
        21 -11.6369     81.3332    248.2727   1.4125686010e+02   1.6029217085e+01    0.3377527    0.2160133  68.57  0.001422089    1.343    0.255
        22 -10.6769    174.0629    222.0385   1.2227125596e+02   5.7502186998e+00    0.1925234    0.1607655  43.35 0.0008852115    1.073    0.068
        23 -10.5666    139.5011    245.0355   1.3129360093e+02   8.1033516047e+00    0.1422341    0.1132726 -57.32 0.0009168679    1.588    0.370
        24  -8.9907    152.7184    212.9474   1.2484822603e+02   1.0735664125e+01    0.1581837    0.1445057  50.73 0.0003381941    1.088    0.081
        25 -11.7513     83.1413    244.0363   1.4062120051e+02   1.6447197238e+01    0.4465367    0.2190226  69.98  0.002516739    2.327    0.570
        26 -10.3655    193.0689    194.9362   1.1441666877e+02   6.3500161938e+00    0.5783688    0.2882663 -59.72  0.001883678    5.820    0.828
        27 -11.6129     70.9932    196.9791   1.3841661531e+02   2.6296481004e+01    0.3275951    0.2487218 -45.69  0.001693879    1.843    0.457
        28  -9.8318     66.4898    195.5753   1.3913588448e+02   2.7159825178e+01    0.2084634    0.1431269  56.01 0.0005508916    1.270    0.212
        29 -11.6754     75.9132    189.4745   1.3664005014e+02   2.7088053828e+01    0.2473995     0.212285 -60.84 0.0006881976    1.372    0.271
        30 -11.0951     84.3983    177.1582   1.3339970387e+02   2.8352608979e+01      0.22828    0.2003195 -82.06 0.0004431713    1.119    0.106
        31 -13.3673     72.0762    174.8476   1.3568840115e+02   3.0556536750e+01    0.4412173    0.2638038 -44.98  0.001626088    2.254    0.556
        32 -12.9932     47.4775    230.8199   1.4545413418e+02   2.3105711299e+01    0.3813495    0.2957731  77.53 0.0009527894    1.121    0.108
        33 -12.4869     50.5366    129.8797   1.3444344411e+02   4.3006059496e+01    0.5252918    0.2774805  37.27  0.002269643    2.090    0.522
        34 -10.6681    249.1740    249.0623   1.1372010940e+02  -9.1547025350e+00    0.2942461    0.1303888  28.88  0.001686733    1.885    0.470
        35 -10.1437    102.3123    151.4643   1.2551391783e+02   3.0947688082e+01    0.2802362    0.2462765 -49.39  0.000758692    1.230    0.187
        36  -9.4210    105.1707    147.2250   1.2408683669e+02   3.1376402128e+01    0.2872581    0.1793758 -36.48  0.001333293    2.095    0.523
        37 -12.0296     91.3180    151.0459   1.2798886364e+02   3.2799912063e+01    0.2563336    0.2405872 -29.15  0.000491163    1.313    0.239
        38 -11.7217     45.8910    148.9401   1.3819676342e+02   3.9314406779e+01    0.3907261    0.1998665 -58.33  0.001808498    1.798    0.444
        39  -9.3186    134.0000    144.4785   1.1687693367e+02   2.6716840148e+01    0.3191181   0.08098886 -48.08 0.0009441336    4.011    0.751
        40  -8.6478    192.3636    144.1775   1.0436020464e+02   1.4736850499e+01    0.1907136    0.1331767 -46.18 0.0003368634    1.561    0.359
        41 -10.0065    112.2986    136.8716   1.2038857282e+02   3.2361582809e+01     0.335149    0.2502077  -8.25  0.001253504    2.119    0.528
        42 -13.8962     11.6511    207.0576   1.4988698162e+02   3.1099698891e+01     1.085666    0.8392808  39.82  0.008835143    1.636    0.389
        43 -10.6285     99.9990    134.0403   1.2280822442e+02   3.5104198035e+01    0.2686709    0.2309473 -29.00 0.0005637057    1.386    0.278
        44 -12.4472     90.4432    167.8938   1.3082133954e+02   2.9361156366e+01     1.440966    0.5257632  51.94  0.005634226    3.031    0.670
        45  -9.3457    108.8298    123.8117   1.1846365521e+02   3.5807726896e+01    0.1958857    0.1867792 -28.25 0.0003762626    1.140    0.123
        46 -11.0234    168.3413    113.3852   1.0187898055e+02   2.5643725013e+01    0.4074838    0.3264716 -80.51  0.001169243    1.643    0.391
        47 -11.4244    237.5634    249.0035   1.1553755760e+02  -7.4938669900e+00    0.4052306    0.1016147  36.20  0.001704378    3.332    0.700
        48 -10.1040    162.9088    249.1443   1.2782496650e+02   3.9129437860e+00    0.1762087    0.1310216  53.69  0.001237592    1.258    0.205
