#   1 NUMBER                 Running object number                                     
#   2 MAG_AUTO               Kron-like elliptical aperture magnitude                    [mag]
#   3 X_IMAGE                Object position along x                                    [pixel]
#   4 Y_IMAGE                Object position along y                                    [pixel]
#   5 X_WORLD                Barycenter position along world x axis                     [deg]
#   6 Y_WORLD                Barycenter position along world y axis                     [deg]
#   7 A_WORLD                Profile RMS along major axis (world units)                 [deg]
#   8 B_WORLD                Profile RMS along minor axis (world units)                 [deg]
#   9 THETA_WORLD            Position angle (CCW/world-x)                               [deg]
#  10 FWHM_WORLD             FWHM assuming a gaussian core                              [deg]
#  11 ELONGATION             A_IMAGE/B_IMAGE                                           
#  12 ELLIPTICITY            1 - B_IMAGE/A_IMAGE                                       
         1  -8.7256    111.8897     34.6689   5.2723202061e+01   5.2130836427e+01    0.2450056    0.1931814 -40.73 0.0006806754    1.435    0.303
         2  -8.9857     74.1218     19.5236   5.7781954976e+01   6.1923300190e+01    0.2795881    0.1847818 -46.25 0.0009810172    2.111    0.526
         3  -8.1170     19.1889     21.2264   8.2809779904e+01   7.0072298881e+01    0.1476064     0.133625  -3.85  0.001071826    1.392    0.282
         4  -7.7344    119.5426     11.0406   4.2927775501e+01   5.2865203349e+01    0.1755862   0.09343351 -51.30 0.0008087875    2.521    0.603
         5  -8.5081     55.8054     10.0958   6.0172336890e+01   6.6333235924e+01    0.1683882    0.1570729  17.12 0.0006609577    1.310    0.236
         6  -7.8728     47.5423     10.0716   6.3518695745e+01   6.7740967650e+01    0.1455652     0.100678 -48.62 0.0008070691    2.438    0.590
         7  -7.9840     27.8573      9.7843   7.2690980980e+01   7.0671373866e+01    0.1443168    0.1255205   1.49 0.0004257245    1.323    0.244
         8  -8.7485     90.8161      8.7499   4.8468357467e+01   5.9533538363e+01    0.2195019     0.149361 -51.47 0.0008517509    2.056    0.514
         9  -8.0504    101.4076      8.1781   4.5695697217e+01   5.7254657700e+01    0.1549592    0.1163507 -38.01 0.0003653553    1.596    0.373
        10  -8.3640     33.6860      5.5550   6.7580778489e+01   7.0373900130e+01    0.2112473    0.1699607 -56.99   0.00109091    2.556    0.609
        11  -8.5590     79.0963      3.9195   4.9654152774e+01   6.2415088273e+01    0.2603036    0.1558849 -35.20 0.0009465137    2.040    0.510
        12  -7.7416     44.7265      3.0044   6.1224972448e+01   6.8932020135e+01    0.1378509   0.09414939 -14.72  0.000510332    1.453    0.312
        13  -8.4170     62.2994      1.4976   5.3785050646e+01   6.5946217930e+01    0.2033916    0.1076799  56.05 0.0005428882    1.892    0.471
        14  -7.4505     39.4861      1.4935   6.2747783718e+01   6.9924608319e+01    0.1176829     0.092425  16.77 -7.292876e-05    1.062    0.058
        15  -7.9683     75.6515    247.6745   1.0940123968e+02   1.2423673595e+01    0.1168362   0.09579264 -11.64 0.0004827142    1.751    0.429
        16  -9.6761    246.7443    228.2717   7.1326348159e+01  -8.5462112371e+00    0.5442086    0.1970805 -35.56  0.002058856    2.462    0.594
        17  -8.7740    248.7773    249.4834   7.4524207205e+01  -1.1616488351e+01    0.3187759    0.1682395 -12.54  0.001829904    1.855    0.461
        18  -9.7751    248.5587    242.0559   7.3342737859e+01  -1.0630774555e+01    0.4416368    0.1788935 -35.93  0.001636787    2.284    0.562
        19  -9.0104    247.8983    234.9724   7.2270303799e+01  -9.6074003238e+00    0.1833898    0.1393669  -7.97  0.000761493    1.056    0.053
        20  -9.4860    232.9058    247.3689   7.6997991041e+01  -9.5108982042e+00    0.5104479    0.2173582 -28.18  0.002335804    2.311    0.567
        21  -7.9162    191.7955    249.8165   8.5233885756e+01  -4.5629469611e+00    0.1585951     0.135017  31.28 0.0005099365    1.343    0.256
        22  -8.3258     93.9030    249.5758   1.0574475354e+02   9.5783943734e+00    0.2344651    0.1303924  62.83 0.0007776334    2.214    0.548
        23  -7.5906     86.2604    250.6206   1.0746263668e+02   1.0432202699e+01    0.1275389   0.08238984  65.21  0.000382021    1.670    0.401
        24  -8.3350     25.5172    250.5012   1.1965803556e+02   1.7860505571e+01    0.1164025   0.08765614  63.72 -6.595958e-05    1.026    0.026
        25  -8.5906    139.4763    244.4906   9.5343090032e+01   3.8859662804e+00    0.1986616    0.1303292 -69.78 0.0008394701    2.301    0.565
        26  -9.0587     67.4777    244.5872   1.1082950274e+02   1.4098689388e+01    0.2379853    0.1188726 -70.08  0.001217195    2.193    0.544
        27  -8.5991     49.8488    243.7902   1.1441152931e+02   1.6448179156e+01    0.3032572    0.1206976  84.27  0.001089111    4.582    0.782
        28  -9.5944     78.1407    243.3186   1.0845656564e+02   1.2948146696e+01    0.3998647    0.1771491  58.07  0.001718922    2.697    0.629
        29  -8.3985      9.6229    243.4746   1.2227519711e+02   2.0850183542e+01    0.2286772   0.07648333  83.33 0.0009522813    3.592    0.722
        30  -8.4900    169.0313    243.3500   8.8894710946e+01  -3.1047501992e-01    0.1826201    0.1435946  25.78 0.0004807222    1.098    0.089
        31  -8.1609     88.2871    242.3831   1.0618428030e+02   1.1747927979e+01    0.2020853    0.1389756  79.47 0.0006900762    1.724    0.420
        32  -9.2639    194.1957    239.9747   8.3200937188e+01  -3.3908073808e+00     0.259175    0.1785993 -50.01  0.001316281    1.948    0.487
        33  -9.4009    160.0674    240.2407   9.0318528585e+01   1.5429977957e+00    0.3301902    0.2558094  89.39  0.001563876    2.274    0.560
        34  -7.9542    153.4395    242.2425   9.2028613581e+01   2.1904297041e+00     0.154789    0.1300859 -65.39 0.0009362837    1.595    0.373
        35  -9.2422    182.8077    239.9872   8.5516722590e+01  -1.7689074159e+00    0.3143283     0.302297  63.47  0.001535948    1.496    0.332
        36  -9.0930    242.2482    236.7643   7.3564364401e+01  -9.1863013464e+00    0.2892407    0.1443819 -11.58  0.001420335    2.416    0.586
        37  -9.1828    230.9639    237.3717   7.5699000456e+01  -7.8958013646e+00    0.2554601    0.2363403  88.92  0.001210715    2.211    0.548
        38  -9.1883    135.6507    239.0381   9.5421495902e+01   5.4472971438e+00    0.3021514      0.15614  46.62  0.001411033    1.966    0.491
        39  -8.2387    209.1372    238.2166   7.9960921400e+01  -5.1817711678e+00    0.1524431    0.1407561  -3.19 0.0005387618    1.349    0.259
        40  -8.0891    129.3063    238.6584   9.6760269335e+01   6.4783158627e+00    0.1324705   0.09588641  61.37 0.0004515396    1.686    0.407
        41  -9.6635    186.5537    230.8508   8.3265489426e+01  -8.2028902655e-01    0.4004383    0.2973256 -76.91  0.001965539    2.901    0.655
        42  -8.2886     25.2171    236.4697   1.1887236643e+02   2.0702989200e+01    0.2384561   0.07858413  89.57 0.0008714925    4.313    0.768
        43  -8.8566    216.6877    235.3726   7.8032706152e+01  -5.7677731258e+00    0.2209883    0.1790525 -39.34  0.001042148    1.556    0.357
        44  -9.8714    212.8879    231.5905   7.8123429823e+01  -4.6861194909e+00    0.3405224    0.2547673  38.56  0.001261625    1.599    0.375
        45  -8.8508    203.3029    235.0306   8.0575678069e+01  -3.8955897487e+00    0.2664606    0.2043114 -55.51  0.001104219    2.007    0.502
        46  -9.9522    175.7093    233.4133   8.5943925747e+01   3.6353773770e-01    0.4840381    0.2400121 -53.57  0.002154298    2.813    0.644
        47  -7.7343     58.0002    237.0000   1.1215556681e+02   1.6836342712e+01    0.2006193   0.06309148  32.59 0.0007977741    2.910    0.656
        48  -8.1188    170.0169    235.2467   8.7437013699e+01   9.0560209149e-01    0.1656544    0.1456158 -71.08 0.0006434402    1.642    0.391
        49  -9.2723    109.0901    234.4880   1.0069452097e+02   1.0318066385e+01    0.4938727    0.2180183  49.37  0.001485028    2.385    0.581
        50  -8.3656     99.8148    234.6390   1.0278157944e+02   1.1651268619e+01    0.2501887    0.1584835  75.00  0.001218051    2.175    0.540
        51  -9.1649     78.5761    234.5003   1.0746916672e+02   1.4671542789e+01      0.24669    0.1742237  82.79  0.000969354    1.569    0.363
        52  -8.8329      7.9820    234.9902   1.2216026607e+02   2.2715121861e+01    0.1409446    0.1079543  68.96  0.000735242    1.010    0.010
        53  -8.3478    122.7804    233.9921   9.7573164496e+01   8.3558005118e+00    0.2069288    0.1472661  74.64 0.0007462258    1.974    0.494
        54  -8.7824     92.2990    232.3281   1.0418664928e+02   1.3203809317e+01    0.3145062    0.2068842 -76.72  0.001516375    1.798    0.444
        55  -9.9542     68.0879    232.0552   1.0952305019e+02   1.6578295237e+01    0.5389248    0.2796434  74.95  0.002401226    2.650    0.623
        56  -8.6766    194.3549    232.9052   8.2011845199e+01  -2.2936780682e+00      0.17632    0.1479988 -12.53 0.0006768868    1.136    0.120
        57  -8.4210    145.0060    233.4841   9.2572154961e+01   5.0393805002e+00    0.1906343   0.09902599  51.43 0.0008089069    2.453    0.592
        58  -8.4031    132.7716    232.9066   9.5195898651e+01   7.0345856212e+00    0.2050615    0.1515014  75.41  0.001066474    1.958    0.489
        59  -8.6754    157.8506    232.1306   8.9559329414e+01   3.3042927692e+00    0.1960368     0.170932  43.52 0.0006276928    1.259    0.206
        60  -8.6350    202.0043    243.4509   8.2209116109e+01  -5.0012952470e+00    0.2038091    0.1690837 -43.86 0.0007918075    1.612    0.380
        61  -8.9459    236.1957    230.4717   7.3575690961e+01  -7.5667591253e+00    0.2476536    0.1669924 -37.26  0.000868652    1.592    0.372
        62  -8.6503      1.6234    230.8628   1.2317474900e+02   2.4143250035e+01    0.2198246    0.1056293  78.11 0.0009622803    1.848    0.459
        63  -9.9875    149.5473    226.0400   9.0436180176e+01   5.7186349839e+00    0.5920501    0.3814008 -84.47  0.002355908    3.711    0.731
        64  -8.6909    140.0415    230.2101   9.3186156899e+01   6.4207995274e+00    0.2512926      0.16596  48.00 0.0008368573    1.572    0.364
        65  -8.5545    229.6913    228.5769   7.4434995339e+01  -6.4656929640e+00     0.204793   0.09941418 -36.50 0.0007510262    1.950    0.487
        66  -8.8445    162.4554    228.0797   8.7921462705e+01   3.3206694471e+00    0.3034702     0.175915  43.67  0.001153213    1.773    0.436
        67  -8.9894    127.8659    227.2725   9.5492967468e+01   8.8861832590e+00    0.3292685    0.2153157  60.12  0.001257492    1.954    0.488
        68  -8.4700    120.0267    227.5816   9.7315699868e+01   1.0039103989e+01    0.2402973    0.1883176  87.59  0.001323643    1.645    0.392
        69  -9.0994      8.3596    228.2287   1.2173321089e+02   2.4078771770e+01    0.1672585   0.08771297  85.04 0.0009504827    1.703    0.413
        70  -7.7802    223.5043    227.4824   7.5396082908e+01  -5.4920884588e+00    0.1256861    0.1010711  -2.27 0.0001077322    1.038    0.036
        71  -8.6964    205.9951    225.8535   7.8488002253e+01  -2.8284135911e+00    0.2528575     0.171708 -53.97 0.0007363427    2.195    0.544
        72  -9.5509    180.3741    225.1179   8.3597845514e+01   1.0812222816e+00    0.3746056    0.2751682 -34.46  0.001343952    1.405    0.288
        73  -8.2307     49.2672    226.9382   1.1315697470e+02   2.0021045361e+01    0.2709478     0.105541  53.53  0.001162928    2.530    0.605
        74  -8.2672    200.0493    226.0381   7.9704149513e+01  -2.0043741662e+00    0.1722613    0.1643652  81.99 0.0005121311    1.636    0.389
        75  -9.2769     94.1480    224.3340   1.0281150153e+02   1.4601248435e+01    0.4728154    0.2224303  56.55  0.001908268    2.689    0.628
        76  -9.1891    104.7088    223.5832   1.0028421019e+02   1.3193485662e+01    0.3545476    0.2336239  77.79  0.001701743    2.122    0.529
        77  -7.6191     72.3359    225.3161   1.0789332841e+02   1.7446733139e+01    0.1242186     0.101366 -20.40 0.0006964246    1.695    0.410
        78  -8.2317     38.4537    224.9601   1.1532538995e+02   2.1698883056e+01    0.1799018   0.08500346  74.91 0.0008081539    2.486    0.598
        79  -8.6584    216.4157    223.4937   7.6047521972e+01  -3.9182212762e+00    0.2288398    0.2096141 -39.49 0.0009347092    1.507    0.336
        80  -8.5794    173.0888    223.0258   8.4796433670e+01   2.5732520538e+00    0.2374177    0.1947914 -50.36 0.0006384611    1.480    0.325
        81  -8.1416    113.9320    223.9468   9.8207710579e+01   1.1714315945e+01    0.2154117    0.1527136  63.82 0.0006471765    1.668    0.401
        82  -9.0081    158.8879    220.2448   8.7432424213e+01   5.3264248160e+00     0.255592    0.1941298  54.13 0.0008495079    1.613    0.380
        83  -8.1602    140.4735    222.8924   9.1983684559e+01   7.7600477042e+00    0.1882015    0.1378146 -51.52 0.0007063442    1.535    0.348
        84  -9.2939    238.9863    221.1962   7.1460981405e+01  -6.5705711243e+00    0.3175331    0.1564983 -32.49  0.001368646    1.803    0.445
        85  -9.3480    225.4643    221.8172   7.4039674225e+01  -4.8935982506e+00    0.2440857    0.2119894  18.82  0.001184092    1.317    0.241
        86  -9.3539    192.2530    221.3111   8.0472769151e+01  -6.6606041002e-02    0.3051109    0.2473952 -49.98  0.001018432    1.579    0.367
        87  -9.1966    120.2794    219.0864   9.6050282584e+01   1.1729860696e+01    0.4750819    0.2763053  64.95  0.001760408    2.756    0.637
        88  -9.1423     82.5790    220.2281   1.0498484598e+02   1.7140658326e+01    0.3695319    0.2066451  69.77  0.001403924    2.430    0.589
        89  -8.2084     73.0237    220.3590   1.0720279693e+02   1.8429404783e+01    0.2769772    0.1470926  78.01  0.001155933    2.774    0.640
        90  -7.6616     27.3168    221.3221   1.1742637622e+02   2.3692027469e+01    0.1126286    0.0897817 -44.77  0.000704246    1.664    0.399
        91  -8.8223    209.6909    219.3228   7.6618381563e+01  -2.3046721731e+00    0.2426303    0.1872744  -2.63 0.0006123309    1.131    0.116
        92  -8.1203    202.6728    220.1332   7.8152182450e+01  -1.4179434820e+00    0.1862978    0.1585809 -42.67 0.0006204634    1.453    0.312
        93  -8.8021    249.1446    218.4369   6.9193533273e+01  -7.4378720444e+00    0.2061922    0.1837274  60.46  0.001356836    2.135    0.532
        94  -9.3541    132.7546    215.8239   9.2657138905e+01   1.0410479918e+01    0.4928933    0.3190562  78.95  0.002025648    2.986    0.665
        95  -8.4615     62.0809    217.4071   1.0939920685e+02   2.0521108394e+01    0.2919984    0.1598928  64.99  0.001373495    2.051    0.512
        96  -9.2122     51.6382    217.3471   1.1176913416e+02   2.1834670653e+01    0.2868092    0.1670096  79.35 0.0009643371    1.892    0.472
        97  -8.7094    169.3131    216.0063   8.4423707001e+01   4.4492542486e+00    0.2948334    0.2264785 -75.55 0.0009706197    2.123    0.529
        98  -8.7115    142.9654    216.6109   9.0427777692e+01   8.5976792219e+00    0.2801431    0.2113749  81.45  0.001387455    2.043    0.511
        99  -7.8579    112.3165    217.6337   9.7701403336e+01   1.3280125054e+01     0.145482    0.1011278  66.16 0.0007038747    1.775    0.437
       100  -8.7403    232.3125    214.7887   7.1524231276e+01  -4.7336213040e+00    0.2517728    0.2059746 -60.64  0.001159784    2.114    0.527
       101  -8.8224     18.3524    215.4401   1.1892207992e+02   2.5881372134e+01    0.2966806    0.1026857 -82.99  0.001245358    2.948    0.661
       102  -8.1893    154.5848    215.3110   8.7575586184e+01   6.9635247869e+00    0.1980495    0.1630522  68.51    0.0007222    1.643    0.391
       103  -9.3649    213.9045    212.1988   7.4518691224e+01  -1.7495617528e+00    0.3176033    0.2917098  72.15  0.001387601    1.770    0.435
       104  -8.4181    185.4930    214.2404   8.0640443113e+01   2.2027268566e+00    0.2014935    0.1779066  39.44 0.0007819594    1.324    0.245
       105  -9.2821     93.0791    213.7248   1.0171252466e+02   1.7050159441e+01    0.3880214    0.2073913  53.58   0.00172427    2.018    0.504
       106  -9.4702     72.9805    211.9015   1.0625769454e+02   2.0316091141e+01    0.6445202    0.2607672  58.37  0.002227336    3.656    0.727
       107  -8.0650    224.6431    212.7336   7.2569724597e+01  -3.3643354022e+00    0.1700961    0.1099463 -41.53  0.000516721    1.650    0.394
       108  -8.7403    161.6604    212.3584   8.5487433579e+01   6.3791359347e+00    0.2220271    0.1761846 -59.69 0.0007112112    1.582    0.368
       109  -8.5893    106.4821    212.9460   9.8415702893e+01   1.5190184469e+01    0.1948581     0.139239 -64.42   0.00100792    1.542    0.351
       110  -8.8628    204.1916    210.9969   7.6213926664e+01  -1.1037913317e-01     0.233435    0.2035558 -42.43 0.0006048823    1.404    0.288
       111  -9.3145    175.3285    210.0338   8.2067808812e+01   4.5914173704e+00    0.3837387     0.292981  82.43  0.001561516    2.474    0.596
       112  -9.3780      7.4451    210.5664   1.2091834674e+02   2.7965270712e+01    0.4125213    0.1272024  72.03  0.001349132    5.089    0.803
       113  -7.4492    242.6759    211.7424   6.9121775040e+01  -5.6346178658e+00    0.1242218   0.07959481  -3.10 0.0003327559    1.551    0.355
       114  -8.2150    192.3023    210.4539   7.8538241832e+01   1.8096250035e+00    0.2014326    0.1647043 -60.49 0.0006309566    1.733    0.423
       115  -8.8559    147.9552    210.5335   8.8283707728e+01   8.9956420093e+00    0.2933584    0.2258981  68.14  0.001296517    1.798    0.444
       116  -9.0397    116.1646    210.1752   9.5699342757e+01   1.4267548586e+01    0.3286692    0.2320588  76.66 0.0009896714    1.959    0.489
       117  -9.0164    236.5922    208.4816   6.9607940546e+01  -4.3328937176e+00    0.2773362    0.2362133 -60.47  0.001181836    1.944    0.486
       118  -8.8868     85.4656    209.3191   1.0296104334e+02   1.9147733777e+01    0.3302877    0.1995983  76.21  0.001189815    2.268    0.559
       119  -8.3175     46.6429    209.2699   1.1214678793e+02   2.4251680267e+01    0.2557029    0.1447086  82.84  0.001248014    1.948    0.487
       120  -8.1787     32.2297    210.2105   1.1550849902e+02   2.5644165355e+01    0.1993976   0.08963028 -89.76 0.0005976548    2.484    0.597
       121  -9.3688    246.5306    207.3035   6.7647518098e+01  -5.4626229503e+00    0.2769155    0.1864342 -28.45 0.0007279204    1.257    0.205
       122  -9.4404    250.1512    201.8311   6.6029740683e+01  -5.1005048670e+00    0.3920398    0.1527763 -35.92  0.001829229    2.195    0.544
       123  -7.8940    156.4774    207.9639   8.5895148906e+01   8.0936405445e+00    0.1769502    0.1294867 -82.23 0.0008063514    2.330    0.571
       124  -8.4095    139.0368    207.8873   8.9912098130e+01   1.1015736663e+01    0.2846792    0.1985435  69.30  0.001018767    2.167    0.538
       125  -7.9462    126.4116    208.2761   9.2959770687e+01   1.3017843423e+01    0.1805318    0.1396837 -70.58 0.0005644512    1.556    0.357
       126  -9.3764     99.3442    206.2077   9.9177173306e+01   1.7780198797e+01     0.367308       0.2475  76.02  0.001311848    1.954    0.488
       127  -8.7424     56.5676    205.4206   1.0943138326e+02   2.3940475049e+01    0.3593134    0.1864856  67.34  0.001359279    2.352    0.575
       128  -8.9930    183.8587    204.0079   7.9137529353e+01   4.3263712783e+00    0.3175914    0.2606595  71.91  0.001209098    1.923    0.480
       129  -8.1955    108.9168    205.1557   9.6691513692e+01   1.6521536584e+01     0.222019    0.1816251  65.20 0.0006975796    1.319    0.242
       130  -7.8615     25.2994    205.6267   1.1669672364e+02   2.7401364645e+01    0.1377379   0.07619495  66.35 0.0007028806    1.748    0.428
       131  -9.4900    194.8771    203.3636   7.6703139184e+01   2.6690272890e+00    0.4111629    0.2742153 -31.54  0.001285508    1.447    0.309
       132  -9.2549    192.3772    197.3959   7.6099498535e+01   4.1599825923e+00    0.3589344    0.2371518 -39.30 0.0008158198    1.491    0.330
       133  -9.5958    163.7223    202.9863   8.3372350931e+01   7.8656526457e+00    0.4063513    0.2721547  55.84  0.001176804    2.008    0.502
       134  -8.6992    131.1017    203.8057   9.1114149236e+01   1.3198097300e+01    0.3008766    0.2177564  75.65  0.001404897    2.019    0.505
       135  -8.4112    211.2383    202.2276   7.3198339389e+01   3.2192367716e-01     0.229272    0.1977471 -89.40 0.0007480842    2.037    0.509
       136  -9.1569    243.1128    200.9009   6.7063662492e+01  -4.0293704403e+00     0.311705    0.1720447 -40.86   0.00094284    1.757    0.431
       137  -8.1559    222.1295    201.4866   7.0968543363e+01  -1.1779985778e+00    0.2145219    0.1492568 -56.13 0.0009572279    2.180    0.541
       138  -8.9749    140.5045    200.9761   8.8392745923e+01   1.2217177895e+01    0.3894206    0.2702737  74.35  0.001382171    2.377    0.579
       139  -8.4974     79.9886    201.3044   1.0325484014e+02   2.1772206251e+01    0.3539692    0.2014106  76.04  0.001453253    2.579    0.612
       140  -8.5151     48.4180    202.1626   1.1103253640e+02   2.5686874569e+01    0.2643285    0.1346206  61.87 0.0008506779    2.168    0.539
       141  -7.8691     41.3042    202.6529   1.1276321033e+02   2.6390841368e+01    0.1407388   0.08378305  66.09 0.0004406623    1.694    0.410
       142  -8.9891    124.0301    199.3782   9.2089031296e+01   1.5340806998e+01    0.3609885    0.2384597 -78.10  0.001258265    2.215    0.549
       143  -9.2470    237.0800    198.7113   6.7714902352e+01  -2.8597382932e+00    0.3106804    0.1570935 -44.44   0.00103615    2.097    0.523
       144  -9.4143    149.5531    198.6404   8.5846768646e+01   1.1161374938e+01    0.4782505    0.3349595  85.20  0.001568966    2.690    0.628
       145  -9.6662    112.8750    198.3361   9.4662215563e+01   1.7414143378e+01    0.5025661    0.3376993  77.99  0.001986526    2.210    0.548
       146  -9.1733     88.6985    198.6378   1.0072939914e+02   2.1124870768e+01    0.4123521    0.2554872  74.91  0.001797195    2.224    0.550
       147  -8.7668    176.9206    198.6764   7.9646428474e+01   6.4842004049e+00    0.2543301     0.191361 -62.70 0.0006771416    1.829    0.453
       148  -8.3104    202.1938    197.8842   7.4176366648e+01   2.4883133900e+00    0.1906336    0.1805928 -31.23  0.000547635    1.278    0.218
       149  -9.2536     61.4693    197.1217   1.0731139293e+02   2.5268437879e+01    0.4237751    0.2327307  68.64  0.001574787    2.268    0.559
       150  -9.2392     12.7626    197.4206   1.1890439809e+02   3.0468414014e+01    0.3181064      0.13235  79.54  0.001364932    2.713    0.631
       151  -9.7972    245.8111    193.8181   6.5279165268e+01  -3.2829650849e+00    0.3271476    0.2493857 -64.98  0.001468234    2.459    0.593
       152  -8.1136    132.9632    196.0013   8.9339174386e+01   1.4572850075e+01    0.2246038    0.1757489  71.51 0.0005851023    1.654    0.395
       153  -8.7451    224.4370    193.9988   6.9119443623e+01  -2.6579399023e-01    0.3526479    0.1831048 -49.07  0.001274757    2.373    0.579
       154  -8.8525    185.1434    194.7262   7.7118967820e+01   5.8591719962e+00    0.2499544    0.2162171 -69.86 0.0006824901    1.605    0.377
       155  -9.1862    160.9118    194.3287   8.2421031852e+01   1.0088402402e+01    0.3359821    0.2591942  72.05 0.0009704496    1.948    0.487
       156  -8.8788     43.8189    193.2656   1.1122998094e+02   2.8324399461e+01    0.4519141    0.2141107  75.61   0.00177821    2.948    0.661
       157  -8.2532    230.8673    194.3518   6.8006764888e+01  -1.2698072899e+00    0.1832436    0.1450039 -30.36 0.0006717105    1.189    0.159
       158  -8.8380     77.1218    193.9504   1.0299223277e+02   2.3911848379e+01    0.2584179    0.2087306  73.57 0.0006125005    1.261    0.207
       159  -8.7549    215.8026    195.3726   7.1014247859e+01   8.0482405191e-01     0.281101    0.1698079 -52.25    0.0010815    2.201    0.546
       160  -8.2246    198.8276    191.4712   7.3627324349e+01   4.1952200478e+00    0.2527595    0.1765548 -54.73 0.0007686048    1.841    0.457
       161  -8.3183    178.8576    191.8224   7.7920386412e+01   7.4862486430e+00    0.1813046    0.1755699  76.22 0.0005422524    1.309    0.236
       162  -8.4185    172.3372    191.9610   7.9386527191e+01   8.5832647486e+00    0.2414107    0.2029464  61.61 0.0009605033    1.546    0.353
       163  -9.2493    139.5684    190.6915   8.6788791170e+01   1.4590563383e+01    0.4101278    0.2999087  88.31  0.001212214    2.152    0.535
       164  -7.6506    205.3025    191.6632   7.2356517501e+01   3.1080256530e+00    0.1253817    0.1126523 -79.35 0.0004752825    1.665    0.400
       165 -10.4707     92.5520    188.9637   9.8327831694e+01   2.2823043349e+01     1.066437    0.2905046  44.88  0.003177594    3.908    0.744
       166  -8.2558     22.0274    192.0000   1.1635423612e+02   3.0888615457e+01    0.1909741   0.07026578  26.43 0.0008041124    2.954    0.661
       167  -8.5658      6.5904    190.8111   1.1984042921e+02   3.2524872913e+01    0.1829367     0.096182  86.43 0.0009534843    1.728    0.421
       168  -8.4382    148.4500    189.4391   8.4421152420e+01   1.3298795688e+01    0.2442339    0.1998028  77.40 0.0007766217    1.658    0.397
       169  -8.9551    129.5079    188.8174   8.8918017423e+01   1.6760224485e+01    0.3508283    0.2473307  68.94  0.001195388    1.989    0.497
       170  -9.8389    248.7314    186.3469   6.3377014043e+01  -2.4980321466e+00    0.3665375    0.2502225 -16.52  0.001706783    1.336    0.251
       171  -8.3599    237.0426    188.4836   6.5784510050e+01  -1.1962242017e+00    0.2050156    0.1453065 -30.66 0.0005532543    1.215    0.177
       172  -8.9871    191.4516    187.6136   7.4400456481e+01   6.1477330301e+00    0.3320154    0.2531985 -68.51  0.001184134    2.024    0.506
       173  -9.2520    156.0171    187.8412   8.2329512368e+01   1.2296885105e+01    0.3437212    0.2405593 -62.27 0.0008875137    1.814    0.449
       174  -9.7333    120.8366    186.5883   9.0693485899e+01   1.8762720614e+01    0.5635436    0.3235393 -74.95  0.002098347    2.881    0.653
       175  -8.8633     34.1658    187.9783   1.1306658903e+02   3.0645011383e+01    0.3258234    0.1689095  75.83  0.001182308    2.239    0.553
       176  -8.9024    216.4990    187.8104   6.9418677058e+01   2.0132972133e+00    0.2621556    0.2146393 -45.89 0.0008445988    1.407    0.289
       177  -9.2659     54.6874    186.8695   1.0779517754e+02   2.8589434131e+01    0.4425378    0.2376909  72.52  0.001596717    2.442    0.590
       178  -8.1980    230.5055    187.0751   6.6676288817e+01  -3.8691034833e-03    0.2022308    0.1147625 -37.72  0.001026997    1.580    0.367
       179  -8.6516    164.6923    186.7807   8.0114112472e+01   1.0975860148e+01    0.2571114    0.2186974  84.86 0.0008589909    1.644    0.392
       180  -9.2595    109.5824    185.9683   9.3455815315e+01   2.0805880415e+01    0.4065555    0.2903232  78.66  0.001088482    1.896    0.473
       181  -8.8428    182.8641    185.0309   7.5720127423e+01   8.1243363162e+00    0.3217613    0.1971283 -42.48 0.0009502819    1.615    0.381
       182  -8.6780    210.0759    184.4528   6.9999203820e+01   3.6372283324e+00    0.2351274    0.1785266 -46.80 0.0004708291    1.457    0.313
       183  -8.7061    202.8242    184.7511   7.1496522152e+01   4.7742518233e+00    0.2354977    0.1830814 -66.69 0.0006776649    1.954    0.488
       184  -9.0493     66.8221    184.6254   1.0437880424e+02   2.7584397383e+01    0.4272545    0.2282589  52.41  0.001121441    1.992    0.498
       185  -8.6354    224.0154    183.5327   6.7169048344e+01   1.5869742102e+00    0.2851982    0.1618642 -37.66 0.0009126843    1.588    0.370
       186  -9.0868    174.3321    183.4947   7.7288816435e+01   9.9333708415e+00    0.3026055    0.2519577 -67.75  0.001044091    1.574    0.365
       187  -8.1402      1.8184    183.7730   1.2045651008e+02   3.4544352717e+01    0.1729678    0.1158008  62.46  0.001049072    1.369    0.270
       188  -9.1826     44.1867    182.1740   1.0993517862e+02   3.0974026826e+01    0.3582879    0.2104339  88.03  0.001000736    1.855    0.461
       189  -9.2690    147.5296    180.6773   8.2966686591e+01   1.5363974291e+01    0.3701592    0.2847403 -81.90  0.001035613    1.866    0.464
       190  -7.7882    235.3476    181.2299   6.4679310637e+01   2.5737361756e-01    0.1870497    0.1077895 -43.71 0.0007653713    1.710    0.415
       191  -9.4190     26.3623    180.3130   1.1426107587e+02   3.3282561574e+01    0.4615154    0.2144049  73.93  0.001914836    2.702    0.630
       192  -8.0765    240.4857    180.4644   6.3640222870e+01  -3.7300875807e-01    0.1315126    0.1070847 -18.56 0.0002169167    1.008    0.008
       193  -8.7748    137.6029    179.2685   8.5128678574e+01   1.7476005178e+01    0.3114106    0.2379665  72.46 0.0009500452    1.781    0.439
       194  -9.3919    191.4002    178.3574   7.2559239877e+01   7.9350195720e+00    0.2839699    0.2499919 -62.17 0.0006421218    1.431    0.301
       195  -8.0656    169.2870    178.6380   7.7450599433e+01   1.1835210727e+01    0.2136688    0.1757882  78.51 0.0006994489    1.748    0.428
       196  -9.2116     36.0394    177.0243   1.1146256137e+02   3.3125195721e+01    0.5167517    0.2250816  81.98  0.001805288    3.650    0.726
       197  -9.6131    248.5249    176.5780   6.1539934851e+01  -8.9587869379e-01    0.4234043    0.2541659 -48.40  0.001981404    1.883    0.469
       198  -8.6911    250.5133    172.8957   6.0503773011e+01  -5.8078562427e-01    0.1867128    0.1577303 -32.02 0.0005528281    1.172    0.147
       199  -8.7756    231.1027    177.0304   6.4603060082e+01   1.6133610614e+00    0.2580352    0.1713021 -41.80 0.0005837097    1.445    0.308
       200  -8.4546    217.6086    177.4068   6.7147352706e+01   3.6812630336e+00    0.2464478    0.1981317 -60.41 0.0009157191    1.695    0.410
       201  -8.9591    205.1414    177.5095   6.9580641275e+01   5.7287692234e+00    0.2944208    0.1733187 -44.35 0.0008783014    1.684    0.406
       202  -8.9503    129.0409    177.4722   8.6936957539e+01   1.9425366242e+01    0.3334218    0.2439138  78.47 0.0008822606    1.990    0.498
       203  -9.0927    183.1216    176.4130   7.3927161436e+01   9.7863794407e+00    0.2594489    0.2294222 -77.65 0.0006546367    1.513    0.339
       204  -8.5652     97.2484    177.5860   9.5259125041e+01   2.4826736474e+01    0.2034288      0.14365  21.15 0.0007864368    1.605    0.377
       205  -9.0238     88.9892    176.7458   9.7327917997e+01   2.6332232206e+01    0.3037758    0.2302802  82.17 0.0009414479    1.544    0.352
       206  -9.9746     57.3124    173.2806   1.0536835602e+02   3.1628764323e+01    0.8728008    0.4122764  79.40  0.002692649    4.476    0.777
       207  -8.6965     12.8932    176.6766   1.1727967262e+02   3.5362273333e+01     0.323974    0.1378337  61.80  0.001393962    2.660    0.624
       208  -9.2655    158.9591    175.1221   7.9127213862e+01   1.4473323483e+01    0.4054591    0.3007458  77.34  0.001419499    2.169    0.539
       209  -9.5453    104.2073    174.7718   9.2914678457e+01   2.4371668317e+01    0.5443466    0.3154003  63.36  0.001714833    2.576    0.612
       210 -10.7247     75.9296    169.2914   9.9680028564e+01   3.0133307657e+01      1.49198    0.5646234 -68.70  0.004739472    3.276    0.695
       211  -9.3661     82.0509    155.2366   9.5537242585e+01   3.2779476688e+01    0.5291758    0.3256209  74.46  0.001442376    2.545    0.607
       212  -8.1852    224.2169    174.2233   6.5282684053e+01   3.1822975424e+00    0.1771231    0.1535413 -48.16  0.001051351    1.353    0.261
       213  -9.4079    175.8083    172.0346   7.4628961560e+01   1.2004909054e+01     0.467436     0.252454 -46.27  0.001127009    1.861    0.463
       214  -8.5528    143.0337    172.9803   8.2541550493e+01   1.7898057615e+01    0.2367868    0.1897599  77.94 0.0006654593    1.682    0.406
       215  -7.9478    194.5021    172.4834   7.0707802727e+01   8.5283246358e+00     0.145796    0.1298942 -11.76  9.42109e-05    1.022    0.021
       216  -8.8659    134.7639    171.8337   8.4383875778e+01   1.9685037292e+01    0.2676119    0.2153559 -79.51 0.0007680498    1.573    0.364
       217  -9.5935    121.3793    170.3498   8.7543163183e+01   2.2461429295e+01    0.4519205    0.2950003 -71.15 0.0009611032    2.014    0.503
       218  -9.1214     45.0840    171.1559   1.0839135685e+02   3.3610411845e+01    0.3801804    0.2159485  85.69   0.00118325    2.091    0.522
       219  -8.6076    205.8356    170.0607   6.7918128770e+01   7.0037387156e+00    0.3287328    0.1816725 -49.17  0.001032154    1.974    0.494
       220  -8.4849    198.4486    170.1583   6.9416113910e+01   8.2785170405e+00    0.2618719    0.2192369 -86.31  0.001047734    1.808    0.447
       221  -8.3707    237.0436    169.3624   6.2044874094e+01   2.0104598560e+00    0.2220195    0.1709564 -52.87  0.000762808    1.572    0.364
       222  -8.9842    230.2938    170.0192   6.3347588414e+01   2.9518246406e+00    0.1973428    0.1503817 -30.53 0.0006777941    1.132    0.117
       223  -8.5609    149.8452    169.5518   8.0168617644e+01   1.7392190037e+01    0.2846408    0.2068482 -69.29 0.0007749594    1.831    0.454
       224  -8.2629    244.3837    169.2401   6.0789178581e+01   9.1769098382e-01    0.1807604    0.1059796 -44.26 0.0005005873    1.639    0.390
       225  -8.5095    218.8555    168.3360   6.5074407770e+01   5.1090015733e+00    0.2301578    0.1709273 -42.63 0.0005995189    1.319    0.242
       226  -9.1614    167.1091    168.5757   7.5873930663e+01   1.4348851616e+01    0.3116732     0.250722  74.06  0.001028761    1.742    0.426
       227  -8.3123     88.7894    168.7287   9.6034552944e+01   2.8347119025e+01    0.2851485    0.1895204  85.73  0.001051969    2.079    0.519
       228  -7.9955    211.3963    168.1837   6.6449494122e+01   6.3966339862e+00      0.19658    0.1231529 -48.55 0.0004905626    1.700    0.412
       229  -8.6705    111.5492    167.4785   8.9598402864e+01   2.4886475570e+01    0.3347172    0.2222716  74.82  0.001011886    2.336    0.572
       230  -8.9590    191.8969    166.6500   7.0029643592e+01   1.0138243689e+01    0.2737669      0.20004 -46.29 0.0005671318    1.392    0.282
       231  -8.7984    184.9617    166.5016   7.1465268173e+01   1.1440721327e+01    0.2706501    0.1984697 -55.50 0.0006696184    1.586    0.369
       232  -8.4707    140.6422    166.3249   8.1779172483e+01   1.9852208823e+01    0.2856663    0.2135018  54.17 0.0009577687    1.508    0.337
       233  -9.5008    135.7043    164.0356   8.2556536511e+01   2.1307988472e+01    0.4450865     0.290703  56.41  0.001321683    1.881    0.468
       234 -10.0897     95.2659    163.1502   9.3241457303e+01   2.8702744281e+01    0.9052346    0.4968315  71.42   0.00279832    4.047    0.753
       235  -9.1863     20.4620    166.0143   1.1437795735e+02   3.7335819425e+01    0.4015547    0.1852795  63.75  0.001623368    2.632    0.620
       236  -8.1037     13.3063    167.6630   1.1639459357e+02   3.7523218774e+01    0.1361031   0.08218234  67.63 0.0007041051    1.674    0.403
       237  -8.1952    233.8163    165.0764   6.1738094994e+01   3.2524448053e+00    0.1966324    0.1603999 -41.50 0.0004658506    1.235    0.190
       238  -8.6729    159.6194    164.4631   7.6750831562e+01   1.6654574140e+01    0.2948871    0.2519061 -77.90 0.0009374238    1.485    0.326
       239  -9.5089     33.6136    163.4904   1.1057246009e+02   3.6749965215e+01    0.6010277    0.2504672  54.93   0.00232347    2.990    0.666
       240  -8.7517    246.0362    163.1558   5.9316908392e+01   1.6863043741e+00    0.2265791    0.1596238 -34.25 0.0004705321    1.188    0.158
       241  -8.3072    240.0051    164.2866   6.0531553757e+01   2.4181909424e+00    0.1833315    0.1556241 -21.44 0.0004809861    1.030    0.029
       242  -8.4668    213.0656    163.6211   6.5183889980e+01   6.9549284871e+00    0.2408102    0.1766457 -47.40 0.0007943934    1.415    0.293
       243  -8.4680    204.9120    163.0877   6.6643214330e+01   8.4847607818e+00    0.2066447    0.1903873 -56.21 0.0004318979    1.279    0.218
       244  -9.1201      3.2911    162.3047   1.1850001565e+02   3.9577418516e+01    0.3760446    0.1784807  56.92  0.001819982    2.238    0.553
       245  -9.1565    177.4487    160.7043   7.1859092677e+01   1.4038124309e+01    0.3082543    0.2667408 -54.11 0.0007784858    1.267    0.211
       246  -8.8945    151.5057    160.9976   7.7959129199e+01   1.8979341345e+01    0.3466384    0.2592833 -77.59 0.0009175465    1.922    0.480
       247  -8.0089    123.6453    162.7130   8.5423834436e+01   2.3862959466e+01    0.1588144    0.1212435  -6.79  0.000398391    1.672    0.402
       248  -8.8679     60.6949    160.3411   1.0255392827e+02   3.4476354609e+01    0.3621328    0.1962548  60.62  0.001456676    2.422    0.587
       249  -9.8093    242.4765    149.7855   5.7201874594e+01   4.5053211219e+00    0.3434379    0.2866674  41.72  0.001798029    1.426    0.299
       250 -10.5681    241.5462    143.9925   5.6165476428e+01   5.6496518148e+00    0.5307016    0.3206299 -13.58  0.002436283    2.382    0.580
       251  -9.4705    245.2762    158.6757   5.8547279138e+01   2.5548131405e+00     0.418661    0.2528954  21.06  0.002096456    2.222    0.550
       252  -8.1685    242.6913    155.2875   5.8282267551e+01   3.5317606748e+00    0.1995761    0.1690828 -42.98 0.0005542503    1.210    0.174
       253  -8.0925    240.2834    153.3127   5.8271596142e+01   4.2524831115e+00    0.1751423    0.1550117  -9.65 0.0004701316    1.123    0.109
       254  -9.8795    250.1576    157.8001   5.7600459252e+01   1.9569775879e+00    0.3633384    0.1777183 -41.58 0.0008126265    1.754    0.430
       255  -8.6709    246.5623    155.5338   5.7713959384e+01   2.8855871155e+00    0.2066686    0.1726815 -27.09 0.0005383308    1.017    0.017
       256  -8.5998    227.4587    159.1243   6.1627350624e+01   5.3306121339e+00    0.3021555    0.1963986 -56.45   0.00102855    1.995    0.499
       257  -8.4420    237.1284    158.8891   5.9924102003e+01   3.7963274730e+00     0.196895    0.1681966 -47.52 0.0005582994    1.286    0.223
       258  -8.0718    128.0169    159.0186   8.3502843559e+01   2.3926346577e+01    0.2431494    0.1915735  78.39 0.0006497126    1.672    0.402
       259  -9.7304    105.7007    157.9653   8.9337292268e+01   2.8228045269e+01    0.5320897    0.3477519  65.87  0.001263722    2.139    0.532
       260  -8.4371    196.7823    158.0758   6.7195497266e+01   1.0927334860e+01    0.2162446    0.1938091 -63.43 0.0008572119    1.333    0.250
       261  -8.4702    188.1384    157.8821   6.8939290901e+01   1.2582713653e+01    0.2149437    0.1968803 -60.89 0.0004632861    1.260    0.206
       262  -9.1598    167.5843    157.2755   7.3334457906e+01   1.6664839282e+01    0.3422569    0.2779822  89.35  0.001101846    1.744    0.427
       263  -7.6220    140.6549    158.2721   8.0073557425e+01   2.1692760314e+01    0.1545536    0.1230296  71.43 0.0006834745    1.619    0.382
       264  -8.5304    217.9018    156.5768   6.2807519177e+01   7.4163236067e+00    0.2766125    0.1688126 -53.25 0.0009724572    1.933    0.483
       265  -8.8838    157.5126    156.1456   7.5449153260e+01   1.8882933081e+01    0.3375616    0.2481127 -72.76  0.001061051    1.915    0.478
       266  -9.5483    119.4971    155.2222   8.4980523304e+01   2.6419476276e+01     0.488333    0.3238474 -79.54  0.001512292    2.317    0.568
       267  -9.0523     33.9068    156.2450   1.0960622290e+02   3.8552933612e+01    0.4244366     0.235795  20.62  0.002018558    2.131    0.531
       268  -9.3778     49.5812    155.1319   1.0496446245e+02   3.7164003919e+01    0.4265878    0.2524846  67.37  0.001554206    2.151    0.535
       269  -8.8748     23.2614    155.8606   1.1254355169e+02   3.9630733943e+01     0.255218    0.1553103 -29.51  0.001241102    2.209    0.547
       270  -7.9756    204.7897    155.5646   6.5065110723e+01   9.9424172515e+00     0.179158    0.1397812  54.38 0.0004557649    1.561    0.359
       271  -8.4773    144.7188    154.8593   7.8303737703e+01   2.1682744895e+01    0.2785507    0.1992834  67.95 0.0009018271    1.969    0.492
       272  -9.3841     68.1406    153.8081   9.9338519172e+01   3.5157799845e+01    0.4727479     0.280615  66.01  0.001604802    2.339    0.572
       273  -9.6470    132.8389    152.9932   8.0941533198e+01   2.4425156129e+01    0.4732141    0.3730653  82.66  0.001211814    1.716    0.417
       274  -9.6130    133.4888    148.5085   7.9777012320e+01   2.5347402295e+01    0.4732279     0.239282 -43.75  0.001803657    1.986    0.496
       275  -9.1036     20.0556    152.3060   1.1303909782e+02   4.0794266708e+01    0.2770662    0.1452602 -74.01 0.0008052645    1.657    0.397
       276  -8.6826     98.4347    150.9727   8.9982320509e+01   3.1210347470e+01     0.326895    0.2390682  86.14 0.0009685301    1.845    0.458
       277  -9.4286     29.2205    150.5864   1.1023015374e+02   4.0433436725e+01    0.4848083    0.2464117  69.23  0.001789211    2.669    0.625
       278  -9.1120      3.1222    151.4561   1.1761232566e+02   4.2244686804e+01    0.3374206    0.1919749 -87.20  0.001791966    1.570    0.363
       279  -9.4994    248.8318    149.4058   5.6131485764e+01   3.5631915042e+00    0.3006051    0.1737195 -38.52 0.0006981933    1.440    0.305
       280  -9.1117    247.0010    143.9764   5.5316841960e+01   4.7675524896e+00    0.2790977    0.1612331 -38.42 0.0005009676    1.443    0.307
       281  -8.9385    189.3318    150.3217   6.7028595816e+01   1.3874765888e+01    0.3162315    0.2327188 -57.09 0.0008192987    1.570    0.363
       282  -8.3011    182.3898    151.2058   6.8693327970e+01   1.5043261278e+01    0.2139546    0.1363173 -52.56 0.0006048087    1.716    0.417
       283  -9.4960    177.3538    148.2951   6.9134582543e+01   1.6635893694e+01    0.4533638    0.3351396 -63.95  0.001187021    1.711    0.415
       284  -8.4913    162.6301    150.6759   7.3016218726e+01   1.9064402176e+01    0.2944765    0.2235433 -85.68 0.0008225829    2.009    0.502
       285  -8.1503    212.9520    149.8934   6.2296059185e+01   9.5331633526e+00     0.203876    0.1662745 -66.31 0.0004380061    1.566    0.362
       286  -9.7810     40.0550    148.0983   1.0673106990e+02   4.0009911098e+01     0.581135    0.2939992  65.15  0.002066506    2.891    0.654
       287  -7.9283    228.9637    148.9454   5.9251922515e+01   6.8906826955e+00    0.1695956    0.1405059 -31.04 0.0004401988    1.042    0.040
       288  -8.5008    198.7804    148.7577   6.4763818459e+01   1.2376167778e+01    0.2781716    0.1866505 -49.89 0.0005924345    1.544    0.352
       289 -10.3497    148.9813    144.9645   7.5008599725e+01   2.3072109976e+01    0.6219764    0.4327951 -80.88  0.001589687    2.400    0.583
       290 -10.3954     89.1480    146.2965   9.1738059664e+01   3.3925230428e+01    0.7225403    0.4376514  85.83  0.002523616    3.143    0.682
       291  -8.0434     52.3296    149.3077   1.0326950954e+02   3.8335114832e+01    0.1473402    0.1027441 -34.14 0.0007039295    1.661    0.398
       292  -9.8343    233.5922    147.5894   5.8192111089e+01   6.3465002279e+00    0.2963257    0.1755676 -38.13 0.0009754096    1.454    0.312
       293 -10.2966    106.7041    144.1302   8.6167743308e+01   3.1457211995e+01    0.8458835    0.5543711 -89.67  0.002284474    2.653    0.623
       294 -10.4157     54.8784    144.7652   1.0176542109e+02   3.9195491576e+01    0.8344244     0.414601  64.97  0.002836862    3.614    0.723
       295  -8.2708    223.3182    146.9824   5.9810855058e+01   8.2212444048e+00    0.1987675    0.1585613 -35.68  0.000437296    1.105    0.095
       296 -10.0167    139.0159    144.8511   7.7507048036e+01   2.5102530385e+01     0.509002    0.3333234 -69.26   0.00125288    2.180    0.541
       297  -8.6931     78.0079    146.9911   9.5184956438e+01   3.5485177363e+01    0.2452521     0.178711  74.18  0.001027234    1.726    0.421
       298  -9.4926     12.9827    146.3078   1.1437561864e+02   4.2845708082e+01    0.3473288    0.2037753  70.69  0.001319562    1.893    0.472
       299  -7.8947    206.7485    146.5648   6.2736556871e+01   1.1300913242e+01    0.1741579    0.1411055  56.91 0.0005055667    1.489    0.328
       300  -9.9626    124.9598    142.5152   8.0700308925e+01   2.8422536227e+01    0.6276191    0.4071219 -78.09  0.001317397    2.586    0.613
       301  -7.6802    194.3768    144.1533   6.4620088060e+01   1.4126606930e+01    0.2080559    0.1300191 -50.93  0.000571175    1.688    0.408
       302  -8.7410    165.5212    143.9344   7.0804546766e+01   1.9937623875e+01    0.2776058    0.2397372  86.42  0.000703986    1.460    0.315
       303 -10.8295     69.4521    141.0402   9.6644030105e+01   3.8243248766e+01     0.695186     0.446952 -86.92  0.002211239    2.099    0.524
       304  -9.4026      2.7017    141.6544   1.1681016009e+02   4.4688049661e+01    0.3914227    0.1937338  77.01  0.001807403    2.317    0.568
       305  -8.7212    181.8588    141.5181   6.6616353238e+01   1.7134862183e+01    0.2977414    0.1884592 -56.52 0.0007673775    1.867    0.464
       306  -8.4884    250.4987    140.9643   5.4181074787e+01   4.7159706507e+00    0.2005314    0.1076008 -40.56 0.0006441136    1.549    0.354
       307  -8.6869    238.4760    140.4474   5.5918257498e+01   6.7719235891e+00    0.1342503    0.1141777 -32.92  0.000156907    1.008    0.008
       308 -10.0117     23.4132    138.1911   1.1034689193e+02   4.4083055598e+01    0.5345382    0.2660473  62.13  0.002119497    2.723    0.633
       309  -8.4751    172.1473    138.2153   6.7969403284e+01   1.9796514687e+01    0.2741739    0.1934491 -67.73 0.0005443392    1.941    0.485
       310  -7.6725    218.5277    138.5352   5.8834659859e+01   1.0623916321e+01    0.1406416     0.124993 -36.01 0.0002711403    1.037    0.036
       311  -8.3615    207.4997    138.1484   6.0739711354e+01   1.2760274674e+01    0.2179152    0.1929619 -68.96 0.0007114548    1.321    0.243
       312  -8.6386    197.5749    137.5408   6.2495371453e+01   1.4800308396e+01    0.2854337    0.1978421 -53.15 0.0008303281    1.541    0.351
       313  -9.1897    139.5810    137.2012   7.5573660989e+01   2.6742219148e+01    0.3774268    0.2384288   5.18  0.001301927    2.973    0.664
       314  -8.5650    162.6498    136.5465   6.9742092218e+01   2.2116511142e+01     0.261143     0.187356 -63.61 0.0006842403    1.726    0.421
       315  -8.9198    151.0604    136.0410   7.2398946312e+01   2.4637259969e+01    0.4239114    0.2422497  21.70  0.001487036    2.748    0.636
       316  -9.9248     56.3192    135.7540   9.9747692193e+01   4.1330389472e+01    0.5285985    0.2771474  -3.26  0.001735965    4.101    0.756
       317  -9.0090     39.2022    136.0768   1.0518132879e+02   4.3173959198e+01    0.2879584    0.2116193  68.33  0.001105799    1.558    0.358
       318  -8.9205    246.9175    130.1587   5.2510902158e+01   7.1161235998e+00    0.2538205    0.1517019 -49.23 0.0005585743    1.595    0.373
       319  -9.4020    250.7218    130.1125   5.1952104046e+01   6.4943066898e+00    0.4637426    0.1145575 -36.99   0.00152507    3.739    0.733
       320 -10.4483     83.6264    133.0597   9.0639049266e+01   3.8144063573e+01     0.618013    0.3849877 -73.05  0.001366526    2.045    0.511
       321  -7.7487    188.2710    135.6720   6.3929662507e+01   1.7025353406e+01    0.1460563    0.1164744 -70.63 0.0002240269    1.582    0.368
       322  -8.6010    237.6989    133.5973   5.4612712805e+01   8.0920971994e+00    0.2224055    0.1440374 -54.05 0.0006533598    1.671    0.401
       323  -7.8232    231.4556    133.9979   5.5685620872e+01   9.1116047425e+00    0.2084977    0.1179868 -39.59 0.0003909007    1.528    0.345
       324  -9.0085    112.8308    133.2581   8.1940727088e+01   3.2967599365e+01    0.3637044    0.2714906  74.81 0.0008211097    1.856    0.461
       325 -10.5154    131.2545    118.9164   7.3245919312e+01   3.2610753272e+01    0.7058328    0.4693671  89.93  0.002487621    3.031    0.670
       326 -10.3618    132.1121    131.0934   7.6067946437e+01   2.9667345175e+01    0.6994491    0.4175965 -62.90   0.00178292    2.218    0.549
       327 -10.3859     98.0288    130.1317   8.5568982769e+01   3.6446409328e+01    0.7552478    0.3075535 -53.17  0.001693174    2.418    0.586
       328  -9.1673    143.0511    131.6859   7.3354343257e+01   2.7275007291e+01    0.3116699    0.2513497 -69.40 0.0007682261    1.479    0.324
       329  -9.5650    168.3737    129.6038   6.6768130528e+01   2.2390899906e+01    0.3381286    0.2527482 -64.99 0.0007650861    1.635    0.388
       330 -10.1779     73.0398    129.2406   9.3149065311e+01   4.0726391385e+01    0.4536022    0.3348697  87.13  0.001284151    1.770    0.435
       331 -10.1707     12.7344    128.6196   1.1238189005e+02   4.7291454414e+01     0.614289    0.2943228 -88.60  0.002656406    2.407    0.585
       332  -8.0879    204.5047    130.0206   5.9470808908e+01   1.4884154116e+01    0.2042778    0.1170965 -59.64 0.0008087038    2.417    0.586
       333  -8.1966    192.7092    130.1614   6.1760628300e+01   1.7218187374e+01    0.2341523    0.1729186 -53.92 0.0005864326    1.424    0.298
       334  -9.4556    152.8883    128.5537   7.0136582204e+01   2.5898649165e+01    0.5493572    0.2680507 -52.20  0.001268811    2.274    0.560
       335  -7.8162      1.6530    130.2936   1.1595474287e+02   4.7555229118e+01     0.128152   0.08464837  64.86 0.0007030592    1.669    0.401
       336  -8.0087    211.4412    129.1740   5.8021722204e+01   1.3690207178e+01    0.2027723    0.1229651 -50.34  0.000916306    1.667    0.400
       337  -7.5354    186.5007    129.4859   6.2850648084e+01   1.8623202106e+01      0.14957    0.1409787 -34.59 0.0008105086    1.010    0.010
       338 -10.5286     60.0404    125.0983   9.6496432411e+01   4.3570955829e+01    0.7647274    0.4659204  74.26  0.002536249    2.771    0.639
       339 -10.7724     44.8542    123.4057   1.0118784792e+02   4.5808149695e+01     1.175544    0.6255333  77.21  0.003985271    3.940    0.746
       340  -9.8345    117.9244    125.2384   7.8541907961e+01   3.3882979624e+01    0.5436186    0.3693367  73.65  0.001356379    2.389    0.581
       341  -8.6614    179.3890    133.8982   6.5374616555e+01   1.9199069181e+01    0.2826576    0.2202916 -66.00 0.0009402889    1.558    0.358
       342  -8.9311    179.2650    124.7394   6.3222625347e+01   2.1087618976e+01    0.2899283    0.2349604 -79.98 0.0006788264    1.574    0.365
       343 -10.2092     28.4627    122.5096   1.0646435127e+02   4.7625775916e+01    0.6929214    0.3571354  71.94  0.002639249    3.322    0.699
       344  -9.1582    248.4900    135.4081   5.3352746266e+01   5.9722937731e+00    0.2900319    0.1764298 -41.26 0.0006912501    1.377    0.274
       345  -7.8596    188.4486    123.9603   6.1153106689e+01   1.9313817524e+01    0.2234893    0.1388748 -43.23 0.0004719836    1.519    0.342
       346  -8.8995     85.1646    122.5008   8.7772956146e+01   4.0518541231e+01     0.506321    0.2709014  12.18  0.001662024    3.434    0.709
       347  -7.7605    203.3410    122.1868   5.7894492856e+01   1.6597978322e+01    0.2105304    0.1215138 -48.55 0.0004970634    1.698    0.411
       348  -7.8444    195.0226    122.0579   5.9419135771e+01   1.8320166709e+01    0.2299516     0.173635 -69.79 0.0006241131    1.669    0.401
       349  -8.5309    172.0219    121.6812   6.4031118119e+01   2.3253416790e+01    0.2538806    0.2033904 -55.62 0.0005209678    1.308    0.236
       350  -8.8244    158.4854    121.5503   6.7061173228e+01   2.6202702758e+01    0.3119543    0.2492452 -73.23 0.0008299724    1.553    0.356
       351  -9.6946     71.1409    119.9301   9.1726729911e+01   4.3334381723e+01    0.5734232    0.3341424 -72.08  0.001592324    2.241    0.554
       352 -10.2608     66.6429    110.4464   9.1041290946e+01   4.6314328076e+01    0.6323562    0.4229174 -81.21  0.002568266    2.152    0.535
       353 -10.1390    141.5633    117.9521   7.0292765856e+01   3.0632162935e+01    0.6961465    0.3428883 -49.92   0.00115524    2.130    0.531
       354  -9.7114      2.8862    117.1801   1.1406308660e+02   5.0717308208e+01    0.5181829    0.2464696  72.52  0.002175387    3.052    0.672
       355  -8.2086    231.5082    117.9870   5.2251550024e+01   1.1907749680e+01    0.2019985   0.09977014 -55.95 0.0008101966    2.581    0.613
       356  -8.3873    185.5308    116.0049   5.9829013880e+01   2.1486628933e+01    0.2299853    0.1396878 -43.91 0.0004838028    1.564    0.361
       357  -9.9588    109.1810    114.1125   7.8253861489e+01   3.8190759897e+01    0.5151308    0.3630389 -75.61  0.001265128    2.067    0.516
       358  -9.8076    249.3821    114.3963   4.8929127821e+01   9.3283708425e+00    0.3848741    0.2279982 -65.19  0.001819562    2.430    0.589
       359  -8.3396    192.8804    115.1220   5.8186849150e+01   2.0095911061e+01    0.2236131    0.1898546 -62.32 0.0004556049    1.244    0.196
       360 -10.0162     78.8461    112.1843   8.7340278658e+01   4.4053658242e+01     0.643526    0.4233982 -83.49   0.00193158    2.515    0.602
       361  -8.7272     79.2359    105.0365   8.5394687627e+01   4.5693067494e+01     0.367649    0.1982284  14.66  0.001310221    2.917    0.657
       362  -8.7940     59.8988    114.9364   9.4384251543e+01   4.6132802284e+01    0.3775362    0.2007855   9.84   0.00143106    2.830    0.647
       363  -7.9171    167.0654    114.5061   6.3334445628e+01   2.5791751941e+01    0.2219529    0.1523243  48.44 0.0005492593    1.502    0.334
       364 -10.0018     92.7353    112.5858   8.2924107687e+01   4.1617123870e+01    0.4694668    0.3461242 -75.10  0.001248487    1.789    0.441
       365  -8.7883     26.9241    113.7947   1.0553150401e+02   4.9937678280e+01    0.2674305    0.1815443  -4.66  0.001185626    1.787    0.440
       366 -10.2301    133.6408    109.6683   7.0179964753e+01   3.4136713554e+01    0.7139089    0.3314994 -47.84  0.002233215    2.206    0.547
       367  -9.9488    121.7820    112.3286   7.4130931641e+01   3.6060301274e+01    0.3450005     0.294102 -61.17 0.0005900147    1.277    0.217
       368 -10.2177     13.9530    110.9647   1.0952571771e+02   5.1596135547e+01    0.4402802     0.279888  85.13  0.001614795    1.853    0.460
       369  -8.5710    174.7719    111.8682   6.1011170144e+01   2.4628725605e+01    0.2795633    0.1986885 -59.13 0.0006384611    1.588    0.370
       370  -8.6352    159.1755    111.6550   6.4387756324e+01   2.8112707302e+01    0.2708662    0.2021566 -52.98 0.0006357279    1.394    0.283
       371  -7.9002    149.6631    110.2124   6.6260345562e+01   3.0516136192e+01    0.2216637    0.1424183 -34.46 0.0004958581    1.636    0.389
       372 -11.1367    248.8940    108.0718   4.7695348768e+01   1.0450784067e+01    0.6333866    0.3403939 -49.70  0.003203479    1.698    0.411
       373  -8.1264    189.4033    108.1814   5.7176129036e+01   2.2153819152e+01    0.2118408    0.1293277 -50.75 0.0004670048    1.662    0.398
       374  -9.0677    109.2775    107.1316   7.6366497769e+01   3.9762421274e+01    0.3498558    0.2409188   8.71  0.001027233    2.053    0.513
       375  -9.1236    108.5963     92.1717   7.2354010859e+01   4.3152452856e+01    0.5749695    0.2906777  26.54   0.00196307    2.923    0.658
       376 -10.8674    109.3598     99.1432   7.4129375344e+01   4.1510917491e+01    0.9990299    0.5601087  66.17  0.001862825    3.856    0.741
       377  -9.6484    150.6714    103.2018   6.4159996108e+01   3.1731829983e+01     0.523332    0.3298446 -65.96  0.001640532    2.329    0.571
       378  -9.3596    139.9250    104.6285   6.7190810088e+01   3.3833786758e+01    0.3965953    0.3017308 -79.02 0.0008505923    1.806    0.446
       379  -8.7100     93.2920    105.0740   8.0770058623e+01   4.3268766456e+01    0.3531934    0.2132524 -17.40  0.001234972    2.713    0.631
       380 -10.6265     45.5819    102.1956   9.6586478511e+01   5.0987997579e+01     0.802603      0.46489  69.21  0.002861212    3.552    0.718
       381 -10.7332     22.8826    102.6756   1.0497791949e+02   5.2996188943e+01    0.7487139    0.4268503  73.32  0.002662198    2.903    0.656
       382  -8.5501    166.5137    104.1127   6.0800430335e+01   2.7988575072e+01    0.2376682    0.2051422 -72.80 0.0006146011    1.286    0.222
       383 -10.1191      6.3159    102.0948   1.1083199641e+02   5.4209983467e+01    0.5432501    0.1814923 -70.83  0.002187092    2.604    0.616
       384  -8.5271    184.7409    103.1412   5.6830255935e+01   2.4117228057e+01    0.2564992    0.1589217 -74.88 0.0009545916    2.847    0.649
       385 -10.1608    128.4837    101.9299   6.9455263139e+01   3.6903384417e+01    0.4358597    0.2970914 -55.68 0.0009774055    1.648    0.393
       386  -8.1675    175.4388    102.1874   5.8432180567e+01   2.6360945149e+01    0.2180294    0.1345587 -52.08 0.0005286657    1.706    0.414
       387  -8.2718    159.8592    101.0737   6.1471241967e+01   3.0084555586e+01    0.2372749    0.2000488 -69.62 0.0004898721    1.329    0.248
       388  -9.3510     81.9320     99.7626   8.3076692761e+01   4.6472278799e+01    0.4095813    0.2813954 -69.43 0.0007986361    1.946    0.486
       389 -10.1648     63.8332     95.6276   8.8309614910e+01   5.0234985342e+01    0.6606904    0.4374109 -84.51   0.00162658    2.677    0.626
       390  -9.1088     64.6448     87.7773   8.5862852816e+01   5.1902013618e+01    0.6451306    0.2284756  23.04  0.001879611    4.614    0.783
       391  -7.6429    182.5442    109.5157   5.8837319879e+01   2.3387569192e+01    0.1489801    0.1409553 -51.41 3.660042e-05    1.024    0.024
       392  -9.5254     94.9493     96.9108   7.7978017413e+01   4.4803687480e+01    0.3610225    0.2567698 -61.92 0.0006789133    1.694    0.410
       393  -7.6959    249.6790     95.7169   4.5058886552e+01   1.2302788237e+01    0.1160926   0.09736166  -3.93 0.0003166659    1.590    0.371
       394  -8.9641     43.1433    109.4104   9.9027086835e+01   4.9491773989e+01    0.3662156    0.1467583  17.60  0.001340973    3.243    0.692
       395  -8.2814    176.6346     93.6104   5.6000303078e+01   2.7696396354e+01    0.2934969    0.1571039 -56.81 0.0009928953    2.351    0.575
       396  -8.3024    164.9211     93.9776   5.8488086190e+01   3.0297227666e+01    0.2390058    0.1792479 -72.86 0.0005267638    1.668    0.401
       397  -7.6713    188.5683     93.5275   5.3728961722e+01   2.5032530890e+01    0.1448583    0.1351877 -58.09 0.0002224268    1.016    0.016
       398  -9.1731    138.9494     92.2876   6.4024684425e+01   3.6553904258e+01    0.3573085    0.2674488 -83.10 0.0008848531    1.904    0.475
       399 -10.2611    123.8582     91.3176   6.7710408825e+01   4.0100959935e+01    0.6126933    0.4136818  37.11  0.001491982    1.516    0.340
       400  -9.2406     46.5166     92.2663   9.3880549483e+01   5.3241112541e+01    0.4125439    0.2316327  10.95  0.001836217    2.200    0.546
       401  -9.6178      5.1695     92.2164   1.0967708208e+02   5.6628835724e+01     0.369187    0.2011994  50.71  0.001812296    2.545    0.607
       402  -8.5295    157.9275     91.7804   5.9414353273e+01   3.2315731174e+01    0.2675394    0.2121448 -40.70  0.000557984    1.256    0.204
       403  -9.6496     34.7221     89.7009   9.7800551985e+01   5.5081140840e+01     0.438132    0.2735119 -83.13  0.001900428    2.374    0.579
       404  -8.7796    151.1368     95.2009   6.1887058832e+01   3.3215350048e+01    0.3041821    0.2289739  15.16  0.001144759    1.755    0.430
       405  -8.3096    150.8815     89.1881   6.0291781869e+01   3.4426785364e+01    0.2313101     0.203752 -75.32 0.0004502475    1.254    0.203
       406  -9.5524    248.9963     87.5597   4.3470991610e+01   1.3708781823e+01     0.221044     0.161947 -23.26  0.001280285    1.630    0.386
       407 -10.1644     86.4884     86.0517   7.7601401504e+01   4.8705177328e+01    0.6294662    0.4091009 -53.65  0.001694705    1.698    0.411
       408  -8.4487    164.1594     87.1650   5.6830486129e+01   3.1733251216e+01    0.2102482    0.1709591 -66.00  0.000498174    1.349    0.259
       409  -9.9290     48.4630     83.9900   9.0973568058e+01   5.4907393456e+01    0.5360266    0.3796126  88.00  0.002478894    2.427    0.588
       410  -9.6595    104.8012     83.2212   7.0829576835e+01   4.5760279384e+01     0.416069    0.3120048 -69.73  0.001059654    1.865    0.464
       411  -8.1023    157.9538     83.9507   5.7271679585e+01   3.3756152353e+01    0.2317187    0.1762867 -71.07 0.0004736641    1.594    0.372
       412  -9.1407    140.9702     82.9033   6.0850244180e+01   3.7885757646e+01    0.3728398    0.2503158 -52.54 0.0007999452    1.646    0.392
       413  -9.2726     22.9716     90.2511   1.0249755451e+02   5.5964903072e+01    0.3465331    0.2581342 -13.49   0.00119919    1.421    0.296
       414  -8.0848     63.8693     82.3966   8.4599059967e+01   5.3198763797e+01    0.1914806    0.1763427 -50.72 0.0005394613    1.195    0.163
       415  -9.6542     24.7071     80.6334   9.9659103980e+01   5.8054710983e+01    0.4149593    0.2742079  87.07  0.001288037    2.406    0.584
       416  -9.4903     10.0235     81.0180   1.0572953185e+02   5.8977517469e+01    0.3856906    0.2004501  49.90  0.001487018    2.951    0.661
       417  -8.5103    150.2984     80.6198   5.8025941646e+01   3.6139828295e+01    0.2749665    0.1729014 -50.42  0.000713671    1.712    0.416
       418  -8.7853    119.3682     80.4135   6.5715654556e+01   4.3220651802e+01    0.3300135    0.2459622 -57.27 0.0008119596    1.578    0.366
       419  -8.7618     74.4932     80.2774   8.0042810748e+01   5.1992791166e+01    0.3609618    0.2312457 -64.39  0.001260021    2.246    0.555
       420  -9.0560    249.6289     80.1758   4.1891109336e+01   1.4728789672e+01    0.1790519     0.106501 -32.00 0.0009469668    1.728    0.421
       421  -8.1477    166.8669     79.6740   5.4263755500e+01   3.2435390478e+01    0.2396647    0.1934688 -29.08 0.0003364767    1.331    0.248
       422  -7.8300    184.2166     78.0499   5.0609522331e+01   2.8697390752e+01    0.1915293    0.1134818 -37.56 0.0007542161    1.670    0.401
       423  -7.7881    157.4338     76.5253   5.5327568897e+01   3.5190002330e+01     0.147095    0.1396223 -82.10 0.0001919804    1.058    0.055
       424  -8.6643    140.1973     75.4639   5.8870818399e+01   3.9410174984e+01    0.2392842    0.2002366 -65.33 0.0005500445    1.351    0.260
       425  -9.3697    128.0651     74.8541   6.1692380187e+01   4.2307818377e+01    0.5146873    0.2416004 -41.48  0.001235399    2.188    0.543
       426  -9.6862     82.4876     72.6735   7.4796417336e+01   5.2151244704e+01    0.4180985    0.2961456 -65.35 0.0009249085    2.083    0.520
       427  -9.9379     63.0711     73.5069   8.2196148706e+01   5.5196343571e+01    0.4396317    0.2832692 -58.48 0.0009663255    1.901    0.474
       428  -8.3579    163.4672     73.0933   5.3149573345e+01   3.4353893457e+01    0.2195752    0.1403586 -41.27  0.001014661    1.567    0.362
       429  -7.8076    151.4849     73.5017   5.5744011698e+01   3.7108485953e+01     0.147494    0.1404758  88.50 0.0002575628    1.058    0.055
       430  -8.6825    115.7356     72.7935   6.4376809156e+01   4.5431262264e+01     0.278387     0.198606 -46.85 0.0006070987    1.509    0.337
       431  -8.2665     42.3113     72.4572   9.0199940097e+01   5.8154424195e+01    0.2221494    0.1670123 -73.98  0.001011323    1.838    0.456
       432  -9.6490     28.3575     69.9898   9.5411128031e+01   6.0105059620e+01    0.5848817    0.1887456 -40.16  0.002217886    2.907    0.656
       433  -7.5380    175.4681     72.5461   5.0735061596e+01   3.1630366841e+01    0.1427647    0.1346342 -81.39  8.96175e-05    1.012    0.012
       434  -9.3657    105.8977     71.6859   6.6880300269e+01   4.7745483157e+01    0.2698644    0.2101519 -47.57 0.0004812361    1.398    0.285
       435  -9.2635     95.0546     71.0230   7.0039432061e+01   5.0084199551e+01    0.3759648    0.2273009 -53.26  0.001074671    2.054    0.513
       436  -9.5012     51.4621     69.5817   8.5560307611e+01   5.7636069656e+01    0.4452921    0.2691802 -65.42  0.001533117    2.475    0.596
       437  -9.1609     16.5554     69.6266   1.0043502858e+02   6.1122086567e+01    0.3579548    0.2175865 -77.45  0.001307274    2.205    0.546
       438  -8.4509     18.5926     62.7038   9.7730135444e+01   6.2464656989e+01    0.4666631    0.1831186 -14.27  0.001533128    4.963    0.799
       439  -8.8428    147.0930     68.1873   5.5169068478e+01   3.9037314388e+01    0.3028784    0.2030153 -44.69 0.0006072441    1.547    0.354
       440  -9.2758    138.3287     65.9340   5.6476277139e+01   4.1471735946e+01    0.3311697    0.2128172 -58.10 0.0009911426    1.963    0.491
       441  -9.0806    121.7055     65.8312   6.0556345283e+01   4.5322218493e+01     0.360698    0.2126904 -50.03 0.0009022625    1.991    0.498
       442  -7.4852    203.2948     66.7099   4.4800760314e+01   2.6213316510e+01    0.1383234   0.09593869 -69.36 0.0002236498    1.552    0.356
       443  -9.0211     64.2690     63.6553   7.8509723723e+01   5.6968908137e+01    0.4826341    0.2885142 -10.72  0.002064049    2.373    0.579
       444  -8.0894    131.0000     64.9610   5.7924907751e+01   4.3340197861e+01    0.2316203    0.0842068 -36.38 0.0006007178    2.879    0.653
       445  -8.5853     95.4366     64.5604   6.7776079886e+01   5.1184977743e+01     0.333006     0.191488  15.57  0.001226262    2.952    0.661
       446  -9.3179     97.7906     60.5710   6.5684417510e+01   5.1397633832e+01    0.3503375    0.2774257  63.55  0.001146811    1.546    0.353
       447  -8.5878     85.0414     64.2935   7.1124635628e+01   5.3259728508e+01    0.4118685    0.2024805  22.97  0.001425792    3.272    0.694
       448  -9.1772     37.2609     64.4568   8.9943057472e+01   6.0392665660e+01    0.2695161    0.2230632 -74.91 0.0009758252    1.671    0.402
       449  -8.1255    158.4303     61.9230   5.1032499675e+01   3.7350009357e+01    0.2088476    0.1382989 -39.40 0.0004489175    1.546    0.353
       450  -9.5957     73.3023     59.4827   7.3638219896e+01   5.6252100935e+01    0.4018894    0.2389742 -51.39    0.0011218    2.077    0.519
       451  -8.2995     89.0956     59.6521   6.8162612271e+01   5.3302280454e+01    0.2291744    0.1929648 -46.39 0.0005636427    1.352    0.261
       452  -7.9379    146.6930     59.2078   5.2622865317e+01   4.0565546248e+01    0.1933513    0.1339669 -25.23 0.0004639128    1.655    0.396
       453  -8.8993    110.1772     63.7459   6.3049084372e+01   4.8233419107e+01     0.275232    0.2456884 -73.16 0.0006870807    1.369    0.270
       454  -8.2399    130.7695     57.7986   5.5756173377e+01   4.4540893364e+01    0.1904939    0.1674577 -79.46  0.000408102    1.303    0.233
       455  -9.7884     23.4708     56.4078   9.3668275297e+01   6.3374229515e+01    0.3935039    0.2854235  86.11  0.002033651    2.623    0.619
       456  -9.3480      7.5775     57.3097   1.0136123594e+02   6.4323904555e+01    0.2485931    0.1963514 -80.27 0.0009032781    1.641    0.390
       457  -8.4073    139.9856     56.0086   5.3104033836e+01   4.2646034619e+01    0.2197482    0.1692286 -74.42 0.0004416389    1.601    0.375
       458  -9.2636    119.1300     55.1983   5.7810187909e+01   4.7625644759e+01    0.4200397    0.2292501 -46.97  0.001649657    2.138    0.532
       459  -8.7171     44.1468     55.6894   8.4076388609e+01   6.1327954262e+01    0.2156406    0.1747312 -48.67 0.0008300604    1.386    0.279
       460  -8.9207     62.9010     54.6843   7.5903841920e+01   5.8840182652e+01    0.2485733    0.1878943 -43.26 0.0006511778    1.427    0.299
       461  -9.0643     53.9283     53.7078   7.9197299305e+01   6.0377487627e+01    0.3750047    0.1953938 -53.11  0.001431972    2.468    0.595
       462  -8.6694    105.9466     53.4117   6.0800179093e+01   5.0835132693e+01    0.2470891    0.1978659 -55.17  0.000689435    1.525    0.344
       463  -8.0821    163.4536     53.4868   4.7739689749e+01   3.7416264379e+01    0.1394428     0.130131  82.95 9.264694e-05    1.006    0.005
       464  -9.5572     92.4015     50.5686   6.3886706802e+01   5.4132581106e+01    0.4154058    0.2312037 -47.46  0.001219523    2.224    0.550
       465  -8.5581     75.0434     51.2656   7.0043936063e+01   5.7363262389e+01    0.3241033    0.1462427  29.52  0.001257086    2.629    0.620
       466  -9.1321      8.5350     49.9664   9.8887979437e+01   6.5773212646e+01    0.2695052   0.09341052 -27.40  0.001044761    3.460    0.711
       467  -8.1800    144.8627     48.9299   4.9946591434e+01   4.2515178889e+01    0.1922078    0.1600777 -66.32 0.0005405084    1.321    0.243
       468  -8.4584    129.7691     49.0336   5.3226677173e+01   4.6080302542e+01     0.177357    0.1189195 -33.40  0.000388529    1.600    0.375
       469  -8.3933    112.1958     46.7987   5.6821053411e+01   5.0441259242e+01    0.2319782    0.1834975 -44.44 0.0006588768    1.422    0.297
       470  -9.0822     82.1801     46.4533   6.5745203811e+01   5.6798641259e+01    0.2811525    0.2296321 -42.05 0.0006308989    1.413    0.292
       471  -8.1110    152.3178     45.6458   4.7536892614e+01   4.1182114065e+01    0.1467925    0.1026878 -71.22 0.0007046327    1.746    0.427
       472  -8.4658     45.1140     44.7260   7.9670635637e+01   6.3194145648e+01    0.2050582    0.1662902 -39.67 0.0005989469    1.349    0.259
       473  -9.1841     16.5140     44.8210   9.3332595529e+01   6.6224510713e+01    0.1968591    0.1904678  44.21 0.0006239394    1.483    0.326
       474  -8.7141     92.8124     42.9839   6.1008312624e+01   5.5182801937e+01    0.2574756    0.1860175   1.46  0.001329924    1.605    0.377
       475  -8.9539     58.3005     42.6735   7.3237146871e+01   6.1604889653e+01    0.2929282    0.2197522 -57.58  0.001281873    2.019    0.505
       476  -8.8314    120.8978     47.3588   5.4791154659e+01   4.8381697201e+01    0.2193789     0.193391 -47.29 0.0005300721    1.258    0.205
       477  -9.3468     69.5844     41.4786   6.8349173134e+01   5.9892726130e+01    0.3529842    0.2551431 -52.86  0.001218091    1.945    0.486
       478  -9.4682      5.2250     42.0953   9.8203564952e+01   6.7523305790e+01    0.2908183     0.204041 -76.12  0.001244241    2.084    0.520
       479  -8.4446    106.0175     41.3064   5.6575730346e+01   5.2584100963e+01     0.233817    0.1901923 -61.82 0.0006515123    1.586    0.370
       480  -8.2953    140.3833     41.2494   4.8522405213e+01   4.4626545291e+01    0.1871943    0.1251499 -44.77 0.0006038219    1.625    0.385
       481  -8.4014     36.9719     40.5587   8.1795677192e+01   6.4950993195e+01    0.2136915    0.1734619 -50.09 0.0005976391    1.570    0.363
       482  -8.8841     95.5119     37.9250   5.8331938975e+01   5.5316572392e+01    0.2410015    0.2144502 -88.13 0.0007332246    1.477    0.323
       483  -8.3481     80.6802     36.7043   6.2541652141e+01   5.8510437584e+01    0.2435944    0.1502732 -51.34  0.000971311    2.394    0.582
       484  -9.2333     26.2433     35.5199   8.5058260298e+01   6.7024395854e+01    0.2529831     0.194899 -53.25 0.0008487155    1.687    0.407
       485  -7.5862    133.4647     36.4853   4.8444470017e+01   4.6881385277e+01    0.1374839     0.124593  58.11 0.0004686663    1.003    0.003
       486  -8.1787    125.9311     35.6669   4.9781412095e+01   4.8761785102e+01    0.1925453    0.1588921  58.72 0.0003656942    1.109    0.098
       487  -9.0616    175.6144    247.7711   8.8197185262e+01  -1.9802377419e+00    0.2793542    0.2191156  60.21  0.001505295    1.955    0.488
       488  -7.7397     88.5178     34.5024   5.9161455840e+01   5.7231062426e+01    0.1347201    0.1197282  29.10  1.98824e-05    1.042    0.041
       489  -8.9114     48.5290     33.1455   7.3522261804e+01   6.4587120337e+01    0.2496455    0.2105349 -35.98 0.0007282098    1.416    0.294
       490  -8.3770    119.1815     33.1913   5.0474766534e+01   5.0638563359e+01    0.1765255    0.1575164 -75.67 0.0004096474    1.302    0.232
       491  -8.8303     60.8316     32.6066   6.8151056314e+01   6.2710608966e+01    0.2255789    0.1781378 -34.03 0.0006408094    1.418    0.295
       492  -8.4580    139.5561     31.7817   4.5782003929e+01   4.5998191707e+01    0.1841393    0.1212783 -46.30 0.0009409486    1.683    0.406
       493  -8.7441     72.2471     31.2362   6.3285854662e+01   6.0861698114e+01    0.2113093    0.2060902 -69.88 0.0006703957    1.411    0.291
       494  -8.7387     12.9366     30.2272   8.9979623987e+01   6.9167896238e+01    0.2538983    0.1590421 -56.13  0.001039433    1.955    0.488
       495  -8.3212    101.3335     29.4137   5.3564016903e+01   5.5127450299e+01    0.2052859    0.1546904 -50.97 0.0006468315    1.680    0.405
       496  -8.7443     81.4059     27.5281   5.8682136723e+01   5.9554453860e+01    0.2409871    0.2119693 -60.23 0.0007655638    1.570    0.363
       497  -9.2161      3.5141     27.4090   9.4161132170e+01   7.0342084983e+01    0.2778476    0.1794812 -57.08  0.001452605    1.776    0.437
       498  -7.7227    104.6585     34.3300   5.4461467137e+01   5.3795711503e+01    0.1340266    0.1069685 -79.43 0.0007051377    1.745    0.427
       499  -8.9516     91.8208     26.4225   5.5077275713e+01   5.7533621561e+01    0.2607495    0.1857637 -37.36 0.0007882283    1.623    0.384
       500  -8.3229    104.5136     23.0323   5.0416251393e+01   5.5138828982e+01    0.1801657    0.1307564 -25.20 0.0005018688    1.539    0.350
       501  -7.9999     34.7717     23.2126   7.5593719996e+01   6.7966697513e+01    0.1644473    0.1365229  71.80 0.0009351915    2.674    0.626
       502  -8.8791     63.4393     21.0462   6.2212585390e+01   6.3757985330e+01     0.256253     0.198835 -41.72 0.0008917195    1.684    0.406
       503  -8.8422     48.3465     21.6541   6.8595534808e+01   6.6228667110e+01    0.2056376    0.2018333 -52.27  0.000689871    1.592    0.372
       504  -8.2028    120.7381     21.1473   4.6081770416e+01   5.1621035100e+01    0.2156262    0.1283403 -68.38 0.0009388709    2.740    0.635
       505  -8.9053    132.3006    247.9826   9.7350728696e+01   4.3315082204e+00    0.2797326    0.2001444  73.48 0.0008415125    2.087    0.521
       506  -8.4278    113.1202    248.4552   1.0152188258e+02   7.0555518630e+00    0.2319546    0.1635949  88.03 0.0008878155    1.985    0.496
       507  -8.2691     38.5669     18.0799   7.1397000824e+01   6.8154854138e+01     0.172488    0.1075729 -29.67  0.001016779    1.579    0.367
       508  -7.2278    112.6952     16.7252   4.6270550995e+01   5.3923546474e+01    0.1338651   0.08549563  37.30 0.0002267616    1.543    0.352
       509  -8.2149     29.9953     15.9620   7.4620646126e+01   6.9593348967e+01    0.1545081    0.1541028  13.91 0.0008063365    1.749    0.428
       510  -8.3866     97.0037     14.9957   4.9307649237e+01   5.7617821572e+01    0.1851217    0.1534929 -72.46 0.0005140217    1.611    0.379
       511  -7.8800      7.3240     15.6273   8.7118067916e+01   7.2022571163e+01   0.09593043   0.09138002  43.52 0.0007031075    1.815    0.449
       512  -8.3850     87.9448     17.7346   5.2795693939e+01   5.9299471357e+01    0.2021253    0.1609902 -42.77 0.0004562851    1.567    0.362
       513  -9.2304    103.8003    246.5752   1.0330354059e+02   8.7490017768e+00    0.4222258    0.2393957 -83.97  0.001940524    2.905    0.656
       514  -9.1094    242.9136    246.4254   7.5051767227e+01  -1.0559748707e+01    0.3028863    0.1391272 -30.80  0.001672511    1.972    0.493
       515  -8.6465    218.6317    247.5358   7.9665867694e+01  -7.7755586535e+00    0.2703375    0.1311544 -37.79  0.001411106    2.115    0.527
       516  -8.4941    156.1432    247.9252   9.2273237288e+01   8.2123882615e-01    0.1867732    0.1596392  44.62 0.0005976208    1.297    0.229
       517  -8.4551     63.1856    248.6174   1.1207114527e+02   1.3851089446e+01    0.1702908    0.1077438  26.23 0.0009568256    1.732    0.423
       518 -10.0771    223.9127    243.6904   7.8051023983e+01  -7.9028125237e+00      0.51797    0.2372194 -44.79  0.002514722    2.759    0.638
       519  -9.0966    210.9839    246.5701   8.0965294805e+01  -6.6552202447e+00    0.2015174    0.1655041 -42.30 0.0007567297    1.659    0.397
       520  -9.1897    147.0551    245.9385   9.3919221818e+01   2.5026051740e+00    0.2829869    0.2111584  67.96  0.001421378    1.979    0.495
       521  -9.2777    147.2931    240.6484   9.3118604424e+01   3.3941951912e+00    0.3879056    0.2542276  80.87  0.001628475    3.646    0.726
       522  -9.2023    120.3185    245.7360   9.9641414769e+01   6.5056644316e+00    0.3378395    0.2221883  71.38  0.001676833    2.254    0.556
