#   1 NUMBER                 Running object number                                     
#   2 MAG_AUTO               Kron-like elliptical aperture magnitude                    [mag]
#   3 X_IMAGE                Object position along x                                    [pixel]
#   4 Y_IMAGE                Object position along y                                    [pixel]
#   5 X_WORLD                Barycenter position along world x axis                     [deg]
#   6 Y_WORLD                Barycenter position along world y axis                     [deg]
#   7 A_WORLD                Profile RMS along major axis (world units)                 [deg]
#   8 B_WORLD                Profile RMS along minor axis (world units)                 [deg]
#   9 THETA_WORLD            Position angle (CCW/world-x)                               [deg]
#  10 FWHM_WORLD             FWHM assuming a gaussian core                              [deg]
#  11 ELONGATION             A_IMAGE/B_IMAGE                                           
#  12 ELLIPTICITY            1 - B_IMAGE/A_IMAGE                                       
         1 -11.9379    144.8561     33.0866   2.9039091401e+02   6.5183632538e+00   0.02361403   0.01573677  82.72 0.0004080842    2.067    0.516
         2 -12.1022     76.6158     24.0998   2.9114271755e+02   7.0388595034e+00   0.02896719   0.02247892  77.35  0.001738748    1.542    0.351
         3  -9.3991    229.6597     25.1964   2.8934185455e+02   6.0878822604e+00  0.009513765  0.005770077 -50.65 0.0002341073    1.653    0.395
         4 -10.3467     52.4598     23.1825   2.9142292789e+02   7.1968036673e+00   0.01772782  0.009798163 -49.00  0.001300628    1.826    0.452
         5 -11.1306     41.6039     18.5391   2.9152307982e+02   7.3161789986e+00   0.02330488   0.01941082  24.72  0.002701378    1.181    0.153
         6 -10.1131     39.8391      1.5585   2.9144034284e+02   7.5213910536e+00   0.01838134  0.008650471  19.80  0.001514392    2.417    0.586
         7 -11.1764     22.4123      9.3608   2.9169429582e+02   7.5382008096e+00   0.01934044   0.01529863  13.73    0.0020757    1.314    0.239
         8 -11.0881     40.5142      6.2889   2.9146122509e+02   7.4631135992e+00   0.02913893   0.01708271  30.01  0.002685149    1.642    0.391
         9 -12.1663     29.9440      7.2412   2.9159218393e+02   7.5166117181e+00   0.02530445   0.02182928 -62.99  0.002508178    1.189    0.159
        10 -10.7923     26.9636     15.5018   2.9167786474e+02   7.4401587842e+00   0.01827085   0.01708405 -15.51  0.001678104    1.095    0.086
        11 -10.5929    140.8992     11.5092   2.9030572018e+02   6.7896561539e+00   0.01336616  0.009810799 -78.89 -0.0001545203    1.561    0.360
        12 -11.1484    212.3112     11.6835   2.8946367939e+02   6.3491781489e+00   0.01404745   0.01224813  34.58 0.0006108313    1.121    0.108
        13 -10.4537    184.6040     12.0468   2.8979283786e+02   6.5153112863e+00   0.01198178    0.0086745  39.36 0.0006973317    1.356    0.263
        14 -11.2267    119.0374     11.8647   2.9056628502e+02   6.9195276172e+00   0.01128772   0.01078971  -5.02  0.001390825    1.055    0.052
        15 -11.1585     87.1029     10.8625   2.9093781023e+02   7.1263722484e+00    0.0289606   0.01727169 -30.68   0.00189463    2.127    0.530
        16 -11.2452     92.5918      9.4307   2.9086413417e+02   7.1092106770e+00   0.01328824   0.01075844 -35.08 0.0005059572    1.305    0.233
        17 -10.1954      9.0222     10.4964   2.9185978702e+02   7.6066708390e+00   0.01422193    0.0084271 -17.51  0.001166875    2.543    0.607
        18 -11.2093     13.4311      8.4524   2.9179511086e+02   7.6032604961e+00   0.02371131   0.01435952  27.92   0.00137312    1.609    0.379
        19 -12.2897     55.9536      5.6069   2.9127429534e+02   7.3767718166e+00   0.04065974    0.0251566  53.76   0.00391618    1.879    0.468
        20 -11.4320     70.6964      7.1513   2.9110924928e+02   7.2691003266e+00   0.02124041   0.01721631  46.04  0.001289029    1.252    0.201
        21 -10.5618     65.7991      6.3961   2.9116259060e+02   7.3076489905e+00   0.01403046   0.01173843 -10.53  0.001308223    1.307    0.235
        22 -10.3930     10.0661      1.5342   2.9179277161e+02   7.7029509821e+00   0.01535368   0.01035853  29.69  0.001598991    1.436    0.304
        23 -10.3040      6.1684      4.6016   2.9185764385e+02   7.6915318584e+00     0.014695   0.01028026 -10.75 0.0009124617    1.791    0.442
        24 -10.4788      3.8515     10.1392   2.9191884743e+02   7.6422037783e+00   0.01153479   0.01049783 -75.63  0.000366051    1.155    0.134
        25 -10.5540      2.2873      6.5925   2.9191575187e+02   7.6923307863e+00   0.01315043   0.01110535  -3.07  0.001025989    1.274    0.215
        26  -9.4422    184.3073      8.3049   2.8977343469e+02   6.5599491093e+00  0.006905705  0.005029852 -24.65 0.0005088216    1.606    0.377
        27 -11.4820    151.5824      5.5899   2.9014327998e+02   6.7918956913e+00   0.02671277   0.01136396 -55.34  0.001443472    2.267    0.559
        28  -9.4259    124.7114      8.3765   2.9047788115e+02   6.9247096140e+00  0.009105753  0.006351625  13.63 0.0004137303    1.559    0.359
        29 -10.7001    218.1946      7.0883   2.8936614656e+02   6.3655538644e+00   0.01036105  0.009031939 -21.94 0.0007369855    1.219    0.180
        30 -10.0508    160.3990      4.5978   2.9003305673e+02   6.7491569730e+00   0.01174031  0.008882849 -64.19 0.0008772342    1.366    0.268
        31 -11.8493     34.9531     13.4322   2.9157065140e+02   7.4151991518e+00   0.02603465   0.02169357 -68.24  0.002900481    1.254    0.202
        32  -9.5432    235.5080      4.4888   2.8914608715e+02   6.2887431135e+00  0.006624816   0.00646808   6.90 0.0008104825    1.016    0.016
        33 -11.0138    130.1889      3.3536   2.9038241161e+02   6.9486437218e+00   0.01554375   0.01028791  47.04  0.001087718    1.579    0.367
        34 -10.3084    120.9774      4.0971   2.9049585183e+02   6.9965623127e+00  0.009855847  0.009672089  17.52 0.0004366585    1.004    0.004
        35 -10.3503    243.7043      2.4743   2.8903714197e+02   6.2613139530e+00   0.01315293   0.01097887  -5.87 0.0009620581    1.311    0.237
        36  -9.8648    199.1586      2.8043   2.8956447362e+02   6.5316150491e+00    0.0104835  0.008894165  53.08 0.0006728375    1.229    0.186
        37  -9.5468    174.3069      3.3375   2.8986109029e+02   6.6782029894e+00   0.00708134  0.004977716 -27.02 0.0004360926    1.677    0.404
        38  -9.7573     90.9866      2.8937   2.9084317126e+02   7.1938632839e+00   0.01586504  0.007649015  42.97  0.001374012    2.123    0.529
        39 -10.6991     19.2553      2.6058   2.9169047431e+02   7.6347694809e+00    0.0194893   0.01250814   5.64  0.001710755    1.925    0.481
        40 -11.4331     80.3198      1.5926   2.9096141749e+02   7.2739560886e+00   0.01850486  0.008921533  23.02 0.0009071951    2.179    0.541
        41  -8.7242      2.3134      2.6692   2.9189152114e+02   7.7370978102e+00  0.007041298  0.004999218  62.11 0.0007044573    1.677    0.404
        42 -10.9258     12.6326    130.4581   2.9254686463e+02   6.2092716354e+00   0.02134578   0.01140188  54.04  0.001195466    2.367    0.577
        43 -12.7088     18.8796    247.6946   2.9318311884e+02   4.8254910675e+00   0.07139812   0.02789117  14.10  0.004366934    4.689    0.787
        44 -12.4145      2.1362    221.7589   2.9322385776e+02   5.2249997553e+00   0.06893783   0.01943531 -64.25  0.004477791    3.964    0.748
        45 -12.5762     10.0218    231.4969   2.9318969458e+02   5.0652872318e+00    0.0271176    0.0207814  15.00  0.001790257    1.361    0.265
        46 -11.7070      8.5300    227.5388   2.9318336717e+02   5.1197941693e+00   0.02747742   0.01586464  16.00  0.001760333    1.966    0.491
        47  -9.1854      1.6577    132.6963   2.9269015448e+02   6.2502992087e+00  0.007057665  0.005023418 -22.76 0.0007040107    1.681    0.405
        48  -9.6959     29.0809    128.9899   2.9234356524e+02   6.1260518204e+00   0.01362494  0.008660373  75.41  0.001235422    2.278    0.561
        49  -9.4567    226.4551    124.5074   2.8998680297e+02   4.9703889464e+00  0.006632255  0.006447454  43.46 0.0004607556    1.032    0.031
        50 -10.3796     23.9997    122.0203   2.9236128472e+02   6.2369495207e+00   0.01268089   0.01048826 -89.12  0.001190442    1.364    0.267
        51 -10.7191     22.0000    118.9522   2.9236628327e+02   6.2843213019e+00   0.01532907  0.009118509 -68.72  0.001182874    1.843    0.457
        52 -10.6521     17.3183    115.0094   2.9239767430e+02   6.3580423358e+00  0.009271893  0.008771166 -58.79   0.00046316    1.078    0.072
        53  -9.5075     96.4528    113.9439   2.9145606432e+02   5.8878192129e+00  0.009751933  0.006689863 -67.39   0.00100158    1.546    0.353
        54 -11.0204      3.8683    113.5377   2.9254774274e+02   6.4567095348e+00   0.01988213   0.01189751   6.28  0.001505399    2.175    0.540
        55  -9.7396    248.6991    111.6553   2.8964632730e+02   4.9810167303e+00   0.00709652  0.004963474 -27.92 0.0007037956    1.680    0.405
        56 -10.5086     65.5944    110.3634   2.9179883729e+02   6.1172686623e+00   0.01227178   0.01180321 -14.38 0.0005858138    1.050    0.048
        57 -10.8676     12.8927    108.7773   2.9241213546e+02   6.4564616700e+00   0.01627608   0.01142787 -88.85   0.00164718    1.790    0.441
        58 -11.2095      5.4844    108.5013   2.9249804935e+02   6.5046712313e+00   0.02072596    0.0143425  13.77  0.002082049    1.571    0.363
        59 -10.6655     58.5317    107.2212   2.9186318262e+02   6.1963870143e+00   0.01942634   0.01052679 -21.57  0.001499111    3.124    0.680
        60  -9.3377     79.6450    106.7070   2.9161055799e+02   6.0734690069e+00  0.007050861  0.005038286 -20.98  0.000703044    1.686    0.407
        61  -9.6112     23.3233    100.3004   2.9223729530e+02   6.4902550243e+00  0.006958649  0.005031322 -23.47 0.0007027084    1.631    0.387
        62 -10.7905     61.8577     99.0969   2.9177443145e+02   6.2692918362e+00    0.0107157  0.009240348  62.86  0.001243084    1.251    0.200
        63 -11.5745     11.1975     87.7208   2.9230421466e+02   6.7083159693e+00   0.03339611   0.01333918 -57.23  0.002439184    2.405    0.584
        64 -12.0711     18.0985     94.7608   2.9226539963e+02   6.5855911857e+00   0.02531782   0.02185472 -63.48  0.001445208    1.188    0.159
        65 -10.0458     16.0219     89.4943   2.9225793884e+02   6.6586323837e+00   0.01539684  0.009098663  26.18  0.001046221    1.671    0.402
        66 -10.0240     18.8221     86.8322   2.9220863439e+02   6.6721293690e+00   0.01706785    0.0124276 -84.32  0.001309072    1.637    0.389
        67 -10.4291      6.7349     97.9906   2.9241941102e+02   6.6176503659e+00   0.01406489  0.008316998  -7.16  0.001182718    2.603    0.616
        68  -9.0061    129.5320     97.4999   2.9096519369e+02   5.8741235910e+00  0.006615318  0.006479013   9.18 0.0008098026    1.010    0.010
        69  -9.6348      3.7523     95.4287   2.9243911772e+02   6.6651691234e+00  0.009225256  0.006472734  12.04 0.0009429754    1.566    0.361
        70 -10.5218     84.2412     93.9768   2.9147872064e+02   6.1914072013e+00   0.01449428  0.009627907  20.71  0.001138413    1.549    0.354
        71 -11.1934     27.1071     90.5800   2.9213344727e+02   6.5787236200e+00   0.03486615    0.0160005  52.43  0.002683308    2.950    0.661
        72 -10.0031    117.6500     90.0108   2.9105984726e+02   6.0326869850e+00   0.01521711  0.005641358  37.38  0.001186981    2.515    0.602
        73 -10.7461     43.5221     89.3237   2.9193170551e+02   6.4931618894e+00   0.02150319  0.009201188  39.58   0.00120656    2.269    0.559
        74 -10.2427      1.7097     89.6288   2.9242803131e+02   6.7441118194e+00   0.01389806  0.008431831 -59.70 0.0005007656    1.657    0.397
        75 -10.5297      3.5242     83.4482   2.9236900145e+02   6.8039720464e+00    0.0187515   0.01020822 -41.76  0.001551211    2.026    0.506
        76  -9.8429     76.8136     88.8745   2.9153541776e+02   6.2952685427e+00   0.01066845  0.009094733 -20.87  0.001228678    1.261    0.207
        77  -9.7648     64.9216     88.2972   2.9167246388e+02   6.3744607118e+00  0.009362777  0.008851238  12.90 0.0005088245    1.049    0.047
        78  -9.3720     32.8120     88.1267   2.9205106149e+02   6.5721290122e+00  0.008385032  0.005247455 -65.60 0.0005012247    1.681    0.405
        79  -9.9209    124.0299     86.9736   2.9096597060e+02   6.0284736055e+00  0.009993971  0.009739137  14.37 0.0004335781    1.009    0.009
        80  -9.6359     92.5049     85.1213   2.9132710755e+02   6.2424729709e+00  0.009378985   0.00664653 -63.12  0.000343303    1.451    0.311
        81  -9.5279     72.2936     85.6337   2.9156910050e+02   6.3600212248e+00  0.007068879  0.005028632  65.66 0.0007028513    1.715    0.417
        82 -11.0945     54.4298     84.0954   2.9177091266e+02   6.4866365179e+00   0.01282799   0.01165914 -74.41 0.0003938892    1.153    0.132
        83  -9.3658     42.9937     84.0483   2.9190584530e+02   6.5568820306e+00  0.007670995   0.00750582 -54.22 0.0003250736    1.043    0.041
        84 -12.0464     63.9942     80.6696   2.9163697202e+02   6.4675858803e+00   0.03122388   0.01685371 -55.10  0.002853778    1.824    0.452
        85 -10.0753    250.3640     80.7958   2.8943810439e+02   5.3241817744e+00   0.00964435  0.005878219 -50.87 0.0006827625    1.643    0.391
        86  -9.8963     89.3141     80.5841   2.9133716000e+02   6.3139888546e+00   0.01160487  0.008395602 -80.99 0.0006821631    1.617    0.382
        87  -8.8367    124.4631     79.4459   2.9091493187e+02   6.1121146001e+00  0.006689559  0.006355782  48.44 0.0001298605    1.063    0.059
        88  -9.3509     85.2197     79.6271   2.9137971766e+02   6.3499712144e+00   0.00836094  0.006311453  12.30 8.526276e-05    1.413    0.292
        89  -9.4186     79.0627     79.5140   2.9145180153e+02   6.3888680125e+00   0.00983979  0.006486619  26.93 0.0003253337    1.488    0.328
        90  -9.4109     24.1674     78.8489   2.9209685093e+02   6.7311578484e+00  0.009587124  0.007812408 -25.13  0.001072301    1.339    0.253
        91  -9.7555      2.7982     78.3737   2.9234673893e+02   6.8665820898e+00  0.008798198  0.006336002  13.81 0.0002953926    1.488    0.328
        92  -9.6388    176.6847     76.9893   2.9028341828e+02   5.8202993473e+00  0.009332536  0.009155479 -64.04  0.001159726    1.045    0.043
        93 -10.2930     56.2382     75.5168   2.9169728793e+02   6.5739768660e+00   0.01302619   0.01281063  68.73  0.001087008    1.045    0.043
        94 -10.1423     37.5653     75.2528   2.9191650121e+02   6.6908157529e+00   0.01467716   0.01061847 -44.94 0.0008658408    1.420    0.296
        95 -10.3502     35.1361     72.4224   2.9192800156e+02   6.7380660795e+00   0.02631573    0.0166019 -11.45  0.002403792    2.233    0.552
        96 -10.5763     16.4777     75.8423   2.9216951836e+02   6.8124286634e+00   0.01617652   0.01019145  12.82  0.001562974    1.815    0.449
        97  -9.7943    147.5399     74.5010   2.9061222893e+02   6.0274810941e+00  0.006641134  0.006443963  -7.60 0.0002035059    1.034    0.033
        98  -9.3150    136.5149     74.4636   2.9074218729e+02   6.0954403988e+00  0.006634546  0.006451531   2.49 5.580463e-05    1.023    0.023
        99  -9.7967     95.9957     73.7478   2.9121651528e+02   6.3515351193e+00   0.00958166  0.008796304  -8.40 0.0003058051    1.125    0.111
       100 -10.0491     91.4571     70.7074   2.9125161564e+02   6.4141234434e+00   0.02122752   0.01314483  79.21  0.001454597    2.458    0.593
       101 -11.2363      3.9282     73.6507   2.9230465122e+02   6.9138747924e+00   0.02128576   0.01193425  25.12   0.00114863    1.784    0.439
       102 -10.1322     80.8448     72.2918   2.9138671654e+02   6.4607881340e+00   0.01309358  0.008937846  79.06  0.001271683    1.967    0.492
       103  -9.5066    216.8534     72.2199   2.8978051823e+02   5.6283446503e+00  0.009235974  0.007606904 -26.87 0.0004655323    1.314    0.239
       104 -10.2154    152.9536     71.9733   2.9053287727e+02   6.0232748828e+00  0.009635361  0.009432029  43.64            0    1.028    0.028
       105 -10.3738    105.9763     71.7396   2.9108632309e+02   6.3135395076e+00   0.01058537  0.009440964 -51.82 0.0003963664    1.135    0.119
       106 -10.4016     75.9584     71.0034   2.9143662857e+02   6.5053942885e+00   0.01094053  0.007769425 -26.23 0.0006382696    1.655    0.396
       107 -10.5137     44.8939     68.9676   2.9179155334e+02   6.7182275199e+00   0.02650724   0.01272441  45.34  0.002270556    2.236    0.553
       108 -10.6282     10.7047     68.8792   2.9219545333e+02   6.9273875547e+00   0.01808189   0.01117696 -73.87  0.001740975    1.884    0.469
       109  -9.5190    130.0230     69.5258   2.9078872213e+02   6.1917797406e+00  0.009691308  0.006524553  24.83 0.0003493241    1.476    0.322
       110 -10.0498     51.9460     67.5033   2.9169922979e+02   6.6920267483e+00   0.01603011   0.01049101  -3.21  0.001018484    2.008    0.502
       111 -10.7614     16.6398     64.3646   2.9209776072e+02   6.9430479757e+00    0.0200901   0.01588915  35.77  0.001340614    1.233    0.189
       112 -10.1284    132.7430     64.2862   2.9072460789e+02   6.2351705402e+00   0.01728778   0.01121842 -42.88  0.001731286    1.625    0.385
       113 -10.2075     35.1687     64.8530   2.9188152784e+02   6.8246543578e+00   0.01233335   0.01025479 -71.90 0.0008535279    1.274    0.215
       114 -11.2840     39.5510     62.8562   2.9181752827e+02   6.8208504789e+00   0.03363277   0.01699197 -55.06  0.003072452    1.938    0.484
       115 -11.1949      8.3450     61.5969   2.9217906486e+02   7.0252316935e+00   0.02379459   0.01230509 -40.73  0.002087908    2.205    0.546
       116 -10.2397    126.9971     61.9302   2.9077809847e+02   6.2973485384e+00  0.009736146  0.009386434  41.72 0.0003362678    1.036    0.035
       117 -10.4882     62.8411     61.9008   2.9153624258e+02   6.6898023116e+00   0.01054183  0.008775785 -27.77 0.0007120615    1.287    0.223
       118  -9.8769     53.8181     62.1417   2.9164442115e+02   6.7420771434e+00   0.01015466  0.008770786  58.64 0.0006019132    1.230    0.187
       119 -10.9141     54.8845     58.1701   2.9160760513e+02   6.7811008352e+00   0.02287079   0.01445958 -88.06  0.002122443    2.180    0.541
       120  -9.6461     68.0433     60.4697   2.9146600076e+02   6.6744612450e+00   0.01382665  0.006151935  31.01  0.001173361    2.118    0.528
       121  -9.9468    178.0623     59.0688   2.9015766438e+02   6.0171416498e+00  0.009756978  0.009345761  48.69 0.0004708898    1.054    0.051
       122 -11.1680      5.3082     51.6448   2.9215443385e+02   7.1577838659e+00   0.04459487   0.02245455 -17.85   0.00286971    4.641    0.785
       123 -10.2390     26.6241     56.9781   2.9193465963e+02   6.9669656719e+00   0.01685529   0.01412907 -13.83 0.0008526888    1.303    0.232
       124 -11.9174     18.0106     45.1026   2.9196426216e+02   7.1555107691e+00   0.03413822   0.02495778  11.10  0.003200774    1.488    0.328
       125 -10.4244     25.9209     43.7667   2.9186250807e+02   7.1226745154e+00      0.01304   0.01128667  69.45 0.0006727501    1.267    0.211
       126 -12.3139     20.2837     57.1996   2.9201102997e+02   7.0030190807e+00   0.01706486   0.01368168  37.73  0.000894542    1.223    0.182
       127 -10.7890     19.1855     52.2088   2.9199363522e+02   7.0669115557e+00    0.0125617   0.01187967 -27.40 0.0003886982    1.075    0.070
       128 -10.1136     71.7289     57.4307   2.9140388952e+02   6.6867990103e+00   0.01096205  0.008907333 -60.19 0.0005060136    1.252    0.202
       129 -10.5227     60.3227     57.8375   2.9154125898e+02   6.7517420275e+00   0.01207181   0.01064423  20.38 0.0005281382    1.123    0.110
       130  -9.5083     33.5687     57.5840   2.9185618625e+02   6.9177320844e+00  0.009626987  0.007487845  57.91  0.001048371    1.416    0.294
       131 -10.3076     34.3687     53.7299   2.9182324424e+02   6.9570375864e+00   0.01751106  0.009184664 -40.12  0.001346334    2.190    0.543
       132  -9.4852    129.7790     57.1676   2.9071615427e+02   6.3348886392e+00   0.01211968  0.006508259  61.92 0.0009558187    2.881    0.653
       133 -10.7422      2.2615     59.8668   2.9224052690e+02   7.0820510098e+00   0.01642057   0.01049597  67.78  0.001529544    2.135    0.532
       134 -11.7043    113.9494     54.6761   2.9088797674e+02   6.4603273386e+00   0.01563921   0.01313897 -14.31 0.0008902983    1.300    0.231
       135 -10.3094      7.5305     56.1307   2.9215543712e+02   7.0928494740e+00   0.01243849  0.009393458  27.64 0.0008513625    1.294    0.227
       136 -11.4342    106.4679     54.0040   2.9097229239e+02   6.5137971582e+00   0.01950487   0.01613446  45.76  0.001671032    1.223    0.182
       137 -11.6635     86.3718     53.3866   2.9120608336e+02   6.6437213351e+00   0.02887833   0.01480417  36.61  0.002348116    1.861    0.463
       138 -11.7418     66.8200     52.5135   2.9143195735e+02   6.7731192039e+00     0.028823   0.01292991  21.26  0.002341922    2.482    0.597
       139 -10.0404     46.5343     52.7951   2.9167362043e+02   6.8936221306e+00   0.01123235  0.008640056  30.33 0.0003473126    1.263    0.209
       140  -9.2150    161.4973     50.0081   2.9029781770e+02   6.2225378438e+00   0.01015079  0.004781022 -40.12 0.0008105149    2.556    0.609
       141 -11.1238     77.1356     46.5789   2.9127376374e+02   6.7781525757e+00   0.02029657   0.01312581 -35.71  0.002010533    1.754    0.430
       142 -10.4487     38.1863     48.7766   2.9174789532e+02   6.9905550499e+00   0.01086485  0.009119301 -35.95  0.001225247    1.242    0.195
       143  -9.1076    212.0358     48.7731   2.8969393327e+02   5.9264179388e+00  0.008667212  0.005399121  28.58 0.0003385464    1.561    0.359
       144 -10.5694    102.0085     48.1397   2.9098920538e+02   6.6082659066e+00  0.009872674  0.009514344  -3.20 0.0004061443    1.041    0.039
       145  -9.1623     76.9210     54.7787   2.9132632063e+02   6.6854932668e+00  0.008321233  0.005434562  24.31            0    1.529    0.346
       146 -10.5179     68.7845     46.7864   2.9137379530e+02   6.8267620537e+00   0.01175889   0.01085742 -27.21 0.0003356315    1.112    0.101
       147  -9.5952    136.0062     46.4881   2.9057736010e+02   6.4191004696e+00    0.0100639  0.006436485  28.77  0.000814827    1.519    0.342
       148 -11.0030     70.7834     42.9800   2.9132693424e+02   6.8581774506e+00   0.01448858      0.01256  59.16 0.0003086687    1.226    0.185
       149  -8.9664     91.2985     45.2837   2.9109838883e+02   6.7064667361e+00  0.006748093  0.005039381 -23.39 0.0003098251    1.547    0.354
       150 -10.4613      8.7557     44.7154   2.9207144257e+02   7.2162462336e+00   0.01491672  0.009588623  16.41  0.001139168    1.686    0.407
       151 -10.2058    181.3909     43.4814   2.9002308705e+02   6.1752234275e+00   0.01780538   0.01132619 -25.85 0.0009224942    2.017    0.504
       152 -10.5589      4.6099     40.9245   2.9209743251e+02   7.2849004586e+00   0.01926643   0.01132151 -23.80  0.001677306    2.420    0.587
       153 -10.6838    139.5917     40.6755   2.9049948742e+02   6.4637129148e+00   0.01174443   0.01056064  57.66  0.000511764    1.161    0.139
       154  -9.2012     96.2865     41.3426   2.9101535705e+02   6.7211295223e+00  0.007021686  0.004947538 -29.04 0.0005745685    1.643    0.391
       155 -10.4931    133.3522     38.9441   2.9056262264e+02   6.5217702906e+00   0.02096096  0.009221865  29.73  0.001138794    2.164    0.538
       156 -10.7170     35.4536     40.9410   2.9173247790e+02   7.0970024060e+00   0.01985617   0.01404012 -30.92  0.002064222    1.610    0.379
       157 -11.1200    120.9865     36.4448   2.9069347290e+02   6.6261232160e+00   0.02461057   0.01664165  65.92  0.002401981    1.882    0.469
       158  -9.5259    229.5395    248.0455   2.9070326590e+02   3.5354983665e+00     0.010114  0.006619129 -62.50  0.001021722    1.567    0.362
       159 -10.1267     80.4089     36.1739   2.9117155938e+02   6.8773781443e+00   0.01591623  0.008236425 -58.84  0.001455654    1.921    0.479
       160 -10.2740     66.8549     36.8689   2.9133611925e+02   6.9521797866e+00   0.01462709  0.009278492  26.51 0.0003010538    1.551    0.355
       161 -11.2423      2.0946     34.9497   2.9209082564e+02   7.3686598740e+00   0.02794583   0.01115325 -56.41  0.001511509    2.398    0.583
       162 -10.5222      2.8095     28.6620   2.9204406323e+02   7.4363602634e+00   0.01604146   0.01113745  19.92  0.000831496    1.479    0.324
       163 -10.3520      7.0201     28.5125   2.9199329920e+02   7.4124721762e+00   0.01310002   0.01191728  47.67  0.001148093    1.113    0.101
       164 -10.5776    150.3276     34.4027   2.9033432942e+02   6.4697504296e+00   0.01496284  0.009044684 -75.95 0.0006765452    2.013    0.503
       165 -11.0452     26.4535     35.0535   2.9180310833e+02   7.2192800585e+00   0.01538782   0.01223351 -24.93 0.0009075177    1.390    0.281
       166 -11.5205     20.3877     31.9348   2.9185589986e+02   7.2919392793e+00   0.03024326   0.01723628   3.08  0.001812258    2.546    0.607
       167 -12.0819     50.5847     33.8181   2.9151000008e+02   7.0863972925e+00   0.01954795   0.01216761  37.39 0.0004819011    1.556    0.358
       168 -11.3340     42.9754     29.8279   2.9157570848e+02   7.1785037928e+00   0.03014788   0.01990473 -31.50  0.002997463    1.778    0.437
       169 -11.2357    134.5499     33.9905   2.9051819983e+02   6.5711672997e+00    0.0111759  0.009304037  17.25 0.0003178248    1.214    0.176
       170 -10.0035     89.4870     32.7094   2.9104304861e+02   6.8615971968e+00   0.01852559  0.004501604  33.17  0.001227178    3.466    0.711
       171  -9.7362    187.1012     30.1214   2.8987397669e+02   6.2931164760e+00   0.01042544  0.009190309 -16.45  0.001224037    1.203    0.169
       172 -11.0160    151.3648     29.6320   2.9029291092e+02   6.5180177302e+00    0.0122159   0.01088082 -20.93 0.0004382678    1.180    0.152
       173  -9.7369    101.3266     25.6567   2.9085997256e+02   6.8699883247e+00    0.0151958  0.007803146  50.38  0.001297853    2.303    0.566
       174  -9.8781     69.8946     28.8138   2.9125100496e+02   7.0259056166e+00   0.01015712  0.008904483 -26.55 0.0004761548    1.198    0.165
       175  -9.6472    218.9772     27.9357   2.8948457063e+02   6.1222425917e+00  0.007902519  0.007626046 -55.22 0.0003268491    1.057    0.054
       176 -11.2272     33.1500    247.8325   2.9301568764e+02   4.7371240595e+00    0.0189045  0.009313433  11.78  0.001475002    2.856    0.650
       177 -10.4145     70.0000     35.0776   2.9128798427e+02   6.9535044953e+00   0.01615213  0.008067333 -55.52  0.001457524    1.960    0.490
       178  -9.1860    131.7547     26.0132   2.9050246919e+02   6.6796448464e+00  0.008450702  0.005708063 -62.30 0.0003705875    1.517    0.341
       179 -10.5089    114.2318     25.2894   2.9070515310e+02   6.7952342297e+00   0.01260701   0.01176338 -30.91 0.0007400474    1.094    0.086
       180 -10.5315     58.8646     24.4312   2.9135475742e+02   7.1434292646e+00    0.0175726   0.01136175 -50.58   0.00136903    1.552    0.356
       181  -9.7100    217.4973    245.0000   2.9082644218e+02   3.6441349435e+00   0.01524307  0.003744229  27.51 0.0009411844    3.987    0.749
       182  -9.8041    146.4965    244.5050   2.9165948664e+02   4.0841076803e+00  0.006625592  0.006482081  21.14 -0.0001440579    1.002    0.002
       183  -9.7653     21.4663     22.5964   2.9178620999e+02   7.3923617708e+00   0.01628678  0.006802359  20.53 0.0009437049    2.798    0.643
       184 -11.4073     13.8135     21.0175   2.9186719048e+02   7.4570189509e+00   0.02261445   0.01543308  49.82  0.002337937    1.571    0.363
       185 -10.3912     12.9268     16.1461   2.9184799367e+02   7.5182129661e+00   0.01893616   0.01011152  28.37  0.001743827    1.816    0.449
       186 -10.1415     88.9823     20.8908   2.9097684219e+02   7.0000498792e+00   0.01746386  0.009585801 -79.76   0.00104345    2.554    0.608
       187  -9.6196     34.8222     21.6073   2.9162207030e+02   7.3223610911e+00   0.01191753  0.007194854  44.00 0.0005443004    1.693    0.409
       188 -10.4581     31.0463     20.0467   2.9165725022e+02   7.3632377855e+00   0.01229151   0.01087294  -5.20 0.0009324162    1.188    0.158
       189  -9.7779      2.1194     21.0166   2.9200565475e+02   7.5281445366e+00   0.01195577   0.00925866 -67.34  0.001200075    1.353    0.261
       190  -9.2388     84.5040     21.4554   2.9103326033e+02   7.0209533230e+00  0.006636417  0.006434063   1.41  0.000115043    1.028    0.027
       191 -10.3892    190.4948    246.5008   2.9115341240e+02   3.7921836706e+00  0.006628799  0.006478756  27.03 -0.0002312433    1.009    0.009
       192 -10.1120    104.3088     29.0975   2.9084573160e+02   6.8123398560e+00   0.01718646   0.01133148 -41.30  0.001744778    1.617    0.382
       193  -9.1680    158.6892     23.7400   2.9017036970e+02   6.5405551226e+00  0.006660596  0.005058538 -19.11 0.0002001852    1.529    0.346
       194 -10.1453    190.4879     17.4580   2.8975651362e+02   6.4172472502e+00  0.006628312   0.00644567  30.87 9.173735e-06    1.014    0.014
       195 -10.8728    108.1360     16.5728   2.9072395315e+02   6.9323540919e+00   0.01133241  0.009401123 -64.02 0.0003383933    1.241    0.194
       196  -9.6125     60.5286    241.2712   2.9265317086e+02   4.6457718727e+00   0.01262444  0.005785366  27.00  0.001068478    2.147    0.534
       197 -12.2657      6.4792    240.8829   2.9328819390e+02   4.9790551045e+00   0.03855807   0.02006136 -35.61  0.003270335    2.453    0.592
       198  -9.6427    202.4840    239.9953   2.9097272303e+02   3.7934126928e+00   0.01002855  0.006635144 -62.45 0.0007902006    1.549    0.354
       199 -11.7951      4.2819    232.7304   2.9326485305e+02   5.0860018818e+00   0.02303504    0.0183808  36.90 0.0008719651    1.225    0.184
       200  -9.3507    222.6931    238.3400   2.9072479338e+02   3.6886695352e+00  0.007052893  0.005020883  63.29 0.0005874609    1.683    0.406
       201 -10.6096     20.3430     16.8220   2.9176430165e+02   7.4653434353e+00   0.01155525  0.009073433  22.88 0.0003422658    1.265    0.209
       202  -9.5309     90.2860     16.3186   2.9093349279e+02   7.0444397507e+00  0.006889734   0.00498577 -27.63 0.0002800208    1.591    0.372
       203  -9.8745    162.6106     14.8097   2.9006942583e+02   6.6187192063e+00  0.009371084  0.006507693 -79.27  0.000789596    1.699    0.411
       204  -9.4323      1.3596     15.4143   2.9198051245e+02   7.5969351011e+00  0.006519358  0.006200993 -28.68 0.0001589852    1.066    0.062
       205  -9.9657    156.5109     13.5364   2.9013368030e+02   6.6707171649e+00  0.006620694  0.006459421  20.82 0.0008094612    1.002    0.002
       206  -9.4014    144.4508     14.4832   2.9028194630e+02   6.7338409478e+00  0.009860761  0.005929592  38.51  0.000574681    1.617    0.381
       207 -11.4511     20.7978    235.9232   2.9308935145e+02   4.9489658210e+00   0.01546773  0.009570166 -72.68  0.001493944    1.846    0.458
       208  -9.7499    217.4293    235.7631   2.9077106763e+02   3.7504415999e+00   0.01018183  0.005857682 -49.27 0.0009643603    1.753    0.429
       209  -9.8354    207.5068     10.4739   2.8951294483e+02   6.3925577773e+00  0.009885313  0.006494387  12.18 -5.214934e-06    1.728    0.421
       210  -9.7017    174.0056     13.5012   2.8992685927e+02   6.5637531416e+00   0.01033015  0.006514293  26.13 0.0006262638    1.566    0.361
       211  -9.0781    210.6494    235.6977   2.9085047198e+02   3.7927028171e+00  0.007086428  0.005033076 -21.98 0.0003539441    1.698    0.411
       212  -8.9796    155.5687    235.5050   2.9149796028e+02   4.1318993400e+00    0.0065708  0.006475196   3.34 3.059449e-05    1.012    0.012
       213  -9.8486    249.2953    234.1421   2.9038627086e+02   3.5738401051e+00   0.01110911  0.008990524  10.78 0.0005916034    1.298    0.229
       214  -9.3621     79.8476    231.5927   2.9236675247e+02   4.6391253542e+00   0.00976812  0.005710172  40.30  0.000904931    1.684    0.406
       215  -9.3661    209.5355    229.5112   2.9082595632e+02   3.8704510768e+00  0.006609619  0.006480732  20.99 0.0003629734    1.003    0.003
       216  -9.4812    140.6785    227.3302   2.9162377218e+02   4.3166960757e+00  0.007104136  0.004991022  61.63 0.0007049058    1.694    0.410
       217 -10.0048     32.8034    225.1951   2.9288285498e+02   4.9991043210e+00   0.01546438  0.003725344  34.18   0.00101738    3.476    0.712
       218 -10.3147     25.6724    224.9642   2.9296557788e+02   5.0451361543e+00  0.009671437  0.008653921 -61.26  0.000870787    1.141    0.123
       219 -11.7649      7.5927    217.3558   2.9313285767e+02   5.2424001377e+00   0.01770632   0.01627723 -79.38  0.001790868    1.144    0.126
       220  -9.5214    246.6715    216.6666   2.9031073699e+02   3.7901894312e+00  0.007162983  0.004989181 -25.49 0.0007051845    1.720    0.419
       221  -9.7898    209.3294    212.0433   2.9072210069e+02   4.0719891182e+00  0.009680443  0.008476946 -56.87   0.00113606    1.159    0.137
       222 -11.7046      1.7755    248.7094   2.9339092821e+02   4.9177773149e+00   0.05804819   0.01834743 -61.86   0.00417492    3.185    0.686
       223  -9.6405     20.3731    209.6982   2.9293572830e+02   5.2526234322e+00  0.007258917  0.004854578  57.50 6.680538e-05    1.754    0.430
       224  -9.8118    246.8538    206.9000   2.9024910539e+02   3.9010010460e+00   0.01044078  0.008794594 -34.57 0.0007909994    1.243    0.195
       225 -12.6914      8.8523    245.3406   2.9328713645e+02   4.9134603477e+00   0.03906232   0.02093842  14.62  0.003406944    2.259    0.557
       226  -9.4804    197.1674    204.1675   2.9081739319e+02   4.2367811322e+00  0.009357262  0.007776335  59.19 0.0007622677    1.299    0.230
       227 -10.8150      9.5547    203.4290   2.9302546000e+02   5.3903673054e+00   0.01193049   0.01163071  24.82  0.000845666    1.007    0.007
       228  -9.8066     23.4498    197.2261   2.9282391149e+02   5.3770948336e+00   0.01253363  0.009316863  26.72 0.0008708911    1.319    0.242
       229  -9.0712    181.5569    199.4935   2.9097284762e+02   4.3859658322e+00  0.006646536  0.006418182  49.71 0.0001295706    1.048    0.045
       230 -10.8175     15.3829    184.3797   2.9284133278e+02   5.5736301504e+00   0.02449601  0.008054163 -65.29  0.001523482    3.467    0.712
       231  -8.9281    250.3291    183.3283   2.9006456130e+02   4.1498234292e+00  0.007137651  0.005000085 -25.11 0.0007051136    1.708    0.415
       232  -9.5475     21.7856    179.4164   2.9273566792e+02   5.5916698954e+00  0.009413585  0.006433356  10.43 0.0008672962    1.653    0.395
       233 -10.5684      4.5921    167.3919   2.9286584193e+02   5.8342365533e+00   0.01477336   0.01090528  54.12  0.001086727    1.477    0.323
       234  -8.7685    247.4602    155.4843   2.8992850664e+02   4.4864958114e+00  0.006604875  0.006479042  13.07 0.0001723807    1.006    0.006
       235  -9.3856    243.2066    154.9902   2.8997556486e+02   4.5182636764e+00  0.008880413  0.005369544 -62.10 0.0004608825    1.692    0.409
       236 -10.2493      2.7904    153.6028   2.9280355591e+02   6.0034664468e+00   0.01033787  0.005693511  38.49 0.0009615783    1.761    0.432
       237 -10.1413      5.3455    150.6970   2.9275575269e+02   6.0212924014e+00  0.007122094  0.004922392  58.47 0.0005175738    1.687    0.407
       238 -10.2625     22.0560    143.1516   2.9251255077e+02   6.0062813312e+00   0.01205128  0.009903307 -61.09   0.00137716    1.240    0.194
