#   1 NUMBER                 Running object number                                     
#   2 MAG_AUTO               Kron-like elliptical aperture magnitude                    [mag]
#   3 X_IMAGE                Object position along x                                    [pixel]
#   4 Y_IMAGE                Object position along y                                    [pixel]
#   5 X_WORLD                Barycenter position along world x axis                     [deg]
#   6 Y_WORLD                Barycenter position along world y axis                     [deg]
#   7 A_WORLD                Profile RMS along major axis (world units)                 [deg]
#   8 B_WORLD                Profile RMS along minor axis (world units)                 [deg]
#   9 THETA_WORLD            Position angle (CCW/world-x)                               [deg]
#  10 FWHM_WORLD             FWHM assuming a gaussian core                              [deg]
#  11 ELONGATION             A_IMAGE/B_IMAGE                                           
#  12 ELLIPTICITY            1 - B_IMAGE/A_IMAGE                                       
         1 -12.3952    248.4124    134.4476   8.8751547754e+01   4.6039749167e+00    0.8731574    0.8537829 -76.24  0.005554778    1.269    0.212
         2 -13.4325      2.2770     13.7740   1.2173604128e+02   7.2010286006e+01     2.527561    0.3065107 -54.35   0.00736879    7.353    0.864
         3 -13.2674      1.9822      3.8864   1.1758217583e+02   7.3654652548e+01      1.55169    0.7140973  27.21   0.00945465    2.533    0.605
         4 -11.3581    191.4160     22.2710   6.8319348729e+01   3.4442421635e+01    0.5214343    0.4111436  28.70  0.002251913    1.517    0.341
         5 -14.4336    201.1003     13.6709   6.4753976106e+01   3.2923331159e+01     2.890633     1.606655  28.12   0.01010787    2.892    0.654
         6  -9.5940     83.2742    238.3647   1.3790071589e+02   1.6506247561e+01    0.2521144     0.126014  43.10  0.001397651    1.678    0.404
         7  -9.2243    183.6384    250.2488   1.2144425579e+02  -6.0578218975e-01    0.1384525    0.1052827 -19.62 0.0005877763    1.646    0.392
         8 -10.6813    143.4036    249.2325   1.2836464777e+02   5.8313026190e+00    0.2290255    0.1683519  73.41  0.001185441    1.645    0.392
         9 -11.6046    150.1371    248.1206   1.2704724424e+02   4.9369055916e+00    0.4973548    0.1922367  43.67  0.002240434    2.006    0.502
        10 -10.4209    141.5086    244.4902   1.2815102546e+02   6.8166844883e+00    0.2106617    0.1307995  47.65  0.001013475    1.282    0.220
        11 -11.0918    133.7652    249.3824   1.3007721200e+02   7.3014208297e+00    0.4573761    0.1855078  51.76  0.002253667    2.246    0.555
        12 -10.3866    122.9675    249.9723   1.3203300430e+02   8.8602798302e+00    0.2633551    0.1466241  51.47  0.001594278    1.446    0.308
        13  -9.7165    126.7741    249.0494   1.3126938893e+02   8.4212269002e+00    0.2414979    0.1241502  52.49 0.0009342883    1.649    0.394
        14 -11.0922    121.5539    244.7284   1.3173252961e+02   9.8740542181e+00    0.3398475    0.1528676  53.31  0.001629138    1.996    0.499
        15 -11.9850    126.4522    240.8888   1.3043941079e+02   9.7167950091e+00      0.35628    0.3337151  71.82  0.001804762    1.222    0.182
        16 -10.1633    117.6551    250.3134   1.3299470980e+02   9.6068079792e+00    0.2208852    0.1223695  51.02   0.00109535    1.425    0.298
        17 -10.1122    114.2408    249.7556   1.3353367663e+02   1.0200422242e+01    0.3467453    0.1799844  25.66  0.001560945    3.620    0.724
        18 -11.1503    110.1342    247.6955   1.3404758811e+02   1.1127389374e+01    0.2792861    0.2176334  55.68  0.001035162    1.022    0.022
        19 -10.3660    101.6615    243.3005   1.3511012468e+02   1.3069935572e+01    0.2937369    0.1451822 -78.09  0.001517848    2.910    0.656
        20 -10.1332    101.1285    250.1807   1.3584548215e+02   1.2051653082e+01    0.1953838    0.1898827 -51.26  0.001299507    1.497    0.332
        21 -10.9104     98.5442    246.4663   1.3595273968e+02   1.3011638148e+01    0.3841373    0.1523988  45.83  0.001909431    1.930    0.482
        22 -10.4842     87.4027    250.5945   1.3822928434e+02   1.3921401146e+01    0.3631091    0.1191789  45.73  0.001466825    2.259    0.557
        23  -9.9522     87.9741    247.3476   1.3785825565e+02   1.4364303994e+01    0.2182945    0.1360659  22.18  0.001166753    3.000    0.667
        24 -12.9308     61.2438    246.1047   1.4228866333e+02   1.8119832922e+01      1.26415    0.4850079  45.30  0.007136805    1.993    0.498
        25 -12.6172     41.9802    236.7034   1.4487841440e+02   2.2067505508e+01      0.55608    0.2257908  58.11  0.001174078    1.984    0.496
        26 -13.4667     20.1675    232.6146   1.4824114207e+02   2.5186215415e+01     0.828798    0.4769361 -79.34  0.004671777    1.599    0.375
        27 -13.3176     46.5745    229.0374   1.4359224098e+02   2.2886313776e+01    0.6732208    0.3777863  78.31  0.001525039    1.597    0.374
        28 -14.7600     54.8016    217.1887   1.4124085098e+02   2.4067715603e+01     2.014111     1.732956  59.44   0.01523843    1.268    0.211
        29  -9.7261    152.5323    243.5091   1.2606323785e+02   5.2150016528e+00    0.1763887    0.1140563 -68.15  0.001032204    2.302    0.566
        30 -12.4876    248.7419    239.5714   1.0887989157e+02  -9.1519377430e+00    0.5051081     0.357259  -2.67  0.003599653    1.288    0.224
        31 -11.3116    146.1340    240.7627   1.2687565556e+02   6.6352196205e+00    0.2582986     0.179962  50.55  0.000428253    1.206    0.171
        32 -11.1745    135.5018    241.0771   1.2883054270e+02   8.2731736311e+00    0.2599531    0.1790803  51.36  0.001003613    1.192    0.161
        33 -12.0307    135.2364    236.5986   1.2835192332e+02   9.0050130328e+00    0.4229276    0.2912617 -52.45  0.002532069    1.793    0.442
        34  -9.0889    108.4889    242.5159   1.3382523638e+02   1.2190910923e+01    0.1163624    0.0908993  54.87 0.0008102506    1.025    0.024
        35 -10.2315    166.1258    241.5473   1.2338126228e+02   3.3168095419e+00    0.3220779    0.1588403  29.73  0.001162054    2.252    0.556
        36 -10.2592    173.2163    239.9213   1.2189573787e+02   2.3991209310e+00    0.2345959    0.1897263 -57.88 0.0009193331    1.658    0.397
        37 -11.0158     96.5412    239.2382   1.3563017290e+02   1.4479762938e+01    0.4016328    0.2439844 -85.92  0.001800311    1.961    0.490
        38 -10.6117     72.6727    237.6567   1.3970030828e+02   1.8068482770e+01    0.4408257    0.2313974  86.01  0.002511824    2.210    0.547
        39 -10.5243    115.8461    239.8402   1.3223444428e+02   1.1513082713e+01    0.2123488    0.1684728  53.31  0.001103465    1.028    0.027
        40  -8.9894    150.7859    239.3778   1.2586393923e+02   6.0950517556e+00    0.1643039   0.09385867  37.02 0.0006029412    1.513    0.339
        41 -10.6574    104.6467    237.9791   1.3405688644e+02   1.3500145795e+01    0.2430629    0.1580407  44.72 0.0009184583    1.290    0.225
        42 -15.2994      5.6495    243.5844   1.5101598232e+02   2.4749283619e+01     1.505824    0.6336572 -81.66   0.01001042    2.074    0.518
        43 -11.4580    128.5937    232.3874   1.2907248278e+02   1.0729444152e+01    0.3415753    0.2122953 -68.55  0.001989366    2.060    0.514
        44 -10.1340    165.8095    235.3781   1.2261591311e+02   4.2392244217e+00    0.1956548    0.1805727 -40.54  0.001417588    1.343    0.255
        45 -10.3735    162.6197    233.3164   1.2291839496e+02   5.0611153584e+00    0.2724482    0.1575875  63.41  0.001046522    2.537    0.606
        46 -10.6343    121.7256    233.1294   1.3042634150e+02   1.1691928217e+01    0.2534946    0.2167592  59.71 0.0007904078    1.081    0.075
        47  -8.9799    158.2256    242.0292   1.2485853387e+02   4.5171648383e+00    0.1258601    0.1002276 -47.12 0.0003061609    1.586    0.369
        48 -10.3578    110.4072    222.4343   1.3132067466e+02   1.5270755779e+01    0.2286765    0.2195417  31.41 0.0007842332    1.334    0.250
        49 -10.3552    105.1298    219.1579   1.3195332425e+02   1.6668393365e+01    0.2788176    0.1796281  83.23 0.0003897157    1.844    0.458
        50 -11.0274     98.3078    231.1281   1.3451665168e+02   1.5592756922e+01    0.3178498    0.2451423  76.66  0.001543537    1.223    0.182
        51 -11.1839    111.5374    230.5573   1.3201991886e+02   1.3698607736e+01    0.4341246    0.3071424  40.60  0.001483812    1.316    0.240
        52  -9.8096    104.2330    229.4187   1.3324876204e+02   1.5003320101e+01     0.302461    0.1424724  49.11  0.001074168    1.732    0.423
        53  -9.8699     93.7141    217.0789   1.3391185312e+02   1.8772075839e+01    0.2464972     0.163225 -88.69  0.001359501    1.641    0.391
        54 -10.4672     92.7644    226.0903   1.3503025540e+02   1.7285324938e+01    0.2560928    0.1714912  57.52 0.0004529314    1.224    0.183
        55 -12.0645     99.0800    223.3697   1.3356706536e+02   1.6834599139e+01    0.4825849     0.263221  40.58  0.001395488    1.659    0.397
        56 -10.8084    156.7495    231.5599   1.2376041328e+02   6.2882000067e+00    0.2125029    0.1792962  43.18 0.0002763569    1.038    0.037
        57 -10.9605    141.8830    230.6651   1.2639691023e+02   8.8645190657e+00     0.299954    0.2317698  -4.83  0.001101796    2.000    0.500
        58  -9.2359     92.4760    232.1597   1.3568279589e+02   1.6266124608e+01    0.1520233     0.108688 -72.51  0.001010327    1.531    0.347
        59 -15.4831     11.2457    208.7336   1.4848530955e+02   3.0458645590e+01     4.406549     1.023241 -70.70   0.02053393    3.471    0.712
        60  -9.2132    180.6399    229.7305   1.1911986570e+02   2.5979823133e+00    0.1438755    0.1172688 -53.18 0.0009414832    1.598    0.374
        61 -10.7182    165.4686    227.4669   1.2158340971e+02   5.4536754423e+00    0.3222927    0.2301545 -72.82  0.001314163    2.154    0.536
        62  -9.5435    150.9753    229.8263   1.2459838713e+02   7.5043580336e+00    0.2418933    0.1406393  53.86 0.0009028221    1.657    0.397
        63 -10.3685     84.5524    229.6950   1.3688932362e+02   1.7825953394e+01    0.2107823    0.1805604  34.79 0.0007583916    1.477    0.323
        64 -10.3370     79.3270    229.0893   1.3778281837e+02   1.8661779556e+01    0.1987581    0.1282448  81.39 0.0009834827    1.534    0.348
        65 -10.0481    190.9021    228.0816   1.1701213250e+02   1.1281518371e+00    0.1809859    0.1473319  33.17 0.0003114829    1.030    0.029
        66  -8.5562    175.6875    228.6647   1.1986983698e+02   3.5720014915e+00     0.122575   0.08722471  13.77 0.0007045434    1.685    0.407
        67  -9.5855    136.1712    227.8246   1.2710352619e+02   1.0248917869e+01    0.1896081    0.1445491  58.57  0.000896098    1.208    0.172
        68 -10.9671    132.8198    224.4265   1.2730558751e+02   1.1352585117e+01    0.2382315     0.188252 -37.48  0.001517624    1.673    0.402
        69 -10.8804    117.2683    224.3553   1.3024288400e+02   1.3862601854e+01    0.2473696    0.1871337  42.90 0.0004266781    1.205    0.170
        70 -10.1208     79.3233    224.3490   1.3734898717e+02   1.9511490695e+01    0.3480214    0.2160403  50.27  0.001572875    1.322    0.244
        71  -9.7993     77.6572    221.3064   1.3737316872e+02   2.0296768955e+01    0.2142822    0.1373278  63.74 0.0006357189    1.334    0.251
        72  -9.6328    160.6994    223.9768   1.2197900202e+02   6.7842486072e+00    0.1595723    0.1539305  38.05 0.0007053783    1.165    0.141
        73  -8.9043    219.8360    223.5730   1.1115674470e+02  -2.9922398668e+00    0.1537272    0.1009018  43.93 0.0009142638    1.500    0.333
        74  -9.2304    155.9509    223.4893   1.2280377117e+02   7.6604417768e+00     0.187025    0.1040187  43.43 0.0003367971    1.490    0.329
        75 -10.2341    149.9914    222.4589   1.2378775582e+02   8.8265307093e+00    0.1936515    0.1833924 -47.36 0.0001250872    1.272    0.214
        76  -8.5939    149.5536    218.5419   1.2332587582e+02   9.5340783992e+00    0.1573109    0.1216098 -68.64 0.0005013755    1.616    0.381
        77 -11.9773    142.1567    221.1964   1.2510698499e+02   1.0344589525e+01    0.3507876    0.2969571 -63.04  0.002330213    1.395    0.283
        78 -11.1660    138.3583    214.0578   1.2486626108e+02   1.2183079493e+01    0.5311056    0.2954628  32.26  0.002019139    1.951    0.487
        79  -9.7933     88.8466    220.1158   1.3515726758e+02   1.8929613018e+01    0.3596363    0.1735511 -44.73  0.001637943    3.610    0.723
        80  -9.5926    164.3575    220.6317   1.2080808150e+02   6.6805415885e+00    0.2382176    0.1686968   4.71 0.0008029981    2.060    0.515
        81  -9.2319    104.6813    246.2932   1.3486569211e+02   1.2149576331e+01    0.1176955   0.06942409  63.14 0.0002349218    1.605    0.377
        82  -9.9873     30.9346    218.4696   1.4561566377e+02   2.6610495068e+01    0.2889572   0.08743207  60.37  0.001281071    3.309    0.698
        83  -9.7787    177.1642    220.1617   1.1833239760e+02   4.5656225058e+00    0.1715787    0.1376108  55.86 0.0007805699    1.341    0.254
        84 -10.2945    245.9613    219.0258   1.0594698043e+02  -6.4981258804e+00    0.1970858    0.1194005   9.09  0.000846176    1.709    0.415
        85  -9.3970    101.2110    216.1720   1.3236828929e+02   1.7809904828e+01    0.1830771    0.1392116  72.52 0.0002953401    1.224    0.183
        86 -10.3065    102.2657    212.1972   1.3170479391e+02   1.8380062856e+01    0.3768538    0.2134909  51.45  0.002072953    1.513    0.339
        87  -9.8554    183.1377    214.1521   1.1627595004e+02   4.4353804606e+00    0.1679935    0.1423149  57.64 0.0004077034    1.335    0.251
        88 -10.8296     88.2646    213.0525   1.3453025354e+02   2.0322928698e+01    0.2478717    0.2201289  81.63 0.0004405252    1.162    0.139
        89 -12.4210    131.8506    211.6552   1.2581208105e+02   1.3697804234e+01    0.3282246     0.275142  13.57 0.0004254467    1.540    0.351
        90  -9.4277    152.1418    211.9137   1.2186979537e+02   1.0184964326e+01    0.1909831    0.1553123  61.39 0.0005014095    1.253    0.202
        91 -10.1529     31.4736    210.2477   1.4498041369e+02   2.8109203713e+01     0.509855    0.1441035  57.43  0.002198644    3.435    0.709
        92  -8.6095    109.2998    210.3466   1.3009699962e+02   1.7622856134e+01    0.1135722   0.09967473  -5.86 0.0007037136    1.682    0.406
        93 -12.9976     13.9768    239.0753   1.4954126084e+02   2.4693689303e+01    0.3296498    0.1876161  50.03  0.002258659    1.437    0.304
        94  -8.7562    197.6840    208.2551   1.1258790018e+02   2.7801166707e+00    0.1176679   0.09527347  59.44 0.0002261558    1.531    0.347
        95 -11.6799     93.0385    205.0519   1.3269779818e+02   2.1140047695e+01    0.6134744    0.2936428  47.96  0.001570638    1.802    0.445
        96 -11.8665    247.4050    205.2139   1.0327571553e+02  -5.0716991454e+00    0.4264374    0.2963713  18.14  0.002678208    1.255    0.203
        97  -9.2404    163.8330    205.9878   1.1867736136e+02   9.1175029214e+00    0.2107896    0.1551411  86.75   0.00110692    2.087    0.521
        98  -9.3706    125.8050    205.8177   1.2621323073e+02   1.5761249198e+01    0.1786809    0.1327019  63.91  0.000417646    1.316    0.240
        99  -9.3981    113.3938    203.7197   1.2843286102e+02   1.8204030080e+01    0.3674837    0.1400395 -66.49  0.001369069    3.937    0.746
       100 -10.0574    115.1837    200.3448   1.2761707010e+02   1.8551395927e+01    0.2076611    0.1740315 -84.45 0.0001817676    1.237    0.192
       101  -9.8759    149.6164    204.3267   1.2122684838e+02   1.1919354687e+01    0.2605081    0.2079796   1.62  0.001019076    1.689    0.408
       102 -10.5083    103.2006    203.0234   1.3040693379e+02   1.9967502605e+01    0.3539537    0.2337413  59.56  0.001617155    1.390    0.281
       103  -9.5436    100.5015    198.4161   1.3037568078e+02   2.1286256855e+01    0.2432126    0.1869845  16.75 5.127193e-05    1.924    0.480
       104 -10.7250     99.1685    195.0661   1.3022144636e+02   2.2157340410e+01    0.4446776    0.3061165  25.86  0.000345529    1.931    0.482
       105  -9.4360     75.5918    203.5067   1.3600573160e+02   2.3970020617e+01    0.3178713    0.1945182  31.17  0.001755052    2.012    0.503
       106  -9.5081    224.9690    202.6753   1.0666461345e+02  -1.1117218307e+00    0.1753474    0.1375581  28.49 0.0003784028    1.120    0.107
       107  -9.6790    166.9707    203.2272   1.1761912696e+02   9.0145651085e+00    0.1848764    0.1459306  43.65 0.0003027196    1.115    0.103
       108 -10.3256    169.7753    200.2231   1.1657377982e+02   9.0080881358e+00    0.2371778    0.2005223  20.71 0.0003443194    1.206    0.171
       109  -9.8257    133.0408    202.9454   1.2434891299e+02   1.5055923875e+01    0.1954166    0.1919955 -69.12 0.0002932271    1.188    0.158
       110 -10.4464    133.9825    197.6874   1.2338079320e+02   1.5859688005e+01    0.3130648    0.2293763 -80.84  0.001245521    1.693    0.409
       111 -10.6179    197.4731    200.7570   1.1133301286e+02   3.9309730317e+00    0.3844431    0.2071545  49.84  0.001629082    1.937    0.484
       112 -10.0447    120.8730    199.9546   1.2639852773e+02   1.7679585773e+01    0.3694284     0.201694  62.61  0.001706719    2.203    0.546
       113 -10.5870    174.6251    206.0019   1.1658081974e+02   7.1937606236e+00    0.3273679    0.2439386  23.38  0.001101192    1.384    0.277
       114  -8.7276    158.5266    199.5201   1.1869044040e+02   1.1162300762e+01    0.1331391    0.1169266  44.95 4.120808e-05    1.019    0.019
       115 -10.1468     86.0995    197.1713   1.3318134037e+02   2.3723471144e+01    0.4413655    0.1699495 -65.19  0.001236315    2.744    0.636
       116 -10.0195     82.9816    193.6109   1.3340449526e+02   2.4897986894e+01     0.331182    0.2316264   8.08 0.0009446328    2.913    0.657
       117  -9.3387    192.1027    197.9185   1.1184880958e+02   5.3300902953e+00     0.183136    0.1655888  49.19            0    1.213    0.176
       118 -12.0023     70.5346    194.6692   1.3608710939e+02   2.6436887846e+01    0.4358242    0.3000606 -44.22  0.001626497    2.080    0.519
       119 -11.9980     75.2409    187.9096   1.3435267175e+02   2.7176848848e+01    0.3081165     0.266966  74.75 0.0007521238    1.068    0.063
       120 -10.4341    113.1168    193.5712   1.2710812270e+02   2.0203695445e+01     0.475978    0.2411951 -64.73  0.001219013    2.283    0.562
       121  -9.2657    107.3265    196.0543   1.2865666495e+02   2.0663879583e+01    0.1763023    0.1524674  87.15 0.0006564326    1.129    0.115
       122 -10.9232     38.5986    192.8469   1.4233093367e+02   3.0771532636e+01    0.2981852    0.1796085 -70.56  0.001864814    1.549    0.354
       123 -10.7666    248.6422    194.0340   1.0100901966e+02  -3.8646790887e+00    0.3357334    0.1898257  12.21  0.001675136    2.147    0.534
       124 -10.3153    159.5879    194.1638   1.1759452341e+02   1.1903316371e+01    0.3200606    0.2185587  58.78  0.001047742    1.597    0.374
       125 -11.0366    120.4775    193.3557   1.2553695971e+02   1.9010178600e+01    0.3565908    0.3388081  75.00 0.0009563997    1.115    0.103
       126  -9.3350     30.6911    194.9685   1.4403672228e+02   3.1203153044e+01    0.1585198    0.1182746  81.17 0.0004342755    1.036    0.035
       127  -9.2208    178.2311    193.5815   1.1377144089e+02   8.5659326039e+00    0.3237483    0.1666348  23.49 0.0008478649    3.119    0.679
       128  -9.9440    173.0833    192.3956   1.1458244928e+02   9.7183163252e+00    0.2633752    0.1998349  -1.94 0.0008706955    1.695    0.410
       129  -9.7141     47.2722    192.9502   1.4062044640e+02   2.9751692019e+01     0.162484    0.1352422 -75.20 0.0006496578    1.291    0.225
       130  -9.8475     26.2899    192.6208   1.4470953165e+02   3.2137398394e+01    0.2301431    0.1087905 -89.27  0.001270908    1.932    0.482
       131 -10.4096    191.5022    191.4576   1.1080522288e+02   6.4603786333e+00    0.2598425    0.2105007  14.79 0.0006837158    1.245    0.197
       132 -10.7826     31.2510    189.9949   1.4354606835e+02   3.2154797678e+01    0.4782202    0.2678088  57.12  0.002952007    1.548    0.354
       133 -10.0757     29.3114    186.6474   1.4366584732e+02   3.3046794119e+01    0.2864307    0.1324009  63.56  0.001536043    2.048    0.512
       134 -10.5661     29.9767    182.5451   1.4320260394e+02   3.3829798969e+01    0.4544041    0.2745611  35.27  0.002824599    1.869    0.465
       135  -9.4667    135.3329    190.1557   1.2193775725e+02   1.7037360311e+01    0.1775304     0.163864  84.93 0.0005310304    1.120    0.107
       136 -11.7756    249.4354    187.7856   9.9689975046e+01  -3.1833638021e+00     0.362515    0.2835658   7.69  0.002317395    1.099    0.090
       137 -10.4882    223.1319    244.3221   1.1384316147e+02  -5.9508083422e+00    0.1935218     0.113616  25.37  0.001189925    1.457    0.314
       138  -9.4879     46.1476    187.5367   1.4035369429e+02   3.1001428815e+01     0.211904    0.1778395  16.22  0.001422107    1.800    0.444
       139  -9.9058    175.8791    186.9704   1.1305797692e+02   1.0122482938e+01    0.2024521    0.1856227  34.08 0.0003994586    1.024    0.023
       140  -9.5353     67.5219    186.7924   1.3584990075e+02   2.8469830693e+01    0.2086869    0.1604518  23.56  0.000738632    1.801    0.445
       141  -8.4553    161.2742    185.7175   1.1579747442e+02   1.3096271906e+01    0.1291939    0.1041457  74.29 0.0002076453    1.502    0.334
       142  -9.2435    154.5213    184.9814   1.1706519399e+02   1.4497829374e+01    0.1948634    0.1369936 -45.74 0.0009650382    1.569    0.363
       143 -10.8155    140.9622    183.7476   1.1970340694e+02   1.7244793606e+01    0.4497599    0.2428844  59.45   0.00116195    2.280    0.561
       144  -9.3020     81.7103    183.9792   1.3249873583e+02   2.7071883157e+01    0.1739856    0.1445401  82.48 0.0002642346    1.064    0.060
       145  -9.4269     87.2162    183.5164   1.3125280202e+02   2.6353624864e+01    0.4205453    0.1670252  36.87  0.001780471    2.612    0.617
       146  -9.4784     37.3843    184.1564   1.4183508818e+02   3.2701621660e+01    0.2272774    0.1420752  49.39  0.001426021    1.486    0.327
       147  -9.3026    217.3184    183.0920   1.0437570662e+02   3.0198267664e+00    0.1762362    0.1583935  -9.29 0.0004099013    1.117    0.104
       148  -9.9488     66.0024    181.9987   1.3563178191e+02   2.9682498889e+01    0.1825617    0.1543503  77.28  -0.04270636    1.037    0.035
       149 -10.9553    131.9734    180.9964   1.2116666867e+02   1.9418403195e+01    0.6593902    0.3970841  24.40  0.002221553    2.404    0.584
       150  -9.4667    104.1281    180.7923   1.2719497990e+02   2.4266990760e+01    0.1920775    0.1572516  68.70 0.0003036157    1.128    0.114
       151  -9.6877    175.8680    179.9240   1.1175925776e+02   1.1350272406e+01    0.2073809    0.1801798   8.82  0.000469056    1.221    0.181
       152 -10.1805    128.7487    179.3675   1.2159477847e+02   2.0323626121e+01    0.2309644      0.17953  69.99 0.0003355131    1.359    0.264
       153 -10.4138    114.9954    177.8576   1.2436074913e+02   2.3050805502e+01     0.452598    0.1936183 -58.64  0.001875277    2.533    0.605
       154 -11.7215     84.0943    175.8603   1.3091735736e+02   2.8443351022e+01    0.3712287    0.3191888 -80.42  0.001314854    1.120    0.107
       155 -10.2406     29.7203    177.3203   1.4281825978e+02   3.4955335072e+01    0.2845111    0.1455169  50.24  0.000521976    1.790    0.441
       156  -9.6662    109.1024    176.4264   1.2543962356e+02   2.4350779048e+01    0.2212226    0.1708265  85.88 0.0007137406    1.372    0.271
       157 -10.0325     77.1859    175.6545   1.3242262939e+02   2.9495545672e+01    0.2060082    0.1598153 -79.84 0.0005439147    1.199    0.166
       158 -12.2447     70.6940    174.1302   1.3366731957e+02   3.0735086186e+01    0.3826383     0.320053  12.85 0.0006766138    1.739    0.425
       159 -10.9315     68.9803    167.4254   1.3319415422e+02   3.2435067824e+01    0.3225455    0.1948322 -65.29            0    1.552    0.356
       160 -12.3351    248.1949    101.5778   8.1226042987e+01   9.6781111263e+00    0.8254097    0.4409502 -30.58  0.003784595    1.726    0.421
       161 -12.6547    248.4671    171.2608   9.6590506623e+01  -7.8720480779e-01    0.7358335    0.5159339  -8.66  0.004205494    1.395    0.283
       162 -11.0485    249.5010    124.0732   8.6245749950e+01   5.9715922647e+00    0.6293734    0.4083846 -50.34  0.002866597    1.787    0.440
       163 -12.4253    248.6040    114.1789   8.4111092802e+01   7.6632658149e+00     1.017772    0.6247673 -17.36  0.004811774    1.823    0.451
       164 -11.1754    249.6417    150.6857   9.2107744439e+01   1.9516657425e+00    0.5678312    0.3588387 -39.52  0.002336605    1.601    0.375
       165 -12.5346    245.2699    163.1729   9.5461412561e+01   9.1874028476e-01      0.57121    0.4665117 -41.09  0.003431701    1.411    0.291
       166 -12.2590    246.0725    157.1282   9.4061376668e+01   1.6536950704e+00     1.460855     1.019323 -79.81  0.006064529    3.820    0.738
       167 -12.1470    247.9402    142.5428   9.0616565683e+01   3.4727454201e+00    0.9304035    0.5908759  30.33  0.004623997    1.711    0.416
       168  -8.6347    168.7435    249.3433   1.2392325986e+02   1.8432467010e+00    0.1062716    0.0816936  65.00 0.0003003475    1.586    0.370
       169  -9.8012    139.0478    173.6352   1.1836453030e+02   1.9578551693e+01    0.2018603    0.1667528  48.36 0.0005126167    1.124    0.110
       170 -10.8488     80.7120    163.6026   1.2996344494e+02   3.1618864247e+01    0.2606778    0.2233826  81.15 0.0004467302    1.038    0.037
       171 -10.6699     89.5392    160.5107   1.2742637173e+02   3.0967431611e+01    0.3560118    0.2670549 -78.18  0.001119894    1.309    0.236
       172 -12.6341     89.7470    167.1183   1.2839250125e+02   2.9479115681e+01    0.7961187    0.6707703 -71.32  0.004815476    1.159    0.137
       173  -9.8083     84.7113    165.2983   1.2928376592e+02   3.0648333983e+01    0.2094221    0.1635994  68.50 0.0001696809    1.212    0.175
       174 -10.6625     30.4307    172.1801   1.4222057106e+02   3.5978281618e+01    0.2758853    0.2170092  -4.70  0.001764658    2.204    0.546
       175  -9.2791    183.5266    171.4635   1.0857471449e+02   1.1348484312e+01    0.1408774    0.1290479  24.87 2.940337e-05    1.020    0.020
       176  -9.1248    100.6196    170.7394   1.2646079788e+02   2.6962960066e+01    0.1836733    0.1227973 -73.99 0.0009377231    1.593    0.372
       177  -8.9843    167.3229    170.2404   1.1166603582e+02   1.4772304192e+01    0.1903029    0.1309834 -52.52 0.0009325546    1.633    0.388
       178 -10.8641     44.0608    168.6995   1.3893546021e+02   3.5262647859e+01    0.3031689    0.2602048 -47.24  0.001339096    1.525    0.344
       179  -9.7763     47.6843    168.3049   1.3809216073e+02   3.4932001429e+01      0.21171    0.1459677  89.03 0.0005784395    1.280    0.219
       180  -9.1231     36.0418    170.5142   1.4086631213e+02   3.5750859324e+01    0.1645542    0.1080573  43.76 0.0007664365    1.557    0.358
       181  -9.2770     48.1930    179.8189   1.3918621436e+02   3.2384929239e+01    0.1769066    0.1299433  67.14 0.0005002208    1.179    0.152
       182  -9.6052    107.3170    168.2177   1.2453582325e+02   2.6389159038e+01     0.217567    0.1747173  40.29  0.000388442    1.284    0.221
       183  -9.5285     58.8406    167.5381   1.3550750165e+02   3.3742840106e+01    0.1895494     0.146342 -81.60 0.0006344966    1.139    0.122
       184 -14.7528     27.5996    247.6290   1.4781995609e+02   2.1816532585e+01     1.552192    0.7237439  38.88   0.01000757    2.102    0.524
       185  -9.6634    175.8275    166.3323   1.0911956027e+02   1.3802112882e+01    0.1888505    0.1805719 -80.66 0.0005059184    1.181    0.154
       186  -9.7430    136.3159    165.6145   1.1750978842e+02   2.1713741691e+01    0.2547823    0.2124228 -80.53  0.000887074    1.330    0.248
       187  -8.8168    124.4198    165.4462   1.2016281522e+02   2.3964477710e+01    0.1391675    0.1291436  70.49 6.115362e-05    1.009    0.009
       188  -9.9338     48.1070    163.7676   1.3749158710e+02   3.5881965289e+01    0.3445646    0.1477983  51.04 0.0008646981    2.305    0.566
       189  -9.9906    179.2382    174.9735   1.1013061658e+02   1.1570396568e+01    0.1864332    0.1786687  13.56  0.001116868    1.056    0.053
       190 -10.1090     37.0736    162.8421   1.3987470543e+02   3.7316235850e+01    0.1885998    0.1336223  75.24 0.0005444248    1.249    0.199
       191  -9.9913    123.2843    160.7564   1.1957392449e+02   2.5163145928e+01    0.2796496    0.2356846 -15.83 0.0008336807    1.569    0.363
       192  -8.7130    119.7423    159.3045   1.2012837679e+02   2.6120400204e+01    0.1861607    0.1172986  42.71 0.0008805977    1.546    0.353
       193 -10.0538     86.2408    236.9897   1.3725392450e+02   1.6326135953e+01    0.2461114    0.1616755  86.63  0.001533821    1.584    0.369
       194 -11.0149     96.2280    159.0100   1.2560373625e+02   3.0236402860e+01    0.3505716    0.2612999 -53.53  0.001913562    1.390    0.281
       195 -10.5934     74.0881    159.3764   1.3090374754e+02   3.3516676598e+01    0.3705846    0.1947349 -53.29  0.001192776    1.948    0.487
       196 -10.2764     71.9666    156.5172   1.3099334312e+02   3.4457161700e+01     0.292748    0.2335936  -7.36  0.001620621    1.989    0.497
       197 -10.0817     79.0377    158.9361   1.2966790697e+02   3.2904310908e+01    0.1987926     0.173951  85.61  0.000375262    1.005    0.005
       198  -9.3513     52.7375    158.2583   1.3577244851e+02   3.6561189201e+01    0.1611878    0.1361349 -56.25 0.0005936295    1.344    0.256
       199  -9.4522     47.8470    157.9091   1.3686896152e+02   3.7216827162e+01    0.1830956    0.1541273 -65.47 0.0004562525    1.246    0.197
       200  -9.8827    134.4906    155.9814   1.1608445735e+02   2.4061121008e+01    0.3610601    0.1842917 -60.67 0.0003793439    2.420    0.587
       201  -9.9045    132.1810    152.2012   1.1587040338e+02   2.5305311332e+01    0.2292505    0.2047351 -61.05 0.0003495787    1.140    0.123
       202 -11.4427    133.6588    142.3940   1.1349661937e+02   2.7109868286e+01     0.987758     0.339263 -50.32  0.003320019    3.005    0.667
       203 -11.6997     14.2587    153.7973   1.4411406043e+02   4.1480342466e+01    0.2617306    0.1972714  85.90  0.001233118    1.051    0.048
       204 -10.4569    112.9635    152.3710   1.2044571720e+02   2.8848429881e+01    0.3550126    0.2850307  50.86 0.0008562973    1.212    0.175
       205 -11.0386    102.0332    150.9854   1.2282679600e+02   3.1059119775e+01    0.4568444    0.3104379 -57.54   0.00232568    1.446    0.309
       206 -10.0128    104.9538    146.0449   1.2120010859e+02   3.1663846917e+01    0.4153993    0.3079735 -53.20  0.002170372    1.347    0.258
       207  -9.5743     61.9861    152.0390   1.3275201355e+02   3.6812167948e+01    0.1964435    0.1694153 -89.95   0.00124188    1.012    0.012
       208  -9.7152     95.9425    152.6969   1.2460632773e+02   3.1689452550e+01    0.2747669    0.1643566 -34.21 0.0009614703    2.598    0.615
       209 -10.7973     90.6459    150.1635   1.2546115258e+02   3.3112236963e+01    0.2323818    0.2175592  79.55 0.0003558962    1.067    0.063
       210 -11.4958     55.8840    148.7329   1.3377569572e+02   3.8334733490e+01    0.5494534    0.4205239  82.63  0.003331573    1.216    0.178
       211 -12.2012     59.3767    135.3535   1.3091399760e+02   4.0981816382e+01    0.6554013    0.3838218 -87.24    0.0031372    2.004    0.501
       212 -13.0790     67.3988    144.2815   1.3026909633e+02   3.7872032502e+01    0.7674811    0.5326279  79.68  0.004143088    1.545    0.353
       213 -12.0078     74.2357    138.7009   1.2761994052e+02   3.8210810855e+01    0.6218995    0.4371117 -78.29  0.002082701    1.412    0.292
       214 -12.3196     26.6863    140.8686   1.3992969562e+02   4.3263905063e+01    0.5870426    0.2611292  74.51  0.002500459    3.123    0.680
       215 -10.8254     35.8792    149.3301   1.3867817525e+02   4.0454742334e+01    0.3338111    0.1562753  53.82  0.001661684    2.233    0.552
       216 -11.9663     33.5526    135.9870   1.3764186104e+02   4.3721862476e+01    0.4687533    0.2103071 -60.78  0.002348801    1.877    0.467
       217 -11.2047     32.4088    145.7749   1.3910063328e+02   4.1607540958e+01    0.3563784    0.1585513 -66.76  0.001617237    1.854    0.461
       218 -11.5593     32.6378    141.4602   1.3854140418e+02   4.2563064235e+01    0.3359776    0.2205918 -78.25  0.001413663    1.272    0.214
       219  -9.1961    141.6588    147.7464   1.1275641746e+02   2.4376386086e+01    0.3047163    0.1777321  15.99 0.0009617882    4.123    0.757
       220 -10.7956     67.9609    136.7244   1.2890705381e+02   3.9541197408e+01    0.3072442    0.2418576 -76.69 0.0008944425    1.155    0.134
       221 -10.6822     41.4603    146.4496   1.3699279624e+02   4.0519073509e+01    0.2876811    0.1655858 -38.15  0.001405491    2.643    0.622
       222 -11.8374      2.2369    145.2151   1.4609746180e+02   4.4294426517e+01    0.4196205    0.2090939 -71.60  0.002502244    1.567    0.362
       223 -12.4541      3.0277    139.0174   1.4540257306e+02   4.5595318219e+01     1.037787    0.2535014  47.79  0.004332433    4.114    0.757
       224 -10.4044     37.1795    143.9309   1.3772623050e+02   4.1543836262e+01     0.188146     0.142949  79.97 0.0004936828    1.197    0.165
       225  -9.8852     53.7044    140.0466   1.3308672408e+02   4.0593106875e+01    0.2523646     0.164947  83.75  0.001347717    1.630    0.386
       226 -11.3231     46.7301    138.6585   1.3465847841e+02   4.1722843728e+01    0.4016336    0.2211499  17.44   0.00188952    2.911    0.656
       227  -9.7641    118.9904    138.5132   1.1622892118e+02   3.0799974910e+01    0.2069091    0.1944078 -70.92 0.0003666814    1.043    0.041
       228 -10.0479     13.3879    137.7663   1.4282706035e+02   4.5099600790e+01     0.172402   0.08338699 -65.99 0.0009492409    1.666    0.400
       229 -11.0255    112.6901    136.3903   1.1735272611e+02   3.2445891067e+01    0.4176565    0.3337929  44.42   0.00165109    1.269    0.212
       230  -9.1616    228.3742    155.2768   9.6682067544e+01   5.2335160340e+00    0.1848827    0.1223607 -40.15 0.0004604831    1.560    0.359
       231 -12.3968     45.8704    131.6182   1.3387081503e+02   4.3444897085e+01    0.5879462    0.3948649  65.95  0.002909009    1.598    0.374
       232 -12.3150      2.3959    131.0707   1.4484968442e+02   4.7392980045e+01    0.5794184    0.2122021 -75.82  0.002888168    2.106    0.525
       233 -10.2617     95.6630    173.8751   1.2805285873e+02   2.7089637840e+01    0.3234186    0.2096442 -59.40  0.001277024    1.559    0.359
       234  -9.3131    106.7325    129.9912   1.1751553287e+02   3.4968937366e+01    0.3043192    0.1684053  63.59 0.0008554815    2.660    0.624
       235 -11.9931     66.7511    127.9827   1.2771884222e+02   4.1736323991e+01    0.4934332    0.4032496  84.30  0.001714533    1.225    0.184
       236 -12.6102     30.7920    126.7149   1.3714781349e+02   4.6113452163e+01     0.549803    0.2323045  35.54  0.002706343    2.558    0.609
       237 -10.4668    209.8092    125.8973   9.3357948763e+01   1.3920825197e+01    0.3002495    0.2372497 -23.79 0.0005444195    1.263    0.208
       238  -9.7028    159.7788    126.7228   1.0382480663e+02   2.4897919401e+01       0.2425    0.1176294 -52.00  0.000867638    2.369    0.578
       239  -8.7387     93.4036    127.5132   1.2048414307e+02   3.7839837706e+01    0.1420737    0.1298212 -73.41 9.937042e-05    1.020    0.020
       240  -9.6762     85.8553    126.7151   1.2233552944e+02   3.9243729058e+01    0.2626404     0.211988  -1.12  0.001376837    1.735    0.424
       241 -11.8388      9.2444    127.4246   1.4279788885e+02   4.7729070039e+01    0.2203223    0.1945883  60.90  0.001260222    1.289    0.224
       242  -9.9423    117.6050    129.1584   1.1454894909e+02   3.3139173971e+01    0.2182393    0.1338433 -40.48 0.0009500769    1.773    0.436
       243 -11.1734     37.1122    125.1120   1.3524276739e+02   4.5872457670e+01    0.2418016    0.1579303 -73.79 0.0006213568    1.301    0.231
       244 -10.1242     50.1906    122.9033   1.3134888342e+02   4.4983163686e+01    0.2080024    0.1578636  85.15  0.001075892    1.337    0.252
       245 -11.4322     20.8543    120.6702   1.3899787965e+02   4.8367691776e+01    0.2445066    0.1590382 -50.98  0.001441749    1.537    0.349
       246  -9.8941    238.8028    121.7608   8.7388140298e+01   8.4659303769e+00    0.2786248     0.178383  -9.51  0.001268017    1.969    0.492
       247 -12.2057     31.3443    117.5807   1.3571474529e+02   4.8165925887e+01    0.4281414    0.2831548 -53.46  0.001833884    1.414    0.293
       248  -9.5641    209.3303    246.6604   1.1652442833e+02  -4.1375685289e+00    0.1055636   0.08490919  58.63 0.0007051745    1.740    0.425
       249 -11.1010    168.2872    113.4654   9.8607356043e+01   2.5623037493e+01    0.3902228    0.3279112 -80.88 0.0008372047    1.433    0.302
       250  -9.6382     72.8086    115.1898   1.2358196096e+02   4.3874109507e+01    0.1823022    0.1566801 -29.65 0.0003990802    1.346    0.257
       251  -9.3604    134.3193    114.3235   1.0678663544e+02   3.3009663822e+01    0.1545869    0.1227775  -1.46 0.0007045049    1.673    0.402
       252  -8.6628     82.0134    114.2455   1.2077620698e+02   4.2723204922e+01    0.1649905    0.1208122  38.71 0.0002340729    1.481    0.325
       253 -11.7708      2.0000    111.0459   1.4293108829e+02   5.1878646935e+01    0.4953204    0.1205321 -73.05  0.001992763    3.116    0.679
       254  -9.7276    154.4118    172.8065   1.1489103785e+02   1.6812505389e+01    0.3426387    0.2362327  12.50  0.001101292    2.191    0.544
       255  -9.4054    204.5029    110.9909   9.0674778525e+01   1.7712936188e+01    0.3159581    0.1757855  21.55  0.001036475    3.520    0.716
       256 -10.2758     69.9955    111.2964   1.2357397699e+02   4.5173497333e+01    0.1822078     0.171853  68.85 0.0003692258    1.132    0.117
       257 -11.1936     59.3124    110.6484   1.2654080211e+02   4.6740748426e+01    0.3514979    0.2181622  63.50  0.001701681    2.094    0.522
       258  -9.8663     54.9765    111.4644   1.2796041059e+02   4.7084186042e+01    0.1774383    0.1328897  33.20 0.0004402614    1.539    0.350
       259 -10.6624     32.0490    111.0023   1.3451116651e+02   4.9617908032e+01    0.1949231    0.1735808  35.93  0.001027452    1.353    0.261
       260 -10.1507     62.3380    107.1016   1.2493038872e+02   4.7175749866e+01    0.2002761    0.1597078 -63.85 0.0009671634    1.116    0.104
       261 -10.8862     27.6442    106.1012   1.3501018371e+02   5.1137034255e+01    0.2265233    0.2050937  86.65  0.001580441    1.162    0.139
       262  -9.6291    134.4950    106.5009   1.0471149651e+02   3.4629153077e+01    0.1515231    0.1492766 -53.42 -0.0001486754    1.002    0.002
       263  -8.9245    106.2142    103.1119   1.1129928740e+02   4.1092065708e+01    0.1900169    0.1662209 -87.96 0.0002733158    1.277    0.217
       264  -9.5486     62.9689     99.9822   1.2319888012e+02   4.8731105922e+01    0.2183553    0.1503595 -32.30 0.0005556127    1.700    0.412
       265 -10.7983     47.4771     89.9143   1.2579999270e+02   5.2895839465e+01    0.4345425    0.2296063  14.24 0.0009963711    2.923    0.658
       266  -9.4941    199.7677    245.7762   1.1803866498e+02  -2.5639671704e+00    0.1459522    0.1205064  45.56  0.000442851    1.317    0.241
       267  -9.0956    155.6614     76.3007   9.1003186189e+01   3.5670105283e+01    0.1581053    0.1220001 -77.16 0.0003927848    1.665    0.400
       268 -10.8484     81.1659    246.1611   1.3892630835e+02   1.5494628800e+01    0.3757915    0.2133311  84.03  0.002296379    1.988    0.497
       269 -10.3662     83.8072    242.1910   1.3813817090e+02   1.5789111297e+01    0.2480532     0.223042 -27.28  0.001844022    1.852    0.460
       270 -10.0715     90.0021    235.8737   1.3648117939e+02   1.5984388401e+01     0.299883     0.134548  57.46  0.001561937    2.066    0.516
