#   1 NUMBER                 Running object number                                     
#   2 MAG_AUTO               Kron-like elliptical aperture magnitude                    [mag]
#   3 X_IMAGE                Object position along x                                    [pixel]
#   4 Y_IMAGE                Object position along y                                    [pixel]
#   5 X_WORLD                Barycenter position along world x axis                     [deg]
#   6 Y_WORLD                Barycenter position along world y axis                     [deg]
#   7 A_WORLD                Profile RMS along major axis (world units)                 [deg]
#   8 B_WORLD                Profile RMS along minor axis (world units)                 [deg]
#   9 THETA_WORLD            Position angle (CCW/world-x)                               [deg]
#  10 FWHM_WORLD             FWHM assuming a gaussian core                              [deg]
#  11 ELONGATION             A_IMAGE/B_IMAGE                                           
#  12 ELLIPTICITY            1 - B_IMAGE/A_IMAGE                                       
         1 -12.0871     66.8702     15.9057   3.2007977904e+01   6.6820311790e+01    0.4303263    0.1891406 -29.11  0.001761431    2.378    0.579
         2 -11.4931     55.7525     11.0939   3.3037821537e+01   7.0079975517e+01    0.2700388    0.1857475  53.12  0.001401938    1.326    0.246
         3 -12.1017     81.5117      8.8935   2.3943414616e+01   6.3837689999e+01    0.3049778    0.1915765  65.04 0.0003911056    1.433    0.302
         4 -13.5281     90.8066      5.0757   2.0088085234e+01   6.1738769373e+01    0.4990011    0.3199797 -72.09  0.001988009    1.676    0.403
         5 -11.0784     48.3103      7.9188   3.3932958207e+01   7.2188462269e+01    0.1843034    0.1694833  30.75 0.0005440255    1.049    0.047
         6 -10.7302    103.5544      7.4932   1.9141207053e+01   5.8160239539e+01    0.1388451    0.1252808 -89.57 8.169756e-05    1.007    0.007
         7 -11.1504    106.7773      4.1120   1.7175254976e+01   5.7594523032e+01     0.207397     0.167114 -67.18 0.0004303041    1.178    0.151
         8 -12.2643      5.3027      3.4624   6.3918994803e+01   8.0866674740e+01    0.2181787    0.1916655 -18.61 0.0005080827    1.061    0.058
         9 -11.3182    100.9347      2.1439   1.7085218510e+01   5.9297078244e+01    0.2210086    0.1678374 -72.50  0.001142209    1.266    0.210
        10 -11.8653     49.8422      1.9803   2.8888858118e+01   7.2429869507e+01    0.2130785     0.179081  57.75 0.0003785991    1.088    0.081
        11 -13.7449    111.6603    234.7381   7.6251889371e+01   1.2004527413e+01    0.4768878    0.2766176  20.69  0.002157357    1.497    0.332
        12 -12.2937    236.9335    249.2455   5.5185160519e+01  -2.8189392109e+00    0.2254791    0.1493403   0.09 0.0009667808    1.068    0.064
        13 -10.0609    179.5376    250.5197   6.4679561009e+01   2.2785547704e+00    0.1086932   0.07911152   5.16 0.0001594626    1.002    0.002
        14 -11.6704    124.9789    249.5639   7.5029939316e+01   8.1562843563e+00    0.1917865    0.1399451 -18.06 0.0005906076    1.488    0.328
        15 -12.4079    114.8622    249.9217   7.7153839357e+01   9.2077085421e+00     0.275294    0.2062069  19.76  0.001284443    1.048    0.046
        16 -12.3148    115.0191    244.7218   7.6590522022e+01   9.9997282170e+00     0.208386    0.1668728 -48.67  0.001218688    1.547    0.354
        17 -13.1360     97.4192    248.9161   8.0742121965e+01   1.1271445959e+01    0.4784007    0.2796356  27.00  0.001397021    1.328    0.247
        18 -12.3906     85.0345    250.5705   8.3548611604e+01   1.2336205883e+01    0.2433127    0.1280135  28.06 0.0005321066    1.457    0.314
        19 -12.5953     85.6577    246.4249   8.3070367054e+01   1.2960282268e+01    0.2172626    0.1945792  49.69 0.0005002162    1.238    0.192
        20 -10.5492     60.9934    221.1896   8.6688369001e+01   2.0314486526e+01    0.6092387    0.2186196  31.23  0.002705546    2.132    0.531
        21 -12.0616     60.4597    241.8994   8.8330088180e+01   1.6427274822e+01    0.3810968    0.2060523   3.90  0.001854722    2.638    0.621
        22 -10.8524     62.6161    225.4497   8.6632521800e+01   1.9293549399e+01    0.3897335      0.15656  22.01  0.001712557    2.366    0.577
        23 -13.0442     71.4853    234.2563   8.5249624211e+01   1.6650781598e+01    0.3399267    0.1969802  34.41 0.0005298202    1.355    0.262
        24 -12.7008     74.0119    229.0470   8.4230172638e+01   1.7343037181e+01    0.3720785    0.2525351 -18.81  0.002089789    2.004    0.501
        25 -12.8422     70.2512    248.5505   8.6614673802e+01   1.4237158333e+01    0.2314102    0.2079621  38.46  0.000739819    1.163    0.140
        26 -13.5748     67.2443    245.4946   8.7060429147e+01   1.5081487505e+01    0.5850895    0.3982651 -41.77  0.003448689    1.912    0.477
        27 -13.0780     54.8639    250.3320   9.0109956522e+01   1.5498041020e+01    0.5718653    0.1368637  27.26  0.002335198    2.995    0.666
        28 -14.0027     28.5829    186.4293   9.2633985998e+01   3.1380242244e+01     1.278525    0.9700447  75.05  0.007321611    1.257    0.204
        29 -13.0443     21.0012    198.2902   9.5388912889e+01   2.9295093895e+01    0.6484005    0.3382785  70.32    0.0032263    1.889    0.470
        30 -14.7604     10.8466    186.9724   9.7627800826e+01   3.2806676032e+01     1.152721    0.9285079 -75.35  0.007089383    1.344    0.256
        31 -13.9318     39.7973    245.2289   9.3161251179e+01   1.7878031333e+01    0.7310044    0.4162802 -74.18  0.004450157    2.114    0.527
        32 -15.0163     37.0442    227.5880   9.2882580696e+01   2.1507585847e+01     1.510898     1.006795 -19.18  0.008426857    2.228    0.551
        33 -13.7255     34.4470    242.4467   9.4224082188e+01   1.8895055646e+01    0.3941384    0.3230206 -56.77  0.002805625    1.582    0.368
        34 -13.5608     32.3607    235.5054   9.4375945311e+01   2.0402282629e+01    0.4669593    0.2637163 -56.32  0.002675874    2.256    0.557
        35 -14.4573      3.8914    208.5338   1.0018902343e+02   2.8422444421e+01     1.040444    0.4829372 -61.86  0.005156682    2.578    0.612
        36 -13.9097     26.7585    234.9379   9.5638775197e+01   2.1028624857e+01     0.586911    0.2584895  87.59  0.002975946    2.670    0.626
        37 -14.0079     28.6984    248.1264   9.5741722142e+01   1.8382424996e+01    0.4100652    0.2600736  63.71  0.002692266    1.510    0.338
        38 -14.7342     19.7957    214.0677   9.6421678481e+01   2.5906670312e+01     1.297514     0.497474  76.88  0.005595952    2.976    0.664
        39 -16.9545     15.7713    236.0679   9.8187215438e+01   2.1778964675e+01     1.924538     1.375248 -83.62   0.01302507    1.595    0.373
        40 -16.0934      4.7714    226.7122   1.0044308586e+02   2.4534865198e+01     1.643285    0.4774591 -80.32  0.007125607    3.643    0.726
        41 -13.2084    104.9209    241.8896   7.8459777491e+01   1.1587656492e+01    0.4874087    0.1940917  19.45 0.0003742097    2.609    0.617
        42 -11.0546     52.6217    243.4368   9.0193333893e+01   1.6948234785e+01    0.1155141   0.09327338  35.18 -8.352416e-06    1.048    0.046
        43 -10.8374     47.4210    241.8390   9.1270706004e+01   1.7758384411e+01    0.1419256    0.1059177 -54.23 0.0009332279    1.711    0.415
        44 -10.7497    158.6173    240.7746   6.7318613534e+01   5.7472844763e+00    0.1287482    0.1071709 -44.04 0.0006555883    1.605    0.377
        45 -11.2367    134.9724    241.3205   7.2071530687e+01   8.2882201084e+00    0.1691607     0.122335  18.31  0.000497608    1.096    0.088
        46 -11.8769     89.8015    239.0908   8.1512773538e+01   1.3757415994e+01    0.3113178    0.2000474 -69.02  0.001352068    2.035    0.509
        47 -12.3681     92.0000    235.0487   8.0643145336e+01   1.4215271204e+01    0.3139283     0.185279 -70.12  0.001287247    2.276    0.561
        48 -10.6410     82.5382    241.3191   8.3328060949e+01   1.4174232393e+01    0.1410135    0.1091697 -39.34 0.0008197317    1.587    0.370
        49 -11.1812    240.0117    239.6406   5.3422420626e+01  -2.0731527800e+00    0.1342133   0.08956224   3.35 0.0004470794    1.146    0.128
        50 -11.6277    148.9593    238.7755   6.8952252874e+01   7.0987759910e+00    0.3027266    0.1547307  12.73  0.001133351    2.009    0.502
        51 -11.6907     52.6222    237.3442   8.9815485182e+01   1.8069937402e+01    0.2170591     0.164479 -41.29  0.001023942    1.718    0.418
        52 -10.6799    190.3849    237.2589   6.1025346974e+01   2.8521353765e+00    0.1206841   0.09329399 -27.50 0.0002681361    1.417    0.295
        53 -11.2297     97.4886    236.8402   7.9589594704e+01   1.3278580385e+01    0.1862656    0.1247155 -73.65 0.0007538885    2.074    0.518
        54 -11.0226     79.2309    237.1212   8.3715699364e+01   1.5279167235e+01    0.3089621    0.1434489   9.93  0.001293873    3.142    0.682
        55 -11.7346     63.6475    235.3363   8.7139961612e+01   1.7295968507e+01    0.2748355    0.1404992  45.49  0.001163388    1.690    0.408
        56 -12.4283     61.9827    231.9943   8.7279884673e+01   1.8101000809e+01     0.496472    0.2906553 -16.74  0.002385063    2.889    0.654
        57 -12.4715     59.0089    230.0025   8.7831540646e+01   1.8798208413e+01    0.5651127     0.179626  35.14  0.001675634    2.241    0.554
        58 -12.4402    127.5227    227.4938   7.1979044344e+01   1.1338083195e+01    0.1819665    0.1196341 -49.20 4.451459e-05    1.778    0.438
        59 -12.9123    130.1416    231.1458   7.1866651030e+01   1.0431100994e+01    0.3415075    0.1456841  41.28  0.001580122    2.440    0.590
        60 -10.8493     53.4442    232.5129   8.9311623437e+01   1.8899647638e+01    0.1221183   0.09923325  36.22 0.0001596822    1.030    0.029
        61 -12.9161    220.2406    230.3108   5.5092855441e+01   7.4646372119e-01    0.2711138    0.1579929  25.22  0.001181515    1.643    0.391
        62 -13.6495    109.9224    214.3835   7.4291068713e+01   1.5805252729e+01     0.498072    0.2873649 -30.04  0.002482919    2.240    0.554
        63 -13.8358    113.6790    218.9170   7.3984740659e+01   1.4507203664e+01    0.3982686     0.323797 -59.48  0.001498719    1.511    0.338
        64 -14.5864    114.1808    227.1272   7.4845514393e+01   1.3000583916e+01    0.7979693    0.3089867  28.13  0.003670957    2.152    0.535
        65 -14.5356    105.7562    227.0347   7.6717998324e+01   1.4025167226e+01     1.148087    0.2381709  38.08  0.004000609    3.831    0.739
        66 -11.5592    193.6891    229.6105   5.9384709637e+01   3.4923223511e+00    0.2071224    0.1671373   4.06  0.001587996    1.185    0.156
        67 -11.4301    178.0577    228.3765   6.2006075613e+01   5.3394399927e+00    0.1749068    0.1257287 -12.50 0.0003826851    1.214    0.176
        68 -11.6829    149.2865    229.5727   6.7714904530e+01   8.4337950273e+00    0.2230782   0.09302947  32.02 0.0009803952    2.045    0.511
        69 -11.0814     83.8581    229.5080   8.1978701654e+01   1.6142857687e+01    0.1881941    0.1018627  28.15 0.0008284249    1.505    0.336
        70 -10.4892    181.3012    232.3098   6.1961056360e+01   4.4510596878e+00    0.1150712   0.06962752  -5.08 0.0004350279    1.603    0.376
        71 -12.7100    231.5481    226.9281   5.2864223047e+01   7.6169020462e-02    0.2976566    0.1606728 -25.01  0.002073838    1.495    0.331
        72 -11.9914     91.4301    225.9867   7.9882799998e+01   1.5913679210e+01    0.2689655    0.2153697 -74.49  0.001050679    1.570    0.363
        73 -10.8795    136.9751    226.1798   6.9807303287e+01   1.0419917762e+01    0.1522891    0.1366144  64.76 0.0008856912    1.589    0.371
        74 -12.8859     96.0506    225.4940   7.8764370553e+01   1.5458086187e+01    0.2140349    0.1700247  68.43 0.0009988018    1.567    0.362
        75 -12.7496     27.4752    224.6635   9.5018651853e+01   2.3001858742e+01    0.3796945    0.2004094  43.15  0.002120879    1.462    0.316
        76 -10.8991    222.4619    225.5204   5.4049601314e+01   1.0994520340e+00    0.1064688   0.07612254  -6.11 0.0001093133    1.015    0.015
        77 -15.9783     79.0383    158.0205   7.4575976387e+01   3.2338287808e+01     2.426831     1.055819  58.76  0.007263564    4.148    0.759
        78 -13.5558     81.3908    195.2332   7.8995118804e+01   2.3324652767e+01     1.151171    0.5651891  69.47  0.003955347    4.235    0.764
        79 -13.0641    100.3396    184.4187   7.2639198438e+01   2.3106901564e+01    0.3735358    0.3032143 -40.66  0.001046421    1.331    0.249
        80 -15.2850     92.1852    183.2460   7.4609295870e+01   2.4511909406e+01     1.112131    0.8760066  88.83  0.006031855    1.546    0.353
        81 -13.3191     58.9208    213.1273   8.6548695442e+01   2.2192484180e+01    0.5073393    0.3872057  26.83  0.002446734    1.178    0.151
        82 -12.5846     61.9984    204.8563   8.5047825200e+01   2.3601341206e+01    0.5552944    0.4091971  84.42  0.003190304    1.535    0.349
        83 -13.4498     87.7164    213.8849   7.9501621385e+01   1.8666807276e+01    0.4618607    0.4552174   8.51  0.001856256    1.157    0.136
        84 -13.8030     77.4200    202.1434   8.0803086352e+01   2.2339865737e+01    0.5097814    0.4047498 -39.48  0.002407909    1.467    0.319
        85 -13.9771     77.3237    218.7808   8.2514785794e+01   1.8943424067e+01    0.5329762    0.3171218  56.51  0.002806792    1.866    0.464
        86 -13.9396     78.6870    212.5503   8.1571135856e+01   2.0026138903e+01    0.8631319    0.2930103  27.93  0.003483388    2.496    0.599
        87 -13.3132     90.0490    202.1887   7.7603621733e+01   2.0736267263e+01    0.5243906    0.3076648 -43.70  0.002178002    1.980    0.495
        88 -14.4989     94.8669    194.5918   7.5440604972e+01   2.1689843077e+01     1.142671    0.5182614  39.84  0.005023309    1.985    0.496
        89 -14.6014     68.6394    186.7771   8.1435932253e+01   2.6842537736e+01     1.074839    0.6976869  36.04   0.00396426    1.356    0.262
        90 -13.8289     65.3404    180.8853   8.1683972746e+01   2.8635430165e+01    0.6784098    0.3286392 -60.14  0.002977879    2.148    0.534
        91 -11.3494    212.4988    223.4707   5.5333049189e+01   2.3330677377e+00    0.2509972    0.1327642 -16.62  0.001034243    1.780    0.438
        92 -12.5546    159.6027    222.2635   6.4667887626e+01   8.3343281747e+00    0.2921051    0.1858589  24.28 0.0005697074    1.352    0.260
        93 -13.6027    125.1068    221.3401   7.1737354216e+01   1.2667532103e+01    0.5118559    0.2960393  16.39 0.0006392434    1.682    0.406
        94 -13.7797    125.7859    213.2896   7.0543608361e+01   1.3986624790e+01    0.5329318    0.2675889  40.77  0.002280091    1.968    0.492
        95 -11.3909    246.6916    221.2948   4.9829868863e+01  -6.6555742061e-01   0.08372816   0.07057507 -15.07 0.0004196243    1.588    0.370
        96 -12.0224    237.9731    221.0256   5.1041947569e+01   1.5636947101e-01     0.164701    0.1151041  -7.89  0.001120728    1.020    0.019
        97 -11.5437    223.1608    220.4970   5.3197170714e+01   1.6328810500e+00     0.176203    0.1164654 -20.83  0.000507772    1.220    0.181
        98 -11.9584    189.4564    220.3108   5.8782595787e+01   5.1881262211e+00    0.2380743    0.1422621  -5.78 0.0007494093    1.669    0.401
        99 -11.2425    194.6790    220.3037   5.7862117552e+01   4.6149233862e+00    0.1867083    0.1170175  30.50 0.0006023058    1.624    0.384
       100 -12.4620    173.0424    219.0813   6.1614335585e+01   7.2294521295e+00    0.2364742    0.1779691 -29.58   0.00100046    1.336    0.252
       101 -13.6673    141.1405    210.7241   6.6833385972e+01   1.2466326799e+01    0.5707393    0.3452923 -68.67  0.001609901    3.157    0.683
       102 -11.3569    231.2337    218.4208   5.1651417153e+01   1.0949626025e+00    0.1280119   0.08748482  26.24 0.0007222829    1.637    0.389
       103 -13.1260    120.2017    214.7024   7.1981216225e+01   1.4445240268e+01    0.3052581    0.2155308  34.56  0.001247072    1.282    0.220
       104 -13.7671    118.7523    211.0858   7.1839985815e+01   1.5286432577e+01    0.5092236    0.2551118  21.87  0.002427988    1.945    0.486
       105 -13.2353    123.1983    206.4632   7.0202843135e+01   1.5556785705e+01    0.4275801    0.1979356 -39.18  0.001890912    2.504    0.601
       106 -13.4178    118.0714    206.9480   7.1447071925e+01   1.6140926172e+01    0.3104602    0.2669618   1.88 0.0003461201    1.120    0.107
       107 -12.5378    115.6900    203.3269   7.1512244702e+01   1.7140763555e+01    0.2014073    0.1725551  38.05 0.0005353696    1.169    0.144
       108 -13.3171     69.3490    207.3537   8.3397380255e+01   2.2211056819e+01    0.5407026    0.3627144   3.28  0.002381941    1.827    0.453
       109 -11.8698     64.3658    215.8883   8.5423993413e+01   2.1012640281e+01    0.2854525    0.2320846 -73.29  0.001802518    1.423    0.297
       110 -11.1603    225.3632    216.4560   5.2247641812e+01   1.9044744857e+00    0.1755061   0.08764661  21.68 0.0005653994    1.910    0.476
       111 -12.2753    155.8568    214.4021   6.4298688275e+01   1.0007719096e+01    0.2289666    0.1598231 -25.26 0.0006441935    1.418    0.295
       112 -10.5897     36.7067    214.3951   9.2217213127e+01   2.4256621330e+01    0.2635126    0.1341667  73.03   0.00128746    2.204    0.546
       113 -12.6729    247.7412    212.7674   4.8402105656e+01   1.9569054374e-01    0.1939222    0.1335426  15.49 0.0008110814    1.425    0.298
       114 -12.5935     97.5627    212.4881   7.6974114324e+01   1.7720943742e+01     0.343428    0.2486466 -88.39 0.0004234177    1.923    0.480
       115 -12.2943    101.6155    207.3858   7.5390742613e+01   1.8199983273e+01    0.5656331    0.2905051   4.75  0.002154011    3.444    0.710
       116 -12.6951    145.6440    215.5412   6.6562063232e+01   1.1091687582e+01    0.5512478    0.2501722 -31.68  0.002537393    2.722    0.633
       117 -11.8534     27.1254    209.0391   9.4340532054e+01   2.6330118693e+01    0.5453241    0.2260932  43.34   0.00226256    1.874    0.466
       118 -12.9032     36.3699    203.2124   9.1608417720e+01   2.6726622400e+01    0.4929663    0.2768512 -34.63  0.001616176    2.729    0.634
       119 -11.3191     35.6812    198.9872   9.1513165417e+01   2.7748177546e+01    0.2134454    0.1606034  37.88 0.0004477871    1.138    0.121
       120 -12.5144    229.4713    207.5477   5.0247307584e+01   2.5823686059e+00    0.3034334    0.1547228 -40.08  0.001680942    2.083    0.520
       121 -10.9251    210.3083    211.6780   5.3908246176e+01   4.0640833856e+00    0.0917109   0.08675943 -11.91 0.0003860428    1.645    0.392
       122 -11.0435     46.9855    209.8797   8.9318938973e+01   2.4173767370e+01    0.2247668    0.1741511 -70.36 0.0008381652    1.462    0.316
       123 -12.8273     43.0094    205.7643   9.0048026355e+01   2.5484715327e+01    0.2884036    0.2126745  37.03 0.0006771013    1.142    0.125
       124 -12.6313    108.1669    206.9767   7.3772633187e+01   1.7430824554e+01    0.3236151    0.1889537  -5.45  0.001419571    2.683    0.627
       125 -11.3821    180.8130    207.7460   5.8449674413e+01   7.9794186291e+00    0.1722461    0.1294474 -17.63  0.001148112    1.169    0.145
       126 -12.3167     54.8740    206.4044   8.7023355067e+01   2.4071359625e+01    0.2875777    0.1735041 -63.28 0.0008680613    1.851    0.460
       127 -11.4326    160.3237    206.6507   6.2245390917e+01   1.0689315280e+01    0.1946819    0.1514068 -53.60  0.001212835    1.705    0.413
       128 -10.6878    205.1566    206.1765   5.3901591927e+01   5.3638685714e+00    0.1353544    0.1154206  -3.43 0.0002609874    1.248    0.199
       129 -11.1538     81.8769    205.6696   8.0054121515e+01   2.1047210686e+01    0.2280104    0.1644731 -11.80 0.0008947397    1.758    0.431
       130 -12.6958    145.4911    202.3911   6.4677602244e+01   1.3330702460e+01    0.4053772    0.2123659 -50.74  0.002036043    2.186    0.542
       131 -13.7246    140.0894    196.4943   6.4947890799e+01   1.5104522099e+01    0.4085087    0.3425167  31.10  0.001819825    1.192    0.161
       132 -12.1070    239.1481    202.3950   4.8008556235e+01   2.2360522079e+00    0.2578184    0.1157203 -35.57  0.001558413    1.926    0.481
       133 -11.6228    224.9958    204.2638   5.0410504248e+01   3.4560573716e+00    0.1532786    0.1145955  -1.95  0.000417095    1.095    0.087
       134 -11.1772     49.3438    202.6279   8.8157318577e+01   2.5505194338e+01    0.3011574    0.2095227 -47.83  0.001546736    1.739    0.425
       135 -10.9907    189.0757    202.3030   5.6078673754e+01   7.7856771469e+00    0.1569321    0.1243211   6.63 0.0001929448    1.099    0.090
       136 -11.1343     30.4226    202.0874   9.3101820825e+01   2.7560848859e+01    0.2135544    0.1391161  49.95 0.0006819409    1.298    0.229
       137 -11.0996      1.3912    202.2396   1.0065309267e+02   3.0004689591e+01    0.1621126     0.109925 -87.44 0.0009628299    1.498    0.333
       138 -11.5354    212.2038    199.8775   5.1727270592e+01   5.4238061970e+00    0.1621773    0.1361356 -17.40 0.0008544628    1.270    0.213
       139 -14.4223    123.4766    197.2028   6.8822966899e+01   1.7258554132e+01     0.595849    0.3686413  28.38  0.003140489    1.456    0.313
       140 -12.0490    225.1576    198.2925   4.9426364662e+01   4.2030454058e+00    0.2503956    0.1276596 -45.42  0.001380314    2.594    0.614
       141 -11.0247     61.0818    196.9627   8.4549584532e+01   2.5443813129e+01     0.214637    0.1432059 -47.56  0.001108667    1.764    0.433
       142 -11.5958     41.0146    198.1336   9.0025701812e+01   2.7399488951e+01    0.1919362    0.1663841  43.79 0.0003993629    1.039    0.037
       143 -11.2583     29.8929    197.7541   9.2984181567e+01   2.8596220326e+01    0.2208973    0.1690413  -0.77  0.001208304    1.605    0.377
       144 -12.5837    113.9905    197.0345   7.1042974781e+01   1.8593390869e+01    0.1992931    0.1790783  22.41 0.0004289843    1.030    0.029
       145 -11.3547    167.9483    195.6622   5.8989162775e+01   1.1484720730e+01    0.1744658    0.1355918  18.40 0.0003265477    1.175    0.149
       146 -11.5451    153.0163    195.9642   6.2081952386e+01   1.3433213557e+01    0.1577409     0.132447   9.62 0.0004790937    1.043    0.041
       147 -11.8199     49.6471    195.4268   8.7485035104e+01   2.7093226509e+01    0.2980581    0.2202247  72.83 0.0006701815    1.389    0.280
       148 -14.0141     65.6068    161.4900   7.9164409841e+01   3.3357001667e+01    0.7220993    0.4524105 -83.31  0.003257348    1.852    0.460
       149 -13.5258     56.2213    176.3573   8.3798605299e+01   3.0849766019e+01    0.4612851    0.4110579  47.98  0.002340754    1.012    0.011
       150 -10.9823     58.1650    172.2138   8.2762055816e+01   3.1631532516e+01    0.1968616    0.1495232  55.75 0.0005171192    1.259    0.206
       151 -12.5936     58.5590    157.8878   8.0868450546e+01   3.5204647547e+01    0.3884129    0.2082501  39.56 0.0008003011    1.705    0.413
       152 -13.0983     61.5114    169.3882   8.1429707548e+01   3.1912444889e+01    0.6037531    0.4272017  89.39  0.003013532    1.564    0.360
       153 -13.2582     57.1794    162.5584   8.1900873158e+01   3.4181359055e+01    0.4957471    0.3312013 -89.23  0.002237472    1.657    0.396
       154 -12.4758     48.6193    184.1006   8.6767799661e+01   2.9859188614e+01    0.4081781    0.2823455  60.37  0.002153465    1.403    0.287
       155 -12.6504     51.8050    189.4526   8.6366341197e+01   2.8233223967e+01    0.4497273    0.2920089  -1.34  0.002152754    2.081    0.519
       156 -12.7474     52.9326    184.7854   8.5610040187e+01   2.9204833238e+01    0.3412648    0.2896816  57.64 0.0006831686    1.090    0.083
       157 -12.6847     63.0138    156.9720   7.9342026604e+01   3.4855543521e+01    0.3337824    0.2579016  77.63 0.0003278908    1.377    0.274
       158 -13.9901     65.8242    153.9547   7.8023457234e+01   3.5250601442e+01    0.5149041    0.4451353 -87.08 0.0005583782    1.179    0.152
       159 -12.0949    217.4087    193.5225   4.9848700154e+01   5.6921525126e+00     0.194277    0.1624376 -17.08 0.0001613301    1.247    0.198
       160 -12.5668    243.8043    192.2023   4.5708309403e+01   3.0063013540e+00    0.2723024    0.1713671   4.16  0.001060406    1.512    0.338
       161 -11.6688    245.7045    188.6559   4.4863689703e+01   3.2459749614e+00    0.1832733    0.1100882 -23.69 0.0004667611    1.248    0.199
       162 -12.2886    248.1693    185.3408   4.3979704857e+01   3.3982038419e+00    0.2688546    0.1598765  -9.41  0.001530331    1.538    0.350
       163 -12.1809    162.9291    193.1209   5.9576682231e+01   1.2575391039e+01    0.2263241    0.1543815  20.73  0.000764843    1.370    0.270
       164 -11.5141    178.7158    191.0105   5.6134102930e+01   1.0814789838e+01    0.2162208    0.1480064 -60.07  0.001149532    2.454    0.592
       165 -14.3684    134.6313    187.3388   6.4725243466e+01   1.7573775425e+01    0.7594484    0.3555045 -34.29    0.0028288    2.618    0.618
       166 -11.4618    212.6995    193.0300   5.0520052687e+01   6.3010031194e+00    0.1627129    0.1187701 -20.28 0.0003812682    1.114    0.102
       167 -13.2982    110.9550    188.4935   7.0548798635e+01   2.0739645446e+01    0.3239289    0.2565247 -53.49  0.001844119    1.386    0.279
       168 -13.7760    121.9245    187.1296   6.7667752453e+01   1.9446878343e+01    0.4607535    0.3227675  -1.82  0.001431763    1.705    0.413
       169 -14.3025    119.0674    180.8336   6.7363461270e+01   2.1142496510e+01    0.6802281    0.4021019  53.41  0.003003933    2.187    0.543
       170 -11.0102    174.3914    188.8376   5.6593159119e+01   1.1738467915e+01    0.1753637    0.1032644 -29.79 0.0008400558    1.635    0.388
       171 -10.0706     43.3009    187.3106   8.8553016380e+01   2.9676860775e+01    0.1301111     0.102283 -30.22 0.0005218183    1.605    0.377
       172 -11.1354    209.0085    186.0035   4.9931969745e+01   7.7249205665e+00    0.1413378    0.1094365 -13.82            0    1.018    0.017
       173 -11.4549      2.4595    186.2198   9.9916111862e+01   3.3628406705e+01    0.1865754    0.1626426  14.34 0.0003429897    1.316    0.240
       174 -11.4965    151.1185    183.1562   6.0368493700e+01   1.5969273392e+01    0.2003203     0.159759  -0.96 0.0003110258    1.211    0.174
       175 -12.4071    167.0252    178.0266   5.6160789465e+01   1.4578537659e+01    0.3032471    0.1641002 -41.67 0.0003075667    1.795    0.443
       176 -11.7754      5.0304    181.3554   9.9036630090e+01   3.4609976977e+01    0.2367835     0.185966 -20.80 0.0005593611    1.664    0.399
       177 -12.2946    198.6943    179.8665   5.0594052838e+01   9.9253740983e+00    0.2131934    0.1745434 -17.07 0.0003498046    1.070    0.065
       178 -13.6401    106.6214    176.8175   6.9862119255e+01   2.3843327675e+01    0.4771375    0.3102491 -65.69  0.001209174    1.833    0.454
       179 -10.5588    221.6745    180.3154   4.6939405934e+01   6.9968096231e+00   0.09960766   0.08772717 -45.95 0.0005253844    1.669    0.401
       180 -11.9769    192.4995    178.7800   5.1482905965e+01   1.0909328162e+01    0.3022554      0.19429 -59.18  0.001176694    2.845    0.649
       181 -12.0331    153.0411    178.7003   5.9182463854e+01   1.6500401899e+01    0.1870185    0.1598464  12.53 0.0004379241    1.081    0.075
       182 -13.1508    136.9993    176.1831   6.2308863540e+01   1.9382501752e+01    0.3156778    0.2418485  80.39   0.00159286    2.135    0.532
       183 -11.0074    250.6620    176.2572   4.2122574047e+01   4.2584490211e+00    0.1480169    0.0741953 -26.20 0.0003055444    1.546    0.353
       184 -12.3814    149.2757    176.1406   5.9544430515e+01   1.7534393309e+01    0.2395933    0.1722793  16.55  0.001305641    1.404    0.288
       185 -12.6831     12.8435    174.9395   9.6508951017e+01   3.5586934179e+01    0.3735678    0.2262201 -52.01  0.001869095    1.954    0.488
       186 -11.9591      5.8334    176.0755   9.8608638322e+01   3.5845789635e+01    0.3826683    0.1180593  34.81  0.001108273    2.435    0.589
       187 -11.3556      2.7103    172.0131   9.9369272119e+01   3.7082401765e+01    0.3134999    0.2078165  80.96  0.001290152    1.375    0.273
       188 -13.5502    126.5096    173.4548   6.4314512216e+01   2.1536830680e+01    0.4360279    0.2303218 -55.04  0.001587844    2.109    0.526
       189 -14.1304    124.7222    167.6386   6.3727057459e+01   2.3025707926e+01    0.5792867    0.3909123  37.86  0.002918955    1.439    0.305
       190 -12.4614     97.1029    175.1482   7.2113151002e+01   2.5619045846e+01    0.2679777    0.1993771   1.78  0.001143253    1.604    0.377
       191 -13.0591    100.8767    172.4840   7.0687037249e+01   2.5659072092e+01    0.3490801    0.2399925 -54.21    0.0017507    1.533    0.348
       192 -11.2844     40.5893    174.2737   8.8209728944e+01   3.3147493057e+01    0.3410721      0.18724 -43.94  0.001494727    2.303    0.566
       193 -12.9773     47.3591    163.2125   8.5035591494e+01   3.5201917412e+01    0.4521488    0.3260171 -77.22  0.002310933    1.410    0.291
       194 -11.7447     33.2630    158.0046   8.8992199662e+01   3.8098059821e+01    0.2476762    0.1689826  49.44 0.0002956753    1.342    0.255
       195 -11.9976     33.0202    161.9923   8.9435153900e+01   3.7076072830e+01    0.2651085    0.2423122 -26.70 0.0003854906    1.296    0.228
       196 -13.4641     41.0339    159.7222   8.6661215074e+01   3.6823865809e+01    0.6607184    0.2944265  46.12  0.002676379    2.079    0.519
       197 -12.1837     40.8812    167.6474   8.7504100723e+01   3.4790842603e+01    0.4065096    0.2237751  86.87   0.00155334    2.030    0.507
       198 -12.2411     37.5191    162.8600   8.8091861883e+01   3.6384931251e+01    0.3785896    0.2862416  70.34   0.00127006    1.271    0.213
       199 -10.8234     22.2503    174.4128   9.3693552757e+01   3.4918753652e+01    0.2017782    0.1057571  36.82 0.0009494688    1.636    0.389
       200 -11.9965     24.8236    169.0488   9.2555902413e+01   3.6043527625e+01    0.3609104    0.2272472  28.90  0.001501502    1.493    0.330
       201 -12.4840     33.6099    172.1407   9.0121349849e+01   3.4409852017e+01    0.5719001     0.307382  13.05  0.002511455    2.173    0.540
       202 -11.3610     27.2029    172.7846   9.2101498121e+01   3.4872760344e+01    0.2343261    0.2047232 -61.30 0.0003863584    1.281    0.219
       203 -11.3425    244.1597    172.1378   4.2280811583e+01   5.4887065768e+00    0.1389747    0.1093749 -29.79  0.001045676    1.310    0.237
       204 -11.1473    234.8054    171.6862   4.3493693761e+01   6.6172395077e+00    0.1627288    0.1120903 -16.47 0.0006717512    1.165    0.141
       205 -13.2322    152.5107    167.0042   5.7170132749e+01   1.8756289712e+01    0.5634108    0.2163991 -47.60  0.002228483    2.660    0.624
       206 -11.4931    197.1686    170.7997   4.9220573027e+01   1.1519517549e+01    0.1777698     0.126466  -8.55 0.0008324144    1.357    0.263
       207 -12.8438    104.3373    167.9459   6.9022126770e+01   2.6154205672e+01    0.3343417    0.2040661  57.00  0.001453676    2.086    0.520
       208 -11.2163     54.4905    167.0438   8.3267700443e+01   3.3375051619e+01    0.2031342    0.1404214 -75.03 0.0003527069    1.501    0.334
       209 -11.8382     10.6621    167.0150   9.6767241430e+01   3.7762655296e+01    0.2590086    0.1693524  39.90 0.0005953328    1.353    0.261
       210 -12.6492    110.7727    164.2507   6.6680182793e+01   2.5975403920e+01    0.2962789    0.2483659 -32.46 0.0002964506    1.256    0.204
       211 -13.1101      3.8875    142.5156   9.7719787139e+01   4.4709670538e+01    0.7064959    0.2630829 -65.11  0.002234893    2.535    0.606
       212 -13.6588     44.6362    134.5603   8.2350747199e+01   4.3188039618e+01    0.6229352    0.2540024  45.93  0.002249639    2.440    0.590
       213 -14.7491     18.1302    149.7236   9.3300883061e+01   4.1711582269e+01     1.199352    0.8803785  25.97  0.006359512    1.381    0.276
       214 -13.6622      9.1406    146.8240   9.6155216226e+01   4.3189397726e+01    0.6740838    0.4569301 -37.33  0.003063731    1.807    0.447
       215 -12.8691     26.5090    134.7567   8.9003470996e+01   4.5074558178e+01    0.3716356    0.2528834  67.93 0.0009443219    1.447    0.309
       216 -13.9660      6.5411    119.0240   9.5250283658e+01   5.1045703442e+01    0.9876806    0.6460465  -6.54  0.004764136    1.871    0.465
       217 -14.5004     13.5397    137.4179   9.3980183903e+01   4.5433925319e+01    0.9502372    0.6029794  84.08  0.003447996    1.486    0.327
       218 -14.2084      5.1494    131.0520   9.6617076105e+01   4.7772245921e+01    0.8706496    0.6372867 -80.30  0.004631517    1.261    0.207
       219 -14.9092     17.7842    125.9266   9.1401163279e+01   4.8306757402e+01     1.375361    0.6683002  41.08  0.005825731    1.938    0.484
       220 -14.0975     31.4443    139.1273   8.7686634259e+01   4.3383321753e+01    0.9711373    0.3908599  10.35  0.001505693    3.594    0.722
       221 -15.0395     34.1150    131.0276   8.5743198059e+01   4.5355876229e+01     1.383799     0.600619  52.57   0.00385898    2.479    0.597
       222 -13.3491     21.8789    161.3924   9.2926692782e+01   3.8289567268e+01     0.557879    0.4820532 -73.82  0.001521074    1.206    0.170
       223 -13.2473     16.6014    160.5577   9.4547937494e+01   3.8959971585e+01    0.5745619    0.3075719  41.53  0.001944573    1.638    0.389
       224 -13.3242     26.5159    154.8300   9.0911914989e+01   3.9599614976e+01    0.7071534    0.3585048  75.66   0.00142638    2.131    0.531
       225 -13.3067     27.3617    149.7917   9.0185046844e+01   4.0871026291e+01    0.6519208    0.2383392  43.00  0.002458067    2.414    0.586
       226 -11.3143    205.9907    164.0738   4.6490350936e+01   1.1348821428e+01    0.1879289    0.1515289 -15.01 0.0004885553    1.026    0.026
       227 -15.7526     74.6190    167.5582   7.7308325969e+01   3.0620590068e+01     2.466599     0.902798 -71.02  0.008070368    3.647    0.726
       228 -13.8635     90.6495    161.6903   7.1767761516e+01   2.9706068937e+01    0.4369783     0.404465  50.37  0.002092752    1.057    0.054
       229 -12.6086      4.2420    163.0150   9.8557138685e+01   3.9261048708e+01     0.440272    0.2033337  44.13  0.002021945    1.829    0.453
       230 -11.9210      6.8087    160.4032   9.7639635575e+01   3.9755995438e+01    0.2570597    0.2248626  89.96 0.0006681867    1.132    0.117
       231 -11.6329    242.8780    162.3579   4.0730187608e+01   6.9072796479e+00    0.1786096    0.1190268 -32.64 0.0003791094    1.250    0.200
       232 -12.0023    158.9946    160.1189   5.4464178097e+01   1.9023617308e+01    0.2008731    0.1806176  -8.42 0.0003484218    1.012    0.012
       233 -11.3562    120.3479    160.3001   6.3482717837e+01   2.5300762866e+01    0.1488134    0.1098821  -8.45 0.0002981173    1.686    0.407
       234 -11.1569    105.0564    158.5154   6.7191745603e+01   2.8189825396e+01    0.2259273    0.1376766  36.21 0.0006779399    1.568    0.362
       235 -11.8933    132.0103    157.0229   5.9957887712e+01   2.4069778684e+01    0.2338769    0.1703715 -10.68  0.001134272    1.692    0.409
       236 -11.4477    117.5082    157.5250   6.3692449798e+01   2.6377045911e+01    0.1438216    0.1373179   7.26 7.848797e-05    1.015    0.015
       237 -11.3134    204.9693    156.0745   4.5134426402e+01   1.2718697750e+01    0.1804718    0.1511485 -21.02 0.0002923743    1.055    0.052
       238 -12.3174    121.9362    156.0140   6.2265867357e+01   2.5971981600e+01    0.2123369      0.20499   7.76 0.0002941699    1.013    0.013
       239 -11.8372    112.2710    156.4079   6.4858569375e+01   2.7492725069e+01    0.2106116    0.1303241  44.04 0.0009480258    1.631    0.387
       240 -12.0061    141.2228    154.1473   5.7205067094e+01   2.3114901681e+01    0.2628899    0.2011152 -64.47  0.001119066    1.623    0.384
       241 -12.0859      2.0123    153.2911   9.8853824059e+01   4.1947010854e+01    0.4034037    0.1940522  80.21  0.001790215    1.941    0.485
       242 -14.1611     49.3570    151.6026   8.3019139008e+01   3.8003122655e+01    0.5998701     0.396363  36.16 0.0009901595    1.419    0.295
       243 -14.6206     38.8957    149.7175   8.6280932569e+01   3.9713554220e+01    0.8725575    0.5906506 -50.89  0.004212244    1.607    0.378
       244 -13.2431     36.6776    143.7062   8.6357021270e+01   4.1582304503e+01    0.5407823    0.3360058   1.41  0.001739843    2.139    0.533
       245 -12.7256     88.1170    152.8629   7.1009810976e+01   3.2233920129e+01    0.2721775    0.2655449 -75.13 0.0008470019    1.054    0.051
       246 -11.6369     79.5217    151.4993   7.3367969936e+01   3.3896029195e+01    0.2216917     0.136139 -50.91 0.0006584285    1.688    0.408
       247 -14.3928     84.7829    148.2444   7.1196620471e+01   3.3900980593e+01    0.7154805     0.389035 -58.27  0.002214448    1.864    0.463
       248 -13.1613     80.0459    147.1207   7.2455591169e+01   3.4921911931e+01    0.3655899    0.2817334 -30.35 0.0005365223    1.540    0.350
       249 -11.4924    232.3502    151.8840   4.0236639385e+01   9.6208028220e+00    0.1636929    0.1405585 -20.18  0.000323396    1.180    0.152
       250 -12.9338    170.1088    160.0638   5.2183825440e+01   1.7274689769e+01      0.30528    0.2395576 -39.30  0.001785728    1.242    0.195
       251 -12.8581    130.6909    150.5933   5.9001525173e+01   2.5653409784e+01    0.4077132    0.2249502  25.30  0.001311051    2.175    0.540
       252 -12.6697    170.4112    149.8663   5.0079566050e+01   1.9058270624e+01    0.2707305    0.2216438  75.23  0.001387255    1.855    0.461
       253 -12.7903    108.5841    148.6359   6.4365394896e+01   2.9890880052e+01    0.3995183    0.2822205 -55.10 0.0009919301    1.455    0.313
       254 -13.5188     97.8906    148.7814   6.7407640035e+01   3.1651904109e+01    0.4453081    0.3792364  53.57  0.001830414    1.201    0.167
       255 -11.8622    121.1798    146.8130   6.0631893092e+01   2.8129559919e+01    0.2041738    0.1717342 -10.92 0.0005261661    1.321    0.243
       256 -13.5547     34.1096    148.3710   8.7755060036e+01   4.0585780018e+01    0.7201887    0.2256337  44.14  0.002457731    2.883    0.653
       257 -13.2869     56.5055    141.5064   7.9211254291e+01   3.9791921232e+01    0.2990965    0.2557971   9.16  0.001544823    1.320    0.243
       258 -11.1468    207.7365    146.2229   4.2758541181e+01   1.3845406166e+01    0.1698862    0.1250196 -11.37  0.000356887    1.336    0.252
       259 -12.3129    147.5356    149.3700   5.4791123321e+01   2.3001529082e+01    0.3073591    0.2591673 -64.08   0.00120209    1.415    0.293
       260 -13.2583    101.5993    142.3617   6.5083636924e+01   3.2567727407e+01    0.6424716    0.3663704  59.46  0.001758285    2.460    0.594
       261 -13.0674    190.4950    193.5947   5.4398088116e+01   8.9034982914e+00    0.3815542    0.2878989  29.30  0.001311285    1.413    0.292
       262 -12.6765     47.0800    142.8427   8.2639671199e+01   4.0629283110e+01    0.2398202     0.188416  61.57 0.0004731331    1.241    0.194
       263 -11.2555    139.6559    140.8106   5.4788189122e+01   2.6133200714e+01    0.2007529    0.1315688 -54.83  0.000403891    1.654    0.395
       264 -12.8414     95.0392    140.1519   6.6564875911e+01   3.4227601613e+01    0.3665457    0.2224522 -51.23 0.0009281735    1.656    0.396
       265 -11.1376    230.2447    139.4942   3.8154124056e+01   1.1645730374e+01    0.1755741    0.1304761 -39.97 0.0004622751    1.290    0.225
       266 -12.1631    223.0241    139.6967   3.9187837885e+01   1.2622435450e+01    0.2219975    0.1434388 -32.44 0.0002795397    1.237    0.191
       267 -10.9319    189.4823    139.9778   4.4491201144e+01   1.7672943411e+01    0.2392625    0.1674818 -85.70  0.001037976    3.415    0.707
       268 -12.4194    179.5265    135.4383   4.5295806427e+01   2.0110163849e+01    0.3144956    0.2268413  -7.10 9.197651e-06    1.649    0.394
       269 -13.0094    118.0271    135.0229   5.8951567246e+01   3.1350504618e+01    0.4442593    0.3328845  68.61  0.001675024    1.718    0.418
       270 -13.1264    103.5907    134.1854   6.2798048192e+01   3.4179663679e+01    0.4003352     0.336805 -28.05  0.001056895    1.311    0.237
       271 -12.4068    104.5305    130.5425   6.1723898765e+01   3.4882663897e+01    0.3126863    0.2131501  49.16 0.0007757286    1.529    0.346
       272 -15.1395     82.8579    128.6002   6.7997469594e+01   3.9205030630e+01    0.9407512    0.6362023 -74.30  0.004102527    1.701    0.412
       273 -14.1014     60.0323    125.8993   7.5336305123e+01   4.3524763890e+01    0.6187177    0.4378151  68.15  0.001990589    1.587    0.370
       274 -11.6789    127.4332    132.9197   5.6025475735e+01   3.0070755731e+01    0.3018024    0.1877473  75.05   0.00104162    3.437    0.709
       275 -11.9068    236.8411    130.9492   3.5623938306e+01   1.1942675760e+01    0.1725694    0.1443464 -22.16 0.0003121294    1.111    0.100
       276 -11.5907    201.7076    130.9923   4.0574193296e+01   1.7177062258e+01    0.1841353    0.1410516 -32.00 0.0003606944    1.096    0.087
       277 -12.3539     51.4152    116.4358   7.6794472632e+01   4.7336239657e+01     1.059075    0.2898301  36.08  0.003254045    3.196    0.687
       278 -14.2780     47.9322    129.5189   8.0388462441e+01   4.4173044303e+01    0.9777642     0.278082  40.76  0.003047481    3.188    0.686
       279 -12.1549     35.9839    119.8394   8.3470302753e+01   4.8292887349e+01    0.3847702    0.2760577  29.30   0.00185146    1.419    0.295
       280 -12.2839     49.4308    123.4652   7.8830451933e+01   4.5655133687e+01    0.2662555    0.1851269  45.71 7.513281e-05    1.416    0.294
       281 -14.0256     44.7673    120.3806   8.0096325339e+01   4.7108412875e+01    0.6691303    0.4756195 -18.38   0.00217989    1.851    0.460
       282 -12.8730    206.5634    129.3810   3.9484218018e+01   1.6657723490e+01    0.2437903     0.195684 -34.63 0.0004213581    1.084    0.077
       283 -10.8864    224.9651    128.7103   3.6719702448e+01   1.3949588292e+01    0.1595406    0.1332764 -26.30 0.0003443605    1.069    0.065
       284 -11.7583    121.8748    128.3051   5.6402902223e+01   3.2147937320e+01    0.2627856    0.2027399 -58.87 0.0007009704    1.361    0.265
       285 -10.8241    162.2879    127.3664   4.6809089022e+01   2.4657617189e+01    0.1462067    0.1064751 -10.70 0.0007022867    1.702    0.412
       286 -14.9710     62.2461    133.1424   7.5858725024e+01   4.1246247318e+01     1.122622    0.5221521  16.51  0.003716169    3.166    0.684
       287 -13.6055    104.0420    121.7089   5.9826483997e+01   3.7092615404e+01    0.5615818    0.3961209  25.91  0.002511086    1.631    0.387
       288 -12.6348     99.2473    118.2219   6.0429440101e+01   3.8849816129e+01    0.3250228    0.2673303  82.59 0.0008383029    1.418    0.295
       289 -11.3889    189.0013    121.5503   4.0567279585e+01   2.0867538107e+01    0.2033965    0.1589574 -34.81 6.288388e-05    1.106    0.096
       290 -11.0252    165.4215    122.1745   4.4977744593e+01   2.5050124394e+01    0.1977439    0.1239184 -49.96 0.0004891956    1.615    0.381
       291 -12.9387     68.1644    122.0563   7.1654180609e+01   4.3331196573e+01    0.2854581    0.2327278  33.95  0.001395388    1.242    0.195
       292 -11.2695    197.2259    120.9718   3.9108074753e+01   1.9541569756e+01    0.1798405   0.09382641 -37.54 0.0005881687    1.626    0.385
       293 -12.8818     78.8814    120.1836   6.7501729370e+01   4.2059752006e+01     0.329586    0.2266742 -77.53  0.001415717    1.705    0.414
       294 -10.6615    224.4550    120.4413   3.5090929255e+01   1.5234264083e+01    0.1233388   0.09750484 -30.58 8.470162e-05    1.005    0.005
       295 -13.1526     73.3291    119.9435   6.9375218626e+01   4.3058323987e+01    0.3110365    0.2382951  26.18   0.00121039    1.399    0.285
       296 -12.4102     63.9189    118.6627   7.2492788296e+01   4.4905285661e+01    0.2696736    0.2042384 -50.74 0.0005629489    1.341    0.254
       297 -12.1068     94.0141    117.4970   6.1884271852e+01   4.0018536486e+01    0.3156745    0.2135556 -39.61  0.001369067    1.614    0.380
       298 -13.1671      3.2425    105.5406   9.5581399613e+01   5.5036185347e+01    0.5356643    0.3349055 -57.91  0.002594967    1.537    0.349
       299 -12.7427      8.6557     97.4940   9.2344187854e+01   5.7009914085e+01    0.5154023    0.2108385  78.89  0.001797305    2.907    0.656
       300 -14.2086     11.5576    107.0859   9.2062099172e+01   5.4101568972e+01     1.468289    0.6205035  63.13  0.005323775    2.734    0.634
       301 -11.9349     23.9857    115.1358   8.7694522206e+01   5.0830209244e+01    0.4000036    0.2392037  48.58  0.001770626    1.666    0.400
       302 -12.6292     21.8080    117.6168   8.8899975449e+01   5.0318969105e+01    0.4011387    0.2434407  27.76 0.0009100282    1.663    0.399
       303 -12.1292     19.9560    113.4381   8.9168254237e+01   5.1662304249e+01    0.4188111    0.2811677 -58.18 0.0007390712    1.446    0.308
       304 -11.2129    228.9828    119.1893   3.4251246592e+01   1.4733811385e+01    0.1785991     0.133336 -69.46  0.001083482    2.002    0.500
       305 -12.4469    124.4037    114.4518   5.2359499776e+01   3.4734771235e+01    0.2666043    0.2522755 -58.24  0.001432106    1.042    0.040
       306 -11.6168    104.8022    114.2553   5.7765547995e+01   3.8725105672e+01    0.2687323    0.2288657 -51.53 0.0009726737    1.156    0.135
       307 -12.6600     82.5479    111.3135   6.4157154571e+01   4.3699732379e+01    0.4652549    0.1833828 -52.48  0.001574739    2.456    0.593
       308 -11.9719     57.5184    112.4772   7.3621567387e+01   4.7554737686e+01    0.4024027    0.1998349 -53.37  0.001550795    1.956    0.489
       309 -13.5116     64.0127    113.8515   7.1433868211e+01   4.6188820972e+01    0.5304783    0.3281892  19.43  0.001497739    1.968    0.492
       310 -12.9175     61.9195    109.9445   7.1365251150e+01   4.7571684672e+01    0.5195881    0.2667865 -48.33  0.001621077    2.006    0.501
       311 -11.1614    171.7626    112.9827   4.1586549750e+01   2.5532192307e+01    0.1910895    0.1077109 -38.97 0.0008737189    1.593    0.372
       312 -12.3044    109.7796    111.6646   5.5643320825e+01   3.8338781605e+01    0.3310097    0.2653717 -30.70 0.0006861802    1.381    0.276
       313 -10.7736    242.4339    112.5061   3.1291240996e+01   1.3699365324e+01    0.1190799   0.08886939 -31.17 9.609282e-05    1.018    0.018
       314 -12.9056     90.8730    109.6247   6.0933300806e+01   4.2567132419e+01    0.5280516    0.3361761 -23.57  0.001976403    2.497    0.599
       315 -12.2059     52.8045    110.2547   7.5015936743e+01   4.8849297785e+01    0.4562402    0.3156612 -87.39  0.002013795    1.627    0.386
       316 -11.5009     14.9418    103.1508   9.0103795706e+01   5.4981361590e+01    0.2427718    0.2137699  19.15 0.0008018082    1.237    0.192
       317 -12.1614    219.7033    109.4309   3.3379167939e+01   1.7599324023e+01    0.2582322    0.2075838  33.41  0.001685641    1.527    0.345
       318 -11.7357    210.3312    107.7253   3.4246348335e+01   1.9407606318e+01    0.2585134    0.1805788 -58.44 0.0007826586    1.674    0.402
       319 -13.3109    121.0709    106.9984   5.1284319376e+01   3.7066589700e+01    0.3256009    0.3149223 -71.74 0.0007475894    1.027    0.026
       320 -10.6927    140.3530    107.6891   4.6705338209e+01   3.2873009798e+01     0.153927    0.1181166 -83.12 0.0007044486    1.725    0.420
       321 -11.2222     77.1366    107.1138   6.5011998475e+01   4.5758264108e+01    0.2182568    0.1812147  69.72  0.001040236    1.303    0.233
       322 -10.5829    116.2672    104.3525   5.1864840087e+01   3.8664585317e+01    0.1555737    0.1227898 -15.10  0.000698921    1.625    0.385
       323 -11.3604    229.9928    103.0561   3.0758493631e+01   1.6880477648e+01     0.181453    0.1415149 -34.21 0.0003107698    1.006    0.006
       324 -10.5476    102.6319    103.2955   5.5521735527e+01   4.1755017554e+01     0.164483    0.1234552  79.93 0.0007029377    1.724    0.420
       325 -12.3133     78.9131    101.4126   6.2889898452e+01   4.6895477898e+01    0.3467544    0.2492565  65.90 0.0006803717    1.660    0.398
       326 -11.4292     55.4744    101.0258   7.1880383217e+01   5.0982011750e+01    0.3188255    0.1967547 -41.37  0.001317112    1.815    0.449
       327 -12.3306     58.7833     96.6619   6.9435481540e+01   5.1640338803e+01      0.42011     0.276887 -37.15  0.001782554    1.770    0.435
       328 -13.4542     93.8266     99.7169   5.7299588642e+01   4.4407456362e+01    0.6070797    0.4366706 -77.74  0.002610649    1.759    0.431
       329 -11.8033     31.5207     99.2070   8.1944413508e+01   5.4604484362e+01    0.4390224    0.2068878 -49.70  0.001695543    2.123    0.529
       330 -12.1244     24.3028     97.4868   8.4977824698e+01   5.5812506997e+01    0.6416892    0.3510322  34.21  0.002775504    1.820    0.450
       331 -12.4964    161.8762     99.1373   3.9964656569e+01   3.0028031603e+01     0.231928    0.1890846 -61.17  0.001234759    1.282    0.220
       332 -11.4821    178.7063     98.0384   3.6706105443e+01   2.6799092951e+01    0.2017173    0.1613085 -38.24 0.0003898253    1.103    0.094
       333 -10.5477    188.6825     97.6980   3.5038811217e+01   2.4908651804e+01    0.1311493    0.1029557  -0.12 0.0003151153    1.621    0.383
       334 -12.9042     82.4156     95.9607   6.0124200624e+01   4.7597603671e+01    0.4818524    0.2652118 -36.98  0.001782713    2.262    0.558
       335 -11.9305     75.1009     97.4975   6.3225903614e+01   4.8599475038e+01    0.2333711    0.1567304  37.66 0.0004434975    1.516    0.340
       336 -12.9126     68.0511     95.1961   6.5299037075e+01   5.0464367946e+01    0.4133884    0.1849239  44.21  0.001471074    2.287    0.563
       337 -11.4968    244.9980     91.2144   2.6680804166e+01   1.6180083115e+01    0.1910175    0.1267655 -35.37 0.0003136844    1.122    0.109
       338 -11.4866     98.0716     91.7604   5.3616014417e+01   4.5400694791e+01    0.3327591    0.2048264 -76.03  0.001174147    2.699    0.630
       339 -11.7251     78.7920     92.4200   6.0413442393e+01   4.9180055051e+01    0.2189356    0.1551964  27.31 0.0009458903    1.625    0.385
       340 -12.7494    208.1994     99.5191   3.2687195380e+01   2.1030660711e+01    0.2408635    0.2109827 -37.63 0.0003585282    1.068    0.063
       341 -12.8875    230.3087     89.5557   2.7828625650e+01   1.8719037002e+01    0.2420899    0.1996361 -36.67 0.0004692974    1.066    0.061
       342 -11.3403    207.2849     91.1760   3.0885184298e+01   2.2458732775e+01    0.2089066    0.1471657 -21.54  0.001175426    1.477    0.323
       343 -12.0474    170.6755     90.9079   3.6232346699e+01   2.9657561183e+01    0.2949964    0.1248279 -31.47  0.001099092    2.531    0.605
       344 -12.9899     70.7375     90.1716   6.2818997901e+01   5.1267620116e+01    0.3553091     0.255138  51.92  0.001597723    1.460    0.315
       345 -11.0545    220.3244     89.9099   2.9013910577e+01   2.0343174207e+01    0.1776848    0.1290794 -35.92  0.000355777    1.101    0.092
       346 -12.0705     24.7272     89.6402   8.3392260799e+01   5.7984307557e+01    0.3388377    0.2623802 -71.78  0.001098238    1.209    0.173
       347 -11.5024      4.1170     87.8745   9.3497602250e+01   5.9977187616e+01    0.3155117    0.1836939 -45.15  0.001306383    1.732    0.423
       348 -12.5229    149.4371     86.2392   3.8883451650e+01   3.5081945084e+01    0.5085679    0.1752625 -34.49  0.001625785    3.172    0.685
       349 -12.3312     54.3772     85.6293   6.8355886089e+01   5.5270028594e+01    0.8847138     0.509323  31.33  0.003662286    1.813    0.449
       350 -11.6372     51.5954     79.1357   6.7720030545e+01   5.7407843972e+01    0.2843467    0.2280144  67.94 0.0006460341    1.409    0.290
       351 -13.1648     64.7346     82.4414   6.2921846860e+01   5.4317401719e+01    0.4941238    0.3161821  75.11  0.001037864    2.475    0.596
       352 -11.7186     11.1657     87.2978   8.9834509233e+01   5.9733514505e+01    0.3833441    0.2246435  28.44  0.001767888    1.760    0.432
       353 -11.8110    178.6292     86.8947   3.3889437093e+01   2.8686904684e+01    0.2007695    0.1917185  35.27 0.0003512687    1.214    0.176
       354 -11.8390    162.5048     86.9533   3.6606667439e+01   3.2081513924e+01    0.2270032    0.1313295 -39.03 0.0009030502    1.567    0.362
       355 -11.2937    125.2066     85.6684   4.4118198341e+01   4.0683378620e+01    0.3786495    0.2597351 -16.39  0.001562608    2.157    0.536
       356 -10.6791     35.2620     86.3501   7.7508843675e+01   5.7764840195e+01    0.1995446    0.1358582  36.52 0.0004948321    1.494    0.331
       357 -12.0996    171.1350     83.3700   3.4162522937e+01   3.0843704718e+01    0.2365596    0.1817078 -29.40  0.000506603    1.297    0.229
       358 -11.4623    110.0984     83.6852   4.7507203480e+01   4.4541320570e+01    0.2835473    0.2372323  56.19 0.0003444457    1.217    0.178
       359 -12.0296    113.5360     83.5766   4.6515107377e+01   4.3781839802e+01    0.2736148    0.2498748  -5.03    0.0010103    1.283    0.220
       360 -12.5220     77.6093     82.4518   5.7793012981e+01   5.1849287186e+01    0.4365814    0.3398528 -88.96  0.001173273    1.579    0.367
       361 -12.1793     88.0210     79.6412   5.3103729006e+01   5.0337726119e+01    0.4443447    0.3242833 -52.32  0.002034252    1.361    0.265
       362 -11.9797    182.1645     80.9156   3.1806924573e+01   2.8929054212e+01     0.252526    0.1611455 -45.48 0.0004783731    1.374    0.272
       363 -12.5917    187.8403     78.3363   3.0336118620e+01   2.8169663520e+01    0.2660356    0.2255915 -34.75 0.0003552562    1.111    0.100
       364 -11.7615    183.1319     77.1145   3.0679740241e+01   2.9330029297e+01    0.2230787     0.205582  78.71 0.0006441987    1.209    0.173
       365 -11.0956    206.5220     80.5029   2.8467066557e+01   2.4185987115e+01    0.1311086    0.1079944 -40.28 0.0008101664    1.023    0.023
       366 -11.4236    153.9752     79.9795   3.6221919014e+01   3.5192607003e+01     0.177634    0.1602545 -51.24 0.0003438963    1.013    0.013
       367 -12.3430     29.1311     79.7297   7.9060046423e+01   6.0284046811e+01    0.3275453    0.2378312  36.12  0.001142218    1.418    0.295
       368 -11.6656     22.9870     79.8478   8.2336609535e+01   6.0876128379e+01    0.2768508    0.2094214 -68.59  0.001118275    1.236    0.191
       369 -11.9325    112.0965     76.3191   4.4571024839e+01   4.5612951100e+01    0.4117889    0.2353668 -48.81 0.0009783965    1.737    0.424
       370 -11.3126    115.9862     74.5028   4.2932214827e+01   4.5062921471e+01    0.2806093    0.2317311  61.41 0.0006349685    1.233    0.189
       371 -12.9938    215.0165     75.8393   2.6397608742e+01   2.3282620757e+01    0.3514925    0.2175421 -25.84  0.001083415    1.581    0.368
       372 -10.9298      8.3183     78.3079   9.0037743002e+01   6.2426613952e+01      0.15367   0.09445482 -42.61 0.0006308323    1.636    0.389
       373 -12.1506    160.8138     75.5493   3.3736181139e+01   3.4417595576e+01    0.3330333    0.1961455 -62.59  0.001422872    2.084    0.520
       374 -12.1046    169.4890     74.6951   3.2072780759e+01   3.2633690076e+01    0.2926854    0.2279641 -55.06 0.0006359906    1.199    0.166
       375 -11.3386     85.9511     75.0869   5.2278753304e+01   5.1813117271e+01    0.2337754    0.2315023  50.70 0.0005254681    1.057    0.054
       376 -12.9410     50.9146     72.4812   6.5941327242e+01   5.9217781193e+01    0.3721377    0.3027561 -73.87 0.0006869817    1.311    0.237
       377 -11.1761    105.4823     72.9622   4.5300504090e+01   4.7843366871e+01    0.2380753    0.2114761  56.95 0.0006207373    1.135    0.119
       378 -12.2614      3.5131     73.0232   9.1984069426e+01   6.4145530606e+01     0.329749    0.2007722 -77.77 0.0007895427    1.499    0.333
       379 -11.5462      1.7263     68.1318   9.2350922011e+01   6.5568566020e+01    0.2465254    0.1755568  82.87  0.001271551    1.414    0.293
       380 -11.0969     78.6766     71.6922   5.3733947615e+01   5.4137621523e+01    0.1563287    0.1264713  -2.59 0.0002377129    1.647    0.393
       381 -10.7469     11.4168     71.1833   8.7075335869e+01   6.4199556794e+01    0.1938776    0.1307619 -88.37 0.0003343502    1.513    0.339
       382 -10.7100    246.8520     69.2296   2.1939001738e+01   1.8724037900e+01    0.1492894    0.1134891 -24.96 0.0005638467    1.293    0.227
       383 -10.9922    101.0648     69.7963   4.5499614291e+01   4.9522676146e+01    0.2064439    0.1234607  53.03 0.0003582692    1.690    0.408
       384 -11.7082     94.2747     68.8160   4.7255666910e+01   5.1301905299e+01    0.2656655    0.2099622  66.36 0.0007957441    1.343    0.256
       385 -11.8106     60.1852     67.2825   5.9787739180e+01   5.8861334574e+01    0.2518738    0.2026783 -41.78 0.0003678306    1.264    0.209
       386 -11.0238     89.0241     66.9918   4.8319033069e+01   5.2884814193e+01    0.2419155    0.1861431 -81.73 0.0004767887    1.606    0.377
       387 -11.6395     47.6617     67.1742   6.5752976337e+01   6.1074454918e+01    0.2741098    0.2052806  44.25 0.0009044629    1.376    0.273
       388 -10.8084    203.4416     66.4939   2.5431162749e+01   2.6792984494e+01    0.1311158    0.1079022 -43.33 4.422885e-05    1.030    0.029
       389 -11.8952    199.0783     65.4910   2.5671585250e+01   2.7801340849e+01    0.2042277     0.151934 -41.53 0.0005294894    1.113    0.102
       390 -12.7175      8.0763     65.6309   8.8044351170e+01   6.5925854491e+01    0.3276437    0.1659611 -43.76 0.0008801036    1.921    0.479
       391 -12.3021    110.1395     64.1443   4.0922303763e+01   4.8465706709e+01    0.3392812    0.2439393 -46.39 0.0003892835    1.361    0.265
       392 -13.4260    106.0859     56.5900   3.9238268920e+01   5.0849024321e+01    0.5693157    0.3547256 -64.28  0.000753069    2.035    0.509
       393 -10.4977     43.4713     57.4784   6.4390158742e+01   6.4110210633e+01    0.1468848    0.1428089 -32.96 0.0001488051    1.008    0.008
       394 -12.1367    178.6035     64.1791   2.7860639034e+01   3.2281545666e+01    0.2404633    0.2140552 -55.70 0.0002902372    1.040    0.039
       395 -12.1764     98.2628     60.4047   4.2903679160e+01   5.2044755603e+01    0.2799512    0.1904502 -28.47 0.0005968668    1.716    0.417
       396 -11.0013    233.6862     59.0264   2.0812949223e+01   2.2192036650e+01    0.1677935    0.1193498 -38.49 0.0003049515    1.092    0.084
       397 -10.4967      7.5714     59.2283   8.7089270455e+01   6.7678210193e+01    0.1447034   0.09336536  46.20 0.0006868147    1.715    0.417
       398 -13.6834     30.4481     49.9982   6.9130934220e+01   6.7827596497e+01    0.4516259    0.4083336 -60.48  0.002552604    1.120    0.107
       399 -11.9011     33.8323     57.8484   7.0017106239e+01   6.5453239565e+01    0.2863194    0.2068124   8.22 0.0009032487    1.612    0.380
       400 -11.7506    193.0220     57.3127   2.4268140228e+01   3.0190736154e+01    0.1842801    0.1614589 -66.53  0.001157385    1.116    0.104
       401 -11.9892     75.0425     75.5347   5.6476465422e+01   5.4008696758e+01    0.3056531    0.2328016 -53.42 0.0005402684    1.303    0.233
       402 -12.2210     52.1811     55.3696   5.8962459298e+01   6.3100333398e+01    0.5444315    0.3612289  89.63  0.002109947    2.720    0.632
       403 -10.6784     18.2670     57.3694   7.9578283940e+01   6.7356510978e+01    0.1552386   0.09409978 -39.86 0.0003957249    1.662    0.398
       404 -10.5399    217.5215     55.4828   2.1377687639e+01   2.5566223531e+01    0.1261607   0.09953828 -44.92 9.295889e-05    1.016    0.016
       405 -11.5103    126.7981     53.8707   3.3335205590e+01   4.6154334112e+01    0.2180142    0.1678749 -67.37 0.0009005336    1.340    0.254
       406 -11.0978    115.5924     53.7473   3.5779291972e+01   4.8980872895e+01    0.2075301    0.1352383 -47.96 0.0003439952    1.510    0.338
       407 -12.7711     43.4389     61.7702   6.6026942482e+01   6.3078481881e+01     0.564966    0.3355035  56.96  0.002297031    2.223    0.550
       408 -12.0976    142.0524     52.4931   2.9959613173e+01   4.2583457322e+01    0.2614523    0.2003175 -40.10  0.001343949    1.245    0.197
       409 -12.7355     37.3999     51.9027   6.5619653583e+01   6.6380578442e+01    0.3083588     0.283023 -75.06 0.0008896189    1.173    0.147
       410 -10.4958    222.9623     49.9940   1.9636906244e+01   2.5245639727e+01    0.1451778    0.1152683 -49.27  0.000356735    1.045    0.044
       411 -11.7274     18.9288     48.7662   7.6404357806e+01   6.9485518530e+01    0.2532658    0.1979954 -60.26 0.0007294876    1.223    0.183
       412 -14.1645     36.5817     40.3265   6.0917947520e+01   6.9124637345e+01    0.4629623    0.4444364  16.62  0.001277039    1.043    0.041
       413 -10.9584    226.9870     43.5051   1.7840778207e+01   2.5295683524e+01     0.150096    0.1135507  88.19 0.0003895852    1.499    0.333
       414 -11.5690      4.2047     39.8342   8.4739534214e+01   7.2893488083e+01    0.2269447    0.1330825 -37.53 0.0003931995    1.628    0.386
       415 -13.8407    135.7850     38.9052   2.6423086255e+01   4.6135874955e+01     0.366958    0.3370459 -70.60 0.0008955882    1.027    0.026
       416 -11.2344    130.9756     40.7803   2.7900888964e+01   4.7096493415e+01    0.2234596    0.2032865 -74.85 0.0004400346    1.008    0.008
       417 -11.3238    118.9541     40.8310   3.0200203135e+01   5.0167380600e+01    0.2952383    0.1937975   4.95   0.00119006    2.622    0.619
       418 -11.5948    103.2746     39.9714   3.3383659369e+01   5.4322023205e+01    0.2105933    0.1962578 -54.40  0.001155084    1.078    0.072
       419 -11.9365     53.3396     38.1797   5.0357500640e+01   6.6461100188e+01    0.2519605    0.2309296  45.32 0.0003952972    1.080    0.074
       420 -11.7979      9.6873     36.9839   7.9223277231e+01   7.3217856494e+01    0.1893417    0.1663824 -49.97 0.0004205866    1.065    0.061
       421 -12.7224    230.5024     34.5846   1.5585000009e+01   2.5694491483e+01    0.2171074    0.1701674 -45.41  0.000243799    1.070    0.065
       422 -12.8125     43.8682     33.7534   5.3064180333e+01   6.9174940632e+01    0.3498545    0.2741718  48.43  0.000445759    1.309    0.236
       423 -12.9626     31.8192     32.1970   5.9794445369e+01   7.1602309744e+01    0.4304297    0.3339676 -44.90  0.002337813    1.284    0.221
       424 -12.0247    134.9825     30.6340   2.3631295650e+01   4.7429159482e+01    0.4133973    0.1961674 -29.59  0.001732977    2.107    0.525
       425 -13.0765     78.2154     30.8592   3.6359432821e+01   6.2014243255e+01    0.3311452    0.2721073 -67.71  0.000835916    1.345    0.256
       426 -10.8056     65.7779     32.5811   4.1783461000e+01   6.4725999515e+01    0.2003636    0.1378255  66.42 0.0003395111    1.611    0.379
       427 -11.1569      8.7071     31.9809   7.8097756975e+01   7.4492939102e+01    0.1834211    0.1610697 -46.35 0.0002689431    1.063    0.060
       428 -11.7932    207.9970     29.4906   1.5858090995e+01   3.0609599667e+01    0.2502892    0.1277728 -46.16  0.001022711    1.514    0.339
       429 -13.0606    106.7900     32.1992   2.9322534136e+01   5.4534945442e+01    0.3132895    0.2983352 -44.01 0.0005215451    1.112    0.101
       430 -13.1372     46.3242     26.2567   4.7313142846e+01   7.0039020153e+01     0.372823    0.3129707  70.91 0.0008684868    1.414    0.293
       431 -12.2268    159.3340     31.1367   2.0635712589e+01   4.1284979365e+01    0.2405776    0.2071191 -72.19 0.0002835607    1.051    0.048
       432 -10.7859    221.0232     25.4581   1.4063913918e+01   2.8489552604e+01    0.1524983    0.1092561  89.89 0.0003390622    1.497    0.332
       433 -12.8836     84.2093     24.1181   3.1171340826e+01   6.1441956765e+01    0.2931943    0.2675872 -50.41 0.0005174382    1.132    0.116
       434 -12.3811     68.0173     25.0325   3.6831364169e+01   6.5348311353e+01    0.2348567       0.1728 -70.77  0.001136048    1.722    0.419
       435 -11.6396    238.1170     22.8209   1.2564411027e+01   2.5616195896e+01    0.1769059    0.1124678 -52.33 0.0004153179    1.193    0.161
       436 -11.1333    166.1360     22.1775   1.7191639714e+01   4.0693770743e+01    0.1828272    0.1718415 -77.51 0.0002907015    1.161    0.139
       437 -11.0846     36.5071     21.0386   4.9761860980e+01   7.2864913996e+01    0.1972311    0.1336501 -38.22 0.0003980254    1.513    0.339
       438 -12.5133    247.2511    248.3882   5.3580784254e+01  -3.5666242968e+00    0.2672246    0.1435293  19.08 0.0009406609    1.630    0.386
       439 -10.8139     31.2677     16.0240   4.9736561224e+01   7.4680164542e+01    0.1823567    0.1698263   4.82 0.0005011613    1.030    0.029
       440 -11.1828    100.1031     12.5357   2.2008325846e+01   5.8603118728e+01    0.2071208    0.1296763  75.08 0.0003932728    1.488    0.328
       441 -12.0456    139.4363    248.5007   7.1997646118e+01   6.7378482449e+00    0.2364992    0.1822484 -18.13 0.0007992618    1.335    0.251
       442 -12.5498    135.0460    245.9882   7.2592176363e+01   7.5833175301e+00    0.3091833    0.1310053  27.48  0.001261121    1.875    0.467
       443 -11.6367    162.3039    246.9605   6.7389284235e+01   4.5045818418e+00    0.2078364    0.1285396  12.77 0.0007474789    1.330    0.248
       444 -11.1163     80.5745    246.3012   8.4174522882e+01   1.3529210637e+01    0.1542878    0.1127928  32.95 0.0003712443    1.077    0.071
       445 -12.0366     68.2508    225.5714   8.5297610874e+01   1.8649743793e+01    0.4644453     0.256641  89.96  0.002339032    2.558    0.609
       446 -10.8136    167.9784    243.0699   6.5839368460e+01   4.4277144403e+00    0.1334198    0.1037029  -0.08  0.000543785    1.077    0.071
       447 -13.4364    102.3117    234.3623   7.8269699031e+01   1.3151611491e+01    0.3583632     0.248584  30.54  0.001919965    1.174    0.148
       448 -14.5256    117.3084    237.9673   7.5384199957e+01   1.0820638880e+01     0.573272    0.4462561  13.58  0.002678992    1.101    0.092
