#   1 NUMBER                 Running object number                                     
#   2 MAG_AUTO               Kron-like elliptical aperture magnitude                    [mag]
#   3 X_IMAGE                Object position along x                                    [pixel]
#   4 Y_IMAGE                Object position along y                                    [pixel]
#   5 X_WORLD                Barycenter position along world x axis                     [deg]
#   6 Y_WORLD                Barycenter position along world y axis                     [deg]
#   7 A_WORLD                Profile RMS along major axis (world units)                 [deg]
#   8 B_WORLD                Profile RMS along minor axis (world units)                 [deg]
#   9 THETA_WORLD            Position angle (CCW/world-x)                               [deg]
#  10 FWHM_WORLD             FWHM assuming a gaussian core                              [deg]
#  11 ELONGATION             A_IMAGE/B_IMAGE                                           
#  12 ELLIPTICITY            1 - B_IMAGE/A_IMAGE                                       
         1 -13.5795     57.3876    110.0443   9.6176719089e+01   4.7620404723e+01     1.957216    0.5627201 -53.45  0.006553897    2.870    0.652
         2 -13.9787      6.2838     66.8204   1.0601638267e+02   6.2379911166e+01     2.133461    0.7383979 -43.97  0.008741712    2.202    0.546
         3 -13.2810      4.0271     52.4224   1.0350114424e+02   6.5582913949e+01     1.155337    0.5405046 -61.56  0.005991636    1.906    0.475
         4 -12.9931    230.0547     29.5973   3.4544445614e+01   2.5087422479e+01    0.7244936    0.6351576  63.21  0.004937968    1.370    0.270
         5 -12.5110     64.5100     29.5621   6.7064242893e+01   6.2732154412e+01     0.775091    0.7311637  53.19  0.005031595    1.452    0.311
         6 -12.3841     29.9072      6.1759   7.1226693663e+01   7.1070965051e+01    0.4598097    0.3424222  30.77   0.00313117    1.426    0.299
         7 -12.5798      2.1181     12.9019   9.0663355003e+01   7.3008566843e+01     1.499715    0.3754013 -48.15  0.006504539    3.365    0.703
         8 -13.1893     20.2598      9.4414   7.8150738878e+01   7.1854348781e+01     1.036259    0.5184911 -29.89  0.005956522    1.778    0.438
         9 -13.2961     11.9685     19.0014   8.7534606688e+01   7.1269034078e+01    0.7911386    0.5750358  12.32  0.004363553    1.351    0.260
        10 -12.7804     11.2867     13.2981   8.5278765351e+01   7.2213012449e+01    0.7811934     0.431602 -44.52  0.004672142    1.875    0.467
        11 -12.5893     40.9679     16.5228   7.1082526973e+01   6.8243984557e+01    0.5329131    0.3467743 -14.36  0.003208596    1.422    0.297
        12 -12.5365    175.6543     10.7075   3.5576604243e+01   3.9558398437e+01     0.672658     0.201611  53.03  0.002545335    3.288    0.696
        13 -11.8527    172.2988     17.2855   3.7718027076e+01   3.9701392249e+01     0.521374    0.2631969  76.24  0.002460253    1.883    0.469
        14 -11.5436    199.8526      9.5957   3.2829744828e+01   3.4014188664e+01    0.4622099    0.1845116 -29.53   0.00212747    2.715    0.632
        15 -12.0704    211.8146      6.1905   3.1032174133e+01   3.1677654963e+01    0.5858893    0.4275964 -59.07  0.003100227    1.213    0.176
        16 -12.4423    169.2645      2.7395   3.4197954522e+01   4.1818538792e+01     0.823543    0.2461261  70.93   0.00324584    2.810    0.644
        17 -11.2693    106.0997      3.1109   4.3895714697e+01   5.6826334704e+01     0.413333    0.1967112  60.87  0.001972737    1.746    0.427
        18 -13.1684     28.6442     16.2121   7.7024556020e+01   6.9943028289e+01     1.008647    0.5159018 -21.69  0.005385823    1.937    0.484
        19 -10.4247    105.3919    131.5750   8.5871365475e+01   3.4646026915e+01    0.3479953    0.2842185  -6.95  0.001104329    1.463    0.316
        20 -11.2080    244.9977    248.9921   7.7455718946e+01  -1.1735905910e+01    0.3988135    0.2167042   6.70  0.002287253    1.818    0.450
        21 -11.2567    249.0207    246.0100   7.6257312560e+01  -1.1833324153e+01     0.402135    0.2361696 -26.81  0.002178033    1.527    0.345
        22 -12.3675    177.4664    249.6214   9.0411126216e+01  -2.8207154544e+00    0.9435843    0.2474413  33.40  0.003419477    3.398    0.706
        23 -11.8812     27.1327    248.3024   1.2080764899e+02   1.8254463511e+01    0.3908129     0.297691  30.76  0.002737891    1.565    0.361
        24 -11.7567     45.2482    181.4119   1.1140530634e+02   3.0971838579e+01    0.5680524    0.2540049 -59.51  0.001265383    2.068    0.516
        25 -12.6833      3.6866    115.7084   1.1527218675e+02   5.0977445589e+01     1.246013    0.4004158 -66.75   0.00529615    2.268    0.559
        26 -13.2117     83.6875    208.3275   1.0527522158e+02   1.9542567124e+01     1.370123    0.9021062  81.42  0.005253654    1.816    0.449
        27 -13.5792     67.7907    208.6843   1.0903747680e+02   2.1691719751e+01     1.649731     1.148427  47.56  0.008042675    1.308    0.236
        28 -14.3889     10.4047    129.8331   1.1493127213e+02   4.7074730000e+01     4.392319    0.6448365 -67.49    0.0137875    4.044    0.753
        29 -13.5138     44.9526    194.9547   1.1292772101e+02   2.7747976490e+01     1.001331    0.7497894  57.87  0.003690814    1.233    0.189
        30 -13.4246     30.4497    200.5194   1.1679395184e+02   2.8050174929e+01     1.315558    0.6286605  81.56    0.0058641    2.317    0.568
        31 -14.8384     31.1086    187.2561   1.1546788176e+02   3.1095861845e+01      3.38315     1.426691  64.14   0.01080332    2.916    0.657
        32 -10.3387     91.1517    128.3397   8.9390861823e+01   3.7985817125e+01    0.2914873    0.2515497 -30.89 0.0004966383    1.195    0.163
        33 -12.7543     54.0043    123.3511   1.0013398135e+02   4.4695571604e+01     1.663601    0.4999668  33.66  0.005741181    3.325    0.699
        34 -13.0523     53.8652    115.9202   9.8663969899e+01   4.6592361847e+01     1.007429    0.4928954 -69.81  0.003944628    2.362    0.577
        35 -11.3677     19.1320    244.7199   1.2208813606e+02   1.9800255723e+01      0.23209     0.150036  70.28  0.001562619    1.233    0.189
        36  -9.2847    103.2925    120.0557   8.3682086274e+01   3.7841790499e+01     0.210692    0.1961025 -48.06 0.0002676187    1.053    0.051
        37 -10.9381     44.3426    106.6488   9.9977623586e+01   4.9998279220e+01    0.5737604    0.2102829 -63.95  0.002077136    2.707    0.631
        38 -12.6571     43.7792     94.0051   9.7311314491e+01   5.3131423956e+01    0.7100824    0.5962598 -57.47  0.003565852    1.142    0.124
        39 -12.2344     32.5796     89.1771   1.0042226372e+02   5.5396143179e+01    0.7208701    0.6686359  70.89  0.003851521    1.318    0.241
        40 -13.7340      4.4919     89.4554   1.1117476188e+02   5.7282904591e+01      1.83468    0.5581818 -64.82  0.007665067    2.420    0.587
        41 -12.8125     18.7049     90.8936   1.0609632078e+02   5.6100936906e+01    0.8494689    0.6403048 -70.99  0.003348404    1.284    0.221
        42 -13.6662     20.9232     78.5633   1.0257307411e+02   5.8824393093e+01     1.558059    0.9333339 -11.17  0.007624295    1.929    0.482
        43 -12.4595     22.9994     67.7115   9.8981638376e+01   6.1093536011e+01    0.6496074    0.6194959 -56.69  0.004051493    1.259    0.205
        44 -13.0401    134.5246    240.1653   9.8020414129e+01   5.2660664809e+00    0.5475769    0.5069979 -48.08  0.003604241    1.264    0.209
        45  -9.8180     83.1473    229.9339   1.0792884240e+02   1.4961370239e+01    0.2213241    0.1785278 -67.68   0.00109227    1.347    0.258
        46 -10.6421     95.2458     90.3619   7.8022511720e+01   4.6207940219e+01    0.5065902    0.1423981  41.24  0.001498033    3.610    0.723
        47 -10.9916     52.0433     89.7942   9.3143508402e+01   5.3165514306e+01    0.4080998    0.1964867  33.99  0.001758916    2.231    0.552
        48 -10.5736     90.4813     84.9831   7.7954224350e+01   4.8260921719e+01     0.334408    0.2458955 -17.24   0.00157219    1.549    0.354
        49 -10.7689    244.2386    125.0051   5.3616698341e+01   7.6751865461e+00    0.1928338   0.09801263 -38.35  0.000894699    1.660    0.397
        50 -11.0007     57.3799     70.1101   8.5310593833e+01   5.6813858166e+01    0.2724406    0.1788481 -60.40  0.001301965    1.902    0.474
        51 -12.4463     99.3231     43.3834   6.0823427634e+01   5.3955092240e+01    0.7978529    0.5211678 -31.49   0.00400184    1.605    0.377
        52 -11.8472    212.8618     45.3728   3.9845013754e+01   2.6792640461e+01    0.4162824    0.2290754  79.66  0.002002242    1.979    0.495
        53 -14.7920      6.9482    240.8873   1.2412284711e+02   2.1768399240e+01     6.158054     0.971509 -79.53   0.01983962    6.562    0.848
        54 -12.5714     14.3981     32.1656   9.1670157802e+01   6.8844701296e+01    0.6364064    0.4235487  19.13  0.002763293    1.577    0.366
        55 -13.5151     12.2281    208.1853   1.2130556057e+02   2.8113771986e+01     0.637419    0.4104011  70.92 0.0009995281    1.305    0.234
        56 -12.5177    140.9542    237.4698   9.6265396111e+01   4.7531260083e+00    0.4277101    0.3128761  -0.59  0.002342834    1.708    0.414
        57 -10.5289     96.7102    209.0195   1.0229136289e+02   1.7437747088e+01    0.3518188    0.2695141  31.90  0.001591639    1.299    0.230
        58 -11.4873     95.1815    203.8839   1.0194827122e+02   1.8820608300e+01    0.7415815    0.4385524  56.05  0.003433272    1.816    0.449
        59 -11.5605     52.9017    174.8132   1.0865358469e+02   3.1695529802e+01    0.2752491    0.2457898 -52.23 0.0004853663    1.225    0.183
        60 -10.7158     65.4368    164.6015   1.0386312200e+02   3.2658444035e+01    0.2573332     0.237376 -53.66  0.000357809    1.135    0.119
        61 -12.9794     50.9014    161.0179   1.0734873807e+02   3.5408457028e+01    0.5452878    0.3154725 -38.53  0.001586606    2.187    0.543
        62  -9.5387    135.1655    163.3208   8.4779000252e+01   2.1320900399e+01    0.2080577     0.191954  49.85 0.0003963613    1.115    0.103
        63 -11.8007     74.1580    157.6819   1.0030873795e+02   3.3201805072e+01     0.530438    0.5058131  -6.78  0.003017617    1.181    0.153
        64 -14.0079     19.6863    202.4671   1.1932822921e+02   2.8689500309e+01     1.144743    0.6716453  79.47  0.003528572    1.543    0.352
        65 -12.5614     67.8384    143.5474   9.9650248554e+01   3.7718156622e+01    0.7659535    0.4708868  61.21  0.002982431    2.081    0.520
        66 -10.3104     90.4634    144.4153   9.3102815282e+01   3.4056007904e+01    0.2744821    0.2601891 -58.20 0.0007802798    1.018    0.017
        67 -11.7904     77.9009    142.2344   9.6386590721e+01   3.6598381155e+01    0.3215638    0.2642263 -51.52 0.0005752902    1.163    0.140
