#   1 NUMBER                 Running object number                                     
#   2 MAG_AUTO               Kron-like elliptical aperture magnitude                    [mag]
#   3 X_IMAGE                Object position along x                                    [pixel]
#   4 Y_IMAGE                Object position along y                                    [pixel]
#   5 X_WORLD                Barycenter position along world x axis                     [deg]
#   6 Y_WORLD                Barycenter position along world y axis                     [deg]
#   7 A_WORLD                Profile RMS along major axis (world units)                 [deg]
#   8 B_WORLD                Profile RMS along minor axis (world units)                 [deg]
#   9 THETA_WORLD            Position angle (CCW/world-x)                               [deg]
#  10 FWHM_WORLD             FWHM assuming a gaussian core                              [deg]
#  11 ELONGATION             A_IMAGE/B_IMAGE                                           
#  12 ELLIPTICITY            1 - B_IMAGE/A_IMAGE                                       
         1 -14.5143    203.5790     51.9761   6.4963549524e+01   2.8222208034e+01     1.667235     1.434843  -5.49  0.009919276    1.723    0.420
         2 -15.9454    182.9587     81.9638   7.5205504081e+01   2.8161250662e+01     6.960704     2.596608 -54.71   0.02171209    3.831    0.739
         3 -14.0042    168.8605     63.2755   7.3036042719e+01   3.4533884169e+01       1.0579    0.5336174 -28.71  0.001682179    2.578    0.612
         4 -17.7272    232.3341     13.1531   5.3966822465e+01   2.7030543703e+01     8.054214     1.905158  65.20   0.03350982    3.511    0.715
         5 -16.7695    242.3928     89.2315   6.7859410189e+01   1.4032779039e+01     8.792068      2.68345 -39.66   0.03221498    3.119    0.679
         6 -14.1310    218.3268     30.0249   5.8540057045e+01   2.7941987547e+01    0.6660662    0.5444945 -69.60  0.002198509    1.103    0.093
         7 -11.4920    142.2617     14.6357   6.4650015434e+01   4.6797006330e+01    0.2101488    0.1854082  77.16 0.0003126372    1.076    0.071
         8 -10.3160    145.6606     10.2759   6.2941163479e+01   4.6437831779e+01    0.2479518    0.1704262 -73.52 0.0007978907    1.681    0.405
         9 -10.1230    157.2150      9.1101   6.0985813529e+01   4.3937477183e+01    0.2132704    0.1396635  -2.04  0.001145844    2.408    0.585
        10 -11.7162     42.4261     10.1433   8.8313869049e+01   6.6516997544e+01    0.2026085    0.1400159  49.36 0.0009766171    1.898    0.473
        11 -12.5338     58.1517      2.4891   7.9695053564e+01   6.4773757631e+01     0.476992    0.1352454  42.64   0.00217624    2.739    0.635
        12 -12.0442     69.3079      2.4488   7.6328170706e+01   6.2853434649e+01    0.4089983    0.1422428  47.29  0.002021466    2.213    0.548
        13  -9.6719    144.9325      4.6171   6.1540336494e+01   4.7098673180e+01    0.1672602    0.1280588  68.15  0.001087569    1.068    0.064
        14 -11.3379    199.3985      2.2404   5.4676506162e+01   3.5181329071e+01     0.224986    0.1642111 -58.27  0.001483955    1.325    0.245
        15 -11.0605    154.0223      2.8409   5.9825609746e+01   4.5214519245e+01    0.2662861    0.2012042 -71.42  0.001204545    1.390    0.280
        16 -10.5036    133.8206      2.9504   6.2756902164e+01   4.9704274068e+01    0.2477214    0.1734766 -47.46 0.0009010712    1.681    0.405
        17 -10.2611    105.1682      2.0948   6.7590354855e+01   5.5922022784e+01     0.192257     0.134688  40.26  0.001237788    1.269    0.212
        18 -10.5251    119.4828    111.0094   9.6985810352e+01   3.6719828764e+01    0.3168758    0.1951029  78.62  0.001041299    3.548    0.718
        19 -11.8403    134.8700    108.2638   9.2279072334e+01   3.4053515019e+01     1.185596    0.2674337 -44.18  0.003108396    4.406    0.773
        20 -12.0248    156.4267    101.9099   8.5538387166e+01   3.0548371544e+01    0.3497325    0.2825354 -48.51  0.001583348    1.224    0.183
        21 -10.5235    148.5127    102.5541   8.7499253774e+01   3.2210931220e+01    0.2677207    0.1933553  63.14  0.000543701    1.501    0.334
        22 -11.3976    146.4773     98.4178   8.6887356325e+01   3.3496601756e+01    0.3460574    0.3097181 -31.82 0.0006171945    1.186    0.157
        23 -11.0389    140.9736    102.7352   8.9328463623e+01   3.3860110832e+01    0.3544094    0.2826327  23.64 0.0009725804    1.509    0.337
        24 -11.0027    122.8099    101.9699   9.3703861637e+01   3.7952074823e+01    0.4833258    0.2481837  23.82  0.001408917    4.406    0.773
        25 -11.0483    164.0186    102.5357   8.4047711644e+01   2.8693117698e+01    0.2339521    0.1482497  53.77 0.0006905206    1.593    0.372
        26 -10.0882     93.3613    219.1115   1.2502740425e+02   1.5670008857e+01    0.1944131    0.1658045 -89.33 0.0006473703    1.123    0.109
        27 -13.4633    188.2090     64.8750   7.0180635655e+01   2.9782338719e+01    0.7562535    0.4075577  38.41  0.003050746    2.906    0.656
        28 -10.9836    133.2053     95.3260   8.9246423242e+01   3.7063441479e+01    0.2855557    0.2635045 -39.38            0    1.100    0.091
        29 -10.8577    136.0000    129.1076   9.7262464922e+01   2.9228204273e+01    0.4988371    0.1606449 -47.18   0.00152015    3.038    0.671
        30  -9.8757    189.6434    148.3208   8.9564830209e+01   1.3517546875e+01    0.1571962    0.1193446 -85.09 0.0007045442    1.761    0.432
        31 -11.2089    212.2320     87.4239   7.1676715668e+01   2.0615514937e+01    0.5265991    0.2241923 -45.05  0.002031457    2.146    0.534
        32 -10.2467    211.4829     80.4819   7.0238114422e+01   2.1973526978e+01    0.2523965    0.2202263 -53.57  0.001398993    1.137    0.120
        33 -12.9305    186.5160    136.5660   8.7547994883e+01   1.6665248647e+01    0.6114064    0.4194563  86.01  0.002533683    2.239    0.553
        34 -11.9328    216.2917     81.1947   6.9696347413e+01   2.0804533039e+01    0.4765193    0.4015458 -37.77  0.002481135    1.324    0.245
        35 -11.4255    221.8185     79.0244   6.8447775190e+01   1.9980690738e+01    0.4846213    0.2900976 -86.38  0.001868189    2.167    0.539
        36 -11.7880    139.9800     87.6611   8.5520973909e+01   3.7034163645e+01    0.3240723    0.3069122 -67.01 0.0006111945    1.070    0.066
        37 -11.3736    135.2910    121.4642   9.5552249216e+01   3.1098993364e+01    0.7819059    0.1947924 -47.91  0.002091491    4.045    0.753
        38 -13.4073    191.6091    132.2292   8.5532644596e+01   1.6485259119e+01    0.6531464    0.4536102  78.33  0.002863364    1.987    0.497
        39  -9.6063     88.2530     78.2391   9.6778644323e+01   4.9415593175e+01    0.2161313    0.1125136 -54.20 0.0008774895    2.455    0.593
        40 -10.4721    144.3585     66.6784   7.8746862330e+01   3.9691776928e+01    0.2985949    0.2320177 -41.02   0.00158596    1.350    0.259
        41 -10.5706    130.9676     66.4856   8.1691768295e+01   4.2754056005e+01    0.2667913    0.1960625 -55.25  0.001147671    1.546    0.353
        42  -9.4882    166.1850    134.5844   9.1423286757e+01   2.1484227726e+01    0.2042039    0.1499587  35.08 0.0004100341    1.534    0.348
        43 -10.9304    213.6552     62.9627   6.6061299371e+01   2.4335447692e+01    0.2778162    0.1763365 -70.12 0.0009151783    1.635    0.388
        44 -15.2940     17.7385    201.4038   1.3959917234e+02   2.9841468005e+01     2.413042     1.646536 -33.47   0.00441961    2.354    0.575
        45 -14.1048    217.0271     42.3550   6.1231327728e+01   2.6600502313e+01    0.7511224    0.4379026  58.02  0.004051131    1.793    0.442
        46 -10.2607    164.8030     45.3703   6.9129725739e+01   3.8080598574e+01    0.2060388     0.182775 -46.25 9.005627e-05    1.225    0.184
        47 -10.0273    185.8997     45.0765   6.5801397674e+01   3.3221805412e+01    0.1995177    0.1727227 -86.46 0.0003846987    1.021    0.021
        48 -11.6505    173.1718     37.4791   6.5815964928e+01   3.7165272169e+01    0.5493665    0.2841719 -53.56  0.002153508    2.139    0.532
        49 -11.2319     68.2745    144.7487   1.1926582929e+02   3.7704488791e+01     3.082907     1.103789 -68.23  0.007586079    4.282    0.766
        50 -10.1993    167.5470     40.5976   6.7461998768e+01   3.8071774237e+01    0.3285582    0.1568737  51.31  0.001487196    2.041    0.510
        51 -10.4735    190.5135     37.7801   6.3460043473e+01   3.3133688327e+01    0.4236982    0.1575436 -46.62  0.001730896    2.663    0.624
        52 -11.0776    191.8476    193.0542   9.8527787677e+01   3.7264413053e+00    0.9236028    0.4748533 -67.50  0.002341402    6.943    0.856
        53 -10.5975    194.9385     27.1949   6.0507534341e+01   3.3450262397e+01    0.1862172    0.1585509 -71.97 0.0004142163    1.117    0.105
        54 -11.4064     94.3245     24.6900   7.7599530242e+01   5.6097393437e+01     0.205872    0.1863527  63.27 0.0009083443    1.261    0.207
        55 -11.2192    106.9491     22.3126   7.3743304279e+01   5.3770208191e+01    0.1803975    0.1412381  48.27 0.0003693289    1.091    0.083
        56 -14.4367     58.6019    168.1937   1.2595551678e+02   3.3166458903e+01     1.061634      1.02621 -85.17  0.003532873    1.133    0.117
        57 -12.3044    246.7811    163.4950   8.2312871818e+01  -1.8921553150e-01    0.5027546    0.3082137 -15.00  0.002256587    2.492    0.599
        58 -14.5226     47.9510    178.3928   1.3012502492e+02   3.1992636296e+01     1.013829    0.8955485 -19.86  0.003046071    1.494    0.331
        59  -9.5595    192.2883    152.3260   8.9912531273e+01   1.2126343773e+01    0.1500316      0.11829 -10.42 0.0003417436    1.611    0.379
        60 -13.5465    153.6350     79.9524   8.0384103475e+01   3.5318065223e+01     1.677737    0.5573337 -44.48 0.0007278448    3.077    0.675
        61  -9.7163    202.1216    248.3238   1.0644951827e+02  -8.0105632229e+00    0.1730202    0.1402913  23.23 0.0003486399    1.104    0.095
        62 -10.6244    107.9527    233.5038   1.2378496193e+02   1.0156993820e+01    0.2055746    0.1236278  40.73 0.0004676821    1.532    0.347
        63 -10.9870    133.8266    146.2298   1.0184822731e+02   2.5702313555e+01     1.003354    0.2355227 -55.13  0.001946983    7.747    0.871
        64 -12.1157    160.8368    128.0327   9.1062246317e+01   2.4087034304e+01    0.5114832    0.3715068 -47.38  0.001931786    1.338    0.252
        65 -10.4753    171.8414    127.8459   8.8586146160e+01   2.1704540459e+01    0.2136499    0.1793738 -77.35 0.0003005963    1.303    0.232
        66  -9.2226    205.2787    223.6969   1.0158125801e+02  -4.3704004580e+00     0.118369    0.1077074  85.34 0.0002654543    1.547    0.354
        67 -10.8405    152.4573    120.3725   9.1114783073e+01   2.7599523071e+01    0.3413001    0.2541069 -11.92  0.001475069    1.934    0.483
        68 -12.5660    167.5336    113.4396   8.6020180676e+01   2.5691764461e+01     0.497895    0.3918484 -53.72 0.0009929407    1.246    0.198
        69 -10.5355    155.1787    110.7632   8.8077962824e+01   2.9029130348e+01    0.2680012     0.170207 -82.70  0.000957493    2.831    0.647
