#   1 NUMBER                 Running object number                                     
#   2 MAG_AUTO               Kron-like elliptical aperture magnitude                    [mag]
#   3 X_IMAGE                Object position along x                                    [pixel]
#   4 Y_IMAGE                Object position along y                                    [pixel]
#   5 X_WORLD                Barycenter position along world x axis                     [deg]
#   6 Y_WORLD                Barycenter position along world y axis                     [deg]
#   7 A_WORLD                Profile RMS along major axis (world units)                 [deg]
#   8 B_WORLD                Profile RMS along minor axis (world units)                 [deg]
#   9 THETA_WORLD            Position angle (CCW/world-x)                               [deg]
#  10 FWHM_WORLD             FWHM assuming a gaussian core                              [deg]
#  11 ELONGATION             A_IMAGE/B_IMAGE                                           
#  12 ELLIPTICITY            1 - B_IMAGE/A_IMAGE                                       
         1 -10.2613     39.2791     41.8196   5.5848929011e+01   6.5807400999e+01     1.514043      1.01138 -36.17  0.007931329    1.332    0.249
         2 -14.1106     10.4884     70.7973   7.8503937237e+01   6.1257878006e+01     1.735144     1.071284 -67.43  0.009238399    1.280    0.219
         3 -10.2886     30.8980     21.4775   5.0856003026e+01   7.0984532993e+01    0.9551636    0.5633966 -44.23  0.004057767    1.535    0.348
         4 -13.9685     94.8258     71.3024   4.4216541128e+01   4.9901758738e+01     2.290098     1.625506 -68.92   0.00819681    1.822    0.451
         5 -11.2542     78.6257      9.7579   2.2526015761e+01   6.4098644722e+01    0.2945926    0.2503836  -7.38  0.001729863    1.141    0.124
         6 -13.4239     56.7241      4.1768   2.7162422060e+01   6.9337242647e+01    0.6198413    0.3425444  50.06 0.0007973489    1.792    0.442
         7 -11.6495     47.3775      2.2324   3.0009963510e+01   7.1345605372e+01    0.4176081    0.2973576   4.15  0.001720639    1.349    0.259
         8 -13.2006     65.4797     16.3349   3.0793186894e+01   6.6072873563e+01     1.677794     1.259717  11.66  0.009204466    1.361    0.265
         9 -12.6557     80.4246     22.9433   2.8782513661e+01   6.2027878179e+01    0.6661692    0.4777688  20.71  0.002887184    1.526    0.345
        10 -12.3726     72.8159     25.0210   3.2567242921e+01   6.3326508142e+01    0.5264693    0.4051432 -27.52 0.0003699517    1.239    0.193
        11 -14.0896     11.9838     38.5401   6.9676827912e+01   6.9172247056e+01     1.634844     1.232751 -81.94  0.009572593    1.567    0.362
        12 -14.7369     37.2646     56.7724   6.2404124669e+01   6.2601325520e+01     3.807546     1.995947 -15.33   0.01145544    3.303    0.697
        13 -11.8315     51.0780     20.9647   3.9699013493e+01   6.8061382605e+01     1.962803     1.653753  65.42   0.00830099    1.730    0.422
        14 -13.9021    219.2062     56.4480   1.3333757531e+01   2.3511456910e+01     1.562184    0.9320056 -46.27  0.002743299    1.422    0.297
        15 -12.7997     24.4844     39.6521   6.2917779296e+01   6.7916369185e+01     1.298062    0.5472786 -48.95  0.005645152    1.876    0.467
        16 -12.7579    174.2776     41.8404   1.5114712031e+01   3.6246916318e+01     1.554272      1.07526  19.24  0.006901086    2.163    0.538
        17 -11.5971    223.5771     30.3506   6.1197456165e+00   2.6212791522e+01     1.537225    0.6032337  82.93  0.005892139    3.528    0.717
        18 -12.5593    226.2784     22.0306   3.7890438103e+00   2.6669085376e+01    0.6784715    0.5257644 -12.56    0.0028549    1.604    0.377
        19 -13.8330    193.8130     37.4815   1.1160048027e+01   3.2087715600e+01     2.049237     1.029841 -40.06  0.009092989    1.705    0.413
        20 -13.9257    244.2305      8.4910   3.5934191847e+02   2.4489202337e+01     1.132601    0.5090692 -73.65  0.005508201    2.409    0.585
        21 -12.0198    232.8197      4.0282   3.5895056545e+02   2.7331578582e+01    0.6410905    0.2974397 -33.58  0.002697661    1.784    0.439
        22 -12.6189    221.5543      8.3378   7.0009853886e-01   2.9288264642e+01     0.627571    0.2024909 -49.54  0.001359579    2.516    0.603
        23 -11.4878    228.9669     10.4801   7.3939966477e-01   2.7441904611e+01      0.52285    0.2425157 -59.80  0.001246829    1.984    0.496
        24 -11.7544    210.6340     21.3442   4.9108498964e+00   3.0236956923e+01    0.5523701    0.4129729  59.63  0.002246666    1.546    0.353
        25 -11.6217    202.1555     20.9180   5.5653678371e+00   3.2253656062e+01    0.4164134    0.2545794 -54.01  0.001325444    1.461    0.316
        26 -12.0602    204.7508     18.0828   4.5492057920e+00   3.1985038286e+01    0.6133605    0.2631162 -65.60  0.001302197    2.822    0.646
        27 -11.3905    122.7439     33.5772   2.1722550920e+01   5.0515615404e+01    0.7244178    0.3921879 -27.81  0.001371696    1.874    0.466
        28  99.0000    243.9451     18.1862   1.5961562342e+00   2.3431960401e+01    0.3852364    0.2080422 -51.81  0.002121002    1.475    0.322
        29 -11.3450    241.1397     22.0003   2.6799643640e+00   2.3544656773e+01    0.5369299    0.2711418 -75.85  0.002641288    2.261    0.558
        30 -10.0286    162.4767     19.1621   9.4408015141e+00   4.2229149761e+01    0.4822772    0.1444145 -48.52  0.001499094    3.747    0.733
        31 -11.0978     94.0630     15.9905   2.1178234975e+01   5.9838519422e+01    0.3316411    0.1927911  46.95  0.001549897    1.643    0.391
        32 -10.8833    150.0250     13.1574   9.0566589062e+00   4.6089509041e+01    0.2513891    0.1952105 -48.01 0.0006544635    1.253    0.202
        33 -11.7619    115.7608     10.4334   1.3616080996e+01   5.5137928585e+01    0.4645735    0.2975652   0.38  0.001833526    1.903    0.475
        34 -10.3546    131.9910      9.8917   1.0522294832e+01   5.1063557999e+01    0.4961908    0.2770868 -50.20  0.001716141    1.942    0.485
        35  -5.2381    124.7274      9.9618   1.1764370124e+01   5.2913789994e+01    0.3885265     0.270708  14.20   0.00191702    1.743    0.426
        36 -10.8784     87.9026     11.6300   2.0736255597e+01   6.1780716676e+01     0.296958    0.2555289 -77.71  0.001682498    1.438    0.305
        37 -11.0266    108.6698      9.5402   1.4662494810e+01   5.7001153940e+01    0.3603998    0.2511465 -41.41 0.0007949867    1.518    0.341
        38 -10.1680    111.4794      4.2764   1.1760849419e+01   5.6802786483e+01    0.2757371    0.1981701  52.87  0.001387632    1.300    0.231
        39 -10.5237    177.0465      1.2371   2.1480052220e+00   4.0455173797e+01    0.1732346    0.1200184  82.11 0.0002607179    1.379    0.275
        40 -13.5970     57.8419     63.1927   5.5323693847e+01   5.8375974831e+01     1.992235     1.110503 -43.07  0.008735384    1.630    0.386
        41 -10.7930     26.4511      9.7762   4.6742965875e+01   7.3610754622e+01    0.2680877     0.179066 -11.31  0.001228839    1.482    0.325
        42 -11.5044    193.5939      7.4673   2.5584142028e+00   3.5806718837e+01    0.2637216    0.2532472 -77.50 0.0008016616    1.166    0.142
        43  -9.3946    120.4727      8.9931   1.2120972266e+01   5.4091889451e+01    0.1943652    0.1376907 -20.28 0.0004302265    1.477    0.323
        44  -8.8258    156.6361      7.3195   6.1862422914e+00   4.4996927346e+01    0.1539192   0.09121927 -61.36 0.0007040615    1.777    0.437
        45  -8.8098     12.6644      7.4626   5.4912298560e+01   7.5584500169e+01    0.1231728   0.09327932 -29.06 0.0002637764    1.056    0.053
        46 -11.1446      2.6649      6.1476   6.2017579349e+01   7.6669950728e+01    0.2539301    0.1771836 -15.26 0.0008943969    1.309    0.236
        47  -9.8376    210.6989      6.0944   8.7199316791e-01   3.1959294114e+01    0.1796941    0.1399057  12.98 0.0007420304    1.849    0.459
        48 -10.1732    146.6483      5.6351   6.8271843739e+00   4.7715341105e+01    0.2715224    0.1879862  35.69  0.000805393    1.683    0.406
        49 -10.0742    121.0387      4.7495   1.0254241942e+01   5.4350383326e+01    0.2207877    0.1895253 -13.02 0.0005041956    1.237    0.191
        50  -8.5456    183.3556      3.8075   2.3689562451e+00   3.8656534439e+01    0.3867825    0.1913334 -59.92  0.001595997    2.015    0.504
        51 -10.1647    187.0534      1.4321   1.3675554429e+00   3.7991741590e+01    0.2575733    0.1220559  79.07 0.0005425243    2.070    0.517
        52 -10.7161    217.5276      2.0672   3.5938449296e+02   3.0847705385e+01    0.2884559    0.2040303 -86.39  0.001736887    1.359    0.264
        53  -9.8574    213.5045      2.5030   3.5975146227e+02   3.1701679483e+01    0.1619043    0.1150721  73.47 0.0005223404    1.488    0.328
        54  -9.8128    207.2996      2.8539   2.5758189205e-01   3.3075219752e+01    0.1637494    0.1124323 -17.84 0.0006948612    1.677    0.404
        55  -9.6312    143.5198      2.5932   6.1271512155e+00   4.8797527512e+01    0.1378944    0.1222097 -75.98 4.946278e-05    1.082    0.076
        56  -9.3884    135.4954      2.4504   7.1314279473e+00   5.0865804010e+01    0.1355514    0.1269946  73.92 0.0001722803    1.027    0.027
        57 -12.7523    173.3036      6.5374   4.1269058275e+00   4.0865552790e+01    0.5224543    0.3149635 -14.34  0.002524938    1.960    0.490
        58 -12.0788     85.7576      1.4005   1.6046988386e+01   6.3301506240e+01    0.4268824    0.1263165  61.24   0.00114195    3.019    0.669
        59  -9.8863    250.2942      1.4707   3.5744720806e+02   2.4046713725e+01    0.1428317   0.09254095 -67.23 0.0002465218    1.332    0.249
        60 -13.6431    193.8151     87.0701   2.5242005421e+01   2.4020235134e+01    0.9573184    0.8206857 -15.10  0.003898158    1.252    0.201
        61 -13.0162    191.7327     76.5616   2.2681697176e+01   2.6375692424e+01    0.9428596    0.5349627  42.12  0.003957447    2.193    0.544
        62 -11.6565    204.0627     78.4786   2.1250596818e+01   2.3275788043e+01     0.297956    0.2559266  63.32 0.0007578834    1.340    0.254
        63 -11.5740    200.0303     75.6539   2.1102727395e+01   2.4655965590e+01    0.3375591    0.2912629 -34.78 0.0008374004    1.072    0.068
        64 -11.9241     90.5396     51.1736   3.8079711992e+01   5.5054672567e+01    0.2722581    0.2481571 -45.63 0.0002280803    1.111    0.100
        65 -11.2561    113.3828    246.7097   7.2924644856e+01   7.1875698053e+00    0.3178303      0.21726 -30.72  0.001474109    2.088    0.521
        66 -11.1205     36.7736    248.5183   8.7545211952e+01   1.6073954246e+01    0.1941795    0.1355382  84.72  0.001419982    1.375    0.273
        67 -14.0949     44.0718     72.9617   6.4269390991e+01   5.7786545788e+01     1.665866     1.312878 -29.89  0.008888432    1.325    0.245
        68 -10.3211    180.6719    243.3576   5.9787978905e+01  -1.1405114467e+00    0.1629945    0.1287664  49.12  0.001112963    1.711    0.415
        69 -14.3006     65.8365     83.8803   5.8649584205e+01   5.2032283583e+01     2.001453     1.223906 -30.30  0.005750688    2.055    0.513
        70 -11.7884     11.0357     24.6463   6.5018855184e+01   7.2336291446e+01    0.4124822    0.3532148  20.43  0.001246382    1.407    0.289
        71 -10.5556     88.3948    238.7884   7.7061523965e+01   1.1744214107e+01    0.1404767    0.1075034 -55.41 0.0003047177    1.602    0.376
        72  -9.8948     15.5688    238.5000   9.0972221593e+01   2.0046042127e+01     0.108784   0.07998431  63.06 0.0008063099    1.040    0.038
        73  -9.6374    101.1670    176.0237   6.6944552921e+01   2.2733288666e+01    0.1788262    0.1674425  80.13            0    1.032    0.031
        74  -9.5695    236.7176    146.0022   3.2392489703e+01   5.5167146452e+00    0.1884702    0.1404134 -26.00 0.0003256032    1.080    0.074
        75  -9.6026    237.7364    140.1994   3.0981239297e+01   6.2869273780e+00    0.1766364     0.131454 -11.41 0.0004246797    1.277    0.217
        76 -13.3140     79.9360     41.1345   3.7571062935e+01   5.9160039954e+01     1.487456     0.540099  45.41  0.003286454    2.868    0.651
        77 -13.2583     79.8345     59.2523   4.5097164352e+01   5.5535650021e+01      0.97844    0.7576135  26.17  0.004397652    1.439    0.305
        78  -9.3994    184.6742    134.6908   3.9174143610e+01   1.6737589645e+01    0.1531562    0.1126663  -4.00 0.0003734931    1.655    0.396
        79  -9.6782     96.5865    125.5088   5.8902603482e+01   3.6040367238e+01    0.1580838    0.1450316 -64.38 8.399039e-05    1.016    0.016
        80 -12.9609     81.6308     49.6194   4.0592051008e+01   5.7194476417e+01     1.029304    0.6322841  20.51  0.004159517    2.348    0.574
        81 -11.8824     75.9693     52.0292   4.3711899068e+01   5.7805084601e+01    0.3371433    0.2367124 -47.13 0.0003132539    1.378    0.274
        82 -12.2094     48.4588     95.2592   6.8089944906e+01   5.1376475736e+01    0.4269229    0.2692872  38.90  0.002002262    1.770    0.435
        83  -9.3151    152.7039    124.2883   4.3634508671e+01   2.5374968929e+01    0.1523479    0.1249271 -81.96  0.000182176    1.551    0.355
        84 -10.8175    249.8174     93.9457   1.8851151624e+01   1.1642706907e+01    0.3537869    0.1659222 -43.70 0.0009961583    1.788    0.441
        85 -10.4251    206.0868     94.6042   2.5201009233e+01   2.0008346306e+01    0.2710288     0.180729 -44.53  0.001301286    1.337    0.252
        86 -11.0391    181.6093     93.7944   2.9297230565e+01   2.5480501703e+01     0.319313    0.2469062 -48.37 0.0009424367    1.218    0.179
        87 -11.9259    185.1121     91.9326   2.8125628800e+01   2.5053836167e+01    0.3770927    0.2783889 -51.17 0.0009317257    1.321    0.243
        88 -10.2605    220.7024    121.5001   2.9469248593e+01   1.2354696084e+01    0.3048012    0.1463436  51.51  0.001108396    2.598    0.615
        89 -10.5872    172.9450     90.9673   3.0197639510e+01   2.7993257150e+01    0.2433421    0.2190793 -47.61 0.0005490981    1.048    0.045
        90 -10.6469    167.7274     89.9875   3.0978771758e+01   2.9385708389e+01    0.3736646    0.2464041  60.47 0.0005998958    1.763    0.433
        91 -12.0893      6.3670     88.1299   8.2949264841e+01   5.6901792319e+01    0.4653046    0.2441693  78.21  0.002131472    2.095    0.523
        92 -11.2073    212.3922     88.7356   2.2688140864e+01   1.9720063118e+01    0.2940631    0.1170679 -38.98  0.000762353    2.073    0.518
        93  -9.4744     73.0048    119.0029   6.4737397705e+01   4.1611745444e+01    0.1815276    0.1668293 -74.01            0    1.025    0.024
        94 -11.8329     51.0314     87.6956   6.5336845457e+01   5.3089676611e+01    0.4123584    0.2180347 -44.86  0.001242412    1.823    0.451
        95 -12.1847     47.3786     85.2762   6.6163597449e+01   5.4180071259e+01    0.5108469    0.2734718  19.84  0.002030854    2.384    0.581
        96 -11.8050    222.0283     88.3492   2.1172465159e+01   1.7807230061e+01     0.359966     0.260717  69.04  0.001880933    1.760    0.432
        97 -10.8009    225.8691     85.1907   1.9845359760e+01   1.7559816146e+01    0.2718594    0.1802996 -30.93 0.0005206445    1.315    0.239
        98 -11.7127    238.1453     86.3809   1.8523440316e+01   1.4972242297e+01    0.4382497    0.2964339  63.89  0.001061573    1.896    0.473
        99 -11.5800    232.3590     84.4025   1.8785616855e+01   1.6403781092e+01    0.4516162    0.2883699 -75.33  0.002086125    2.414    0.586
       100 -11.7333    176.8036     85.0700   2.7758057627e+01   2.8249815819e+01     0.839739    0.4368915  33.24  0.002232496    3.081    0.675
       101 -14.1528    230.5233     72.6157   1.6101252641e+01   1.8644797468e+01     2.273547     1.308421  44.24   0.01085482    2.283    0.562
       102 -11.5391    249.8410     75.0341   1.4449638639e+01   1.4535694632e+01    0.3311876    0.2055714 -35.03 0.0004289834    1.265    0.209
       103 -11.4450    249.3288     68.3709   1.2942021321e+01   1.5624106477e+01    0.8280672     0.241939 -32.61  0.002980366    2.805    0.644
       104 -11.4015    209.9990     77.1518   2.0011143800e+01   2.2206389842e+01    0.2992871    0.1807731 -43.50 0.0002768107    1.422    0.297
       105 -13.0265    185.2825     56.8909   1.8033075590e+01   3.1224189688e+01     1.339656    0.9737202 -71.44  0.004964053    1.543    0.352
       106 -11.7222    248.0132     55.9486   1.0147590627e+01   1.7676789941e+01    0.6652096    0.4178317 -33.68  0.003639275    1.312    0.238
       107 -11.6230    233.2953     56.0008   1.1643078705e+01   2.0600624860e+01    0.8445461    0.4876955 -51.30  0.002636786    1.546    0.353
       108 -13.3324    203.8489     69.6280   1.8880134625e+01   2.4817997617e+01    0.9343939    0.6097887  76.25  0.004384151    1.932    0.482
       109 -13.7498    200.0705     62.3354   1.7409908521e+01   2.6869181408e+01     1.356128    0.9928824  25.03  0.006515441    1.928    0.481
       110 -10.8178    181.2554    117.4177   3.5637663955e+01   2.0878622965e+01    0.4186108    0.2363154 -38.46   0.00176481    1.602    0.376
       111 -12.5732    210.4144     59.5009   1.5229599884e+01   2.4978354942e+01     0.996796    0.4845297 -62.41  0.002186862    2.934    0.659
       112 -12.3618    242.0764     60.7498   1.1884361664e+01   1.8139680712e+01    0.6289947     0.332727 -44.57  0.002022201    1.514    0.339
       113 -12.8331    233.0993     47.9029   9.6499256154e+00   2.1805290603e+01    0.9790008    0.6776042  74.79  0.003369672    1.681    0.405
       114 -11.7495    161.7802     84.3445   3.0568809390e+01   3.1895795044e+01    0.7779447     0.514707  38.78  0.003346638    1.775    0.437
       115 -12.3383    168.5631     79.7369   2.7803570342e+01   3.1195237340e+01    0.6575692     0.430035 -44.53  0.001485355    1.404    0.288
       116 -13.0592      4.6392     54.9298   7.8091914512e+01   6.5612138368e+01     1.009223    0.5601133 -64.13  0.003329527    1.384    0.278
       117 -11.2692    249.3709     82.7728   1.6311041385e+01   1.3448169074e+01    0.3878604    0.3668833 -17.44  0.002588879    1.242    0.195
       118 -11.7500    165.8661     65.8952   2.4106845358e+01   3.4407759244e+01     1.265937    0.5581899  48.18  0.004603066    2.521    0.603
       119 -12.3133     83.3300     83.9755   5.2315717846e+01   4.9097131221e+01    0.3056722    0.2726167  36.81 0.0006919127    1.229    0.186
       120 -12.2168    114.4546     80.5568   4.1213626411e+01   4.3642841502e+01    0.5896195    0.5083783 -46.45  0.002890874    1.087    0.080
       121 -11.9027    222.1396     80.0919   1.9067903929e+01   1.9155312599e+01    0.3961147    0.2847458 -78.76  0.002004667    1.826    0.452
       122 -10.6202    232.9512     79.0305   1.7389693924e+01   1.7147116023e+01    0.3147082    0.2151942  72.17  0.001656818    1.896    0.472
       123 -10.7345    161.8462     77.4997   2.8489549518e+01   3.3221982714e+01    0.2756483    0.2062902 -41.95 0.0006133236    1.224    0.183
       124 -10.6777    156.1176     76.6720   2.9442544617e+01   3.4754238445e+01    0.4228516    0.3068197  73.17  0.001770969    1.683    0.406
       125 -12.1868     72.4935     73.4961   5.2934620345e+01   5.3565020255e+01      0.79572     0.629666  66.89  0.003588557    1.612    0.379
       126 -11.1335     68.4568     74.4883   5.4801811744e+01   5.3989129487e+01    0.3574943    0.2467718  37.60  0.001381085    1.604    0.376
       127 -12.4782    177.0508     70.6423   2.3492048565e+01   3.0858823909e+01     1.539734    0.4488316 -45.20  0.004516167    3.385    0.705
       128 -11.5564    161.2724     53.6337   2.1056913243e+01   3.7656954034e+01     1.070038    0.7222757 -33.00  0.004914279    1.415    0.293
       129 -10.9349    141.2390     61.0381   2.7636545770e+01   4.1350952431e+01     1.014922    0.3933777  44.69  0.003282635    3.023    0.669
       130  99.0000    141.9806     54.0129   2.5044373443e+01   4.2422502484e+01     1.405283    0.5844726  50.94  0.005010644    2.473    0.596
       131 -11.6451    135.1814     72.1032   3.2812539093e+01   4.0683765362e+01    0.6524714    0.4010349  52.22  0.002336037    1.730    0.422
       132 -13.9509    116.9670     62.7164   3.4355629087e+01   4.6871835263e+01     1.218549     1.053148  49.17  0.002192863    1.219    0.180
       133 -10.9373    132.2269     67.1860   3.1891749474e+01   4.2372233312e+01    0.7204731    0.4421475  13.84  0.002328901    3.490    0.713
       134 -12.0174    144.8569     67.8124   2.9092071632e+01   3.9193032977e+01    0.9447733    0.7062589   4.18  0.002594627    1.871    0.465
       135 -11.6237    154.2303     62.4202   2.5294993451e+01   3.7890994316e+01    0.8677014     0.477831 -47.45  0.003355518    1.787    0.440
       136  -9.2401    151.2412     72.6600   2.9239915410e+01   3.6709320663e+01    0.1621414    0.1154737 -59.90 0.0002834893    1.556    0.357
       137 -10.3797    203.7566    115.9460   3.1009230864e+01   1.6587019808e+01    0.3890215    0.2179859  65.15  0.001518322    2.976    0.664
       138 -12.0424    128.0471     58.2390   2.9803076456e+01   4.5097969152e+01    0.4911419    0.3292498  35.73  0.002110475    1.755    0.430
       139  -9.5992    108.9152     56.0419   3.4184625430e+01   5.0044919959e+01    0.5961543    0.2951537 -42.71  0.002289286    1.936    0.483
       140 -11.0543    100.4368     54.1658   3.6035261675e+01   5.2323955343e+01    0.7020158    0.5403381  51.18  0.002554357    1.386    0.279
       141 -10.9466    174.5601     55.3093   1.9268292712e+01   3.4086551728e+01    0.3985889    0.2128954 -51.16 0.0007279554    1.915    0.478
       142 -10.2867    170.1983     56.1615   2.0273218819e+01   3.5020385907e+01    0.2747526    0.2224041  80.94 0.0006814068    1.349    0.259
       143 -10.4602    245.4327     50.2507   9.0404236754e+00   1.8982405987e+01    0.2443909    0.1990608 -75.76 2.565056e-05    1.314    0.239
       144 -10.5074    249.4569     48.5798   8.2813996763e+00   1.8429405679e+01    0.4567592    0.1938697 -49.69  0.002099501    2.027    0.507
       145 -10.8847     89.7203    113.9640   5.8324617067e+01   4.0252473477e+01    0.2896293    0.2299274 -11.60  0.001331965    1.664    0.399
       146 -11.4067    198.0941     25.8155   7.3367974544e+00   3.2609227728e+01      0.35807    0.3212685  28.63  0.001412148    1.410    0.291
       147 -12.6392    210.5124     46.9874   1.1835377890e+01   2.6841186240e+01     1.078012     0.538312 -72.62   0.00406471    3.114    0.679
       148 -11.3437    138.7307    112.3681   4.3975509028e+01   3.1024043931e+01    0.3443528    0.2541881  10.12  0.001270554    1.907    0.476
       149  -9.0322    242.4924    112.4136   2.4063831754e+01   9.9921045751e+00    0.1368524    0.1097517 -30.19 8.515076e-05    1.016    0.015
       150 -11.5682    197.6792     50.1975   1.4318531119e+01   2.9324434626e+01    0.4372439    0.3775565 -59.84 0.0009501961    1.078    0.072
       151  -9.9363     95.7056    112.3561   5.6079709709e+01   3.9613453386e+01     0.164814    0.1231391  88.04 0.0004442565    1.692    0.409
       152 -11.4190     63.4955    111.0740   6.6190177957e+01   4.5134919294e+01    0.3634784    0.2179548  67.81  0.001444769    2.300    0.565
       153  -9.4583    174.1965    111.5403   3.5568263825e+01   2.3563629376e+01    0.2082838    0.1491452  31.33 0.0005327947    1.643    0.392
       154  -9.8120    234.9682    108.6912   2.4265719670e+01   1.1930993706e+01    0.1805238    0.1604273 -27.24  0.000303252    1.107    0.097
       155 -11.6923    195.9912    107.6297   3.0307570939e+01   1.9721469856e+01    0.8622059    0.4324157 -60.14  0.002723465    3.829    0.739
       156 -10.2592    217.6625    108.0514   2.6729858882e+01   1.5283673202e+01    0.2315029    0.2014496 -82.79 0.0006287087    1.479    0.324
       157 -12.2342    161.4391    106.0816   3.6856077048e+01   2.7480868280e+01    0.5983844    0.3345142 -59.55  0.002160073    2.427    0.588
       158 -11.0919    153.0088    108.0852   3.9330439100e+01   2.8901492889e+01    0.2463449    0.2265849 -47.75 0.0005223401    1.041    0.039
       159  -9.2517    134.3715     47.8187   2.4516736808e+01   4.5377712341e+01    0.2229496    0.1456214 -21.96 0.0009498048    1.705    0.414
       160 -10.7295     99.4777     47.5079   3.3669258196e+01   5.3797691429e+01     0.298959    0.2481218   3.35 0.0008999342    1.353    0.261
       161  -9.9671    138.5485     43.5361   2.2046895383e+01   4.5022659716e+01    0.3528968    0.2034499  66.74 0.0009209976    1.914    0.477
       162 -11.9541    144.3672     45.0187   2.1381621177e+01   4.3315554242e+01     0.520672    0.3615013  29.93  0.001146246    1.840    0.457
       163 -12.7278    148.9235     40.6014   1.8942982136e+01   4.2840602991e+01    0.7130777    0.3763026 -44.28  0.002560962    1.838    0.456
       164  -9.9006    127.8496     46.1700   2.5410447394e+01   4.7277031155e+01    0.2107831    0.1832026  10.07  0.000498619    1.299    0.230
       165 -11.0554    246.4796     41.6643   6.9132381888e+00   1.9952291662e+01    0.3716913    0.1932536 -53.08  0.001292908    1.686    0.407
       166 -10.7138    240.5416     40.6679   7.1860391805e+00   2.1274756979e+01    0.4959629    0.2914557 -25.64  0.002125895    1.704    0.413
       167 -10.9124    234.2766     37.0920   6.8646040236e+00   2.3042876988e+01    0.5695791    0.3546316 -76.50  0.002951001    1.787    0.440
       168 -11.9850    214.9826     41.9671   9.9890975631e+00   2.6551468813e+01    0.4295836    0.2761833  81.99  0.001186666    1.772    0.436
       169 -11.6007    228.2714     40.4455   8.2511944551e+00   2.3857588315e+01    0.5411818    0.3171716  55.37  0.002413479    2.067    0.516
       170 -12.4323    220.7961     38.0483   8.3621093164e+00   2.5802686636e+01    0.4909738     0.331432 -37.59 0.0003653985    1.256    0.204
       171 -10.5964    217.4885     35.0091   7.8935057703e+00   2.6944078385e+01    0.2275198     0.193729  76.59  0.000658702    1.307    0.235
       172  -9.5879    105.3869     43.2889   3.0161337700e+01   5.3191426034e+01     0.257888    0.1368008  53.84 0.0007358885    1.962    0.490
       173 -10.2919    155.9596     41.2621   1.7897284963e+01   4.0950597341e+01    0.2936345    0.1913031 -54.35  0.001319214    1.592    0.372
       174 -10.1106    100.1528     41.5356   3.0980096412e+01   5.4702625791e+01    0.3257259     0.246124 -19.40  0.001578834    1.389    0.280
       175 -12.2975    161.5910     38.1407   1.5897108799e+01   3.9978644915e+01    0.6522061    0.4825706 -17.56  0.003179835    1.510    0.338
       176 -10.9253    133.6675     39.9534   2.1763335437e+01   4.6814311305e+01     0.430874    0.2300099  63.30  0.001749296    1.980    0.495
       177 -10.0629    250.0252     37.2076   5.5807230944e+00   1.9846701029e+01    0.3233711    0.1407965 -41.65  0.001582357    1.691    0.408
       178 -10.1602    126.3589     42.6925   2.4443166409e+01   4.8216558643e+01    0.3925101    0.1839677  50.10  0.001499559    2.158    0.537
       179  -8.9175    113.2760     37.6177   2.5664761972e+01   5.2241731645e+01    0.1578577    0.1115359 -59.69  0.000443863    1.712    0.416
       180 -10.2554    134.2879     35.7095   2.0039546181e+01   4.7292922716e+01    0.2405453    0.1992339 -59.82 0.0001625795    1.259    0.206
       181 -10.1446    131.0661     32.9765   1.9669189836e+01   4.8504308794e+01    0.3808704    0.2260891 -50.76  0.001216056    1.841    0.457
       182 -10.3203    211.1123    105.1704   2.7074549826e+01   1.7085362536e+01    0.5401486    0.3127588  22.08  0.002061159    3.110    0.678
       183 -10.2309    123.2732     27.6805   1.9242032750e+01   5.1206831956e+01    0.4479675    0.1634009 -28.29 0.0009932306    2.736    0.634
       184  99.0000    111.1375     32.8003   2.4217843934e+01   5.3495762683e+01    0.7190737     0.445277  61.36  0.002552919    1.698    0.411
       185  -9.7836    104.2237     27.3490   2.3677824942e+01   5.5951140388e+01    0.1911326    0.1795507 -36.05 0.0003379767    1.089    0.082
       186 -11.3665    114.5083     27.9383   2.1339236413e+01   5.3361563064e+01    0.2559792    0.2190131  41.41 0.0004934504    1.174    0.148
       187 -10.8883    114.2495     23.5149   1.9531313890e+01   5.4012464976e+01    0.4165693    0.2726371  38.98  0.001798966    1.625    0.385
       188 -10.9891     92.3355     33.6499   2.9957195193e+01   5.7780485712e+01    0.3402802    0.2768637  17.44  0.001155362    1.314    0.239
       189 -10.4192     75.0671     33.6917   3.5975536287e+01   6.1464899183e+01    0.2958317    0.2228453  43.32 0.0008312129    1.382    0.276
       190 -10.8282    169.0210     32.3411   1.2861297137e+01   3.8906460847e+01    0.4889499    0.2627407  72.56  0.002096894    1.990    0.497
       191 -10.0162    162.7865     29.0650   1.2693182092e+01   4.0923451514e+01     0.268456    0.1721297 -53.81 0.0005299304    1.562    0.360
       192 -12.2706    202.6181     33.0301   8.8859205891e+00   3.0606981396e+01    0.6652747    0.5130866 -60.71  0.001465813    1.180    0.153
       193 -10.1215     80.6487     29.8484   3.2091819398e+01   6.0941758138e+01    0.2774861    0.2361577  27.53  0.001180078    1.166    0.142
       194 -11.6580     86.3001     28.3342   2.9442432174e+01   5.9950722413e+01    0.3612119    0.2643572  45.31 0.0006576705    1.366    0.268
       195  -9.9256     90.3214     27.0030   2.7526209472e+01   5.9248343453e+01    0.1899369     0.176513   2.07  0.001077696    1.020    0.019
       196 -10.0657    167.8699     26.3047   1.1067549643e+01   3.9988381499e+01    0.2565262      0.17595 -58.48  0.001256939    1.453    0.312
       197 -10.0411    144.6366     26.2439   1.4584668346e+01   4.5940232182e+01    0.4046677    0.2134631 -77.07  0.001436903    3.076    0.675
       198 -10.6964    148.4164     24.0778   1.3179951772e+01   4.5241421366e+01    0.2617236    0.2411521   0.86 0.0008985925    1.206    0.171
       199  -9.5425    239.6103     30.3345   4.7780574190e+00   2.2820196821e+01    0.4410241    0.2317813  68.33  0.002291434    2.169    0.539
       200 -10.8163     20.8440     24.9400   5.8798683053e+01   7.1434362591e+01    0.3939832    0.3143205  49.25  0.002366243    1.782    0.439
       201 -10.5524     20.1555     19.4739   5.6508950117e+01   7.2594500095e+01     0.344121    0.2284065   5.11  0.001964324    1.627    0.385
       202 -12.3037    140.7429     96.1762   3.8938441483e+01   3.4261420277e+01     1.726358    0.6138461 -54.07  0.004391701    4.367    0.771
       203 -11.2976    247.1990     22.5942   2.4017359404e+00   2.2249796622e+01    0.2117752    0.1952085 -61.10   0.00119103    1.236    0.191
       204 -11.6544    147.6397     83.0414   3.3317265775e+01   3.5490350539e+01    0.9078241    0.7626444  45.09  0.004383995    1.288    0.224
       205 -12.7970    176.3056     23.4691   9.0801638651e+00   3.8220033432e+01    0.3350461    0.3115146  11.34 0.0004918149    1.280    0.219
       206 -10.4039    135.8506     24.9433   1.5658084701e+01   4.8362438778e+01    0.2199153    0.2064705 -39.22  0.001239263    1.062    0.058
       207 -11.0445     99.5920     22.2102   2.2604891993e+01   5.7752689063e+01    0.4941509    0.2710211  65.50  0.001510911    2.054    0.513
       208  -9.8261    119.2427     21.8234   1.7713391235e+01   5.2976897502e+01    0.2123921    0.1853717 -60.24 0.0008558821    1.219    0.180
       209  -9.8757    124.0787     20.8625   1.6317967667e+01   5.1872516991e+01    0.2057292     0.182505 -61.75            0    1.176    0.150
       210  -9.9885    143.0536     79.3758   3.3253927413e+01   3.7328991332e+01    0.2502839    0.2087622 -24.96 0.0002524523    1.250    0.200
       211 -10.5709    130.1298     19.3502   1.4550718164e+01   5.0510815400e+01    0.2522661    0.2213327  58.97 0.0004351552    1.120    0.107
       212 -11.1254    234.3843     24.1542   3.6885667083e+00   2.4680163093e+01    0.3558618     0.251703  80.65  0.001570163    1.545    0.353
       213 -10.5879    154.7779     17.7116   9.9906537153e+00   4.4365426902e+01    0.3830147    0.2170622 -43.08 0.0009670461    1.686    0.407
       214  -9.0781    138.0250     18.3634   1.2784308667e+01   4.8599857052e+01     0.392601    0.1684247  44.52  0.000905827    2.689    0.628
       215  -9.2154    103.4403     19.4088   2.0324730694e+01   5.7182552584e+01    0.1388267    0.1342918  31.18 0.0002584027    1.020    0.019
       216  -9.9494    192.9417     16.7068   5.2524285503e+00   3.4942122740e+01    0.2366388     0.124158 -64.03  0.001055385    2.002    0.501
       217  -9.7131    121.8787     17.0878   1.5212554743e+01   5.2874064378e+01    0.2100566     0.179917 -60.09 0.0003898095    1.237    0.191
       218 -14.2711    131.6662     97.7938   4.1741922250e+01   3.5918239639e+01     1.726924     1.360552 -20.62  0.004190469    1.472    0.321
       219  -9.7563    151.0219     20.4808   1.1500151247e+01   4.5007867228e+01    0.2118043    0.1379288  70.92  0.001010199    1.526    0.345
       220 -12.6232    126.7258     90.4022   4.0862182205e+01   3.8699193887e+01     1.079661    0.7099774  -0.10  0.002578799    3.004    0.667
       221 -10.2829     11.0619     14.1880   5.9987430145e+01   7.4472110646e+01    0.1810353    0.1275301 -26.89 0.0002959769    1.192    0.161
       222 -10.3823    187.1453     13.0462   4.7457242445e+00   3.6760363637e+01     0.253939    0.1380956 -64.23 0.0007719931    1.896    0.473
       223  -9.4439    141.4436     13.0205   1.0243377598e+01   4.8311312193e+01    0.2059291    0.1382865 -22.79  0.001012184    1.555    0.357
       224 -13.7358    122.9764     85.3624   4.0328735007e+01   4.0673482041e+01     2.075081     1.032549 -31.74  0.007049288    2.485    0.598
       225 -11.3168    133.3964     83.2948   3.6890683651e+01   3.8761719375e+01    0.3850322     0.282596  77.95  0.001094457    1.834    0.455
       226 -11.9767    136.1351     80.8626   3.5422481585e+01   3.8645885674e+01    0.6188698    0.4721157 -79.18  0.001539857    1.701    0.412
       227 -11.5262    132.9720     77.4847   3.5138736647e+01   4.0097516251e+01    0.2826298    0.2630573 -43.71 0.0003202682    1.006    0.006
       228  -9.0391    212.3114     11.6669   2.2125199785e+00   3.0983729412e+01    0.1453476   0.07717297 -56.36 0.0007043924    1.677    0.404
       229 -10.1264    182.5203    103.5604   3.1774616079e+01   2.3372417187e+01    0.3398927    0.1402678 -38.77  0.001210138    2.165    0.538
       230 -10.9487    144.4034    103.4795   4.0123147993e+01   3.1816694842e+01    0.3606132     0.317883 -15.25 0.0008480665    1.236    0.191
       231 -10.8603    109.5277    104.0234   4.9721115136e+01   3.9096608751e+01    0.2578669     0.151702 -49.23 0.0007263877    1.581    0.368
       232 -12.2434     75.7157    103.3582   6.0297056573e+01   4.5386617757e+01    0.4792173    0.2803749 -79.81  0.001226848    2.435    0.589
       233 -12.0737    225.7683     98.3254   2.3110699071e+01   1.5387323305e+01    0.7718525     0.355858 -53.01  0.002935892    2.775    0.640
       234 -10.6669    165.0707    102.0471   3.4949823030e+01   2.7525048307e+01    0.2529736    0.2279221 -40.56 0.0008539615    1.015    0.015
       235 -11.6171     95.8593    100.1017   5.2829609466e+01   4.2732650898e+01    0.4984869    0.2191566 -51.86  0.001758671    2.099    0.524
       236 -10.9894    158.7778     99.0213   3.5489944803e+01   2.9571744661e+01    0.3976962    0.3135021 -53.72 0.0003253104    1.264    0.209
       237 -12.6190    156.4509     95.6479   3.5051355052e+01   3.0811462625e+01    0.9699302     0.611275  32.03  0.002320917    2.046    0.511
       238 -10.9998     33.9120    100.3468   7.4488912096e+01   5.1554745689e+01    0.2510831    0.1763033 -80.20 0.0004588174    1.301    0.232
       239 -10.0324    244.0494     98.8446   2.0716548032e+01   1.1896542214e+01    0.4050404    0.2024961 -17.68  0.001568243    2.979    0.664
       240 -12.4198    116.7272     93.0120   4.4448906508e+01   4.0275372038e+01    0.5011027    0.4298888   2.50 0.0009106393    1.400    0.286
       241 -11.5797     96.2055     90.9045   5.0085373732e+01   4.4972751664e+01    0.6353061    0.4427134  53.61  0.001322638    1.645    0.392
       242 -12.3765    106.8799     96.6609   4.8437014341e+01   4.1443780657e+01    0.5485173    0.3555917 -28.26  0.001853358    1.947    0.486
       243 -11.6196    102.3457     96.1106   4.9668075728e+01   4.2484663074e+01    0.3892314    0.3064563 -34.22  0.001159824    1.319    0.242
       244 -12.2776    107.8223     92.5355   4.6937647371e+01   4.2255134392e+01    0.5483071     0.314574  36.99  0.001656558    1.967    0.492
       245 -13.0824     85.9642     98.5569   5.5618830008e+01   4.4927620693e+01    0.7836061    0.4537887  28.89   0.00313512    2.105    0.525
       246 -10.2532     89.2983     93.9195   5.3224886917e+01   4.5517195789e+01    0.2298898    0.1878192 -48.90 0.0003340988    1.126    0.112
       247 -11.0744    169.8641     97.3565   3.2627932583e+01   2.7414996879e+01    0.5203971    0.3880331 -67.94  0.002346515    1.649    0.393
       248 -12.2457     12.7859     96.0541   8.1592462543e+01   5.4402619315e+01    0.6708639    0.3201958 -42.60   0.00251235    2.239    0.553
       249 -11.9611    184.8517     68.9036   2.1633266505e+01   2.9314098147e+01    0.6262574    0.4315845 -46.38  0.002394615    1.318    0.241
       250 -11.2359    199.5740     94.9418   2.6372326865e+01   2.1327606350e+01    0.7918894    0.2344638 -42.89  0.002503791    2.991    0.666
