#   1 NUMBER                 Running object number                                     
#   2 MAG_AUTO               Kron-like elliptical aperture magnitude                    [mag]
#   3 X_IMAGE                Object position along x                                    [pixel]
#   4 Y_IMAGE                Object position along y                                    [pixel]
#   5 X_WORLD                Barycenter position along world x axis                     [deg]
#   6 Y_WORLD                Barycenter position along world y axis                     [deg]
#   7 A_WORLD                Profile RMS along major axis (world units)                 [deg]
#   8 B_WORLD                Profile RMS along minor axis (world units)                 [deg]
#   9 THETA_WORLD            Position angle (CCW/world-x)                               [deg]
#  10 FWHM_WORLD             FWHM assuming a gaussian core                              [deg]
#  11 ELONGATION             A_IMAGE/B_IMAGE                                           
#  12 ELLIPTICITY            1 - B_IMAGE/A_IMAGE                                       
         1 -13.9717    197.8788     80.5604   5.3194613596e+01   2.4881974991e+01     7.101758     2.741553 -25.74   0.02006577    4.776    0.791
         2 -15.5651    220.1037     81.5624   5.0012778016e+01   1.9758268718e+01     9.460266     5.594708 -65.77   0.03965276    2.176    0.540
         3 -14.1369    234.0104     30.2327   3.6638449271e+01   2.4156251309e+01     2.317254     1.422742 -16.92   0.01179102    2.475    0.596
         4 -14.2147    244.9222     14.3142   3.2429513447e+01   2.3780516833e+01     1.677849     0.631772 -36.98  0.001646603    2.316    0.568
         5 -14.0826    246.5977     77.9349   4.5720283556e+01   1.4866217228e+01      1.85226    0.7631196 -40.26   0.00573552    2.017    0.504
         6 -12.8499    218.4784     34.5421   3.9117406984e+01   2.6993544953e+01     2.580418     1.399182 -42.73   0.01331167    1.667    0.400
         7 -13.2040    215.0683     25.2428   3.7311715459e+01   2.8902733279e+01     1.296432    0.8016025  55.08   0.00632115    1.787    0.440
         8 -15.6142    245.5600     55.9415   4.1070322305e+01   1.8329340944e+01     2.192072     1.458779 -36.65    0.0111779    1.415    0.293
         9 -10.2579    144.9952     30.4718   4.8223266537e+01   4.5021621335e+01    0.2543599    0.2073003 -28.72 0.0005493504    1.337    0.252
        10 -11.3707    135.0620     16.5531   4.5540111671e+01   4.8940133940e+01    0.6709176    0.3942411  13.84  0.003047278    2.542    0.607
        11  -9.6144    115.9873     12.5142   4.7814458575e+01   5.3834333583e+01    0.2964275    0.2273764  65.53  0.001147236    1.238    0.192
        12 -11.3705    120.3125      9.0496   4.5717507559e+01   5.3139044593e+01    0.4292037    0.3656087  56.42  0.001569864    1.028    0.028
        13  -9.1102    230.8579     10.8239   3.2747345343e+01   2.7094043669e+01    0.2137194    0.1753257 -47.23  0.001133889    1.242    0.195
        14  -9.9821    135.7185      9.9899   4.3282956931e+01   4.9402391854e+01    0.2826778    0.1952205  67.80 0.0006699965    1.292    0.226
        15 -10.3026    136.6807      4.6591   4.1405580411e+01   4.9633126415e+01    0.4470853    0.2344076 -12.03   0.00206262    2.465    0.594
        16  -9.5602    128.3706      9.5140   4.4388860854e+01   5.1198445507e+01    0.2346539    0.1572597 -26.92  0.001022857    1.671    0.401
        17  -8.5304    243.5611      4.4382   3.0548812723e+01   2.5142543670e+01    0.1524008    0.1173008 -51.49 9.736319e-05    1.199    0.166
        18 -10.6031    227.6899      2.6693   3.1263227091e+01   2.8631740777e+01    0.4152292    0.2622495  85.94  0.002564927    1.404    0.288
        19 -10.3676    234.1582      4.7505   3.1241993516e+01   2.7048676833e+01     0.305069    0.2524634   5.36  0.001609511    1.923    0.480
        20 -10.5739    239.7354      2.6359   3.0438226784e+01   2.6113791936e+01    0.2709052    0.2536544 -46.76  0.001167254    1.369    0.269
        21 -10.1378    206.5094      2.6563   3.2885061513e+01   3.3283254002e+01    0.2265144    0.1796299   0.98   0.00141573    1.858    0.462
        22  -9.1093    158.8680      3.0631   3.7832484252e+01   4.4432711506e+01    0.2028267    0.1827767  45.40  0.001329772    1.218    0.179
        23  -9.3774    221.6276      2.5318   3.1672966322e+01   2.9949690443e+01    0.2008504    0.1389308  -9.34  0.001164702    2.238    0.553
        24  -9.6584     79.6910     12.1678   5.6795223161e+01   6.1776636143e+01    0.2668939    0.1484255 -18.41  0.001385081    1.929    0.481
        25 -12.1676     66.7044    142.3402   1.0153282876e+02   3.8125656795e+01     1.509882     1.071751  46.41  0.006076299    1.491    0.329
        26  -9.8263    201.0411    173.8543   7.4543894599e+01   6.7575611351e+00     0.263878    0.1977783  27.34  0.001383281    1.348    0.258
        27 -12.9620      5.9371    166.6964   1.2078105823e+02   3.8432008199e+01    0.9194817       0.6043 -80.58  0.004498578    1.225    0.183
        28  -9.8013    214.3012    169.0161   7.0947142979e+01   5.2715218073e+00    0.4243464    0.2523977  49.25  0.001422337    2.014    0.503
        29 -10.8532    242.8962    165.5154   6.5111984694e+01   1.0428810845e+00    0.4004841    0.2159181 -45.28  0.001927527    1.907    0.476
        30 -11.5179     23.8572    162.6073   1.1603400923e+02   3.7906163856e+01     0.623876    0.2708707 -80.09  0.002790062    2.162    0.538
        31  -8.5908    205.2090    242.7544   8.6312751069e+01  -5.2861470862e+00    0.1643785    0.1176327   6.04 0.0003949428    1.279    0.218
        32  -8.2808    136.2449    242.2378   9.9947103800e+01   5.1991977825e+00    0.2162084   0.08037966  44.73 0.0008971659    2.449    0.592
        33 -12.1301     51.9293    147.0175   1.0653105184e+02   3.8833361496e+01    0.7521967    0.4969692 -81.30   0.00195447    1.530    0.346
        34 -12.1068     37.6793    152.9735   1.1131020014e+02   3.8927344692e+01    0.4878004    0.4236834  20.01  0.001298248    1.400    0.286
        35 -12.5816     45.0837    149.4882   1.0881092207e+02   3.9001412749e+01    0.8807974    0.6593817 -79.60  0.002596663    1.221    0.181
        36 -10.1052    204.6185    153.3505   6.9447856585e+01   9.9479414532e+00    0.4438456    0.3161277 -62.03  0.001713458    1.898    0.473
        37 -11.1864     18.0870    153.3316   1.1654549633e+02   4.0668748350e+01    0.3492526    0.2147804 -87.03  0.001912356    1.457    0.313
        38  -8.9755    154.3475    152.0698   8.0052938418e+01   2.0232189392e+01    0.2162933    0.1930522 -46.11 0.0004281317    1.121    0.108
        39 -10.5508    133.5753    144.7776   8.3544995247e+01   2.6057310866e+01     1.273241     0.342295 -54.17  0.003095916    5.124    0.805
        40 -14.2989    174.7543     79.6887   5.7094945446e+01   3.0448689865e+01     3.456362      1.57308  55.39  0.001110059    2.226    0.551
        41  -7.9761    217.6059    148.2521   6.5871601370e+01   8.4418200574e+00    0.1341247    0.1129469 -87.58 0.0004996592    1.686    0.407
        42  -9.6597    145.7710    147.7572   8.1157401353e+01   2.2927100190e+01     0.374227    0.2445521  77.48  0.001355809    2.858    0.650
        43  -9.1228    222.7572    145.2754   6.4290505629e+01   8.0239207347e+00    0.1936755     0.180226 -43.06 0.0004861036    1.155    0.134
        44 -10.8390    179.6017    143.3165   7.2311471459e+01   1.6917651087e+01    0.4507219    0.3115674 -58.92  0.001696875    1.738    0.425
        45  -9.9415    196.8053    143.2453   6.8721304359e+01   1.3424432699e+01    0.3981668    0.2579182  64.95  0.001366911    2.279    0.561
        46  -8.9619    192.1809    144.0423   6.9837641013e+01   1.4199433978e+01    0.2300688    0.2073736  64.22 0.0004814035    1.292    0.226
        47  -9.8277    159.8535    142.9393   7.6666959368e+01   2.1098974202e+01    0.3773674    0.3045112  84.75  0.001520514    1.653    0.395
        48 -10.4961    146.5080    142.6249   7.9799661566e+01   2.3930654361e+01     0.433817    0.2635313 -67.68  0.001279915    2.511    0.602
        49  -9.3713    201.2534    140.5718   6.7231668972e+01   1.3051054783e+01    0.2033714    0.1395377  32.36 0.0009526559    1.623    0.384
        50  -9.9520    211.0233    136.4649   6.4439309491e+01   1.1887541481e+01    0.3636539    0.2372906 -10.11  0.001296763    2.186    0.543
        51 -10.1917    155.3537    137.9129   7.6546000203e+01   2.3136802154e+01    0.3318459    0.2840384  85.24  0.000912622    1.429    0.300
        52 -10.5555    160.5031    128.4588   7.3035785692e+01   2.4088874813e+01    0.4492812    0.3016082 -48.02  0.001570804    1.484    0.326
        53  -9.1618    206.8625    133.8784   6.4619152656e+01   1.3203248774e+01    0.1938083    0.1735639 -76.74 0.0004323975    1.334    0.250
        54 -10.6928    140.3862    132.1826   7.8848611217e+01   2.7554397602e+01    0.4431193    0.3286488 -75.55 0.0009108803    1.807    0.446
        55 -10.4828    136.0108    128.1967   7.8991638511e+01   2.9371069195e+01     0.665598     0.221445 -48.17  0.002041547    3.006    0.667
        56  -8.9482    204.6843    225.7323   8.3610043119e+01  -2.7005453746e+00    0.2138569    0.1813458  69.26 0.0006684815    1.986    0.497
        57  -9.8315    192.2946    126.0186   6.5576981898e+01   1.7733517578e+01     0.352861      0.21443  66.55 0.0008344543    2.437    0.590
        58  -8.2520    218.3865    123.2322   6.0089196690e+01   1.2865241156e+01    0.1395607    0.1075788  14.59 0.0006903704    1.633    0.388
        59 -10.1834    171.7648    125.3727   6.9718664125e+01   2.2292273675e+01     0.415026    0.3190532 -26.97  0.001965767    1.375    0.273
        60  -9.7059    142.4969    122.3042   7.5855622641e+01   2.9320489148e+01    0.3410559    0.2537984 -81.40   0.00086627    1.910    0.477
        61  -9.4455    135.1078    119.7072   7.7083849423e+01   3.1477148545e+01    0.2866507    0.2074582 -54.02 0.0008183262    1.431    0.301
        62 -11.0571    135.3520    110.8994   7.4705319002e+01   3.3374180329e+01    0.8829616    0.4058041 -39.29  0.003161298    2.248    0.555
        63 -11.5632    135.0288    100.3945   7.1907033411e+01   3.5698195419e+01    0.7787684    0.4602409 -51.12  0.002351038    1.797    0.444
        64  -8.5516    228.9826    221.0187   7.8221828037e+01  -5.5443870030e+00    0.1681779     0.157129  58.90   0.00111909    1.739    0.425
        65 -10.2744    168.6712    115.8921   6.8012410252e+01   2.4929371967e+01    0.3519882    0.3073997 -33.08  0.001570669    1.128    0.114
        66 -10.5898    164.2306    116.1100   6.9061281715e+01   2.5875509352e+01    0.4184851    0.2693685 -57.03  0.001749213    1.796    0.443
        67  -8.5515     94.3602    127.9712   9.0493933090e+01   3.7442060039e+01    0.2109476    0.1867421 -47.61 0.0006589533    1.085    0.079
        68 -10.5004    120.8241    111.9298   7.8888644594e+01   3.6216673672e+01    0.4098091    0.2844096 -74.39  0.001674028    2.093    0.522
        69 -12.6008    122.5084    101.7567   7.5642853119e+01   3.8119607782e+01      1.47251    0.8859151 -68.06  0.005275964    2.782    0.641
        70 -12.2345    117.2158     93.3110   7.4707774283e+01   4.1044379405e+01      1.03551    0.6816504  28.73  0.004471349    1.770    0.435
        71  -8.4897     79.8461    106.8509   8.9882255182e+01   4.4959964695e+01    0.1896247    0.1722507  78.11 0.0002927858    1.265    0.209
        72 -14.3133    226.7182     70.6237   4.6539461015e+01   2.0075754261e+01     1.744083     1.052006 -55.05  0.005545571    1.613    0.380
        73  -9.4302    141.9177    106.1959   7.1753535960e+01   3.2944817286e+01    0.2475608    0.2185892 -83.41 0.0009201766    1.304    0.233
        74 -10.3198    224.0830    218.9924   7.8762462398e+01  -4.5472804837e+00    0.2129998    0.1775873  -3.06  0.001397338    1.066    0.062
        75  -9.9161    148.8705    103.5992   6.9331563110e+01   3.1927849244e+01    0.3431616    0.2901683  19.04 0.0006318531    1.340    0.254
        76  -8.9122    206.6072    102.5182   5.7201692758e+01   1.9082757570e+01    0.2817737    0.1606511 -43.09 0.0006177979    1.615    0.381
        77  -8.5315    157.7197    103.3468   6.7178499081e+01   2.9965163672e+01    0.2385043    0.1818718 -74.44 0.0004022728    1.690    0.408
        78 -10.9069    159.6460     99.1455   6.5598936659e+01   3.0364176390e+01    0.6080061     0.436687  22.74  0.002225749    1.814    0.449
        79  -8.4957    109.3914    110.8148   8.1842812988e+01   3.8763306294e+01    0.2151371    0.1404075 -37.00 0.0003694362    1.589    0.371
        80 -11.7124    174.5262     92.7115   6.0673510611e+01   2.8144457731e+01    0.9357424    0.6587642  37.11  0.004313387    1.612    0.380
        81 -12.7299    242.0260     65.2379   4.3472528405e+01   1.7698322954e+01    0.5008824    0.3855852 -53.47 0.0008394608    1.107    0.097
        82 -10.3562    142.5536     94.4706   6.8327530231e+01   3.5226730234e+01    0.3677509    0.3303964 -71.77 0.0006675041    1.222    0.182
        83  -8.9333    192.0629    219.3619   8.5002612499e+01   2.5960291462e-01    0.1828499    0.1457314  26.92 0.0003792792    1.141    0.124
        84 -11.3792    157.6291     90.6029   6.3689254917e+01   3.2498482910e+01    0.3624715    0.2805777 -33.83 0.0007481711    1.309    0.236
        85  -8.7352    193.6504    215.1216   8.3946483830e+01   7.0801891378e-01    0.2045401    0.1633396  33.52 0.0005619728    1.231    0.187
        86 -10.2225     97.0144     87.9145   7.9139312035e+01   4.6244255289e+01    0.2253385    0.2049517 -34.91            0    1.059    0.056
        87 -13.0815    234.7403     51.1885   4.1169689692e+01   2.1231543452e+01    0.6310093    0.2827207 -43.92  0.001101345    1.901    0.474
        88 -10.9583    127.0049     76.2518   6.6870005147e+01   4.2304317407e+01    0.3645475    0.2841854 -10.95  0.001270925    1.517    0.341
        89 -10.4038    248.5778    158.2059   6.2679111734e+01   1.3339071184e+00      0.40667    0.2942937  73.68  0.002048129    2.642    0.622
        90 -10.3141    125.2867     69.7995   6.5290978239e+01   4.3871528876e+01    0.3477886      0.24832 -52.36 0.0009015761    1.575    0.365
        91  -9.5435    158.6864    157.2508   8.0175426801e+01   1.8230243396e+01      0.46824    0.3014632 -76.42  0.001712661    2.942    0.660
        92  -9.8067    144.5076     64.4861   5.8964648700e+01   4.0297633140e+01    0.2729822    0.1949126 -25.36  0.001292557    1.543    0.352
        93 -10.9203    144.4572     59.4826   5.7433365596e+01   4.1122000315e+01    0.3929486    0.3185267 -64.97  0.000684529    1.406    0.289
        94 -10.1998    139.7696     57.5731   5.7877852492e+01   4.2546512416e+01    0.2825305    0.2385898 -65.73 0.0008812765    1.337    0.252
        95 -11.8138    134.4807     61.0488   6.0203760229e+01   4.3242716298e+01    0.6426481    0.3920719 -18.26  0.002701008    2.150    0.535
        96  -9.5381    125.3907     59.7406   6.2012928499e+01   4.5572613007e+01    0.2758785    0.1362251 -39.85 0.0008692165    2.072    0.517
        97  -8.2760     72.5824     58.4757   7.7799265235e+01   5.6493709187e+01    0.1390722    0.1236984 -11.44 7.213251e-05    1.014    0.013
        98 -10.2701    178.2794     51.5793   4.8719926289e+01   3.4099730917e+01     0.585099    0.3187144  49.05  0.002459241    1.918    0.479
        99  -9.5543    206.2755     48.4729   4.3871707122e+01   2.7903671359e+01    0.3064792    0.2798467 -49.14  0.001113916    1.128    0.113
       100  -8.7703    209.4846     44.9284   4.2602073547e+01   2.7656379668e+01    0.1977232    0.1236437 -38.11  0.001014319    1.538    0.350
       101  -9.9291    103.1182     44.3094   6.2666374109e+01   5.2941299419e+01    0.2644928    0.1996013 -36.69 0.0006439011    1.402    0.287
       102  -9.5068    167.4212     27.5400   4.3661721093e+01   3.9885502616e+01    0.2709628    0.1868131  39.26  0.001087655    1.680    0.405
       103 -10.5757    163.1209     39.4759   4.7782623414e+01   3.9465260395e+01    0.6575812    0.2616977 -32.38  0.002594573    2.581    0.613
       104  -9.7479    166.5055     35.9800   4.6217013075e+01   3.9085858159e+01    0.2677455    0.2107681  20.39  0.001431921    1.623    0.384
       105 -10.0663    164.1770     32.0763   4.5457821961e+01   4.0139399216e+01    0.3459529    0.2532149 -66.02  0.001127216    1.486    0.327
       106  -9.1829      7.3344     42.9888   1.0051542527e+02   6.6978613650e+01    0.2148188   0.02882475 -43.32 0.0007050634    4.344    0.770
       107 -11.0895    109.7806     39.8163   5.9202920042e+01   5.2120758849e+01     0.412873    0.2897703 -14.31  0.002101302    1.606    0.377
       108 -10.7931    123.1895     38.3946   5.5364053338e+01   4.9249281106e+01    0.4223661    0.1764987 -38.71  0.001684748    2.528    0.604
       109  -9.1162    204.8253     36.1959   4.1028998401e+01   2.9884311837e+01    0.3194479    0.2042094 -21.69  0.001617571    1.957    0.489
       110 -10.9324    191.9719    153.4772   7.2011713475e+01   1.2376401786e+01    0.6549044    0.3461052 -46.64  0.002728369    1.915    0.478
       111  -8.8066    247.7708    211.3814   7.3160161875e+01  -6.7578407467e+00    0.1692607    0.1001998  20.74 0.0009223144    1.668    0.400
       112  -8.3774    194.1882    210.1951   8.2963027762e+01   1.4485910688e+00    0.1634871    0.1551376  36.56 0.0002742698    1.286    0.222
       113 -10.0679    161.2141    204.7359   8.8912892994e+01   7.9838029320e+00    0.2435745    0.2241205 -21.42  0.000405338    1.125    0.111
       114 -11.4082    133.5964     27.2110   4.9334560170e+01   4.8157192158e+01    0.5319834    0.3197384 -22.57  0.002543706    1.888    0.470
       115 -10.4276    134.1831     22.5730   4.7684902835e+01   4.8530180212e+01    0.3604091    0.2038125 -35.07   0.00171706    1.897    0.473
       116 -10.7740    125.5777     30.2916   5.2036908129e+01   4.9706717337e+01    0.3473485    0.2066312  37.57 0.0004452926    1.765    0.433
       117  -9.5744    158.1680     35.8017   4.7534748455e+01   4.1150264658e+01    0.3059943    0.2068242 -78.88 0.0003568076    1.820    0.451
       118  -9.3529    159.8212     27.2561   4.4732843792e+01   4.1775505863e+01    0.2210795    0.1745848 -49.21 0.0004528475    1.322    0.244
       119  -8.7247    188.1955     26.9825   4.0709190058e+01   3.4930250896e+01    0.2007918    0.1518364 -60.51 0.0004782609    1.280    0.219
       120  -9.8526     92.2794     25.3347   5.8544086386e+01   5.7760708294e+01    0.2948563    0.2038923 -19.71 0.0008831411    1.521    0.342
       121 -10.0870    179.2770     24.2394   4.1111607970e+01   3.7387061019e+01    0.4141972     0.325449  81.47  0.002423044    1.166    0.142
       122 -11.1955    129.0994     19.6020   4.7664491275e+01   5.0058737415e+01    0.4102829    0.3204508  44.47  0.001261083    1.197    0.165
       123  -8.3249    173.0265    205.6846   8.6537337107e+01   5.7771826706e+00    0.3133336    0.1794848  64.45  0.001054719    4.428    0.774
       124  -8.3234    169.2112    202.4143   8.6769776717e+01   7.0423141495e+00     0.197539    0.1226553  47.40 0.0006050029    1.714    0.417
       125 -10.5162    192.7414    194.4713   8.0341339198e+01   4.4408368878e+00    0.9984673    0.4992698 -61.48  0.002844127    6.298    0.841
       126  -8.4212    244.6718    193.6985   7.0392724310e+01  -3.7172084528e+00    0.1318672   0.08548227  -2.86 0.0004621311    1.644    0.392
       127  -8.9280     45.8764    192.0370   1.1375945789e+02   2.8582208709e+01    0.1841886    0.1603082  86.74 0.0002856715    1.058    0.055
       128 -11.2215    210.6155    186.8494   7.5287142342e+01   2.7481897198e+00    0.5744981    0.4612952  42.01  0.003277554    1.402    0.287
       129  -8.7060    183.5226    190.0691   8.1411137724e+01   6.8605827049e+00    0.2032606    0.1754812  21.06  0.001147253    1.091    0.084
       130  -8.6575    235.7868    187.4157   7.0728272980e+01  -1.4068300043e+00    0.1702829    0.1143075  20.78 0.0004104747    1.536    0.349
       131 -10.2455    220.2417    184.4095   7.2966888362e+01   1.5647962600e+00    0.2459101    0.2288636 -15.14 0.0007278356    1.180    0.152
       132 -10.2427    216.7666    182.0103   7.3142193129e+01   2.5538689789e+00    0.1990661    0.1910678 -46.29 0.0008063302    1.321    0.243
       133 -12.0035    226.9444    174.8769   6.9809796812e+01   2.0792149223e+00    0.8556066    0.5859472   9.43   0.00444989    1.679    0.404
       134 -11.1393    236.1438    174.5504   6.8105809429e+01   6.3305397732e-01    0.4600474    0.3587076  65.49  0.001875475    2.091    0.522
       135 -10.8196    231.0239    167.9426   6.7655861328e+01   2.5819372195e+00    0.5110889    0.2493854 -46.50   0.00223709    2.214    0.548
       136  -8.3723     47.4788    176.5019   1.1167667107e+02   3.2070956984e+01    0.1330588    0.1162889 -88.15 0.0002066793    1.033    0.032
