#   1 NUMBER                 Running object number                                     
#   2 MAG_AUTO               Kron-like elliptical aperture magnitude                    [mag]
#   3 X_IMAGE                Object position along x                                    [pixel]
#   4 Y_IMAGE                Object position along y                                    [pixel]
#   5 X_WORLD                Barycenter position along world x axis                     [deg]
#   6 Y_WORLD                Barycenter position along world y axis                     [deg]
#   7 A_WORLD                Profile RMS along major axis (world units)                 [deg]
#   8 B_WORLD                Profile RMS along minor axis (world units)                 [deg]
#   9 THETA_WORLD            Position angle (CCW/world-x)                               [deg]
#  10 FWHM_WORLD             FWHM assuming a gaussian core                              [deg]
#  11 ELONGATION             A_IMAGE/B_IMAGE                                           
#  12 ELLIPTICITY            1 - B_IMAGE/A_IMAGE                                       
         1 -14.7906     68.7138    144.2715   1.0307743703e+02   3.7431549243e+01     5.370952     1.998408  57.66   0.00779918    4.629    0.784
         2 -14.3716    200.0382     39.2233   4.5494032415e+01   2.9621270383e+01     1.660587     1.320465   6.22  0.004792497    1.587    0.370
         3 -14.5093    211.0994     28.0145   4.1320833528e+01   2.8360493777e+01     1.544511     1.060594   4.41  0.002942459    2.052    0.513
         4 -13.3090      3.0123     10.5299   1.0128267776e+02   7.6405555722e+01     1.705026    0.4164312 -58.43  0.006830558    3.069    0.674
         5 -13.1569    236.0636      3.8993   3.3493265577e+01   2.5337953394e+01     0.771081    0.4566491  82.26  0.004447969    1.754    0.430
         6  -9.5156    189.6892     15.0004   3.9695462609e+01   3.4928203312e+01    0.1945171    0.1655905 -42.67  0.000671348    1.122    0.108
         7 -11.8308    139.3535    249.1762   9.9797894703e+01   7.8315791258e+00    0.3315957     0.226046  27.45  0.002329381    1.166    0.142
         8 -13.0548     70.8359    172.4163   1.0616383840e+02   3.0741439226e+01    0.9801527     0.500385 -34.30  0.003587352    4.314    0.768
         9 -14.6406     84.9216    222.0576   1.0793892115e+02   1.9164200359e+01     4.522096     0.646946  39.19  0.004332013    3.937    0.746
        10 -13.0645     27.9897    215.2749   1.1952664693e+02   2.7023197374e+01    0.6992689     0.302684  73.84  0.001650403    2.354    0.575
        11 -14.2622     43.4634    200.7984   1.1532740585e+02   2.8184488282e+01     1.577145     0.727505  80.49  0.007665476    2.539    0.606
        12 -14.0216     53.9858    189.6641   1.1204271387e+02   2.9229104012e+01     3.374342      1.94168  65.74   0.01838283    1.710    0.415
        13 -16.0089      2.8022    197.7395   1.2422137062e+02   3.2732987321e+01     9.215257     0.916307 -76.41   0.02736197    6.935    0.856
        14 -11.8843    193.4458    195.7986   8.2435644842e+01   7.4273976963e+00      0.97204    0.6159328 -65.05  0.004004128    4.960    0.798
        15 -12.2024    203.3546    199.2066   8.1213217708e+01   5.5129175175e+00    0.4665529     0.253714  29.84  0.002649517    1.606    0.377
        16 -10.4074    113.0958    206.2214   1.0023821450e+02   1.8029100711e+01    0.2086781    0.1763033  59.27 0.0006906692    1.221    0.181
        17 -11.6632    109.3059    201.7976   1.0053190026e+02   1.9369111658e+01    0.3194577    0.2712278 -15.00  0.001009067    1.498    0.332
        18 -10.7579     62.7607    201.0567   1.1096176524e+02   2.5865656679e+01    0.2199873    0.1606062  55.14 0.0003857142    1.139    0.122
        19 -11.1255     64.8189    196.2070   1.1006449746e+02   2.6567425834e+01    0.3914997    0.3108391  -3.88  0.002382058    1.837    0.456
        20 -14.3730     57.4557    240.5423   1.1490216897e+02   1.9383736950e+01    0.7354922    0.3932092  50.10   0.00472218    1.418    0.295
        21  -9.4744     31.7820    203.0407   1.1808178707e+02   2.8990601608e+01    0.1821875    0.1186588  58.94  0.001170691    1.228    0.186
        22  -9.2274    134.2118    196.4283   9.4375134930e+01   1.6530645434e+01    0.1805271    0.1031809  44.36 0.0003084751    1.573    0.364
        23 -13.9833     25.3420    226.2594   1.2055651635e+02   2.5274884067e+01     1.285323    0.3446551  46.53  0.006104439    2.360    0.576
        24  -9.9454    127.7972    193.6304   9.5373662462e+01   1.8019392837e+01    0.2562659    0.1553635 -83.09  0.001089144    3.490    0.713
        25  -9.3086     24.4459    193.9312   1.1924073226e+02   3.1555371444e+01    0.1556494    0.1012579  87.92 0.0005022059    1.453    0.312
        26  -9.4439     91.7568    183.6277   1.0233322136e+02   2.5423237669e+01    0.1894298    0.1499207  26.89 0.0007183646    1.302    0.232
        27  -9.0696     70.5030    184.5784   1.0758484083e+02   2.8201308441e+01    0.1305526    0.1068927  53.67  5.13138e-05    1.028    0.027
        28 -14.9174     10.4642    206.4505   1.2286439755e+02   3.0367469666e+01    0.8092457    0.6196094  22.35  0.005449536    1.568    0.362
        29 -11.0009    150.4382    178.5398   8.8099760302e+01   1.6987928169e+01    0.4075614    0.2476014 -69.54  0.001746438    3.210    0.688
        30 -10.3387     99.4405    180.8670   1.0013047292e+02   2.4830028229e+01    0.2480167    0.1912736  41.84 0.0005268314    1.126    0.112
        31 -10.9920    144.3883    178.9258   8.9476447616e+01   1.7935921469e+01    0.3130428    0.2408351 -38.54  0.001362434    1.452    0.311
        32 -10.8379     42.8403    179.8956   1.1394712702e+02   3.2582828356e+01    0.2229855    0.1639599  37.29 0.0003401338    1.281    0.220
        33 -10.5978     45.9773    176.7084   1.1290361599e+02   3.2918448466e+01    0.4059238    0.2420309 -60.33   0.00222497    1.854    0.461
        34 -10.3449    187.9467    173.2218   7.9549794723e+01   1.1554065018e+01    0.2835177    0.2074173 -63.99  0.001490044    2.346    0.574
        35 -12.9628     54.6010    146.6826   1.0747580184e+02   3.8740808305e+01     4.754244     0.922134 -66.30   0.01432732    4.643    0.785
        36 -13.0793     81.8018    161.1594   1.0187719592e+02   3.1658728439e+01      1.32264    0.4784986  52.99 0.0004257305    3.534    0.717
        37 -13.7954     70.0825    156.2773   1.0436326438e+02   3.4446317836e+01    0.6176194    0.5400341   3.85  0.002231186    1.438    0.304
        38 -10.2032     59.6072    220.4092   1.1315388841e+02   2.2605963954e+01    0.3330729    0.1602163  27.45   0.00175201    2.080    0.519
        39  -9.4259     35.7292    167.0195   1.1472420079e+02   3.6193306949e+01    0.1686155      0.13981  67.97 0.0003038885    1.019    0.018
        40 -16.2347     36.2094    249.2015   1.1941548259e+02   2.0276645354e+01     10.82397     2.862068  24.11   0.02497225   14.231    0.930
        41 -10.6832     32.1410    156.7988   1.1484494200e+02   3.8900884229e+01    0.2427147     0.200821  34.01  0.000994458    1.283    0.220
        42  -9.9767     36.0067    158.7113   1.1395534911e+02   3.8058423785e+01    0.2489557    0.1446042  50.71 0.0008368314    1.514    0.339
        43 -10.1365    156.1969    157.9548   8.3146418490e+01   1.9629350373e+01    0.3397915    0.2295151 -69.38  0.001189444    2.436    0.590
        44 -12.2666     88.6095    154.2175   9.9040659773e+01   3.2169290524e+01    0.5876845    0.4524611 -16.63   0.00301213    1.854    0.461
        45  -9.8684    187.2644    151.5898   7.5511036716e+01   1.5060263301e+01    0.1892922    0.1181637  31.31 0.0009077054    1.594    0.373
        46 -11.2935    133.7217    144.6582   8.5697448967e+01   2.6354863421e+01     1.078935    0.2805336 -53.60  0.002821509    5.709    0.825
        47 -10.4373    174.4971    148.8990   7.7482614933e+01   1.7847855017e+01    0.2681934    0.2504324  87.24  0.001134373    1.366    0.268
        48 -10.8414     38.9919    146.3156   1.1194531841e+02   4.0651859662e+01    0.3150201    0.2325717  60.70 0.0009258271    1.221    0.181
        49 -10.1638     83.7464    143.0770   9.8596537505e+01   3.5470288730e+01    0.2295065    0.1884367  45.60 0.0003993381    1.143    0.125
        50 -10.8426    102.5520    139.5126   9.2728940954e+01   3.3160188824e+01    0.5216782    0.3503399 -19.69  0.002217853    2.454    0.592
        51 -12.3632     89.8122    139.4208   9.6254665975e+01   3.5343104922e+01    0.2695577    0.2580528 -45.77 0.0003361702    1.160    0.138
        52 -12.2220     43.4737    129.9098   1.0869948178e+02   4.4144420075e+01     0.567811    0.3223833  65.60  0.002648212    1.917    0.478
        53 -10.3748    111.6766    130.1398   8.8366505023e+01   3.3598767993e+01    0.3104589    0.2575422   4.36 0.0009051443    1.500    0.333
        54 -10.7770    135.5962    128.3538   8.1769212608e+01   2.9317389113e+01    0.4509006    0.1447671 -48.41  0.001445543    3.326    0.699
        55 -10.0633    160.9649    127.4815   7.5680990236e+01   2.4324837895e+01    0.2814068    0.2056604 -56.89  0.001183941    1.624    0.384
        56 -10.9931     98.9051    126.1203   9.1097422272e+01   3.6853838685e+01    0.3095914    0.2595959  -6.12  0.001579095    1.523    0.344
        57 -10.3156    117.3358    124.3439   8.5575560945e+01   3.3793780873e+01    0.2556123    0.1841322 -27.38 0.0008355912    1.755    0.430
        58 -10.9291    120.3189    122.3390   8.4322705095e+01   3.3644061703e+01    0.4669958    0.2399896 -30.31  0.001589902    3.240    0.691
        59  -9.5362     92.8466    125.2429   9.2680313902e+01   3.8128996866e+01    0.2223973    0.1852985  68.39 0.0006966766    1.243    0.195
        60 -10.5311    105.9767    130.8057   9.0069558237e+01   3.4505144647e+01    0.3439872    0.3064894  88.29  0.001342366    1.186    0.157
        61  -9.7156    135.0000    119.9742   7.9980289918e+01   3.1165006650e+01    0.2431868   0.08576062 -45.51 0.0007981524    2.913    0.657
        62  -9.9415    107.9661    119.0198   8.6961235515e+01   3.6791705353e+01    0.2132873    0.2062263  51.39  0.001176552    1.027    0.026
        63 -11.1118     45.2217    118.0632   1.0648033951e+02   4.6893997648e+01    0.2568826     0.176508  84.58 0.0006723265    1.506    0.336
        64 -11.5937     34.4857    118.6023   1.1015574144e+02   4.7930567053e+01    0.3636456    0.2476084  -9.37  0.001810107    2.142    0.533
        65  -9.9923    135.0000    112.5266   7.8168135998e+01   3.2701795786e+01    0.4906681   0.08639729 -44.59  0.001141705    5.790    0.827
        66 -11.1859    137.5202    169.8074   8.9475679249e+01   2.0763784312e+01      0.46758    0.3000411  29.13  0.002048968    1.541    0.351
        67 -10.0131    230.4983    166.9962   7.0975023231e+01   5.6766871264e+00    0.1587952   0.09689219 -49.54 0.0008106784    2.599    0.615
        68 -12.6402     21.0953    109.0549   1.1359224366e+02   5.1565306499e+01    0.7468217    0.4223348   1.96  0.003509362    2.529    0.605
        69  -9.7627    134.5312    105.5154   7.6499010768e+01   3.4244689331e+01    0.3196846    0.1501516 -44.12  0.001206117    2.157    0.536
        70 -11.6775     45.5899    105.6605   1.0434782550e+02   4.9975620997e+01    0.4116483    0.2227224  43.41  0.001612631    1.854    0.461
        71  -8.8334    140.9936    107.7794   7.5486718877e+01   3.2376518170e+01     0.193421    0.1224095  46.53 0.0003334178    1.560    0.359
        72 -10.9504     40.4866    103.4870   1.0582235689e+02   5.1111293770e+01    0.2807209    0.2257536  69.85  0.001065445    1.244    0.196
        73 -10.3974    244.3286    102.6686   5.5771252727e+01   1.1938991931e+01    0.1263479   0.08870244 -53.91  0.000684809    1.715    0.417
        74 -10.5135     34.1532    100.6225   1.0769009831e+02   5.2509370480e+01    0.2341218      0.17294 -87.02 0.0006687838    1.300    0.231
        75 -10.2021    205.4881    110.2637   6.3120090551e+01   1.8164376821e+01    0.2783413    0.2102634  37.61 0.0009171905    1.391    0.281
        76  -9.1051    128.4920     95.9572   7.5481843367e+01   3.7541614368e+01    0.2236719    0.1517622 -44.19 0.0004652752    1.487    0.327
        77 -10.8013    117.2416    109.3500   8.2050725151e+01   3.7099314523e+01    0.6466999    0.4030831  57.96  0.002737793    1.841    0.457
        78  -9.1908    157.0700     89.2346   6.6808134601e+01   3.2296042261e+01    0.2456666    0.1766208  89.55  0.001060063    1.999    0.500
        79 -11.0458    207.5919    193.2263   7.9479057018e+01   5.6734585922e+00    0.3912809    0.1082519 -38.49  0.001566547    3.849    0.740
        80  -9.0287    116.8994     85.6658   7.5676369845e+01   4.2261739155e+01    0.2287202    0.1401464  57.59  0.000936592    1.803    0.445
        81  -9.8571    158.4991     81.9719   6.4447634059e+01   3.3262458016e+01    0.2277111    0.1477297 -35.59 0.0005185863    1.531    0.347
        82  -8.8590     70.2877     81.7725   8.9807607389e+01   5.2380043856e+01    0.1389333    0.1104224  68.42 0.0001769154    1.445    0.308
        83  -8.9828    184.5151     77.4285   5.8290243453e+01   2.7878734861e+01    0.1425242    0.1378296 -14.67 8.881517e-05    1.056    0.053
        84  -9.0844     56.2425     66.4020   9.0892199744e+01   5.8243849839e+01    0.1863239    0.1328977  46.17 0.0002934307    1.507    0.336
        85 -10.2258      2.0000     61.9841   1.1540952788e+02   6.4584917388e+01    0.2173534   0.06214403 -75.69 0.0008062405    2.969    0.663
        86 -10.7437     13.3442     59.7304   1.0936238269e+02   6.4522029412e+01    0.2651128    0.2165494  76.60 0.0004633346    1.314    0.239
        87 -13.6233    190.2790     46.3727   4.8700676887e+01   3.1046440528e+01     1.105614    0.8015211  45.96 0.0009741157    1.546    0.353
        88 -16.6864      7.5561    244.2833   1.2455439068e+02   2.3847904127e+01      2.50254     1.986279 -83.06   0.02110827    1.542    0.351
        89  -9.0242    164.3145    209.6953   9.0110030272e+01   9.8277906483e+00    0.1140665   0.08873717  54.48  0.000329605    1.621    0.383
        90 -11.1477    142.7863     47.8135   5.6958179552e+01   4.2879261261e+01    0.5042444    0.3101645 -74.85  0.001657963    2.412    0.585
        91 -10.5105    145.4761     42.3048   5.4533184226e+01   4.3001044758e+01    0.2677052    0.2388807 -73.00 0.0003254014    1.135    0.119
        92 -10.2239     15.1071     32.1275   1.0097590127e+02   7.0903047040e+01    0.1954419     0.148606 -34.96 0.0003500211    1.209    0.173
        93 -11.0442    188.1687     31.0530   4.4533987591e+01   3.3507179012e+01    0.2458989    0.2001902  76.27 0.0007202483    1.234    0.190
        94 -10.8772     44.5914    229.9622   1.1685675660e+02   2.2615335440e+01    0.2983036    0.1936568  39.09  0.002036281    1.242    0.195
        95 -13.0777     13.2989    189.6263   1.2158383513e+02   3.3477990876e+01     0.383261    0.2890122 -73.70 0.0005261938    1.466    0.318
        96  -9.2978     66.9177     51.5530   8.1194735798e+01   5.9768675934e+01    0.2117217    0.1414206  41.22 0.0007785314    1.536    0.349
