#   1 NUMBER                 Running object number                                     
#   2 MAG_AUTO               Kron-like elliptical aperture magnitude                    [mag]
#   3 X_IMAGE                Object position along x                                    [pixel]
#   4 Y_IMAGE                Object position along y                                    [pixel]
#   5 X_WORLD                Barycenter position along world x axis                     [deg]
#   6 Y_WORLD                Barycenter position along world y axis                     [deg]
#   7 A_WORLD                Profile RMS along major axis (world units)                 [deg]
#   8 B_WORLD                Profile RMS along minor axis (world units)                 [deg]
#   9 THETA_WORLD            Position angle (CCW/world-x)                               [deg]
#  10 FWHM_WORLD             FWHM assuming a gaussian core                              [deg]
#  11 ELONGATION             A_IMAGE/B_IMAGE                                           
#  12 ELLIPTICITY            1 - B_IMAGE/A_IMAGE                                       
         1 -11.8174    121.5971     37.1512   6.5853554314e+01   5.0178056769e+01    0.4508281    0.4212213  81.80  0.001186045    1.171    0.146
         2 -10.9343     30.5011     21.0539   9.3002039524e+01   6.9856702297e+01    0.4297313    0.2011295 -52.95  0.002110066    1.721    0.419
         3 -10.1287     22.6643      9.3292   9.2035536956e+01   7.3094807489e+01    0.3664883    0.2364466 -20.48  0.002071889    1.854    0.461
         4 -11.7399     34.7075     12.9557   8.6956033798e+01   7.1026760206e+01    0.4362558    0.2799411 -51.02   0.00155476    1.363    0.266
         5 -11.8007     30.1651      7.2819   8.6479090146e+01   7.2677229803e+01    0.3682143    0.3082375  26.69  0.002433761    1.415    0.293
         6 -11.0088     13.9998     16.1882   1.0029700646e+02   7.2409472505e+01    0.2803809    0.2077309  29.16  0.001124687    1.675    0.403
         7 -11.1386     42.4278     18.1081   8.5521247428e+01   6.9018154619e+01     0.656567     0.279437 -41.87  0.002914447    2.058    0.514
         8  -9.9732     26.6528     15.9169   9.2845569817e+01   7.1337991994e+01    0.2794424    0.1680416 -54.59  0.001561868    1.380    0.275
         9 -10.1005     88.8663      7.6829   6.1257791289e+01   6.2254839708e+01    0.3508891    0.1759972 -22.67  0.001471896    1.962    0.490
        10 -11.2180     89.4350     13.9024   6.4357458820e+01   6.1263309948e+01    0.5624696    0.3606174 -46.65  0.001405393    1.697    0.411
        11 -10.3444     93.0832      8.8784   6.0644262618e+01   6.1137834869e+01    0.4080843    0.2291101 -16.38  0.001764445    1.886    0.470
        12 -10.9727     68.4125     13.6308   7.1587368319e+01   6.5618020563e+01    0.6184146       0.2258  47.06  0.002387739    2.976    0.664
        13 -10.0794    126.0019     11.0305   5.3646855491e+01   5.2730449024e+01    0.1766765    0.1686474   1.03 0.0003122544    1.005    0.005
        14  -9.4158     99.5429     11.3326   6.0084617591e+01   5.9308990341e+01    0.2470277    0.1362131  58.29    0.0010677    1.909    0.476
        15  -9.6209     15.4099      8.7457   9.6276615927e+01   7.3881590800e+01    0.1664827    0.0883532 -49.12 0.0002911969    1.458    0.314
        16  -9.8776    223.8249      7.8012   3.9691391688e+01   2.6743941895e+01    0.2022005    0.1490954 -46.83  0.000607201    1.297    0.229
        17  -9.4521    156.1654      7.8525   4.7068613562e+01   4.4908714431e+01    0.2049359    0.1683062  28.60 0.0002623702    1.261    0.207
        18 -10.2378     41.1432      6.4825   7.9929397239e+01   7.1381320648e+01    0.2517976    0.1602347 -35.41 0.0008976148    1.343    0.255
        19 -10.2625     36.8940      6.2090   8.2053195846e+01   7.2022787324e+01    0.3092956    0.2005863 -54.52   0.00114717    1.659    0.397
        20  -9.6186    210.4893      7.5127   4.0737068658e+01   3.0174813137e+01    0.1435827    0.1348785 -32.26 0.0001724009    1.003    0.003
        21 -10.2107    144.3302      6.6825   4.8404673004e+01   4.8281436064e+01    0.3109818     0.167436  11.91  0.001092139    2.486    0.598
        22 -10.9688     71.0983      5.7824   6.6149053358e+01   6.6303045480e+01    0.3559811    0.3085178 -14.50  0.001976261    1.027    0.026
        23  -9.8407     65.1204      6.8626   6.9086474784e+01   6.7308567928e+01    0.2041589    0.1769527 -41.86 0.0006350679    1.223    0.183
        24 -11.8431     57.4353      3.2066   7.0089127397e+01   6.9280311736e+01    0.4635077    0.3091442 -22.94  0.002484244    1.387    0.279
        25 -10.2288      8.8649      5.6436   9.9163633445e+01   7.5037212859e+01    0.4165839     0.191553  42.97  0.002068851    3.108    0.678
        26  -9.9776      2.0430      6.4672   1.0419676405e+02   7.5290077962e+01    0.1878603      0.14167   6.86 0.0009743326    1.662    0.398
        27  -9.7730      1.7690      3.2519   1.0308937274e+02   7.5993135189e+01    0.2582256   0.09566011 -44.21  0.001269551    2.219    0.549
        28  -9.8864    151.4886      6.4827   4.7208670286e+01   4.6334880289e+01    0.1495934    0.1462127 -35.52 -5.169275e-05    1.037    0.036
        29 -10.1312    107.7340      4.9674   5.4775275953e+01   5.8101059557e+01    0.2153332    0.1832137  17.26            0    1.161    0.139
        30  -9.9674    104.4520      4.4996   5.5326886249e+01   5.8967133735e+01    0.2746099    0.1937478  67.38 0.0006881577    1.561    0.359
        31 -10.5631    101.8557      2.0484   5.4690753461e+01   5.9879339939e+01    0.4370896    0.1932989  55.61  0.001392565    2.170    0.539
        32  -9.6732    235.6613      4.6633   3.7882567382e+01   2.4108603283e+01    0.1442264   0.09670377  30.19 0.0007051248    1.755    0.430
        33  -9.6771    120.9641      4.2589   5.1537953444e+01   5.4797416895e+01    0.2040355    0.1865867  42.00  0.000350198    1.081    0.075
        34 -10.7678    130.3318      3.3140   4.9316819258e+01   5.2413036042e+01    0.2781888    0.1897016  72.03 0.0007121799    1.548    0.354
        35  -9.8412     16.2255      3.8644   9.3313434645e+01   7.4809153590e+01    0.1732594    0.1446936 -55.55  0.001004276    1.171    0.146
        36 -10.2083     90.7022      2.8472   5.8076548418e+01   6.2444690023e+01    0.3008621     0.227493 -89.96  0.001106841    1.805    0.446
        37 -10.8611     20.7516      2.2490   8.9426644381e+01   7.4690301276e+01    0.2815024    0.2178338   7.99   0.00151478    1.514    0.340
        38  -9.9995    173.0072      2.7732   4.2931249283e+01   4.0719697136e+01    0.2929168    0.1403048  83.36  0.001024668    2.424    0.587
        39 -11.3410     80.3172      1.7041   6.0571090495e+01   6.4918957877e+01    0.3223319    0.1930319  51.71 0.0009809998    1.727    0.421
        40 -10.3298     10.0221      1.6595   9.6425675787e+01   7.5775573006e+01    0.1599015    0.1453317 -59.19 0.0008785322    1.222    0.181
        41  -9.9003    187.1327      1.2734   4.0879127801e+01   3.6962576574e+01    0.1969433    0.1290678  88.36            0    1.654    0.395
        42  -9.7065     67.4515      1.3746   6.4874380822e+01   6.7646872385e+01    0.2044157    0.1300322  50.58 0.0009948921    1.712    0.416
        43  -8.9737     20.1432     16.8591   9.6963869676e+01   7.1761828312e+01    0.2043278    0.1718573  23.13 0.0007393427    1.458    0.314
        44 -11.5412     18.1118    248.8984   1.2257597114e+02   2.5899310456e+01    0.1927955    0.1578807   3.00  0.001697572    2.666    0.625
        45 -11.3612     13.0761    249.2155   1.2332194595e+02   2.6315421284e+01    0.2204708    0.1234992  36.27  0.001819092    1.740    0.425
        46 -11.5347      2.8198    248.7303   1.2480110192e+02   2.7282502235e+01    0.3702803     0.157774  47.82  0.003043529    1.437    0.304
        47 -11.2489      1.9934    239.7190   1.2475296238e+02   2.8582044497e+01    0.2130914    0.1141355  68.60  0.001867294    1.330    0.248
        48 -11.6621     10.8087    244.7039   1.2355056759e+02   2.7126289021e+01    0.1950258    0.1338549  39.38  0.001712735    1.542    0.351
        49 -12.1083      6.3477    241.3135   1.2413745554e+02   2.7984747738e+01    0.3257473    0.2480109 -44.83  0.002834249    2.817    0.645
        50  -9.3045     96.0088    133.7455   9.8798600443e+01   3.6002712649e+01    0.1611632    0.1022683  44.37 0.0004277342    1.481    0.325
        51  -9.5284     35.2233    130.8552   1.1333381712e+02   4.4503400826e+01    0.1485059    0.1212413 -68.53  0.000526921    1.339    0.253
        52 -10.8193     11.7106    129.4131   1.1902431548e+02   4.6925397206e+01    0.2917726    0.1195123  63.55  0.001550924    2.160    0.537
        53 -10.1910    248.4922    129.4891   6.8509094607e+01   8.0878224139e+00     0.125809    0.1030728   7.01 0.0002798226    1.023    0.022
        54 -10.1265     28.7121    128.0385   1.1470744135e+02   4.5738600673e+01     0.161835     0.119538  86.83 0.0003294658    1.099    0.090
        55  -9.4843     20.2977    125.0366   1.1658369166e+02   4.7140070843e+01    0.1600445    0.1135777  87.07  0.000155243    1.123    0.110
        56 -11.5355     23.9749    121.1853   1.1532655275e+02   4.7645213145e+01    0.4046004    0.2037037  70.85  0.001255849    1.861    0.463
        57  -9.6493     17.7076    122.0095   1.1701258141e+02   4.8008135023e+01    0.1562027    0.1174392  88.84 0.0003830592    1.081    0.075
        58  -9.9599      8.1240    121.2047   1.1940930676e+02   4.8935852489e+01    0.1604383   0.09810124  65.97 0.0005470198    1.347    0.258
        59 -11.2543     17.3695    115.3742   1.1657967038e+02   4.9473146794e+01    0.2701584     0.156091  84.60  0.001130879    1.447    0.309
        60  -9.4522     72.2757    112.9978   1.0139166653e+02   4.3920161776e+01    0.1768827    0.1455873 -81.14 0.0002366961    1.107    0.096
        61 -11.2482     65.8525    110.9344   1.0279641263e+02   4.5257873735e+01      0.30492      0.20969  76.56   0.00104834    1.498    0.332
        62 -11.9593      4.7671    108.8261   1.1949837138e+02   5.1848366658e+01     0.346351    0.2685317  10.29  0.002266697    1.851    0.460
        63 -10.1760     22.5269    109.5470   1.1465915381e+02   5.0324501521e+01    0.1186291   0.09357596  85.39 6.922689e-05    1.007    0.007
        64 -11.1678     57.0514    107.9640   1.0476779502e+02   4.7057687097e+01    0.2452634    0.1708188  39.79  0.001043009    1.525    0.344
        65 -10.5459     19.5227    104.4969   1.1502041529e+02   5.1703551523e+01    0.1733471    0.1181853   3.80  0.001034752    2.324    0.570
        66  -9.8006    186.9222    103.1863   7.2456056801e+01   2.3767150875e+01     0.200698    0.1908941  73.90 0.0005584707    1.214    0.176
        67 -10.7395      8.5208    102.9832   1.1803030537e+02   5.2877330985e+01    0.1618799    0.1315384  73.33 0.0003552326    1.124    0.111
        68  -9.0534    161.5138    102.4544   7.7271218679e+01   2.9459710476e+01    0.1424398    0.1369206  30.24 0.0001115339    1.005    0.005
        69  -9.2044     66.6812    101.6962   1.0098292602e+02   4.7203401634e+01    0.1243681   0.09996375 -34.66  0.000478693    1.628    0.386
        70  -9.8120     62.3622     97.7725   1.0152719069e+02   4.8670924016e+01    0.1915433    0.1057423 -56.33  0.000950586    1.707    0.414
        71  -9.2395     91.6928     96.7197   9.2887751996e+01   4.4475522160e+01    0.1283832    0.1099524 -16.36 0.0002256131    1.558    0.358
        72 -10.4612      3.3237     95.6404   1.1897721875e+02   5.4861211542e+01    0.1977883    0.1544391 -84.31 0.0004146913    1.103    0.093
        73 -11.8070     20.5669     93.0278   1.1350840778e+02   5.4216621634e+01    0.3324276     0.255418 -45.31 0.0006299066    1.595    0.373
        74 -10.1239     24.4349     89.1545   1.1183059575e+02   5.4785262178e+01    0.4325081    0.1561648 -80.43  0.001837371    2.659    0.624
        75 -10.3301    125.0578     93.2169   8.3228952143e+01   3.8939046347e+01    0.2222954    0.1998733 -54.43 0.0002382955    1.110    0.099
        76  -9.3825     78.8880     94.5467   9.6048225283e+01   4.7024832596e+01     0.179971    0.1318845  42.12 -9.412202e-06    1.444    0.307
        77  -9.4494     94.3121     93.3312   9.1382064607e+01   4.4760673358e+01    0.1362349     0.110796 -19.34  0.000583444    1.675    0.403
        78  -9.9290     44.0000     92.9606   1.0624737079e+02   5.1999656980e+01    0.2852106   0.09642942 -59.07  0.001201301    2.507    0.601
        79  -9.5759     43.7109     89.7388   1.0581096817e+02   5.2774705396e+01    0.2270111    0.1214811  59.27 0.0009654255    2.093    0.522
        80 -11.5161     10.3845     90.8436   1.1642812282e+02   5.5479291599e+01    0.3160948    0.2683862 -69.34  0.002209534    1.248    0.199
        81 -10.1851     11.2081     85.1349   1.1559637619e+02   5.6727645190e+01    0.2451405    0.1307418  89.10  0.000653609    1.607    0.378
        82 -10.6190     57.5041     92.0308   1.0192788959e+02   5.0610970080e+01    0.2329779    0.1951215  37.00 0.0007245742    1.374    0.272
        83  -9.9625     29.4856     92.2101   1.1064275924e+02   5.3634407450e+01    0.1933172    0.1617235  50.04 0.0006339239    1.302    0.232
        84 -10.4105     64.9298     88.3933   9.8927173086e+01   5.0456083760e+01    0.2389337     0.171541 -59.57 0.0003633394    1.281    0.220
        85 -10.0580     18.3368     87.8926   1.1361553825e+02   5.5572330380e+01    0.2932831     0.210062 -53.20  0.001490095    1.512    0.339
        86  -9.5400     76.9764     88.5402   9.5294604196e+01   4.8661528623e+01    0.2007698    0.1337983  40.44  0.001034647    1.608    0.378
        87  -8.9689    250.6950     87.7024   5.8668892423e+01   1.2196097027e+01    0.1364406   0.08988318  16.32 0.0002564242    1.586    0.370
        88  -9.3974    113.8177     85.7495   8.4147498675e+01   4.2716979212e+01    0.1968881    0.1856988 -12.27  0.001109976    1.194    0.162
        89 -11.2376     54.6233     84.3132   1.0134078180e+02   5.2749563223e+01    0.2765176    0.1970676 -75.18 0.0008069359    1.270    0.213
        90  -9.7503     39.0262     86.2846   1.0673386443e+02   5.4074722986e+01    0.2365886     0.108957  74.73 0.0009016735    3.491    0.714
        91  -8.9406     72.2743     85.6573   9.6071003292e+01   5.0022992044e+01    0.1385051   0.09857298  85.83 0.0004100949    1.618    0.382
        92 -11.9625      4.1354     82.8336   1.1766089643e+02   5.7709415599e+01    0.5784321    0.1843454 -81.48  0.002580599    2.554    0.608
        93 -10.2726    124.5048     82.8138   8.0566748485e+01   4.1108401515e+01    0.2491437    0.2042577  49.21 0.0002931776    1.233    0.189
        94  -9.7037     42.6095     81.6144   1.0475004541e+02   5.4780319975e+01    0.1702386    0.1295869 -44.79  0.001010406    1.489    0.328
        95  -9.8134    250.2473     81.0064   5.7078060098e+01   1.3020909750e+01    0.1779251    0.1009235 -21.18 0.0005060582    1.549    0.355
        96  -9.7538     89.3863     80.8199   8.9704500290e+01   4.8337042124e+01    0.2178591    0.1644664 -73.68 0.0005757919    1.410    0.291
        97 -10.9169     64.3522     79.0219   9.7054694220e+01   5.2677131632e+01    0.4177998    0.2255094 -66.46  0.001269221    1.793    0.442
        98 -11.1774     10.1567     79.7179   1.1535816588e+02   5.8045742155e+01    0.3119449    0.1660497 -79.32  0.001778928    1.485    0.327
        99  -8.9477    124.6108     79.2672   7.9528560928e+01   4.1782145562e+01    0.1512583    0.1153725  87.10 0.0006570042    1.708    0.415
       100 -11.1520     27.5365     77.3782   1.0912647766e+02   5.7253324589e+01    0.3297019    0.2246663  -7.88 0.0005885942    2.338    0.572
       101  -9.7230    176.9371     76.5228   6.7154756060e+01   3.0174099962e+01    0.2286386    0.1467773  54.20 0.0007113766    1.578    0.366
       102 -10.8479     55.4873     75.4614   9.9175249467e+01   5.4685369512e+01    0.2866707     0.275082  81.99  0.001415372    1.149    0.129
       103 -11.1365     20.4574     73.3132   1.1097412651e+02   5.8792839820e+01    0.3485939    0.1913372 -55.67  0.001049478    1.684    0.406
       104 -10.7138     14.8169     75.1815   1.1321834087e+02   5.8777920847e+01    0.2697175    0.1790555  58.18 0.0009271384    1.540    0.351
       105  -9.5990     70.2990     75.3213   9.4227727284e+01   5.2656618346e+01     0.134561    0.1028599 -31.62 0.0002924996    1.623    0.384
       106  -9.7715     37.0335     75.2547   1.0547125220e+02   5.6850861795e+01    0.1960405    0.1548064 -55.98 0.0008987137    1.249    0.199
       107 -10.5396     35.7489     72.0059   1.0530919810e+02   5.7740462574e+01    0.4145544    0.2553555 -28.57  0.001645892    2.490    0.598
       108  -9.7947    216.9782     72.4719   5.9335641926e+01   2.1254098318e+01     0.229996    0.1736078 -21.05 0.0006889491    1.231    0.188
       109  -9.1571     81.5242     73.4598   9.0142214277e+01   5.1293821035e+01    0.1401785    0.1278007 -70.09 0.0003614988    1.015    0.015
       110 -10.7010    106.0283     72.0272   8.2384870959e+01   4.7094502142e+01    0.2861443    0.1998064  47.09 0.0009718182    1.492    0.330
       111  -9.3059     92.4947     72.4778   8.6479516371e+01   4.9589903307e+01      0.14334     0.132472 -69.90 0.0005459961    1.031    0.030
       112 -10.7983     46.2620     69.2818   1.0098735840e+02   5.7244642261e+01    0.2562367    0.2206729  12.00 0.0007185625    1.502    0.334
       113  -9.2605    136.5600     74.5159   7.5168326113e+01   4.0047137701e+01    0.1481427    0.1445957 -51.87 7.333174e-05    1.019    0.019
       114 -12.2881      9.4864     66.6689   1.1401196250e+02   6.1117742598e+01    0.5881245    0.2436475  77.03  0.002253195    3.009    0.668
       115  -9.0811     91.2774     69.6430   8.6020659735e+01   5.0419711737e+01    0.1461717    0.1089627 -81.66 0.0005991292    1.656    0.396
       116  -9.9160     80.1329     68.8063   8.9281961280e+01   5.2552061373e+01    0.1932405    0.1662758 -25.53 0.0008060807    1.365    0.267
       117 -11.1049     10.0004     60.0359   1.1288110751e+02   6.2633916649e+01    0.1829766    0.1432335 -79.13 0.0003753537    1.007    0.007
       118 -11.1585     15.1370     64.6827   1.1161089935e+02   6.1207185227e+01    0.4090483    0.2629341 -84.56  0.001216989    1.316    0.240
       119 -13.7453     19.9928     57.5644   1.0849932433e+02   6.2519457238e+01    0.4380031    0.2673356 -76.40  0.001177686    1.368    0.269
       120 -10.0068      1.4301     66.8507   1.1700270146e+02   6.1538153405e+01    0.1789516   0.09043565 -80.57 0.0008150402    1.530    0.346
       121 -10.4766     34.4047     64.9745   1.0439194606e+02   5.9520451623e+01    0.2673616    0.1679736 -56.19  0.000817879    1.402    0.287
       122  -9.8119    133.1988     65.6101   7.3199426168e+01   4.2459337831e+01    0.2240699    0.1362413  40.41 0.0005666099    1.797    0.443
       123 -10.6405     62.4083     63.3836   9.3741140034e+01   5.6515695671e+01     0.417125    0.1837475 -49.86  0.001496597    2.052    0.513
       124  -9.8657    193.2934     61.9828   5.9979256887e+01   2.8316090915e+01     0.206177    0.1807099 -18.41 0.0002990866    1.089    0.082
       125 -10.5376    150.0164     62.0394   6.8162214560e+01   3.9074675789e+01    0.2193304    0.2164883 -20.45            0    1.016    0.016
       126  -9.8737     53.2228     61.8883   9.6649838879e+01   5.8103857536e+01    0.1997418     0.163081 -84.68 0.0004342557    1.235    0.190
       127 -10.0086     39.4732     62.5017   1.0193918690e+02   5.9579070631e+01    0.3514984    0.2032646 -78.25  0.001770995    1.757    0.431
       128 -10.3381     41.5441     58.9803   1.0030404608e+02   6.0172960699e+01    0.2984377    0.2480896  -2.63  0.001654197    1.593    0.372
       129 -10.0561    100.8695     60.7895   8.0338705399e+01   5.0428773853e+01    0.2895118    0.1871509 -68.11  0.001233848    2.099    0.524
       130 -10.8462     83.7529     56.6520   8.4331152208e+01   5.4549926459e+01    0.2733977    0.2282669 -53.18  0.001066874    1.106    0.096
       131 -11.9375     88.7236     53.0048   8.1452934106e+01   5.4391613363e+01    0.4931337    0.3920802  65.95  0.002253645    1.471    0.320
       132  -8.9496     48.3325     58.2679   9.7514202934e+01   5.9547910506e+01    0.1276633   0.09517954 -32.92 0.0003198889    1.585    0.369
       133  -8.9738     71.6969     57.2975   8.8650351892e+01   5.6463271744e+01    0.1368359     0.105758 -89.29 0.0003816446    1.582    0.368
       134  -9.2635    158.3257     56.6700   6.4653187311e+01   3.7887429852e+01    0.1611165    0.1179608 -64.74 0.0007050652    1.704    0.413
       135 -10.3011     33.5672     55.0361   1.0248579129e+02   6.1923522890e+01    0.3103818     0.150587 -43.47  0.001022098    2.241    0.554
       136 -11.8654    114.5505     53.8028   7.4017750971e+01   4.8893028354e+01    0.3361394    0.3184486  38.69 0.0005994917    1.104    0.094
       137  -9.8332    106.0982     53.2551   7.6205974035e+01   5.0838980347e+01    0.2092512     0.189346  58.35 0.0008448617    1.175    0.149
       138 -12.0602     66.0352     52.5141   8.9140806200e+01   5.8400846725e+01    0.5625961    0.2487016  36.39  0.002342388    2.649    0.623
       139  -9.8886     19.8126     45.6383   1.0607489010e+02   6.5317347514e+01    0.2967885    0.1572719 -74.82  0.001533046    1.668    0.400
       140 -11.4948     12.9846     41.0824   1.0813612384e+02   6.6862681159e+01    0.6006591    0.3074206  85.33  0.001902745    2.448    0.591
       141 -12.6017      5.7306     50.7950   1.1319466627e+02   6.5040504203e+01     0.319851    0.2129664 -56.69 0.0003824198    1.343    0.256
       142 -11.6162     13.7466     48.7638   1.0940185308e+02   6.5026384209e+01    0.4296136    0.3043318  55.09 0.0002041885    1.605    0.377
       143  -9.8775    121.9891     51.3040   7.1136975054e+01   4.7659123075e+01    0.2064268    0.1940839  51.68 0.0003719092    1.104    0.095
       144 -10.1897     76.3915     48.8028   8.4132553906e+01   5.7501536840e+01    0.3262047    0.2023568 -39.42  0.001553987    1.572    0.364
       145 -10.5582     79.0011     45.7341   8.2093278908e+01   5.7677008865e+01    0.2274522    0.2110317 -38.64 0.0002499793    1.045    0.043
       146 -10.3425     98.3799     48.1992   7.6661116488e+01   5.3436359126e+01    0.2423766    0.2327851 -61.39 0.0003360517    1.066    0.062
       147 -11.1516     57.3702     46.8505   9.0549476239e+01   6.0926714504e+01    0.3831241    0.2136746 -64.96 0.0007192794    1.961    0.490
       148  -9.4022    154.5758     47.5455   6.2309070117e+01   4.0259526418e+01    0.1530201    0.1474854 -25.50 6.893292e-05    1.017    0.016
       149  -9.7454    135.7138     46.3986   6.5977103238e+01   4.5206003364e+01    0.2000659    0.1434726  45.80 0.0003837499    1.434    0.303
       150  -9.1286     65.3371     46.6502   8.7405622343e+01   5.9780510095e+01    0.1415706    0.1056818 -87.24 0.0007046225    1.787    0.440
       151 -11.4849     27.0867     43.9644   1.0242398766e+02   6.5097486536e+01     0.400777    0.3447291  77.39  0.002057089    1.278    0.217
       152  -9.7057    159.5065     41.9522   5.9379549175e+01   3.9810215904e+01    0.2289391    0.1482065 -29.26 0.0009968426    1.490    0.329
       153 -10.3458     69.5533     41.7130   8.3999230313e+01   6.0141530465e+01     0.326484    0.2374988   7.64 0.0009390021    1.994    0.498
       154 -11.1974      3.8512     41.2212   1.1240183040e+02   6.7364718168e+01    0.4221749    0.2252536 -40.50  0.002374778    2.028    0.507
       155 -10.9521    140.1135     40.7617   6.2895108363e+01   4.5001064521e+01    0.3068479    0.2528251 -86.81 0.0006994993    1.444    0.308
       156  -9.8959     42.8300     40.8231   9.4533161030e+01   6.4164470598e+01     0.162944    0.1431053  85.73 0.0004514353    1.280    0.219
       157 -10.4007     35.1687     41.0938   9.7993741224e+01   6.4964692988e+01    0.2800304     0.218548  12.04  0.001017628    1.639    0.390
       158  -9.6680    181.0717     40.4515   5.5133243582e+01   3.4344418155e+01    0.2120173    0.1523926  64.95 0.0003493531    1.461    0.316
       159  -9.9859    127.9955     38.6688   6.4877507663e+01   4.8368808489e+01     0.222192    0.2026624 -66.93 0.0003335107    1.192    0.161
       160  -9.8831    229.6562    248.0454   9.0632185147e+01   3.2111743321e-01    0.1274804    0.0908989  21.69 0.0006345146    1.131    0.116
       161  -9.3626     87.2421     39.3483   7.6780592735e+01   5.7390363062e+01    0.1833962    0.1374986  58.35 0.0002841591    1.542    0.352
       162 -10.6526     22.5173     38.4733   1.0302496066e+02   6.6753800885e+01    0.2274745     0.158388 -73.20  0.000566922    1.272    0.214
       163 -11.3500     26.6183     35.6055   1.0024366089e+02   6.7048117067e+01    0.4451362    0.2213833 -46.80  0.001827472    1.797    0.443
       164  -9.0608    168.2329     38.7265   5.6667592308e+01   3.7962705655e+01    0.1477088    0.1120857 -53.01 0.0006747656    1.428    0.300
       165 -10.9442      3.2382     35.1792   1.1153922271e+02   6.8791454011e+01    0.4308253    0.2422067 -46.55  0.002543687    1.682    0.405
       166 -10.9263     38.9819     35.2975   9.4349196463e+01   6.5839003704e+01    0.2660383    0.2070618  -2.47  0.001418757    1.661    0.398
       167 -12.0410     40.8731     29.9452   9.1470973538e+01   6.6777044711e+01    0.6368634    0.4248228  -7.75  0.003113152    2.260    0.558
       168 -10.8327     96.7926     33.8724   7.1426380909e+01   5.6426410649e+01    0.4723901     0.178175 -40.78 0.0009351802    2.462    0.594
       169  -9.4286     90.6625     35.2926   7.3973058637e+01   5.7461130700e+01    0.1441784    0.1137154 -74.57 0.0003796337    1.645    0.392
       170 -10.9789    144.7465     32.8896   5.8925714316e+01   4.4971816933e+01    0.2984631    0.2354637 -53.71 0.0004149781    1.372    0.271
       171  -9.7468    134.2290     34.2665   6.1703349837e+01   4.7488189868e+01    0.2075649     0.187062  18.37 0.0003335213    1.149    0.130
       172  -8.9152     50.3116     33.6745   8.8665891270e+01   6.4757859150e+01    0.1305076    0.1015203 -84.80 0.0007040429    1.660    0.398
       173 -11.0938     19.3516     32.0741   1.0273010908e+02   6.8468159285e+01    0.4618878    0.2469259  -4.42  0.002187227    3.193    0.687
       174 -10.0864    129.1026     30.8703   6.1505790196e+01   4.9295808248e+01    0.2731606    0.2095845 -28.44 0.0006219778    1.258    0.205
       175  -9.9212     77.9267     30.9580   7.6464028347e+01   6.0776014317e+01    0.2607715     0.194215  46.44  0.001368635    1.482    0.325
       176  -9.7691     84.8610     30.5598   7.3854321371e+01   5.9498753535e+01    0.3100255    0.1429714  59.87 0.0007760262    3.225    0.690
       177  -9.7985     73.0452     32.2811   7.8840166041e+01   6.1425079212e+01    0.1833853    0.1785438 -11.01 0.0003124598    1.100    0.091
       178 -10.6085      8.1618     28.6941   1.0754298543e+02   7.0009954715e+01    0.2686788    0.1974346  67.66  0.001366573    1.609    0.378
       179  -9.5571    115.1923     39.0135   6.8261677064e+01   5.1394279418e+01    0.2101854    0.1889492 -30.77 0.0004609577    1.062    0.058
       180  -9.7950    146.8429     27.0217   5.6234859780e+01   4.5222091580e+01    0.2815598    0.2015043 -18.43  0.001293766    1.409    0.290
       181 -10.6479     97.6259     26.6762   6.8004786944e+01   5.7468236113e+01    0.3640901    0.2313556 -14.81 0.0006020786    1.898    0.473
       182  -9.1984     69.9936     28.7450   7.8439135243e+01   6.2646284597e+01    0.1628565    0.1220583  42.46 0.0004867846    1.487    0.328
       183 -10.5254    103.8901     27.0060   6.6315609916e+01   5.5999211384e+01    0.5202113    0.2092161  63.17  0.001696547    3.516    0.716
       184  -9.9089     77.3732     26.3485   7.4574371783e+01   6.1726360898e+01    0.2836873    0.1256103 -34.45  0.001118321    2.200    0.545
       185 -10.4924    113.2404     25.2053   6.2974431737e+01   5.4070392562e+01     0.248703     0.235105 -73.95 0.0003332899    1.170    0.145
       186  -9.1740     19.8813     23.3612   9.9610450715e+01   7.0372463658e+01    0.2092472    0.1157386 -38.91 0.0005661861    1.797    0.444
       187  -9.1350     69.5041     25.5061   7.7140546747e+01   6.3340889409e+01    0.1403812    0.1246063 -31.75 0.0008106391    1.008    0.008
       188 -10.2419     59.0391     23.9743   8.0685317197e+01   6.5414470140e+01    0.2701525    0.1725169 -40.48  0.001204506    1.373    0.272
       189 -10.7349      1.9776     22.1589   1.0922635419e+02   7.1824784276e+01    0.2680699    0.1418819 -73.37 0.0007614042    1.533    0.348
       190  -9.6320     91.0122     22.4670   6.8097221501e+01   5.9602161588e+01     0.212065    0.1452105  53.57  0.001027379    1.586    0.370
       191 -11.5011     75.9672     21.1973   7.2622022101e+01   6.2903605817e+01    0.3919342    0.3515866  84.44  0.001490163    1.399    0.285
       192  -9.6207     57.8569    248.1836   1.1657647733e+02   2.2020239469e+01    0.1137601   0.08610731  47.41 0.0004895316    1.291    0.226
       193  -9.9424     35.1296     21.9267   9.0970035150e+01   6.9156249938e+01    0.1925059    0.1468385 -36.24 0.0004467476    1.216    0.178
       194  -9.9622     36.4527     18.5264   8.8756006859e+01   6.9699609655e+01    0.2290492   0.09622186 -43.35 9.655261e-05    2.056    0.514
       195  -9.9049    224.9365    246.7083   9.1132552826e+01   1.0213772912e+00    0.1410496   0.08608653  31.54  0.001061433    1.091    0.084
       196  -9.5416    202.4775    240.0770   9.3583804616e+01   4.5078608449e+00    0.1157511   0.09221624  -8.84 0.0006833129    1.523    0.343
       197  -9.2676     49.6965    240.6435   1.1749382773e+02   2.3891886253e+01   0.07424135   0.06946228  32.09 0.0007039448    1.715    0.417
       198 -11.3564     13.8261     20.9655   1.0212962030e+02   7.1375093593e+01    0.2979023    0.2359836  62.99   0.00166958    1.589    0.371
       199  -9.8767    148.5634    238.7350   1.0167185148e+02   1.1978913943e+01    0.1421582   0.09950756 -40.71  0.001131458    2.052    0.513
       200  -9.4232    175.5489     21.4425   4.9396838437e+01   3.8138111689e+01    0.1507687    0.1455035 -33.36 9.602588e-05    1.024    0.024
       201  -9.5365    164.9979     20.9704   5.0786849099e+01   4.1067950824e+01    0.1960763    0.1663525 -21.10 0.0009847545    1.151    0.131
       202  -9.7588     84.8917     21.2302   6.9502148908e+01   6.1102406891e+01    0.2278813    0.1517461  25.04 0.0008342605    1.876    0.467
       203 -11.2098     14.1874    238.6445   1.2289703934e+02   2.7656950595e+01    0.1754075   0.08155888  60.62 0.0004914674    1.426    0.299
       204  -9.9555    147.3746     18.7540   5.2854778600e+01   4.6120878142e+01    0.2777195    0.1891574  85.04 0.0006484688    1.759    0.432
       205  -9.7974     58.2083     19.2461   7.8743025829e+01   6.6439662992e+01     0.184007    0.1518714 -59.64   0.00105575    1.376    0.274
       206  -9.5408    199.5004     17.4937   4.5036984907e+01   3.2109284163e+01    0.1471846    0.1404962 -23.29 0.0008106513    1.008    0.008
       207  -9.1480    114.9864     17.2277   5.8940062847e+01   5.4774172053e+01    0.1854558    0.1246541  59.62            0    1.549    0.354
       208 -10.3836    108.3427     16.3901   6.0212644247e+01   5.6521349436e+01    0.2465774    0.1840139 -21.49  0.001215908    1.292    0.226
       209  -9.4775     82.4665     17.4708   6.8456346443e+01   6.2214036128e+01    0.1434267    0.1290167 -14.49 8.096908e-05    1.036    0.034
       210  -9.7059     91.1321    237.0355   1.1070411405e+02   1.9643357905e+01    0.1210472    0.1051964 -31.06 0.0008254208    1.964    0.491
       211 -11.3322    234.5434     15.0929   4.0946922374e+01   2.3449632492e+01    0.2705913     0.235291 -89.00 -3.202983e-05    1.264    0.209
       212 -12.2494     26.0592    235.4938   1.2098067028e+02   2.6990506037e+01    0.2696396    0.2152208  42.66  0.002115686    1.500    0.333
       213  -9.4785     60.6329    241.0000   1.1579757447e+02   2.2664521815e+01    0.1971855   0.03869381  37.98 0.0009105776    3.742    0.733
       214 -12.5860      9.8201    228.1414   1.2330282906e+02   2.9547675518e+01     0.438218    0.1944155  57.59  0.001120074    1.450    0.311
       215 -10.2161    154.4699     15.0178   5.0165275605e+01   4.4621179066e+01    0.2705551    0.1987345  47.31 0.0004733279    1.366    0.268
       216 -10.0581    190.9651     13.6667   4.4723712781e+01   3.4775508327e+01    0.2100077    0.1923087  72.87 0.0006191512    1.131    0.116
       217 -12.0205      4.1636    232.6760   1.2428351939e+02   2.9388279652e+01    0.2570011    0.1046452  54.39  0.001975047    1.501    0.334
       218  -9.0885    162.3149     13.3140   4.8299820727e+01   4.2651725032e+01    0.1625649    0.1093843  31.42 0.0003289489    1.642    0.391
       219 -11.3576      1.5957    226.1835   1.2454349223e+02   3.0549362174e+01    0.2490474   0.08503617 -89.59  0.001646832    2.725    0.633
       220  -9.9527    249.1261    234.0235   8.6179208858e+01  -1.1739561770e+00    0.1492016   0.09770566  24.12 0.0004798939    1.007    0.007
       221  -9.3329    242.9834    230.2289   8.6525393442e+01  -1.1167144364e-01    0.1307954   0.05972107  38.22 0.0008521165    1.609    0.378
       222  -9.5266    209.5193    229.5180   9.1263115726e+01   4.4574715361e+00     0.104054   0.07226553  29.97 5.559307e-05    1.010    0.010
       223  -9.8302    140.8303    228.5172   1.0190771057e+02   1.4196238668e+01    0.1568113     0.114905 -12.95 0.0007717132    2.296    0.564
       224  -9.6562    223.4520    226.5588   8.8828054129e+01   2.7886526342e+00    0.1045197   0.07041807  26.46 1.356848e-05    1.058    0.055
       225  -9.5558     34.3227    225.6774   1.1930853382e+02   2.7591356546e+01    0.1036259   0.04445264  59.10   0.00055629    1.679    0.404
       226 -11.3849      8.5580    218.3663   1.2325274879e+02   3.1114056023e+01    0.2351737    0.1463686  26.09  0.001821799    2.198    0.545
       227  -9.1543    136.6795    215.6804   1.0128178133e+02   1.6354469884e+01    0.1016439   0.07398603  21.24 0.0007043401    1.667    0.400
       228  -9.2732    209.6647    211.3032   8.8837908779e+01   6.0932262318e+00    0.0966504   0.07637527  53.48 0.0007037617    1.664    0.399
       229  -9.2833    224.3166    210.3527   8.6478483164e+01   4.0486135345e+00    0.1125442   0.06307169  18.38 0.0007046625    1.739    0.425
       230 -10.0450     20.1754    209.8312   1.2105973664e+02   3.1378404277e+01    0.1569211   0.08341329  58.67 0.0007809159    1.290    0.225
       231 -10.6450      3.5826    205.6038   1.2374607499e+02   3.3531823735e+01    0.1519936   0.08644158  16.43 0.0009602106    3.406    0.706
       232  -9.2061    193.5044    201.5608   9.0029304534e+01   9.5093425433e+00    0.1130887   0.08457922  31.09 6.552247e-05    1.026    0.026
       233  -9.8318     23.1457    197.1630   1.2005291795e+02   3.3146478355e+01    0.1382247    0.1135488  69.81 0.0005580054    1.251    0.200
       234 -10.5005     13.9180    192.6992   1.2154333385e+02   3.4747258302e+01    0.1700004    0.1008128  71.48 0.0004146604    1.258    0.205
       235 -10.3122      6.5108    191.4370   1.2283773287e+02   3.5608683302e+01    0.1674996    0.1103695  64.17 8.851259e-05    1.030    0.029
       236  -9.4980     22.5097    179.5945   1.1939195510e+02   3.6228666763e+01    0.1033786   0.07454132  65.10 8.770577e-05    1.025    0.024
       237 -10.3272      5.2757    167.2960   1.2226169774e+02   3.9977242395e+01    0.1793468    0.1113368  79.84 0.0009620422    1.240    0.193
       238  -9.4078    226.5873    164.1691   7.8658469467e+01   8.1956250385e+00    0.1574282    0.1009681  -6.20 0.0005514929    1.625    0.385
       239  -9.0672    247.4852    155.5030   7.3881376804e+01   5.6141666362e+00    0.1208446   0.09304446  13.81 5.441486e-05    1.017    0.017
       240 -10.4272      2.1424    153.3425   1.2238360666e+02   4.2858321836e+01    0.1723872   0.09840485  18.57  0.001099791    2.549    0.608
       241  -9.8041     23.5227    150.5235   1.1759348625e+02   4.1601238591e+01    0.1106581   0.08390056  73.47 0.0001281081    1.018    0.017
       242  -9.1025     43.0188    145.0539   1.1275360872e+02   4.0741141471e+01     0.133687    0.1045027  78.58 0.0009319784    1.041    0.039
       243  -9.9556     22.6301    143.1722   1.1731964591e+02   4.3156270969e+01    0.1482298   0.08472478 -72.13  0.000465028    1.640    0.390
       244  -9.3905     34.1418    142.3849   1.1459159235e+02   4.2213340496e+01    0.1525348   0.08365764  50.02  0.000253783    1.570    0.363
       245  -9.2054     41.7823    138.9288   1.1248654375e+02   4.2129203247e+01    0.1446313   0.08208874 -75.96 0.0005672236    1.599    0.375
       246  -9.3125     24.6081    139.1379   1.1658017049e+02   4.3798736185e+01     0.153146   0.08542681 -69.22  0.000935595    1.707    0.414
       247 -10.2384    212.7811    133.9810   7.4977026975e+01   1.4176137514e+01    0.2525369    0.1849886  55.61  0.000913385    1.581    0.368
       248 -10.2789      1.5094    132.5520   1.2164685085e+02   4.7044221291e+01     0.175464    0.1295284  76.04 0.0005967927    1.015    0.015
