#   1 NUMBER                 Running object number                                     
#   2 MAG_AUTO               Kron-like elliptical aperture magnitude                    [mag]
#   3 X_IMAGE                Object position along x                                    [pixel]
#   4 Y_IMAGE                Object position along y                                    [pixel]
#   5 X_WORLD                Barycenter position along world x axis                     [deg]
#   6 Y_WORLD                Barycenter position along world y axis                     [deg]
#   7 A_WORLD                Profile RMS along major axis (world units)                 [deg]
#   8 B_WORLD                Profile RMS along minor axis (world units)                 [deg]
#   9 THETA_WORLD            Position angle (CCW/world-x)                               [deg]
#  10 FWHM_WORLD             FWHM assuming a gaussian core                              [deg]
#  11 ELONGATION             A_IMAGE/B_IMAGE                                           
#  12 ELLIPTICITY            1 - B_IMAGE/A_IMAGE                                       
         1 -11.5239    220.1017     36.3871   2.7592504399e+01   2.6142927857e+01      3.55151     1.097128 -45.93   0.01384229    2.910    0.656
         2 -12.8473    244.1814    133.0504   4.6887080990e+01   9.7776342805e+00     3.938503    0.7519771 -31.44    0.0134102    4.472    0.776
         3 -12.7023    220.5473     79.9320   3.8349045113e+01   2.0680638295e+01     3.315224     1.756357  82.32   0.01296321    4.084    0.755
         4 -12.9450    241.8683     67.0612   3.2945245427e+01   1.8307268555e+01     2.926021    0.9285231  53.04   0.01260473    3.527    0.716
         5 -12.4968    248.8903     44.3917   2.7165511114e+01   1.9612301302e+01     4.759264    0.9006309 -27.59     0.016248    4.149    0.759
         6 -11.7571    229.2299     93.2044   4.0355378825e+01   1.7314496642e+01     2.570948    0.6894431 -46.55  0.006411633    8.038    0.876
         7  -9.7786    213.3641     26.9317   2.5729613720e+01   2.8624261590e+01    0.6424988    0.2953908 -37.83  0.002842459    1.776    0.437
         8  -9.1857    240.4092     20.5167   2.2248727270e+01   2.3698109971e+01    0.6134648    0.3321203  11.08  0.001589464    3.946    0.747
         9 -10.0893    246.1642     12.3728   2.0057167500e+01   2.3375128020e+01    0.3183064    0.2229767 -38.54 0.0007368356    1.123    0.109
        10  -9.6808    248.5810      7.8621   1.8923940675e+01   2.3334955244e+01    0.5166133    0.2346613 -16.70   0.00213835    2.431    0.589
        11 -10.5960    249.9855     30.2221   2.3883944087e+01   2.0905187440e+01     1.130373    0.1616613 -27.57  0.003632095    4.716    0.788
        12  -9.0479    142.8016     11.4535   2.8197853417e+01   4.7666574172e+01    0.4993786    0.2211149  -8.40  0.001769069    3.290    0.696
        13  -9.9261    120.1934      9.3058   3.0716506392e+01   5.3991441232e+01    0.4170278    0.3680377  -0.31  0.001762404    1.267    0.211
        14  -7.8158    206.6940      2.0570   1.9623631276e+01   3.2551004906e+01    0.1741922    0.1101095  -7.84 0.0009158435    1.918    0.479
        15  -7.9384    192.6122      1.4775   2.0311000318e+01   3.5870024705e+01    0.1542581    0.1182071  70.20 0.0009010648    1.372    0.271
        16  -6.9109     57.4996    198.4551   9.6798442641e+01   2.7076224174e+01    0.1226326    0.1024639  41.87 0.0001309879    1.059    0.056
        17 -10.2455    189.3416    249.5452   7.4855460400e+01   3.0458571090e+00    0.1874005    0.1348505  15.39 0.0002557069    1.057    0.054
        18  -7.1633     82.2472    196.3697   9.0617121413e+01   2.4495678949e+01    0.1162047   0.09331974 -22.11 0.0006946319    1.624    0.384
        19  -8.7898     12.8314    188.5598   1.0717382050e+02   3.3466057528e+01    0.1923919    0.1617007  72.02 0.0004310446    1.149    0.130
        20  -8.9614    231.2295    168.0056   5.5431636098e+01   7.3111672111e+00    0.2699353    0.1683039 -40.64  0.001623702    1.951    0.487
        21  -9.6371    159.0698    166.2313   6.8307587450e+01   1.8562229784e+01    0.2105742    0.1870512  -8.70 0.0002669866    1.111    0.100
        22  -8.0135    164.8121    163.6525   6.6620152156e+01   1.8049105704e+01    0.2051891    0.1453308  20.85 0.0005685982    1.359    0.264
        23  -8.6135    102.4654    159.0808   8.0652272819e+01   2.9196831538e+01    0.2394011    0.1788718  34.95 0.0002779181    1.211    0.174
        24  -6.8684    189.3493    155.2593   6.0146343106e+01   1.5337970332e+01     0.132276   0.08941179   9.44 0.0004486544    1.604    0.376
        25  -9.2828    156.1221    248.4660   8.0654518287e+01   6.9940497499e+00    0.2634999    0.1592702  31.88  0.000448591    1.277    0.217
        26  -9.4179    157.2814    244.0043   7.9936769324e+01   7.4023203976e+00    0.2995904    0.1590646  17.41 0.0003787471    1.756    0.430
        27  -7.4347    110.0575    134.0374   7.4078933875e+01   3.3340604076e+01    0.1659653    0.1631485  33.91 0.0003236342    1.041    0.040
        28  -8.5622    158.1952    239.7706   7.9275283834e+01   7.8192400799e+00    0.1936618    0.1547808  18.76 0.0007623273    1.117    0.105
        29  -7.0565    136.4904    129.5081   6.6155737838e+01   2.9378166158e+01    0.1450761    0.1376544  22.43  0.000810552    1.008    0.008
        30  -7.3441    187.3396    128.6436   5.4982771507e+01   1.9840848258e+01    0.1320865    0.1085555 -72.06 0.0007039782    1.814    0.449
        31  -8.6612     54.0107    123.0564   8.9611638900e+01   4.4686137058e+01    0.2048618    0.1931518  68.72            0    1.023    0.023
        32  -9.1198    168.4726    120.3602   5.6791341976e+01   2.4822195999e+01    0.3534482    0.2511156 -28.24 0.0009951148    1.415    0.293
        33  -7.4221    168.6096    241.1795   7.7513274412e+01   6.3920252589e+00    0.1330623   0.09092583 -16.58 0.0009343667    1.597    0.374
        34  -7.9197    187.0201    237.7750   7.3785061566e+01   4.6077691782e+00    0.1520277    0.1061157  17.72 0.0003134737    1.040    0.039
        35  -8.0488     88.7808    115.8446   7.6620993835e+01   4.1261208918e+01    0.3163249    0.2096275  22.59 0.0008264032    1.768    0.434
        36  -7.5871    145.8760    106.8262   5.8453511794e+01   3.1940874666e+01    0.1901326    0.1723751  76.40 0.0002681414    1.263    0.208
        37  -7.1320     85.4195    107.5347   7.5862532068e+01   4.3836753960e+01    0.1478123    0.1448538  73.42 6.355401e-05    1.016    0.016
        38 -10.3600     73.7629    106.9017   7.9722741556e+01   4.5941441861e+01    0.2611426     0.227948  41.62 0.0002873686    1.127    0.113
        39  -6.6411     77.7077    236.6774   9.5129670273e+01   1.7946668538e+01    0.1026642   0.08073494  -0.13 0.0004034576    1.612    0.380
        40  -8.3900    187.9894    105.4762   4.9483067787e+01   2.3410791511e+01    0.3154533     0.174397 -15.84  0.001287229    2.497    0.599
        41  -7.5978    150.4780    105.4503   5.7033033840e+01   3.1224089130e+01     0.147632    0.1402147   5.80 0.0008078539    1.039    0.038
        42  -9.0042    135.2036    100.3817   5.9364285675e+01   3.5489449949e+01    0.3924028    0.1801699  44.76  0.001087917    2.159    0.537
        43  -8.8316    220.2186     97.2958   4.2487813816e+01   1.8403226225e+01    0.2522819     0.172551 -37.94 0.0007211447    1.336    0.251
        44 -10.0821    179.7589     94.8521   4.8297532041e+01   2.6813898268e+01    0.4950188    0.3210016  47.96   0.00145312    1.605    0.377
        45  -9.1016    144.7093     95.6712   5.5772446093e+01   3.4324582834e+01    0.2936001     0.273745   1.76 0.0007945846    1.109    0.098
        46  -9.7913    187.1702     92.1623   4.6303048166e+01   2.5675890034e+01    0.3552045       0.3338 -82.86 0.0007326793    1.223    0.182
        47  -9.7104    161.0454     92.7586   5.1372883334e+01   3.1232595776e+01     0.339337    0.2612127 -25.28 0.0006194013    1.335    0.251
        48  -7.2571    123.9716     90.0220   5.9422450315e+01   4.0044976140e+01     0.183495    0.1693386  46.56  0.000331242    1.074    0.069
        49  -9.0310    198.7111     88.1362   4.3411819352e+01   2.3888697062e+01    0.3306175    0.2275023  42.98 0.0006801141    1.577    0.366
        50  -9.0026    204.5307     86.3993   4.2104511825e+01   2.2955977509e+01    0.3194754     0.207594  44.63  0.001665538    1.686    0.407
        51 -11.1242    180.3225     82.8723   4.5041677276e+01   2.8605304433e+01    0.6621843    0.5069636   7.28  0.001243568    1.599    0.375
        52  -9.0396    187.1824     79.7938   4.3071890181e+01   2.7575290480e+01    0.3154095    0.1687722  38.86 0.0007883395    2.264    0.558
        53 -11.6579     31.6816    146.9344   9.9656084359e+01   4.1193443029e+01     1.072045    0.7450818  -5.63  0.003727689    1.960    0.490
        54  -7.8416    148.4977     65.5624   4.6036983343e+01   3.8844436615e+01    0.1468628    0.1466555   5.31 0.0001050537    1.028    0.027
        55 -10.7869     43.2240    143.7060   9.5782144660e+01   4.0804487053e+01    0.6184976    0.5151518  66.76  0.002395563    1.098    0.089
        56  -9.3571     65.8853    143.3015   8.8715350435e+01   3.8153126242e+01    0.4083071    0.2601531  69.95  0.001671515    1.819    0.450
        57  -8.0141    141.1885     63.1744   4.6837698266e+01   4.1040129533e+01    0.2147404    0.2024162  17.32  0.000388419    1.136    0.120
        58  -8.6064    215.1965    140.2523   5.2626458128e+01   1.3308366916e+01    0.1792578    0.1425765 -60.82  0.001044343    1.987    0.497
        59  -8.4325    215.3252     58.5868   3.3703292485e+01   2.4495108945e+01     0.211184    0.1925156 -30.85 0.0001837827    1.058    0.055
        60  -8.9053    110.9928     53.3542   5.0952661124e+01   5.0218500744e+01    0.2709792    0.2226029 -38.60 0.0002106709    1.234    0.189
        61 -10.1422    125.4437    231.3921   8.4741405341e+01   1.3018663975e+01    0.2126535    0.1825732  17.57 0.0004654056    1.152    0.132
        62 -11.8478    236.3286     75.6724   3.5496578797e+01   1.8266962410e+01     1.105994    0.6667314  67.88  0.006120662    2.151    0.535
        63  -7.6489    199.4038     47.7097   3.2668685265e+01   2.9309845896e+01    0.2551934    0.1099529 -34.20 0.0006420771    1.986    0.496
        64  -8.0652    146.9457     45.0000   3.9579810827e+01   4.2449811775e+01    0.2467892     0.083932  62.23   0.00066469    2.939    0.660
        65  -8.4685     68.1351    138.1667   8.7274992624e+01   3.9079983982e+01    0.2052979    0.1555125  60.93 0.0006460572    1.321    0.243
        66  -6.9643    192.2954     40.6700   3.1537086119e+01   3.1813627814e+01    0.1467479   0.09161215 -55.99 0.0002173649    1.634    0.388
        67  -7.3846    106.6801     38.2454   4.6172268490e+01   5.3851388373e+01    0.1482693    0.1167878 -82.00 0.0002640664    1.524    0.344
        68  -7.7314    112.0000     34.9521   4.3386371068e+01   5.2997923610e+01     0.242023   0.08655532 -31.12 0.0004089208    2.881    0.653
        69  -7.0158     82.6498     35.3282   5.2563933227e+01   6.0180720850e+01    0.1543339    0.1186869 -79.40 0.0007048469    1.763    0.433
        70  -8.6088    206.2874     30.6823   2.7334818275e+01   2.9779942005e+01    0.3390176    0.1932117 -20.33   0.00153717    1.807    0.447
        71  -8.1070    228.9249     28.7352   2.4978400309e+01   2.5147332362e+01    0.2247447    0.1604269 -22.93 0.0003482169    1.342    0.255
        72  -9.4493    236.0610     27.8471   2.4256160460e+01   2.3808282482e+01    0.3248875    0.2359518 -31.57   0.00043728    1.179    0.152
        73  -8.7758    231.9950     25.4700   2.3965548188e+01   2.4865299752e+01    0.4007843    0.1440302 -49.30  0.001765049    2.500    0.600
        74  -8.2871    157.4898     25.9416   3.1363704096e+01   4.2210522420e+01    0.2076589    0.1880228  84.91 0.0004066316    1.074    0.069
        75  -9.2798    242.8589     24.6061   2.3049932225e+01   2.2816184522e+01     0.204665     0.143281 -20.99  0.001036884    1.386    0.278
        76  -8.6555     76.9629    223.0436   9.4249579066e+01   2.0291491862e+01    0.1741459      0.13503  38.77            0    1.007    0.007
        77  -8.6691    148.9983    218.5070   7.8445750814e+01   1.1842656013e+01    0.1760318    0.1568069  -0.74  0.001295021    1.217    0.179
        78  -7.0763     14.4810    216.5053   1.0769048976e+02   2.7839579226e+01    0.1112263   0.08549885  48.54   8.5377e-05    1.048    0.046
        79  -7.4263    134.5801    214.4520   8.0889009880e+01   1.4371485646e+01     0.120636   0.09617906  28.64 0.0001414885    1.048    0.046
        80  -7.3759    179.4613    211.4553   7.1557697446e+01   8.7708126958e+00    0.1171378   0.09129111  16.10 4.427262e-05    1.037    0.036
        81  -7.8572    128.2787     15.3669   3.1879011561e+01   5.1177568803e+01    0.1512778     0.106349  31.12 0.0007011049    1.681    0.405
        82  -9.3968      9.3570    204.0802   1.0847860308e+02   3.0624411584e+01     0.193004    0.1770402  65.62 0.0003829425    1.247    0.198
        83  -7.6766     76.6817    199.4396   9.2258064001e+01   2.4607928635e+01     0.160046    0.1076168  22.82  0.000437838    1.452    0.311
