#   1 NUMBER                 Running object number                                     
#   2 MAG_AUTO               Kron-like elliptical aperture magnitude                    [mag]
#   3 X_IMAGE                Object position along x                                    [pixel]
#   4 Y_IMAGE                Object position along y                                    [pixel]
#   5 X_WORLD                Barycenter position along world x axis                     [deg]
#   6 Y_WORLD                Barycenter position along world y axis                     [deg]
#   7 A_WORLD                Profile RMS along major axis (world units)                 [deg]
#   8 B_WORLD                Profile RMS along minor axis (world units)                 [deg]
#   9 THETA_WORLD            Position angle (CCW/world-x)                               [deg]
#  10 FWHM_WORLD             FWHM assuming a gaussian core                              [deg]
#  11 ELONGATION             A_IMAGE/B_IMAGE                                           
#  12 ELLIPTICITY            1 - B_IMAGE/A_IMAGE                                       
         1 -16.5000      9.1574     11.3109   9.8752693949e+01   7.1772739720e+01     1.897136    0.8798118 -37.65   0.01118436    1.602    0.376
         2 -15.6740    151.3681     27.2145   5.6784011315e+01   4.4171864582e+01     1.241465    0.9068505  88.41  0.005999307    1.665    0.399
         3 -14.1680    161.2422     22.1651   5.3298764642e+01   4.2219141502e+01    0.6682156    0.3756987  78.66  0.002803382    2.102    0.524
         4 -14.1695    129.0369      7.9791   5.4099747921e+01   5.1813760173e+01    0.4060524    0.2424331  75.78  0.001874084    1.963    0.491
         5 -13.3903    149.3564      5.8979   4.9714503033e+01   4.6925173570e+01    0.2528785    0.1892114  79.90  0.001340333    1.379    0.275
         6 -13.2482    225.9991      2.8047   3.9851465243e+01   2.7751604722e+01    0.5543858    0.3332227  89.94  0.002868512    1.632    0.387
         7 -13.6958    223.9453    225.8025   9.2289694700e+01  -4.6374083495e+00     1.322024    0.4944411  25.05  0.004425245    4.890    0.796
         8 -18.1724    158.7017    193.5044   9.9241307060e+01   1.1559011799e+01      6.06789     3.610586  56.65   0.02892292    1.879    0.468
         9 -20.0697    196.9904     85.9694   6.6439233463e+01   2.3532360571e+01     12.98625     7.547698 -22.88   0.05182528    1.984    0.496
        10 -15.4502     93.3263    125.4060   1.0168158591e+02   3.7903211327e+01     0.888005    0.7317894  48.75  0.003991082    1.274    0.215
        11 -14.2914     78.3030    123.8765   1.0543729276e+02   4.0600370374e+01    0.3747703    0.2739907  43.07  0.001998791    1.473    0.321
        12 -17.9965    201.1562    196.2594   9.1316615364e+01   3.2823569536e+00     7.881788    0.6351562 -39.78   0.01490658   13.735    0.927
        13 -14.0962     91.1205     93.8689   9.4771285712e+01   4.5565562935e+01    0.6800516    0.4811026  42.23    0.0033852    1.538    0.350
        14 -17.2507    236.4811    246.3612   9.3426514464e+01  -8.8507650585e+00     5.790727     0.832164  40.90   0.01855208    5.654    0.823
        15 -16.2152     98.8288    247.4897   1.1754776291e+02   1.2159619590e+01      1.71884    0.3630811  42.11  0.006805948    3.590    0.721
        16 -12.8085    132.9962     83.0684   7.9780564587e+01   3.9559141468e+01    0.4521395    0.3572616  56.73  0.002170152    1.373    0.271
        17 -12.5024    134.9768     73.5287   7.6272711997e+01   4.0966259900e+01    0.3671337    0.3091072 -85.14  0.001696278    1.502    0.334
        18 -13.3975    117.1043    169.6967   1.0417019471e+02   2.3813840917e+01    0.3916058    0.3198278  15.32  0.001732146    1.608    0.378
        19 -13.2815     63.3382    170.0510   1.1636126103e+02   3.1984548898e+01    0.3679687    0.1811581  40.78   0.00184371    2.017    0.504
        20 -13.2265    132.0107     64.7382   7.4152697600e+01   4.3276313043e+01    0.6960902    0.3955965  62.84  0.002708311    2.277    0.561
        21 -13.5551    126.8613     60.7246   7.4133292584e+01   4.5176061749e+01    0.6999055    0.4550945  61.61  0.003055386    1.841    0.457
        22 -12.8349    153.2975     64.6873   6.9001633005e+01   3.8165295531e+01    0.4577408    0.3424277  64.21  0.001589305    1.458    0.314
        23 -12.8054    147.9164     60.9704   6.9017819662e+01   4.0128351763e+01    0.4361596    0.3053145  44.85  0.001167534    1.426    0.299
        24 -17.6903    128.1793    107.1190   8.7951014216e+01   3.5544873364e+01     4.836601     2.052588  38.02   0.01663002    2.714    0.632
        25 -12.6237    246.4475     62.3737   5.2592134733e+01   1.5497019967e+01    0.4861984    0.2931116  81.40  0.002230107    2.155    0.536
        26 -13.8932    111.9463    150.5269   1.0195267461e+02   2.8923517146e+01    0.7128739    0.3292604  46.28  0.002903944    2.156    0.536
        27 -12.9019    152.8787     44.2868   6.2339271687e+01   4.1513229868e+01    0.3812158    0.3413933  65.04  0.001322078    1.142    0.124
        28 -13.2195     86.5186    201.1511   1.1513139196e+02   2.2224531372e+01    0.4613545    0.2002632  44.95  0.002238729    2.014    0.503
        29 -15.1274     58.1701    244.5364   1.2414660253e+02   1.8101717989e+01    0.5733979    0.2342985  49.20  0.003372112    1.836    0.455
        30 -14.4377     78.1352    249.1952   1.2118838223e+02   1.4754112857e+01    0.5003858     0.210371  43.95  0.002857647    1.886    0.470
        31 -14.7474     35.7298    236.7987   1.2731384752e+02   2.2083545152e+01    0.4848168     0.178829  45.81  0.002828052    2.091    0.522
        32 -15.1659     67.1485    230.4715   1.2158395870e+02   1.9387474120e+01     0.736618    0.3857679  46.08  0.004505632    1.591    0.371
        33 -13.9309     52.8309    134.0212   1.1399408354e+02   4.1540713116e+01    0.3008836    0.2850959   6.28 0.0007079028    1.365    0.267
        34 -14.5247     81.2929    230.7714   1.1910989281e+02   1.7432534610e+01    0.5622051    0.1879335  42.99  0.002696519    2.419    0.587
