#   1 NUMBER                 Running object number                                     
#   2 MAG_AUTO               Kron-like elliptical aperture magnitude                    [mag]
#   3 X_IMAGE                Object position along x                                    [pixel]
#   4 Y_IMAGE                Object position along y                                    [pixel]
#   5 X_WORLD                Barycenter position along world x axis                     [deg]
#   6 Y_WORLD                Barycenter position along world y axis                     [deg]
#   7 A_WORLD                Profile RMS along major axis (world units)                 [deg]
#   8 B_WORLD                Profile RMS along minor axis (world units)                 [deg]
#   9 THETA_WORLD            Position angle (CCW/world-x)                               [deg]
#  10 FWHM_WORLD             FWHM assuming a gaussian core                              [deg]
#  11 ELONGATION             A_IMAGE/B_IMAGE                                           
#  12 ELLIPTICITY            1 - B_IMAGE/A_IMAGE                                       
         1 -13.0122    207.6950     37.5412   4.9639207412e+01   2.8390618283e+01     0.713818    0.6959857 -89.32  0.004127253    1.089    0.082
         2 -13.4751    226.8293     20.2638   4.2965394738e+01   2.5855707615e+01    0.8681735    0.7927482  58.35  0.002952003    1.247    0.198
         3 -12.4269      4.6080     19.9307   1.0327903187e+02   7.0774392940e+01    0.3694661    0.3302161  47.62  0.001516396    1.715    0.417
         4 -12.2471      3.9098      5.5720   9.7667722231e+01   7.3262190383e+01    0.6686384    0.2947772 -37.71  0.003963585    1.681    0.405
         5  -9.8959    249.6908    247.3308   8.9356144448e+01  -1.1156415593e+01   0.09335139   0.08427548  33.68 0.0004912044    1.667    0.400
         6 -14.3812    137.5355    248.0223   1.0914952762e+02   5.7904050939e+00     1.965889    0.4842614  40.81  0.007664442    3.238    0.691
         7 -12.2306     55.8668    211.0261   1.2066448138e+02   2.4223646848e+01     0.942327    0.2320782  57.15  0.002749785    6.614    0.849
         8 -15.8144      7.4925    133.9331   1.2413554702e+02   4.5925162863e+01     15.60686     3.385905 -81.80   0.03977064    7.883    0.873
         9 -11.9828     60.8288    247.9919   1.2262146873e+02   1.6807425317e+01    0.4203896    0.2192011  71.19  0.002586606    1.793    0.442
        10 -11.5117     48.0123    189.4461   1.2029726012e+02   2.9618301517e+01    0.2414664    0.2059649 -81.58 0.0004931617    1.219    0.180
        11 -11.6456     55.6695    181.8850   1.1793577344e+02   3.0311924164e+01    0.2339748    0.2035092 -81.30  0.000463935    1.189    0.159
        12 -10.5705     67.9332    170.3342   1.1386827107e+02   3.1277797554e+01     0.226437    0.1958231  89.98 0.0003205018    1.053    0.051
        13 -12.9351     53.4098    167.7019   1.1686520756e+02   3.3741307353e+01    0.4733658    0.2660435 -48.38  0.001892681    2.196    0.545
        14 -11.5418     76.1634    162.5383   1.1088824892e+02   3.1902094742e+01    0.4866906     0.392358 -39.82  0.002792835    1.576    0.365
        15 -14.3781      7.4189    241.0062   1.3086812883e+02   2.4031679936e+01     2.078295     1.078386  86.29   0.01483943    1.535    0.349
        16  -9.9517     91.5559    148.2768   1.0482764301e+02   3.2869073781e+01    0.2645039    0.2434533  87.73 0.0007593284    1.019    0.019
        17 -11.7127     79.5114    146.4950   1.0757257957e+02   3.5145971681e+01    0.3091372    0.2235472 -57.77  0.000694619    1.324    0.245
        18 -11.7407     67.9506    143.5723   1.1005115011e+02   3.7475709010e+01    0.6220515    0.3743458  66.08  0.002616963    1.959    0.490
        19  -8.9078     95.4182    144.4543   1.0315509498e+02   3.3133147892e+01    0.1418496    0.1308927 -80.90 0.0001363847    1.021    0.021
        20 -12.8445     16.5622    219.4590   1.2836726544e+02   2.7026988203e+01    0.2778676    0.2069908 -81.29 0.0007885369    1.354    0.262
        21  -9.7359    106.0804    133.8494   9.8295168347e+01   3.3777059599e+01     0.350467    0.2271135 -34.43  0.001540545    1.949    0.487
        22 -10.1389     92.0631    131.3998   1.0150429968e+02   3.6759765817e+01    0.2503416    0.1967902 -57.90 0.0004043408    1.199    0.166
        23 -13.1320      9.6488    207.0116   1.2890165507e+02   3.0092618184e+01    0.8675929    0.4607357  31.69  0.004512401    2.308    0.567
        24  -8.9869    103.9794    121.9716   9.6251892526e+01   3.6926876563e+01    0.1691522    0.1621901 -75.40            0    1.018    0.018
        25 -11.5975    245.4945    115.0168   6.3872843749e+01   7.7255765180e+00    0.3988215    0.1262501 -34.46  0.001388437    2.828    0.646
        26 -11.0495    242.8480     93.5615   5.9163341912e+01   1.1717592679e+01    0.2836271    0.1666339 -59.80  0.001209886    2.260    0.558
        27 -13.5934     22.1889    213.9219   1.2707614758e+02   2.7511045389e+01    0.5702683    0.4244258  76.61  0.002582614    1.052    0.049
        28 -12.1620     70.0845    248.8675   1.2112206212e+02   1.5464130370e+01    0.3949508    0.2487006  60.06  0.002434528    1.210    0.174
        29 -12.5555    108.1682    230.7605   1.1263970045e+02   1.3148181011e+01    0.6346832    0.1495014  43.71  0.002413001    3.275    0.695
        30 -11.1628    229.4714    248.9864   9.2986247270e+01  -8.5100279378e+00    0.2351238    0.1403429  33.09 0.0007988784    1.327    0.246
        31 -13.9877    108.0509    248.4040   1.1447599193e+02   1.0222006676e+01     1.749867    0.2988853  41.88  0.006125164    4.268    0.766
        32 -12.0620     91.1908    226.5737   1.1540158401e+02   1.6435289920e+01    0.3938765    0.2412567  72.96  0.001979916    1.705    0.413
