#   1 NUMBER                 Running object number                                     
#   2 MAG_AUTO               Kron-like elliptical aperture magnitude                    [mag]
#   3 X_IMAGE                Object position along x                                    [pixel]
#   4 Y_IMAGE                Object position along y                                    [pixel]
#   5 X_WORLD                Barycenter position along world x axis                     [deg]
#   6 Y_WORLD                Barycenter position along world y axis                     [deg]
#   7 A_WORLD                Profile RMS along major axis (world units)                 [deg]
#   8 B_WORLD                Profile RMS along minor axis (world units)                 [deg]
#   9 THETA_WORLD            Position angle (CCW/world-x)                               [deg]
#  10 FWHM_WORLD             FWHM assuming a gaussian core                              [deg]
#  11 ELONGATION             A_IMAGE/B_IMAGE                                           
#  12 ELLIPTICITY            1 - B_IMAGE/A_IMAGE                                       
         1  -8.5734     55.5668      9.9999   6.1695400194e+01   6.6587282933e+01    0.1997026    0.1631112  51.78 0.0005872391    1.514    0.340
         2  -7.7620     28.2268      9.9356   7.4110545167e+01   7.0717474343e+01    0.1409369   0.08498263 -30.35 0.0004498826    1.587    0.370
         3  -8.2115     90.7843      8.9426   4.9888517079e+01   5.9817579939e+01    0.1869242    0.1341391 -53.31 0.0006706648    1.925    0.481
         4  -8.5653     33.6527      5.3776   6.9039408155e+01   7.0545421498e+01    0.2181874    0.1690495 -49.55  0.001217599    2.240    0.554
         5  -8.2303     79.1933      4.0161   5.1023662754e+01   6.2671121296e+01    0.1800546    0.1302497 -48.72 0.0007931563    1.926    0.481
         6  -7.7128     44.6608      3.3157   6.2907765632e+01   6.9102918371e+01   0.09965763   0.09641016  80.81 0.0005243092    1.702    0.413
         7  -8.3135     62.4544      1.4525   5.5126947429e+01   6.6170549157e+01    0.1860291    0.1096692  60.81 0.0005710054    2.024    0.506
         8  -9.1760    243.1188    245.9631   7.6241772790e+01  -1.0535518463e+01    0.3690627    0.1564076 -24.98  0.001855354    2.426    0.588
         9 -10.1335    248.6490    242.1566   7.4659228667e+01  -1.0682091648e+01    0.7970863    0.1825081 -39.09  0.003111328    4.295    0.767
        10  -9.1551    247.6461    234.5613   7.3569842681e+01  -9.5598237847e+00    0.3013266     0.181571 -29.24  0.001089483    1.475    0.322
        11  -9.5136    246.4843    229.1742   7.2858503151e+01  -8.6851176291e+00    0.3983476    0.1687956 -35.38  0.001506317    2.143    0.533
        12  -9.1414    232.9111    247.2758   7.8265434967e+01  -9.4938039837e+00    0.3679293    0.2050136 -31.07  0.002131307    1.704    0.413
        13  -8.4860     93.7932    249.4455   1.0658670078e+02   9.7308954119e+00    0.2693586    0.1590133  82.55  0.001341032    2.443    0.591
        14  -8.9384    218.6516    247.1777   8.0861237636e+01  -7.7020239267e+00    0.3333522    0.1218214 -32.49  0.001508348    2.894    0.654
        15 -10.0466    223.8633    244.0253   7.9388768392e+01  -7.9299017141e+00    0.4249007    0.2276654 -46.37  0.002254367    2.527    0.604
        16  -9.1542    210.9247    246.5313   8.2212151354e+01  -6.6066077669e+00    0.1926737    0.1640047 -40.67 0.0006794645    1.589    0.371
        17  -9.0154    146.9594    246.1838   9.5025210447e+01   2.5660964919e+00    0.2457649    0.1711949  58.73  0.001279255    1.844    0.458
        18  -9.2033    120.1762    245.5786   1.0060252454e+02   6.6560287812e+00    0.3585848    0.2216428  70.79  0.001729638    2.505    0.601
        19  -8.7803     67.6321    244.7634   1.1155075177e+02   1.4154461331e+01    0.2707804    0.1440864 -83.32  0.001393436    2.227    0.551
        20  -8.5418     49.8157    243.7991   1.1508892120e+02   1.6565312397e+01     0.309886    0.1201193  83.82  0.001092447    4.820    0.793
        21  -8.9801     10.0097    244.2303   1.2276985411e+02   2.0800424454e+01    0.2691355   0.09101853  86.82  0.001196534    3.260    0.693
        22  -8.8208    201.9822    243.4900   8.3447717362e+01  -4.9622678610e+00    0.2026308    0.1688533 -48.57 0.0007590857    1.678    0.404
        23  -9.4125     78.1903    243.2380   1.0922227613e+02   1.3062844138e+01    0.3495703    0.1658413  67.22  0.001479977    3.033    0.670
        24  -8.5583    168.9065    243.2261   9.0037435317e+01  -1.9790979841e-01    0.1863533    0.1568029  36.85 0.0005579875    1.223    0.182
        25  -8.2212     34.4830    243.5238   1.1809997284e+02   1.8391715537e+01    0.1182012   0.09207727  64.76 0.0002103115    1.001    0.001
        26  -9.4330    159.8869    240.2637   9.1474397698e+01   1.6416143321e+00    0.3271608    0.2482263  87.52  0.001374126    2.323    0.570
        27  -8.0997    153.4190    242.2190   9.3115575115e+01   2.2798675868e+00    0.1595885    0.1274472 -67.56 0.0009447203    1.709    0.415
        28  -8.9660    146.8882    240.5258   9.4255933855e+01   3.5601147685e+00    0.3952499    0.2496887  73.24  0.001681125    3.449    0.710
        29  -8.1437     88.1463    242.1776   1.0702084095e+02   1.1909397454e+01    0.1720544     0.129275  71.42 0.0006089359    1.368    0.269
        30  -8.9193    240.5162    240.0228   7.5726353832e+01  -9.4431149933e+00    0.2428616   0.09964251 -35.64  0.001238726    2.296    0.564
        31  -9.0587    182.7683    239.9457   8.6704542719e+01  -1.6993357492e+00    0.2843718    0.2234942  57.98  0.001179366    1.863    0.463
        32  -9.2197    194.1122    239.6804   8.4387835014e+01  -3.2878884479e+00    0.1866898    0.1658401 -24.93 0.0003649545    1.293    0.227
        33  -9.0257    135.6622    239.0686   9.6453017807e+01   5.5253095664e+00    0.1957747    0.1586885  72.88  0.001009932    1.566    0.361
        34  -8.3079    129.4573    238.9471   9.7772327067e+01   6.4887863364e+00    0.1723857    0.1315084 -59.39 0.0006278062    1.548    0.354
        35  -7.9914     40.6768    239.3421   1.1659316355e+02   1.8533263267e+01    0.1317109   0.06956442  62.53 0.0007050696    1.729    0.421
        36  -8.8546    230.8610    236.9642   7.6948415165e+01  -7.8327883707e+00    0.2385705    0.2040465 -57.67    0.0011365    2.074    0.518
        37  -8.0004     13.3176    237.6757   1.2182491046e+02   2.1782358584e+01    0.1245752   0.06214007  62.46 0.0004888998    1.671    0.402
        38  -8.9871    217.2959    235.6922   7.9248555670e+01  -5.8853859889e+00    0.2031608     0.161195   3.88 0.0006274071    1.014    0.014
        39  -9.3610    213.6684    231.7202   7.9274215297e+01  -4.8024642208e+00    0.2750728    0.2460901  85.35  0.001087679    2.072    0.517
        40  -8.9076    203.2592    235.0100   8.1831580038e+01  -3.8584956910e+00    0.2684698    0.2071302 -57.69  0.001054875    2.033    0.508
        41  -9.7847    175.6158    233.3087   8.7130100089e+01   4.4915342197e-01    0.4720638    0.2664707 -58.77   0.00218032    2.818    0.645
        42  -9.3529    194.7392    233.8604   8.3325934949e+01  -2.4659945120e+00    0.3259322    0.2597205 -58.68   0.00140427    1.880    0.468
        43  -9.3247    109.1818    234.6277   1.0162837378e+02   1.0361653182e+01    0.5365832    0.2170374  48.66  0.002002699    2.522    0.603
        44  -8.8954    123.2053    233.8516   9.8455758423e+01   8.3990708311e+00    0.3397714    0.2292534 -76.13  0.001487845    2.028    0.507
        45  -8.4414     99.8238    234.4747   1.0365782861e+02   1.1769183712e+01    0.2464979    0.1644721  83.42  0.001285253    1.944    0.486
        46  -9.0718     78.5925    234.4164   1.0826499595e+02   1.4776586284e+01    0.2714189    0.1752677  85.60 0.0009901717    1.793    0.442
        47  -9.5640     68.3440    232.1670   1.1024860823e+02   1.6609930170e+01    0.5543241    0.2734121  73.44   0.00239339    2.852    0.649
        48  -8.3047    145.0172    233.2186   9.3612595230e+01   5.1593400767e+00    0.2214932    0.1343397  54.75  0.001062278    2.060    0.515
        49  -8.5499    132.7516    232.8921   9.6235282854e+01   7.1170784719e+00    0.1987293    0.1473677  77.22 0.0009774739    1.895    0.472
        50  -8.5980     92.6237    232.1568   1.0496806320e+02   1.3275909887e+01    0.3391312     0.185373  78.40  0.001425815    3.019    0.669
        51  -9.9034    185.6822    230.1233   8.4544818079e+01  -5.2980643783e-01     0.491112    0.3509739  72.40  0.002277425    3.193    0.687
        52  -8.6959    180.3689    224.0560   8.4641342017e+01   1.3034002444e+00    0.2186186    0.1979297  76.15 0.0005752573    1.594    0.372
        53  -7.6512     43.6733    232.3512   1.1546793869e+02   1.9625540613e+01    0.1353657   0.07241876  63.15 0.0007048111    1.762    0.432
        54  -8.9959    235.9279    230.5396   7.4952792495e+01  -7.5678022540e+00    0.2434533    0.1492143 -34.65 0.0008261781    1.585    0.369
        55  -8.8966      1.6204    230.9101   1.2369920629e+02   2.4256790922e+01    0.2186892    0.1040748  78.83 0.0007876389    1.832    0.454
        56  -9.9608    149.5400    226.0216   9.1554843138e+01   5.7832707407e+00     0.589604    0.3732206 -84.18  0.002345279    3.747    0.733
        57  -8.6089    140.1056    230.2204   9.4246473756e+01   6.4789781427e+00    0.2531261    0.1603095  49.73 0.0008542688    1.662    0.398
        58  -8.1103    229.6147    228.8280   7.5803718525e+01  -6.5101504583e+00    0.1571553    0.1066316 -39.88 0.0005357451    1.653    0.395
        59  -8.7918    162.5276    228.0605   8.9060348144e+01   3.3688378651e+00    0.3054045    0.1661301  47.56  0.001418882    2.069    0.517
        60  -8.8717    127.8848    227.4019   9.6541880281e+01   8.9271408866e+00    0.3186772    0.1950728  56.18  0.001090623    1.924    0.480
        61  -8.2135    119.9633    227.7011   9.8348521306e+01   1.0096525297e+01    0.2239326    0.1735145 -89.56  0.001244507    1.631    0.387
        62  -8.0446    223.3707    227.1766   7.6673078814e+01  -5.4385908289e+00    0.1616191      0.10894 -42.08 0.0007697528    1.711    0.416
        63  -7.9496     49.6291    226.8449   1.1377587279e+02   2.0083361906e+01     0.266695    0.1226276  74.57  0.001141353    2.833    0.647
        64  -8.2557    205.9550    226.1479   7.9822773312e+01  -2.8577703740e+00    0.1770204    0.1666511   8.51 0.0006063047    1.310    0.237
        65  -8.0097    200.1903    226.2263   8.0972059161e+01  -2.0362287892e+00     0.157652    0.1523039  24.55 0.0005537202    1.378    0.274
        66  -9.1389    104.7558    223.7306   1.0124321784e+02   1.3223038953e+01    0.3548301    0.2329619  81.73  0.001731154    2.096    0.523
        67  -8.9116     94.0338    224.2130   1.0372562991e+02   1.4713076976e+01    0.3762271    0.1968568  61.78  0.001624479    2.461    0.594
        68  -8.5588     72.1786    225.5738   1.0875994531e+02   1.7488279393e+01    0.1711255    0.1201184  21.44 0.0005060314    1.706    0.414
        69  -8.0283     38.7039    225.1451   1.1595136735e+02   2.1718537083e+01       0.2206   0.08907511  62.13 0.0009451085    2.717    0.632
        70  -8.7907    216.4863    223.6509   7.7361814585e+01  -3.9578909327e+00    0.2195466    0.1982011 -31.26 0.0008526092    1.390    0.281
        71  -8.5423    113.9427    223.7653   9.9169389822e+01   1.1816244710e+01    0.2267557    0.1729827 -86.39 0.0008743798    1.610    0.379
        72  -8.5780    172.9039    223.1540   8.6060567966e+01   2.6209425418e+00    0.1921695    0.1772519  46.36 0.0005976403    1.293    0.227
        73  -8.9953    158.9917    220.4676   8.8614253031e+01   5.3153842511e+00    0.2238924    0.1962376 -79.57 0.0006710729    1.526    0.345
        74  -8.1858    140.5630    222.7883   9.3044723726e+01   7.8249802403e+00    0.1736943    0.1340541 -71.87 0.0009378615    1.683    0.406
        75  -7.9603     59.5139    223.5006   1.1134203091e+02   1.9582883865e+01      0.13224      0.10455  64.21 0.0008086112    1.099    0.090
        76  -9.0074    239.0336    221.4470   7.2830783044e+01  -6.6558601025e+00    0.2469492    0.1767017 -42.65 0.0009965521    1.702    0.412
        77  -9.3331    225.5854    221.6535   7.5305847779e+01  -4.9059399276e+00    0.2217634    0.1894296  -9.98 0.0006049674    1.153    0.133
        78  -9.2307    192.4730    221.3939   8.1699837421e+01  -9.2346460192e-02    0.2715622    0.2434755  82.75   0.00113043    1.750    0.429
        79  -9.0850      6.5712    221.5691   1.2227994295e+02   2.5754420730e+01    0.2664124   0.09350136  68.74  0.001150737    3.023    0.669
        80  -9.2314    120.5761    219.3164   9.7045170528e+01   1.1693797239e+01    0.5037332     0.262105  59.85  0.001980503    2.911    0.657
        81  -8.7477     82.6222    220.7109   1.0589461906e+02   1.7094831144e+01    0.2632835    0.1710144  70.97  0.001299311    1.732    0.423
        82  -8.2506     73.2344    220.8350   1.0802804243e+02   1.8364008117e+01    0.2310067    0.1116545  65.41 0.0009399045    2.779    0.640
        83  -8.2312     27.5191    221.4906   1.1802407658e+02   2.3722132582e+01    0.1215961    0.0981598  72.16 0.0008102862    1.011    0.011
        84  -8.2021    202.6696    220.1964   7.9446216548e+01  -1.4196961745e+00     0.180084    0.1547274 -36.50 0.0005883412    1.345    0.256
        85  -8.0885    210.0247    219.2600   7.7839637739e+01  -2.3447564433e+00    0.1755114    0.1503166  -0.03 0.0004544643    1.068    0.063
        86  -8.2000    135.3540    218.6772   9.3590748616e+01   9.4678499831e+00    0.2304688    0.1501638  42.55 0.0007674073    1.427    0.299
        87  -9.1074    132.1397    215.2573   9.3800645951e+01   1.0676082822e+01    0.3482903    0.2414704 -83.56    0.0010707    2.181    0.541
        88  -8.4291     61.9688    217.3036   1.1019559765e+02   2.0622268884e+01     0.246168    0.1537724  72.61 0.0007904089    1.685    0.406
        89  -9.0164     51.6334    217.3642   1.1250811192e+02   2.1899036018e+01    0.2923008    0.1648973  79.72  0.001108347    1.945    0.486
        90  -8.8475    169.1800    216.1016   8.5680675498e+01   4.4882063174e+00    0.2785281    0.2238611 -62.94 0.0008485016    1.643    0.392
        91  -8.7124    142.9112    216.7014   9.1579315261e+01   8.6378460295e+00    0.2756693    0.2219039  88.34  0.001486365    1.705    0.414
        92  -8.5310    111.8238    217.2451   9.8762487810e+01   1.3495032511e+01    0.2347374    0.1326932  66.58 0.0009473188    2.761    0.638
        93  -8.6918     18.3771    215.9760   1.1955667141e+02   2.5845704593e+01    0.2402216   0.09764926 -87.66  0.001110563    2.451    0.592
        94  -8.6335    232.3338    214.7889   7.2856545019e+01  -4.7766722303e+00    0.2095612    0.1806928 -44.93 0.0008812809    1.585    0.369
        95  -9.6460    152.1745    213.3257   8.8955401035e+01   7.7865924079e+00    0.4005741    0.2747299  61.88  0.001003965    2.045    0.511
        96  -8.8080    147.6847    210.3222   8.9471244299e+01   9.1221216755e+00    0.2850295    0.2280841  87.59 0.0007813449    1.763    0.433
        97  -9.0608     93.1063    214.0314   1.0267567114e+02   1.7030980824e+01    0.3793968    0.1922085  56.23  0.001620437    2.271    0.560
        98  -7.8571     41.3645    215.6918   1.1462309581e+02   2.3477078237e+01    0.1393182   0.07601665  61.50  0.000703849    1.748    0.428
        99  -9.3953    213.8276    212.2781   7.5864985116e+01  -1.7673411661e+00    0.3129212    0.2733099  61.91  0.001485089    1.792    0.442
       100  -9.4640     73.1298    212.0020   1.0707985524e+02   2.0324624744e+01    0.6661626     0.242483  56.30  0.002208187    3.971    0.748
       101  -8.8009    161.6631    212.4422   8.6700858357e+01   6.3980314723e+00    0.2423834    0.2052514  84.16 0.0006946499    1.669    0.401
       102  -8.3602    106.4786    212.9579   9.9409634040e+01   1.5237857805e+01    0.1948199    0.1371786 -65.88  0.001012437    1.561    0.359
       103  -7.6835    242.7629    211.9672   7.0495870182e+01  -5.7401106304e+00    0.1538139   0.08835977 -32.39   0.00043249    1.531    0.347
       104  -8.8555    204.2099    211.0344   7.7521074997e+01  -1.2427970022e-01    0.2364675    0.2004746 -45.98 0.0006814352    1.447    0.309
       105  -9.3127      7.6212    210.7769   1.2146737100e+02   2.7988022613e+01    0.3906974    0.1209099  74.40  0.001315325    4.842    0.793
       106  -8.4669    192.2785    210.6417   7.9859424543e+01   1.7886253160e+00    0.2243966    0.1595356 -50.53 0.0006129919    1.701    0.412
       107  -9.4579    175.4444    209.5516   8.3202719127e+01   4.6854125838e+00    0.4562151     0.345953 -61.09  0.001703937    1.764    0.433
       108  -8.9836    116.2769    210.3624   9.6741996494e+01   1.4254342474e+01    0.3549145    0.2412564  74.01  0.001180258    2.022    0.505
       109  -8.4031     85.4670    209.3063   1.0386887455e+02   1.9195539227e+01    0.3317813    0.1964731  76.65  0.001144499    2.295    0.564
       110  -8.3366     32.0336    210.0248   1.1620773882e+02   2.5771568326e+01    0.2348249     0.105097  75.75 0.0009478753    2.648    0.622
       111  -9.0541    236.3492    208.2250   7.0952674562e+01  -4.3145219990e+00    0.2895224    0.1931845 -44.32  0.001063167    1.728    0.421
       112  -8.4419    185.4409    214.4306   8.1943453358e+01   2.1968086668e+00    0.2099141    0.1842736  70.31 0.0006810916    1.656    0.396
       113  -8.5937    139.2505    208.2593   9.1061463011e+01   1.0942182394e+01    0.2678435    0.1903722  69.01 0.0007303411    1.986    0.496
       114  -8.2094     46.0004    209.1642   1.1301726899e+02   2.4406054503e+01    0.1962356    0.1215817  78.78  0.001038443    1.620    0.383
       115  -9.6535    246.4887    207.2378   6.8998511820e+01  -5.5192972122e+00    0.2772533    0.1870829 -28.93 0.0006266586    1.273    0.215
       116  -9.4062    250.1421    201.9602   6.7416281877e+01  -5.2027902067e+00    0.3507685    0.1533655 -35.94  0.001480499    1.977    0.494
       117  -8.0068    156.5288    208.0371   8.7092727374e+01   8.1033408458e+00    0.1781832     0.127732 -82.03 0.0008025121    2.377    0.579
       118  -8.9594    248.1877    217.3808   7.0518432322e+01  -7.2296718618e+00    0.2786041    0.2351028 -79.35  0.001638728    2.762    0.638
       119  -9.2581     99.3327    205.9619   1.0012769089e+02   1.7876192970e+01    0.4694905    0.2928512  84.45  0.001885784    2.328    0.571
       120  -8.5996     56.5660    205.4027   1.1021909501e+02   2.3988962531e+01    0.3553932    0.1815174  66.90  0.001228975    2.326    0.570
       121  -9.1748    194.6528    203.6694   7.8108396024e+01   2.6482177296e+00    0.2899856    0.2580337  80.31  0.001037639    1.692    0.409
       122  -9.7273    192.4020    197.4289   7.7411424611e+01   4.1449464167e+00    0.4515271    0.3272338 -64.98  0.001730844    2.139    0.532
       123  -8.9233    183.6961    203.7998   8.0413691072e+01   4.4011137948e+00    0.3173467    0.2556165  70.44  0.001213251    1.919    0.479
       124  -8.1383    109.1631    205.2237   9.7669851290e+01   1.6505083060e+01     0.195933    0.1568952  71.17 0.0006699975    1.377    0.274
       125  -9.4969    163.7796    203.0040   8.4594956319e+01   7.8758993108e+00    0.4405689    0.2782644  56.69  0.001105104    2.197    0.545
       126  -8.7576    131.1415    203.7202   9.2212555705e+01   1.3244379344e+01     0.288603    0.2177301  78.26 0.0009588918    1.794    0.442
       127  -8.2757    211.0648    202.1682   7.4551513090e+01   3.3555094184e-01    0.2253292    0.1732122 -63.74 0.0006784074    2.079    0.519
       128  -8.4252     48.8182    202.7035   1.1175358168e+02   2.5555529960e+01    0.2714166    0.1437023  73.79  0.001237304    2.197    0.545
       129  -9.1237    243.0230    201.0161   6.8459801301e+01  -4.1080092667e+00    0.2693317    0.1612291 -40.41 0.0008661709    1.642    0.391
       130  -8.9502    140.5484    201.1174   8.9571512450e+01   1.2209786702e+01    0.3868373    0.2637632  73.80   0.00125002    2.380    0.580
       131  -8.6050     80.0314    201.5015   1.0417943043e+02   2.1752745304e+01    0.3222266    0.1802319  67.85  0.001375671    2.330    0.571
       132  -8.4726     10.5091    202.4767   1.2035050055e+02   2.9577294753e+01    0.1221557   0.09634885  78.04  0.000162107    1.010    0.010
       133  -9.0596    123.9878    199.4228   9.3215246616e+01   1.5367661859e+01    0.3761199    0.2521171  71.40  0.001168916    2.155    0.536
       134  -9.2191    237.1175    198.4459   6.9017064595e+01  -2.8879346953e+00    0.2944649    0.1615528 -42.94 0.0009823082    1.858    0.462
       135  -9.5501    149.5501    198.5333   8.7030999674e+01   1.1209047863e+01      0.47404    0.3337488 -87.52   0.00148015    2.465    0.594
       136  -9.2861    112.8193    198.4187   9.5755479857e+01   1.7432746298e+01    0.4540218    0.2737231  67.01  0.001551576    2.433    0.589
       137  -9.2345     88.8348    198.5458   1.0164205602e+02   2.1153396825e+01    0.4361387    0.2645053  80.08  0.001557844    2.316    0.568
       138  -9.0903    175.5281    198.8468   8.1256858776e+01   6.6971707300e+00    0.3732627    0.2223946  39.30  0.001717526    1.645    0.392
       139  -8.1851    202.1896    197.9087   7.5507345624e+01   2.4690825740e+00    0.1898007     0.182238 -48.90 0.0005331185    1.338    0.253
       140  -9.1867     61.3991    196.9877   1.0814882821e+02   2.5337159357e+01    0.4400813    0.2236522  70.80  0.001777189    2.671    0.626
       141  -9.6670    245.6994    193.6743   6.6636321838e+01  -3.3289552311e+00     0.392537    0.2491738 -57.00  0.001921098    2.764    0.638
       142  -8.2908     35.8644    196.7258   1.1421087219e+02   2.8415914546e+01    0.2535377    0.1347309  72.35 0.0009620594    2.020    0.505
       143  -7.6032     29.3425    197.6360   1.1580125871e+02   2.8888023331e+01    0.1431336   0.07683311  64.89 0.0007029315    1.846    0.458
       144  -8.1179     12.3803    196.6161   1.1955181971e+02   3.0743987478e+01    0.2474434   0.08836225  85.73  0.000946375    3.352    0.702
       145  -8.0953    132.9903    195.9815   9.0483195738e+01   1.4597680578e+01    0.2239774    0.1737621  74.89 0.0006796292    1.669    0.401
       146  -8.1608     53.4701    196.4818   1.1000846203e+02   2.6451060371e+01    0.1365105    0.1141478  72.59 8.243122e-05    1.073    0.068
       147  -8.8739    224.4839    194.1343   7.0491488571e+01  -3.4480920383e-01    0.3305031    0.1899538 -48.33  0.001450668    2.044    0.511
       148  -8.9315    185.2409    194.9103   7.8436438679e+01   5.8078530563e+00    0.2392403    0.2321279  44.61 0.0007094716    1.247    0.198
       149  -9.1509    161.0863    194.4377   8.3649944763e+01   1.0052233086e+01     0.307406    0.2469424 -88.83 0.0009908007    1.828    0.453
       150  -8.9034     43.9593    193.7581   1.1200994852e+02   2.8219303254e+01    0.4132599     0.196477  62.07  0.001793768    2.388    0.581
       151  -8.2213    230.8414    194.1693   6.9335694579e+01  -1.2949519214e+00    0.1877603    0.1627601 -27.93 0.0006339546    1.209    0.173
       152  -8.6540     77.0944    193.9582   1.0392012258e+02   2.3934274816e+01    0.2529685    0.2011284  71.67 0.0005153924    1.253    0.202
       153  -8.7082    215.9092    195.6792   7.2398027768e+01   7.0024983497e-01    0.2826665    0.1750053 -54.95  0.001099241    2.332    0.571
       154  -8.2326    198.7076    191.4354   7.4976862705e+01   4.2049729150e+00    0.2385972    0.1609844 -48.70 0.0006779917    1.655    0.396
       155  -8.8127    179.0191    191.0608   7.9037462399e+01   7.6099551037e+00    0.3808923    0.1786946 -35.96  0.001534667    2.293    0.564
       156  -8.6227    172.5981    191.8698   8.0594756855e+01   8.5639959638e+00    0.2567152    0.1814602 -60.93  0.001184136    1.843    0.458
       157  -9.1977    139.3676    190.5327   8.8002505960e+01   1.4679419610e+01    0.3818931    0.2762806  83.91  0.001147669    2.134    0.531
       158  -8.3394      6.7317    191.4597   1.2045860769e+02   3.2415076404e+01    0.3163543   0.09450772  70.49 0.0009088955    6.182    0.838
       159  -7.5019    205.3022    191.6620   7.3696377447e+01   3.0839729538e+00    0.1255019    0.1119745 -81.05 0.0005674805    1.667    0.400
       160 -10.4959     92.3055    188.8163   9.9377498387e+01   2.2909341957e+01    0.9860061    0.2744592  45.70  0.002994166    3.843    0.740
       161  -8.6404     21.0693    190.8891   1.1715544979e+02   3.1279855372e+01     0.358633    0.1274805  58.97  0.001394944    3.254    0.693
       162  -8.7042    148.3136    189.4222   8.5676686407e+01   1.3343132213e+01     0.228697    0.1786786 -76.19 0.0006969416    1.696    0.411
       163  -8.9428    129.3549    188.7487   9.0108069626e+01   1.6819818654e+01    0.3328126    0.2404423  78.31 0.0009815661    1.975    0.494
       164  -8.3148    237.3217    188.4230   6.7090010221e+01  -1.3002848000e+00    0.2366401    0.1378694 -38.43 0.0005443844    1.556    0.357
       165  -8.7932    216.5708    188.0681   7.0811192680e+01   1.9149096309e+00    0.2710463    0.2187217 -59.83  0.001005906    1.724    0.420
       166  -8.8777    191.5106    187.5938   7.5712710121e+01   6.1302837327e+00    0.3377649    0.2351525 -64.86   0.00113859    2.227    0.551
       167  -9.2986    155.9518    187.4974   8.3532873251e+01   1.2394009110e+01    0.3539376    0.2372637 -61.72 0.0009478418    1.870    0.465
       168  -9.6726    120.7853    186.6492   9.1856059772e+01   1.8772334318e+01    0.5560941    0.3234851 -75.62  0.002145133    2.706    0.630
       169  -9.0648     34.0534    188.0478   1.1383369285e+02   3.0664061804e+01    0.3196278    0.1787962  83.41  0.001185238    1.852    0.460
       170  -9.3558    248.6788    186.0131   6.4690953206e+01  -2.5322502093e+00    0.3680954    0.2141024 -22.56  0.001185006    1.644    0.392
       171  -9.1148     54.8164    186.9530   1.0860716796e+02   2.8565927507e+01    0.4659229    0.2414005  70.16  0.001944109    2.496    0.599
       172  -8.2973    230.4347    187.2543   6.8088351285e+01  -8.6873245395e-02    0.1795735    0.1144659 -45.09 0.0009420302    1.659    0.397
       173  -9.2330    109.4004    185.8506   9.4577720199e+01   2.0875897564e+01    0.4324676    0.2929835  83.27  0.001023798    2.102    0.524
       174  -8.7399    210.1487    184.3955   7.1328786810e+01   3.6006489031e+00    0.2468796     0.179835 -40.86 0.0005025779    1.358    0.264
       175  -8.4546    202.9823    184.9805   7.2857775948e+01   4.6800637075e+00    0.2018214    0.1769532 -89.51 0.0007971149    1.710    0.415
       176  -8.6885    182.9407    184.7824   7.6974580856e+01   8.1550260961e+00    0.2635527    0.2059271 -51.62 0.0008683559    1.436    0.304
       177  -9.1413     66.4910    184.3497   1.0532851128e+02   2.7702266942e+01    0.4019834    0.2532359  73.65  0.001282158    1.853    0.460
       178  -8.5538    224.1556    183.6637   6.8533772812e+01   1.4869245764e+00    0.2250374    0.1627785 -40.46 0.0006047459    1.360    0.265
       179  -8.9749    174.2143    183.4967   7.8622540582e+01   9.9551492792e+00    0.2782768    0.2299242 -64.62  0.000863607    1.516    0.340
       180  -8.8247    164.8774    187.0121   8.1394811696e+01   1.0904076711e+01    0.3008907    0.2377966  79.86 0.0009210906    1.890    0.471
       181  -8.9069     44.2283    182.3419   1.1074079916e+02   3.0937002779e+01    0.3333403    0.1954191  77.35 0.0009503571    1.884    0.469
       182  -8.0188      1.8219    183.6299   1.2104782627e+02   3.4622119713e+01    0.1666974   0.09305903  44.18 0.0009454021    1.737    0.424
       183  -9.2030    147.5247    180.6265   8.4207829207e+01   1.5386484087e+01    0.3651911    0.2799933 -82.86  0.001078123    1.837    0.455
       184  -9.5170     25.7852    179.3954   1.1503499592e+02   3.3576063185e+01      0.62042    0.2477965  76.41  0.002174523    3.860    0.741
       185  -9.3403     36.5895    178.2299   1.1222352127e+02   3.2776144648e+01    0.6625288    0.2733765  83.07  0.002202535    4.090    0.755
       186  -7.5994    240.3186    180.3266   6.5012355655e+01  -4.0931230976e-01    0.1351412   0.08919556  -8.53  0.000361681    1.679    0.404
       187  -8.7125    137.6891    179.3796   8.6352274108e+01   1.7445710566e+01    0.3093986    0.2369921  76.92  0.001033964    1.771    0.435
       188  -8.8239    204.8698    178.1827   7.1129419087e+01   5.6184905410e+00    0.3123001    0.1793199 -39.57  0.001144411    1.639    0.390
       189  -9.2519    191.3713    178.3305   7.3904454479e+01   7.9298808122e+00    0.2956298     0.264986  65.81 0.0005773671    1.440    0.306
       190  -8.0471    169.1567    178.7293   7.8806600620e+01   1.1842162644e+01    0.2263792    0.1609019  81.14 0.0008435606    2.637    0.621
       191  -8.5886    250.5264    172.8600   6.1863725848e+01  -6.8112532648e-01    0.2125097    0.1490952 -32.33 0.0006723354    1.188    0.158
       192  -8.9359    249.0133    177.3289   6.2974611982e+01  -1.1873208114e+00    0.2273927    0.2014791 -46.11 0.0004507694    1.397    0.284
       193  -8.7033    247.3120    174.2960   6.2666835146e+01  -4.4701235363e-01    0.2549405    0.1452612 -22.05  0.001092643    1.818    0.450
       194  -8.8434    231.0874    176.9734   6.5965528500e+01   1.5559149953e+00    0.2653202    0.1719328 -42.94 0.0007079052    1.505    0.336
       195  -8.5914    217.4940    177.3079   6.8516312921e+01   3.6691215055e+00    0.2267921    0.1847862 -50.82 0.0006632456    1.437    0.304
       196  -8.6347    129.1661    177.5907   8.8128372590e+01   1.9384036090e+01    0.3103213    0.2314847  86.47 0.0009950214    1.864    0.464
       197  -8.8302    183.1846    176.2375   7.5214941013e+01   9.8016740512e+00    0.2453945    0.2265079  77.08 0.0006053146    1.374    0.272
       198  -9.6587    104.2518    174.8400   9.4027445162e+01   2.4347469950e+01    0.5726404    0.3165914  62.72   0.00185575    2.725    0.633
       199  -8.7456     89.0177    176.7563   9.8358509192e+01   2.6322604877e+01    0.3112886    0.2074881  79.10  0.001196148    1.950    0.487
       200 -10.0320     57.3705    173.3683   1.0625658431e+02   3.1590366923e+01    0.8651565    0.4028966  79.23  0.002706647    4.391    0.772
       201  -8.5616     12.8201    176.5387   1.1795067464e+02   3.5422845229e+01     0.244946    0.1194356  66.21 0.0007741359    2.140    0.533
       202  -9.0856    158.7649    175.1267   8.0468175426e+01   1.4513741994e+01    0.3743194    0.2766768  81.91  0.001167144    2.184    0.542
       203 -10.6491     76.0524    171.2625   1.0095324988e+02   2.9609512267e+01     1.149477    0.4912193 -79.77  0.003293992    4.743    0.789
       204  -8.8324     74.3236    160.3347   9.9685733657e+01   3.2603361053e+01    0.2802427    0.2088383 -16.93  0.001127824    1.821    0.451
       205  -8.4680    224.4799    174.4620   6.6653991995e+01   3.0383851929e+00    0.2289445     0.117892 -48.06 0.0006537165    2.121    0.529
       206  -9.5534    175.9063    172.2223   7.5980269601e+01   1.1944559089e+01    0.4195265    0.2482669 -47.17 0.0007899837    1.714    0.417
       207  -8.2709    143.0057    172.9247   8.3796898941e+01   1.7922887238e+01     0.239743    0.1869674  77.60 0.0008644156    1.737    0.424
       208  -7.9029    194.4642    172.4430   7.2064198191e+01   8.5228271815e+00    0.1449899    0.1291222  -9.82 0.0001717035    1.045    0.043
       209  -8.3760    134.6122    171.8762   8.5668178338e+01   1.9709252023e+01    0.2828267    0.1924913 -67.96  0.000927902    1.836    0.455
       210  -9.5835    121.3932    170.5718   8.8779055607e+01   2.2408774013e+01    0.4148858    0.3006456 -87.03  0.001106476    1.896    0.472
       211  -9.0841     45.0133    171.0658   1.0923564919e+02   3.3631587557e+01    0.3841374    0.2168486  81.57  0.001172836    2.098    0.523
       212  -8.7453    205.8022    170.0887   6.9298541472e+01   6.9704655926e+00    0.3798601    0.1764369 -48.22   0.00141118    2.312    0.567
       213  -8.4058    237.1532    169.4981   6.3425848596e+01   1.8887496124e+00     0.205726    0.1670596 -46.76 0.0006257084    1.359    0.264
       214  -8.9154    230.6446    170.0646   6.4668344966e+01   2.8177806681e+00     0.198907    0.1513673 -29.33  0.001141681    1.139    0.122
       215  -8.4425    198.4888    170.1476   7.0769006063e+01   8.2486529753e+00    0.2099915    0.2002768 -81.12 0.0005941674    1.315    0.240
       216  -8.4832    149.8635    169.5665   8.1454808449e+01   1.7391404891e+01    0.2858893    0.2048706 -71.08 0.0008428309    1.882    0.469
       217  -8.4168    244.2172    169.1891   6.2177285552e+01   8.5704219173e-01    0.1701761    0.1399428 -44.94 0.0004470695    1.329    0.248
       218  -8.4090    218.9219    168.5085   6.6471075189e+01   5.0144122897e+00    0.2453729    0.1775171 -49.85 0.0006121764    1.521    0.342
       219  -9.1375    166.9951    168.5437   7.7220193921e+01   1.4378119716e+01    0.3302712    0.2507394  71.38 0.0009625256    1.891    0.471
       220  -8.8628    111.5966    167.5644   9.0771606780e+01   2.4854567313e+01     0.301394    0.2092112  74.90  0.000960156    1.999    0.500
       221  -7.8073     88.4909    168.5255   9.7146487191e+01   2.8432763550e+01    0.1506182    0.1358483  74.96 0.0008077535    1.110    0.099
       222  -8.9259    191.9139    166.6290   7.1384120597e+01   1.0121663442e+01    0.2748682    0.2000226 -46.45 0.0005896729    1.392    0.281
       223  -8.5226    184.9940    166.6774   7.2851384459e+01   1.1388264650e+01    0.2585871     0.179014 -54.12 0.0007486988    1.636    0.389
       224  -8.7754    140.3311    166.6401   8.3193318610e+01   1.9844214814e+01    0.2998723    0.2373084  65.61 0.0008936107    1.528    0.346
       225  -9.5930    135.6322    163.9388   8.3820117607e+01   2.1348168352e+01    0.4043124    0.2758006  55.32 0.0008799745    1.688    0.408
       226 -10.0153     94.9031    162.8404   9.4401339365e+01   2.8825663643e+01    0.8796695    0.4819716  73.40  0.002753163    3.991    0.749
       227  -9.2198     20.4587    166.1245   1.1511749416e+02   3.7306296994e+01    0.3627409     0.179589  66.88  0.001332879    2.295    0.564
       228  -8.0135     13.3281    167.6713   1.1707873586e+02   3.7525694446e+01    0.1365818   0.07999636  66.27 0.0007051015    1.707    0.414
       229  -8.3410    233.8501    165.0905   6.3108693931e+01   3.1681573732e+00    0.1997984    0.1640879 -43.19 0.0006005103    1.256    0.204
       230  -8.6867    159.5248    164.4398   7.8090384307e+01   1.6681595539e+01    0.2695536    0.2173199 -58.05 0.0007658447    1.366    0.268
       231  -8.3330    239.9408    164.1620   6.1888838409e+01   2.3623545747e+00    0.1941831    0.1675636 -46.54 0.0006495825    1.298    0.229
       232  -8.6026    212.9865    163.7281   6.6596470148e+01   6.9052576250e+00    0.2513048    0.1798919 -39.14 0.0006842295    1.290    0.225
       233  -8.4741     56.6105    163.8916   1.0516342947e+02   3.4065364721e+01    0.3464646    0.1986726  -1.55   0.00130555    3.425    0.708
       234  -9.3828     33.1415    163.1666   1.1146413057e+02   3.6862443555e+01    0.4987688    0.2196364  56.11  0.002040984    2.701    0.630
       235  -8.7342    246.0516    163.0420   6.0660289724e+01   1.6051246696e+00    0.1977054    0.1622287 -28.64 0.0004680693    1.039    0.037
       236  -8.4921    204.9075    163.0604   6.8012072479e+01   8.4583846462e+00    0.2100861    0.1874281 -56.70 0.0005813614    1.303    0.233
       237  -9.2129      3.4478    162.4140   1.1912497360e+02   3.9548102731e+01    0.3983232    0.1752677  56.45  0.001719474    2.403    0.584
       238  -8.8475    151.4794    160.9155   7.9262002891e+01   1.9008346640e+01    0.3246121    0.2539454 -83.16 0.0009629116    1.755    0.430
       239  -9.1111    177.4256    160.5869   7.3195838301e+01   1.4062793713e+01    0.2877314    0.2432307 -69.85 0.0008092422    1.462    0.316
       240  -8.6822     60.7500    160.4658   1.0351361336e+02   3.4411501299e+01    0.3632699    0.2045331  65.47  0.001504555    2.330    0.571
       241  -7.6286    242.2413    159.9889   6.0670726176e+01   2.7112961758e+00    0.1670691      0.09615 -37.57 0.0003021978    1.482    0.325
       242  -8.5424    227.6179    159.2295   6.2996395005e+01   5.2199272494e+00    0.3107588    0.1767844 -53.82  0.001083296    2.218    0.549
       243  -8.4879    242.9723    155.0146   5.9548591832e+01   3.4425181664e+00    0.2079857    0.2001937 -76.51 0.0003956612    1.343    0.255
       244  -8.2263    240.0074    153.2526   5.9671793006e+01   4.2215231160e+00    0.1704371    0.1532483 -54.81 0.0003444274    1.304    0.233
       245 -10.0020    250.1470    157.7923   5.8964003172e+01   1.8547637657e+00     0.346504    0.2727499 -33.56  0.001814515    1.080    0.074
       246  -9.0005    246.5578    155.5392   5.9080268538e+01   2.7872402213e+00    0.3544925    0.1657313 -26.12  0.001480108    2.553    0.608
       247  -8.5346    237.1615    158.7465   6.1261072885e+01   3.7339164624e+00    0.2395799    0.1591568 -44.22 0.0008793242    1.427    0.299
       248  -8.5387    128.0960    158.9059   8.4716510643e+01   2.3939734483e+01    0.2373854    0.2070529  80.66 0.0005472568    1.320    0.243
       249  -9.8804    105.7055    157.9228   9.0508575499e+01   2.8227751905e+01    0.5267481    0.3491507  70.21  0.001082151    2.130    0.530
       250  -8.4520    196.6131    158.0784   6.8605047314e+01   1.0937157139e+01    0.2227259    0.2061224  55.87 0.0006920585    1.262    0.208
       251  -8.1723    188.1685    157.9149   7.0310427453e+01   1.2558370378e+01    0.2170765    0.1957424 -62.07 0.0005008833    1.273    0.215
       252  -9.0812    167.5749    157.3670   7.4707109685e+01   1.6649707065e+01    0.3274469    0.2620349  79.63  0.001023565    1.735    0.423
       253  -7.6696     79.5104    158.4824   9.7913814191e+01   3.2315936687e+01     0.146627    0.1394467 -79.88 9.854759e-05    1.006    0.006
       254  -9.6096     81.7427    154.8264   9.6636967876e+01   3.2905525129e+01    0.5266116    0.3634461  87.65  0.001620348    1.835    0.455
       255  -8.4728    217.9365    156.6422   6.4192642791e+01   7.3489057183e+00    0.2755408    0.1695472 -54.16 0.0008509091    1.952    0.488
       256  -8.8624    157.7596    156.1122   7.6720361808e+01   1.8847913518e+01    0.3399124    0.2401685 -59.96  0.000920852    1.639    0.390
       257  -9.3678    119.4980    155.3104   8.6240953000e+01   2.6395744574e+01    0.4665802    0.3133221 -85.12  0.001570587    2.324    0.570
       258  -8.6600     22.6331    156.6514   1.1357261234e+02   3.9467756920e+01    0.2093963    0.1336595 -45.57  0.001105471    1.711    0.415
       259  -9.2759     49.7610    155.2950   1.0585332260e+02   3.7069922480e+01     0.392259    0.2234686  67.07  0.001693077    2.236    0.553
       260  -7.8047    204.7228    155.3725   6.6415445543e+01   9.9614676444e+00    0.1416381    0.1116927 -67.80  0.000680243    1.691    0.409
       261  -8.6367    144.3331    154.7880   7.9699099627e+01   2.1781385434e+01    0.2757248    0.2311452 -86.00 0.0008061786    1.483    0.326
       262  -9.5794    132.9671    153.1845   8.2240107133e+01   2.4360053619e+01    0.4804665    0.3469978  74.46  0.001416847    1.977    0.494
       263  -9.1841    133.4804    148.5043   8.1083647158e+01   2.5356524396e+01    0.4558196     0.230969 -45.99  0.001754652    1.957    0.489
       264  -9.4223     67.9056    153.7885   1.0042384320e+02   3.5163804649e+01    0.4580984    0.2648158  70.16  0.001409437    2.521    0.603
       265  -8.1867    233.0090    154.0238   6.0993044244e+01   5.2395012371e+00      0.20064    0.1599331 -64.49 0.0005723134    1.655    0.396
       266  -8.7945    151.5534    152.3520   7.7385774341e+01   2.0909378817e+01    0.2902321    0.1504987 -51.71  0.001116004    2.019    0.505
       267  -9.7600     29.4265    150.8272   1.1102321399e+02   4.0322886978e+01    0.4977514    0.2314988  67.11  0.001924195    3.085    0.676
       268  -8.4264     19.9298    152.4180   1.1385263749e+02   4.0754120829e+01     0.188989    0.1437024  81.63 0.0006767219    1.239    0.193
       269  -9.6344    248.8542    149.3234   5.7469712792e+01   3.4728767480e+00    0.3206422    0.1780318 -36.87 0.0007140306    1.508    0.337
       270  -9.1086    246.9892    143.7760   5.6632710247e+01   4.7087757914e+00    0.2693212     0.159875 -41.52 0.0005448895    1.440    0.305
       271  -8.9904    243.1266    150.1859   5.8543426727e+01   4.2424857976e+00     0.294105    0.1595056 -42.51 0.0009651029    1.618    0.382
       272  -8.8185    189.3699    150.2661   6.8386918783e+01   1.3869276420e+01    0.3170762    0.2262559 -55.64 0.0009356557    1.575    0.365
       273  -8.0418    182.4137    151.2636   7.0075297159e+01   1.5023132236e+01    0.2073512    0.1380766 -52.82 0.0005994957    1.620    0.383
       274  -8.2955    162.4797    150.6009   7.4390630094e+01   1.9118584910e+01    0.2962015    0.2119814 -76.81  0.001085249    2.125    0.529
       275  -8.7913     98.3247    150.8460   9.1165475744e+01   3.1244425025e+01    0.2909857     0.225327  85.98 0.0009455043    1.574    0.365
       276  -8.2743    213.0253    149.8226   6.3646739309e+01   9.4942864939e+00    0.2018399    0.1839866 -64.89 0.0003666984    1.291    0.226
       277  -9.7692     39.9667    147.9757   1.0763019833e+02   4.0012474640e+01    0.5877506    0.2845421  63.61  0.002081379    2.990    0.666
       278  -8.7193      2.6249    149.8168   1.1828352339e+02   4.2670054894e+01    0.1869821   0.09867826 -89.36 0.0009443769    1.726    0.421
       279  -8.4211    198.9247    148.9474   6.6158332323e+01   1.2292739722e+01    0.2190283    0.1778016 -75.03 0.0006048722    1.655    0.396
       280 -10.2693     89.1962    146.2591   9.2871664260e+01   3.3903420825e+01    0.7180328    0.4260918  88.79  0.002518917    3.106    0.678
       281  -9.9450    233.6204    147.2438   5.9484136026e+01   6.3309526775e+00    0.3821572    0.1978694 -28.99  0.001138486    2.012    0.503
       282 -10.3620    107.0806    144.5152   8.7380014611e+01   3.1285760372e+01    0.8656484    0.5756507  84.32  0.002533524    2.466    0.594
       283  -8.7844     77.9962    147.2562   9.6336930090e+01   3.5388730749e+01    0.2729738     0.200596  84.29 0.0007832844    1.647    0.393
       284 -10.3614     54.7803    144.7623   1.0278057409e+02   3.9166758160e+01    0.8143009    0.4199049  71.35  0.002852208    3.449    0.710
       285  -9.8880     55.9518    135.6993   1.0088417635e+02   4.1343344294e+01    0.5570065    0.2931819  -0.89  0.001873458    4.059    0.754
       286  -8.1433    223.3053    146.9686   6.1185002595e+01   8.1725022031e+00    0.1954629    0.1596882 -33.53 0.0003534359    1.078    0.073
       287 -10.2665    148.8834    144.8107   7.6344767434e+01   2.3139756972e+01    0.5920262    0.4107891 -79.51  0.001496536    2.295    0.564
       288  -9.9366    139.1366    145.0599   7.8851864391e+01   2.5041216836e+01    0.5053661    0.3264615 -72.25  0.001248688    2.341    0.573
       289  -8.9429    139.6275    137.5122   7.6983262403e+01   2.6679474213e+01    0.4303404    0.2554276 -18.49  0.001434559    3.143    0.682
       290  -9.4478     13.3782    146.4992   1.1503369797e+02   4.2744011014e+01     0.350904    0.2225425  67.88  0.001389328    1.661    0.398
       291  -7.8957    206.7717    146.5666   6.4113849869e+01   1.1268537893e+01    0.1768169    0.1411055  57.26 0.0004527447    1.506    0.336
       292  -8.5801    175.5254    146.1413   7.0424798593e+01   1.7454797276e+01    0.2386431    0.2119728  88.39 0.0007192328    1.374    0.272
       293 -10.4672    241.7376    143.5048   5.7394549054e+01   5.6175498305e+00    0.5415607    0.3235738 -13.70  0.002429212    2.479    0.597
       294  -9.8826    124.9803    142.4102   8.1971754244e+01   2.8448912433e+01    0.7198522    0.4171233 -67.10  0.001484186    2.424    0.587
       295  -7.7694    194.3952    144.1901   6.6007973170e+01   1.4105677539e+01    0.2054512    0.1320959 -50.69 0.0005392325    1.615    0.381
       296  -8.6777    165.8512    144.1277   7.2143594865e+01   1.9840827987e+01    0.2330195    0.2084122 -79.14 0.0006379148    1.305    0.234
       297 -10.9038     69.5555    140.8129   9.7651174118e+01   3.8248899228e+01    0.6900343    0.3995097 -81.87  0.002282641    2.348    0.574
       298  -8.1879     29.9415    144.0000   1.1001150672e+02   4.2002943454e+01    0.1986837   0.07822751  23.41 0.0006670512    2.919    0.657
       299  -9.0626      2.7305    141.5611   1.1750152814e+02   4.4688188000e+01    0.3961022    0.1744477  71.08   0.00167736    2.863    0.651
       300  -7.5593    230.3337    142.6636   5.9070379731e+01   7.7100729774e+00    0.1359705    0.1040529 -67.43 0.0007052056    1.741    0.426
       301  -8.9045    182.0340    141.6013   6.7981271521e+01   1.7087133426e+01      0.28488    0.2044957 -58.84 0.0007370195    1.609    0.379
       302  -8.4196    250.4829    140.9462   5.5527959675e+01   4.6218119101e+00    0.2015322    0.1088038 -39.92 0.0006515811    1.542    0.351
       303  -7.8867     39.6435    141.6608   1.0682044307e+02   4.1656059722e+01    0.1488398   0.09371401 -37.98 0.0007039918    1.813    0.448
       304  -9.9106     23.3960    138.2425   1.1119191142e+02   4.4029503003e+01    0.5286819    0.2629043  64.26  0.002043651    2.684    0.627
       305  -8.0089    218.6139    138.7249   6.0234878305e+01   1.0533781827e+01    0.1953985     0.120473 -46.97 0.0004706109    1.549    0.355
       306  -8.1871    207.4947    138.0066   6.2089639737e+01   1.2766762745e+01     0.220777    0.1311078 -43.48 0.0006884587    1.556    0.357
       307  -8.6863    197.4920    137.5898   6.3907214527e+01   1.4799704795e+01    0.2775713    0.2244684 -59.32 0.0008844621    1.370    0.270
       308  -8.4569    172.0732    138.1007   6.9341744463e+01   1.9851007716e+01    0.2334229    0.1881318 -82.15 0.0005542656    1.639    0.390
       309 -10.4815     83.6877    133.2937   9.1854436969e+01   3.8048598677e+01     0.680146    0.3799389 -70.48  0.001501087    2.246    0.555
       310  -9.2865     39.1648    136.1586   1.0613842598e+02   4.3108040922e+01    0.3061908      0.21654  82.51  0.000870948    1.568    0.362
       311  -9.2108    248.4915    135.4168   5.4697763459e+01   5.8785782432e+00    0.2815446    0.1871382 -47.47 0.0007779563    1.397    0.284
       312  -8.6945    247.0033    130.4719   5.3900964014e+01   6.9641400706e+00    0.2479177     0.151839 -48.12 0.0005471521    1.517    0.341
       313  -8.6277    162.4692    136.3222   7.1109858338e+01   2.2223418635e+01    0.2501943    0.1940044  71.85 0.0007485075    1.668    0.400
       314  -8.2573    151.5088    135.6706   7.3569419511e+01   2.4648866081e+01    0.2827846    0.1455582  42.77  0.001085338    1.980    0.495
       315 -10.6957     59.9977    125.1234   9.7615943338e+01   4.3524124637e+01    0.8376819    0.4837407  77.47  0.002528907    3.203    0.688
       316  -8.2965    237.5407    133.3012   5.5928025465e+01   8.1019908106e+00    0.2565488    0.1130223 -43.27 0.0007362062    1.978    0.494
       317  -7.9501    231.5638    133.8240   5.6990663820e+01   9.0653444634e+00    0.1926544    0.1150752 -47.23 0.0004139378    1.572    0.364
       318  -8.8042    179.3782    133.9907   6.6786488571e+01   1.9197757632e+01     0.276318    0.2554989  88.22 0.0008390817    1.231    0.188
       319  -9.2876    112.9788    133.2954   8.3202683262e+01   3.2933414196e+01    0.3983779    0.3030489 -88.17  0.001430596    1.763    0.433
       320  -9.1769    143.1949    131.9582   7.4749593125e+01   2.7209669522e+01    0.3585461    0.2624802 -73.48 0.0007703919    1.824    0.452
       321 -10.9222    132.7575    129.3618   7.6826348310e+01   2.9956431354e+01     1.125818    0.5118917 -42.97  0.001898626    2.217    0.549
       322  -9.6615    130.7227    118.6237   7.4689227475e+01   3.2827275563e+01    0.5153134    0.3288823 -62.87  0.001816943    1.968    0.492
       323 -10.4429     98.0858    130.2247   8.6829619258e+01   3.6403338095e+01    0.7496694    0.3507347 -55.46  0.001875989    2.139    0.532
       324  -9.1703    250.6514    129.9599   5.3264403248e+01   6.4395027572e+00    0.4091138    0.1051128 -39.00  0.001419937    3.264    0.694
       325  -9.3360    168.5116    129.8744   6.8191227502e+01   2.2332770992e+01    0.3742166    0.2755543 -80.26  0.001010775    1.984    0.496
       326 -10.0596     73.2182    129.4130   9.4279151887e+01   4.0620899121e+01     0.482703    0.3255228 -89.12  0.001375218    2.036    0.509
       327 -10.2067     12.8377    128.9836   1.1320174517e+02   4.7148714942e+01    0.6159204    0.2955853  86.96  0.002498481    2.513    0.602
       328  -8.3113    234.6871    130.2623   5.5732886525e+01   9.1366948869e+00    0.1269937    0.1010671 -68.28            0    1.537    0.349
       329  -7.8965    204.5676    130.4968   6.0946706002e+01   1.4772751898e+01    0.1457556    0.1319393 -45.05 0.0002605817    1.064    0.060
       330  -7.9805    192.6178    130.2475   6.3184872251e+01   1.7227370087e+01    0.2081211    0.1342629 -33.35 0.0005556167    1.549    0.355
       331  -9.5265    152.8973    128.6534   7.1540875806e+01   2.5907507549e+01    0.5225512     0.269032 -52.75  0.001117362    2.121    0.528
       332  -8.4633     25.5497    130.0237   1.0943220621e+02   4.5923807372e+01    0.2924186    0.1449596  -1.71  0.001178409    3.342    0.701
       333  -8.3532      1.9257    130.4260   1.1662613647e+02   4.7473484226e+01    0.1710379    0.0804738  49.13   0.00071137    2.455    0.593
       334  -8.3794    211.5167    129.0351   5.9350750430e+01   1.3684086929e+01    0.2216426    0.1288249 -43.35 0.0009347193    1.568    0.362
       335 -10.7712     44.7351    123.4451   1.0225530066e+02   4.5756628343e+01     1.150803    0.6012731  76.47  0.003923565    3.914    0.745
       336  -9.9405    117.8768    125.2693   7.9897476767e+01   3.3902048362e+01    0.5608602    0.3863554  78.08  0.001384319    2.343    0.573
       337  -7.8581    228.6438    125.3426   5.5636270664e+01   1.1103229499e+01    0.1421947    0.1024846 -68.84 0.0007037839    1.822    0.451
       338  -8.9235    179.1718    124.7803   6.4643191471e+01   2.1128067585e+01    0.2929095     0.247689 -74.77 0.0007311821    1.386    0.278
       339 -10.2281     28.3842    122.3647   1.0739297245e+02   4.7612372748e+01    0.7187825    0.3610672  73.99  0.002636568    3.421    0.708
       340  -8.0270    188.5766    123.8256   6.2482740454e+01   1.9335200475e+01    0.2100714    0.1342179 -51.74 0.0005347681    1.613    0.380
       341  -8.6115     84.2083    122.9052   8.9401867531e+01   4.0554937816e+01    0.2847149    0.1988815  -7.63 0.0009559182    2.028    0.507
       342  -7.8285    203.1569    122.1586   5.9297179339e+01   1.6645664580e+01    0.2008944    0.1622181 -62.34 0.0004585479    1.353    0.261
       343  -7.9035    195.0116    122.1652   6.0828689505e+01   1.8318334238e+01    0.2204766    0.1464537 -55.72 0.0004789719    1.641    0.391
       344  -8.6597    172.1051    121.7171   6.5415229128e+01   2.3267276098e+01    0.2572214    0.2035442 -54.87  0.000537826    1.304    0.233
       345  -9.0354    158.4688    121.3842   6.8416772781e+01   2.6285847917e+01    0.3319578    0.2611565 -65.24 0.0008248428    1.462    0.316
       346  -8.8683     98.8879    120.6812   8.4336459730e+01   3.8584702426e+01     0.249597    0.1970095   2.74  0.001126358    1.552    0.356
       347 -10.1227    141.5746    117.8080   7.1641447536e+01   3.0709116552e+01    0.7408724     0.344649 -51.17  0.001293726    2.303    0.566
       348  -9.7943      2.7072    116.9457   1.1488193755e+02   5.0736315557e+01    0.4975421    0.2331003  81.83  0.002145332    2.754    0.637
       349  -9.6280     71.0489    119.7396   9.2896998908e+01   4.3361146598e+01    0.4046597    0.2753141 -81.94  0.001104795    1.930    0.482
       350  -8.2375    185.6720    116.1645   6.1225737846e+01   2.1463331047e+01    0.2354383    0.1756373 -57.97 0.0005646511    1.437    0.304
       351  -9.8928    109.3570    114.2339   7.9579878344e+01   3.8152321667e+01    0.5296918    0.3609324 -73.72  0.001312437    2.093    0.522
       352  -8.9685    109.2323    107.4576   7.7834380050e+01   3.9734484000e+01    0.4191312    0.2733773   7.87  0.001542289    2.507    0.601
       353  -8.8063     59.3756    115.2015   9.5764938819e+01   4.6091770184e+01    0.3397271    0.2056051 -14.47  0.001381807    2.537    0.606
       354  -8.2833    192.9511    115.1325   5.9555290005e+01   2.0110289298e+01    0.2253618    0.1896427 -64.59 0.0005203804    1.272    0.214
       355  -8.1522    153.3404    115.2294   6.8074468825e+01   2.8712393128e+01    0.2284808    0.1403616 -51.72 0.0006720455    1.703    0.413
       356 -10.2172     92.7236    112.4466   8.4196937684e+01   4.1655002533e+01    0.6494632    0.3786408 -67.35  0.001369782    2.335    0.572
       357  -8.7789     93.7433    104.4202   8.1785926061e+01   4.3354809484e+01    0.3360408    0.2205359   0.56  0.001317359    2.435    0.589
       358  -9.8705     78.9017    112.3572   8.8616737454e+01   4.3985688732e+01    0.5648845     0.393866 -88.73   0.00194995    2.166    0.538
       359  -8.7236     78.5345    105.5319   8.7040589710e+01   4.5680777019e+01    0.4772086    0.2724496  15.27  0.001852848    2.527    0.604
       360  -7.9394    167.4813    114.5040   6.4638217130e+01   2.5756005058e+01    0.1532311    0.1474281 -56.81 0.0001379413    1.035    0.034
       361  -8.7112     26.7247    113.7718   1.0655017637e+02   4.9899697092e+01    0.2435684    0.1579625 -25.72 0.0006941708    1.797    0.444
       362 -10.2637    133.7460    109.3690   7.1467194323e+01   3.4238890718e+01     0.734303    0.3132769 -48.43  0.001898493    2.404    0.584
       363  -9.7395    121.8149    112.4200   7.5521900563e+01   3.6075669458e+01    0.3815049    0.3045734 -78.47 0.0006516603    1.585    0.369
       364  -8.3483    174.7928    112.0187   6.2436551007e+01   2.4650228355e+01    0.2363417    0.1963449 -65.83 0.0006118941    1.317    0.241
       365  -8.5516    159.1822    111.7537   6.5810658807e+01   2.8154324301e+01    0.2698751    0.2014087 -53.06 0.0006521854    1.379    0.275
       366 -10.2340     66.6105    109.7707   9.2098107381e+01   4.6451558120e+01    0.6844661    0.3174335 -57.63  0.001957531    2.067    0.516
       367 -10.0042     13.8371    111.0468   1.1046153228e+02   5.1524705672e+01    0.3697287    0.2404083  72.56   0.00149606    1.874    0.466
       368  -8.8129     42.5822    109.6114   1.0034081820e+02   4.9446388446e+01    0.3284027    0.1728308  -0.44  0.001285831    3.073    0.675
       369 -10.6043    249.2031    103.9004   4.8082948013e+01   1.1017918690e+01    0.5165666    0.2408158 -34.87  0.002382615    1.988    0.497
       370  -7.9791    189.1614    108.1195   5.8583959879e+01   2.2267342251e+01    0.2046494    0.1678187 -65.80 0.0004554103    1.317    0.241
       371 -10.0153    119.1231    105.8357   7.4521457800e+01   3.8102580490e+01    0.4478655     0.367855  84.78  0.001688187    1.560    0.359
       372 -10.7325    108.6305     98.6654   7.5600985280e+01   4.1816466061e+01    0.8604411      0.50694  67.93  0.001034253    3.345    0.701
       373  -9.1991    107.4960     92.8454   7.4282158614e+01   4.3302317409e+01    0.6802247    0.3294745  27.74  0.002275725    3.069    0.674
       374 -10.6186     45.5516    102.2609   9.7741103359e+01   5.0925816808e+01     0.759087    0.4504121  70.22  0.002771362    3.093    0.677
       375 -10.6696     22.8724    102.5595   1.0594269385e+02   5.2962901593e+01    0.7989945    0.4447969  77.87  0.002472153    2.909    0.656
       376  -9.1130     22.7794     90.2590   1.0361982587e+02   5.5917721648e+01    0.3274679    0.2175937 -27.55  0.001163972    1.546    0.353
       377  -9.5167    150.5263    103.1573   6.5586427428e+01   3.1856269715e+01    0.4585477    0.2738956 -57.40  0.001043002    2.017    0.504
       378  -8.4411    166.6372    104.1299   6.2173231945e+01   2.8035480706e+01    0.2410697    0.1780676 -55.29 0.0005252864    1.419    0.295
       379  -9.9515    128.3692    101.9697   7.0899413345e+01   3.6992431736e+01    0.3862404    0.2754566 -57.66 0.0009337266    1.566    0.361
       380  -9.0111      6.7873    102.9254   1.1166478784e+02   5.3924512707e+01    0.2649353    0.1786783  63.20  0.001441059    1.826    0.452
       381  -8.2916    159.7032    101.1281   6.2919647489e+01   3.0196660810e+01     0.242351    0.1821088 -57.95 0.0005415223    1.437    0.304
       382  -9.1904     82.1141     99.9625   8.4386428801e+01   4.6401991641e+01    0.3757129    0.2557825 -69.80 0.0008396756    1.916    0.478
       383 -10.5236     63.9759     95.1167   8.9386411929e+01   5.0315382511e+01    0.9621347    0.4427808 -59.85  0.003205437    2.388    0.581
       384  -7.7807    182.7483    109.3759   6.0146696573e+01   2.3424262826e+01    0.1542126    0.1121724 -66.03 0.0003165559    1.646    0.392
       385  -9.7452     90.8730     93.9070   7.9812392401e+01   4.6251910417e+01     0.253075    0.2443179 -10.12 0.0003136494    1.027    0.026
       386  -9.1740    139.9141    104.6277   6.8596986801e+01   3.3911757142e+01    0.3839885    0.2998776  80.77  0.001103337    1.669    0.401
       387  -8.3858    176.5006     93.4609   5.7363126618e+01   2.7850760024e+01    0.2584409    0.1302781 -49.85 0.0005746742    2.081    0.519
       388  -8.3046    164.8536     94.1599   5.9940896202e+01   3.0381471743e+01    0.2353214    0.1977027 -69.36 0.0005251082    1.298    0.229
       389  -9.2126     46.2406     92.6528   9.5265037177e+01   5.3141702051e+01    0.4529289    0.2543341   1.31   0.00192419    2.559    0.609
       390  -9.6876     94.9579     97.0419   7.9377822684e+01   4.4808418100e+01    0.3904808    0.2928702 -68.89  0.000937487    1.678    0.404
       391  -9.5451    138.9243     91.8889   6.5328848756e+01   3.6745314957e+01    0.4473625    0.2851457 -54.33 0.0007444819    1.761    0.432
       392 -10.2153    123.9342     91.2743   6.9090034025e+01   4.0188576528e+01    0.5905537    0.4203371  34.24  0.001418326    1.485    0.326
       393  -9.5449      5.5815     92.4800   1.1048069266e+02   5.6483501354e+01    0.3101277     0.206186  55.32   0.00123296    1.935    0.483
       394  -7.8894    157.6624     91.7902   6.0871580918e+01   3.2486485726e+01    0.2132655    0.1352945 -48.88 0.0003941507    1.611    0.379
       395  -9.7880     34.7699     89.8679   9.8949498750e+01   5.4986474012e+01    0.4863488    0.2882824 -82.87  0.001844685    2.509    0.602
       396  -9.0985    187.0805     99.1423   5.6763903716e+01   2.4415234111e+01    0.2183522    0.2023742   3.70 0.0004773376    1.229    0.186
       397  -7.6568    183.3182     90.2875   5.5238793038e+01   2.6883241299e+01    0.1429372    0.1168096  14.91  0.000316255    1.593    0.372
       398  -7.9362    150.8046     89.0241   6.1665004193e+01   3.4594913311e+01    0.2037246    0.1180653 -40.75 0.0004041177    1.721    0.419
       399 -10.2453     86.4958     85.9175   7.8939736090e+01   4.8777263748e+01    0.6923389    0.4138969 -53.04   0.00171422    1.790    0.441
       400  -8.3107    163.5195     87.0276   5.8311210670e+01   3.2028672417e+01     0.221169    0.1454977 -41.11 0.0005368151    1.502    0.334
       401  -9.8474     48.5862     83.8360   9.2127645231e+01   5.4901253565e+01    0.6513803    0.4238369 -75.33  0.002848541    2.176    0.541
       402  -9.7609    104.7510     83.1645   7.2242932877e+01   4.5870703662e+01    0.4322522    0.3112115 -67.40 0.0009943189    1.910    0.476
       403  -8.3194    157.8909     84.0716   5.8706353275e+01   3.3881405856e+01    0.2262251    0.1971138 -72.42 0.0003582464    1.230    0.187
       404  -9.1053    140.8456     82.6145   6.2204093208e+01   3.8102540758e+01    0.3456056    0.2002588 -45.85 0.0009002601    1.772    0.436
       405  -8.4122     35.4066     82.7537   9.7008088387e+01   5.6571094235e+01    0.2016394    0.1030503 -47.65 0.0009479173    1.656    0.396
       406  -9.6361     24.5822     80.5539   1.0080507925e+02   5.8029977062e+01    0.4128431    0.2586128 -87.81  0.001356811    2.404    0.584
       407  -9.6748      9.7754     80.9975   1.0683041346e+02   5.8935083251e+01    0.3279229    0.2009642  59.15  0.001497132    2.413    0.586
       408  -8.2898    150.3023     80.6891   5.9438720808e+01   3.6269232573e+01     0.277564    0.1732955 -51.24 0.0007947036    1.727    0.421
       409  -8.9578    119.3926     80.0814   6.7029521818e+01   4.3400093319e+01    0.3984469    0.2543045 -46.71  0.001124271    1.634    0.388
       410  -8.8944     74.6195     80.3700   8.1395433363e+01   5.1985634383e+01    0.3514589    0.2136895 -62.23  0.001216649    2.201    0.546
       411  -8.1312    166.7172     79.9110   5.5725373059e+01   3.2568846504e+01    0.2069585    0.1820403 -44.14 0.0005280928    1.131    0.116
       412  -8.1218    184.2067     78.0734   5.1950645253e+01   2.8821934902e+01    0.1935754    0.1126086 -37.30 0.0005658969    1.704    0.413
       413  -7.7314    174.6408     77.8161   5.3623728053e+01   3.1082645657e+01    0.2146296    0.1263264 -48.26 0.0007619698    1.707    0.414
       414  -7.4236    188.2807     87.3094   5.3578646070e+01   2.6292536456e+01    0.1386204     0.115806   6.92 0.0002867058    1.563    0.360
       415  -9.4324    128.0659     75.2192   6.3218826679e+01   4.2388915696e+01    0.4022302    0.2531436 -56.73 0.0007103307    1.977    0.494
       416  -8.0075    157.1850     76.2461   5.6679274623e+01   3.5451168183e+01    0.2063121    0.1692623 -71.11 0.0005336914    1.354    0.261
       417  -9.9522     63.0631     73.5661   8.3578584459e+01   5.5208847285e+01    0.4401622    0.2737508 -59.21  0.001040672    1.944    0.486
       418  -8.7901    140.1230     74.6863   6.0060947028e+01   3.9721873245e+01    0.3419366    0.1806735 -46.19  0.001180534    1.992    0.498
       419  -9.7134     82.4084     72.8820   7.6304120826e+01   5.2195736806e+01    0.4206431     0.314901 -74.61  0.001094024    2.082    0.520
       420  -8.2322    163.4798     73.4552   5.4607181368e+01   3.4449776415e+01    0.2554779    0.1279967 -48.12   0.00101757    2.103    0.525
       421  -8.5023    115.5123     73.0202   6.5936301045e+01   4.5576597075e+01    0.2193488    0.1461889 -40.15 0.0005141571    1.531    0.347
       422  -8.4526     42.4792     72.7024   9.1474584073e+01   5.8064919352e+01    0.2480358    0.1274499 -58.90 0.0008082167    2.052    0.513
       423  -9.2299     29.4860     70.2367   9.6202256495e+01   5.9913773128e+01    0.4082254    0.1965706 -19.45  0.001680474    2.917    0.657
       424  -7.6498    175.3285     72.6997   5.2137673763e+01   3.1788944882e+01    0.1500655    0.1089324 -75.32 0.0004222166    1.642    0.391
       425  -9.2116    105.8891     71.8515   6.8365928627e+01   4.7841686782e+01    0.2532906    0.2151641 -56.62 0.0005745157    1.341    0.255
       426  -9.2305     95.1741     71.0398   7.1435821108e+01   5.0162913587e+01    0.3763251    0.2447258 -57.21  0.001075129    1.983    0.496
       427  -9.6430     51.4295     69.5682   8.6903218879e+01   5.7649647545e+01    0.4434427    0.2599823 -65.38  0.001458384    2.464    0.594
       428  -7.6643    156.7807     70.0222   5.5008611846e+01   3.6615493301e+01    0.1887131     0.119175 -38.28 0.0004047355    1.609    0.378
       429  -8.6633    147.0341     68.3998   5.6624384524e+01   3.9194309159e+01    0.2738431    0.1933585 -53.84 0.0005459086    1.550    0.355
       430  -8.6890    138.5201     66.0667   5.7863226643e+01   4.1587817262e+01    0.3174638    0.1918285 -54.39 0.0007985503    1.991    0.498
       431  -8.9092    121.5878     66.0537   6.2075206947e+01   4.5479119769e+01    0.3089055    0.2331131 -65.21 0.0006934502    1.701    0.412
       432  -7.4160    203.2929     66.7154   4.6067053750e+01   2.6333365546e+01     0.139119   0.09705771 -69.54 0.0002013183    1.538    0.350
       433  -8.7904     84.5291     64.7485   7.2889303059e+01   5.3373553180e+01    0.5225956    0.2621514  17.41  0.001553751    4.730    0.789
       434  -8.5310     95.2912     64.8117   6.9344290725e+01   5.1295030889e+01    0.2838614    0.1797453  18.44 0.0009598861    2.090    0.522
       435  -8.6327     63.7884     63.6942   8.0113811674e+01   5.7087479012e+01    0.3254064    0.1696654 -25.79  0.001326022    2.472    0.596
       436  -9.3317     37.3187     64.4511   9.1208269467e+01   6.0375211376e+01    0.2743538    0.2235578 -82.87 0.0009382062    1.772    0.436
       437  -8.9036    110.3299     63.7410   6.4433108422e+01   4.8359618714e+01    0.2823048    0.2325891 -79.81 0.0007273177    1.623    0.384
       438  -7.9027    158.3475     62.1168   5.2447064557e+01   3.7533601461e+01    0.2004283    0.1254705 -47.95 0.0004371465    1.661    0.398
       439  -9.2523     16.6539     69.9244   1.0158772511e+02   6.0999605549e+01    0.2975775    0.1972145 -75.97  0.001136015    1.800    0.444
       440  -9.1369     97.7918     60.5680   6.7122470030e+01   5.1542441887e+01    0.3036453    0.2741144  62.02  0.001033834    1.274    0.215
       441  -9.6440     73.2988     59.5502   7.5098321899e+01   5.6328595184e+01    0.3729074    0.2373611 -52.06  0.001012548    1.882    0.469
       442  -8.1255     88.8156     59.3598   6.9597542567e+01   5.3535357778e+01    0.1867097    0.1742163 -32.95 0.0005130533    1.157    0.136
       443  -8.2714    130.7821     57.7762   5.7136574622e+01   4.4744775651e+01    0.1927865    0.1669279 -71.87 0.0004263062    1.321    0.243
       444  -9.7825     23.3920     56.2998   9.4930693003e+01   6.3379559108e+01    0.3960052    0.2808167  85.02  0.002027178    2.668    0.625
       445  -9.6019      7.4540     57.2140   1.0252992956e+02   6.4304747637e+01    0.2642585    0.2043462 -82.42  0.001003266    1.662    0.398
       446  -9.2104    119.0903     55.6498   5.9376841820e+01   4.7762793351e+01    0.3811319    0.2236871 -46.48  0.001582591    1.914    0.478
       447  -8.1815    139.9629     55.9701   5.4464471832e+01   4.2870937193e+01    0.2238143    0.1697793 -72.79 0.0005021653    1.633    0.388
       448  -8.8292     44.2867     55.6737   8.5385280361e+01   6.1336265457e+01    0.2390594    0.2157393  81.12 0.0007896269    1.654    0.396
       449  -8.8950     62.8864     54.7184   7.7355547205e+01   5.8911220584e+01    0.2497652    0.1865817 -44.75 0.0006483695    1.426    0.299
       450  -9.1034     53.8672     53.4875   8.0561559319e+01   6.0480012694e+01    0.4021437    0.2108647 -57.64  0.001388464    2.897    0.655
       451  -8.5471    105.9039     53.2613   6.2189236461e+01   5.1052598884e+01    0.2434826    0.1965784 -64.03 0.0007285147    1.599    0.375
       452  -9.4355     92.4263     50.7710   6.5396229143e+01   5.4260896855e+01    0.3622642    0.2434695 -47.27  0.001119799    1.737    0.424
       453  -8.3587     75.3965     51.3726   7.1408575149e+01   5.7401586367e+01    0.2711778    0.1107111  29.96 0.0009526386    3.215    0.689
       454  -8.4504    129.7507     49.3322   5.4698602163e+01   4.6270360999e+01    0.2535444    0.1672739 -45.46 0.0006265396    1.657    0.396
       455  -7.9799    144.7906     48.7824   5.1252375218e+01   4.2788368882e+01    0.2200391    0.0965692 -44.06 0.0005903492    2.454    0.592
       456  -8.9047    121.3444     47.8604   5.6235049891e+01   4.8432640520e+01    0.2928012    0.2269881 -78.03  0.001001048    1.718    0.418
       457  -8.6036    112.1904     46.7428   5.8209849089e+01   5.0667120619e+01    0.2730399    0.2074876 -61.59 0.0007714233    1.708    0.414
       458  -9.1469     82.0116     46.3644   6.7225128514e+01   5.6998893407e+01    0.2703305    0.1838625 -43.62 0.0007078469    1.654    0.396
       459  -8.4829     45.0751     44.7047   8.1111465545e+01   6.3257948462e+01    0.2072999    0.1666149 -42.81 0.0006078323    1.363    0.266
       460  -9.0512     16.5308     44.6729   9.4568612577e+01   6.6236920153e+01    0.2129626    0.1876459 -51.77  0.000612463    1.335    0.251
       461  -8.2237    132.6239     43.2472   5.2104546918e+01   4.6456056949e+01    0.1758683    0.1361562 -17.24 0.0003005878    1.493    0.330
       462  -8.4818     92.6794     42.6695   6.2373006687e+01   5.5448016160e+01    0.2251131     0.151814  15.79  0.001096517    1.774    0.436
       463  -9.3082     69.5586     41.2798   6.9748356001e+01   6.0064597544e+01    0.4250778    0.2334857 -43.78  0.002022006    2.065    0.516
       464  -8.7802     58.0502     42.4155   7.4701698011e+01   6.1785696684e+01    0.2716329     0.182888 -52.60  0.001288659    2.001    0.500
       465  -9.6745      5.2312     42.0026   9.9401450632e+01   6.7511779358e+01    0.3097417    0.2013945 -73.26  0.001401279    2.084    0.520
       466  -8.6791    105.9394     41.1469   5.7949216913e+01   5.2847433536e+01    0.2566821    0.1832718 -37.32 0.0006265834    1.517    0.341
       467  -7.5707    140.4307     41.4788   4.9904506082e+01   4.4840745220e+01    0.1378564    0.1284219  71.08 0.0001388486    1.033    0.032
       468  -8.7145     36.7561     40.6066   8.3340948794e+01   6.5012307189e+01    0.2654166    0.1679396 -52.32 0.0008889655    1.886    0.470
       469  -8.5705     95.6590     38.1364   5.9792500234e+01   5.5471373604e+01    0.2182024    0.1848072  60.18 0.0007067198    1.306    0.234
       470  -8.1493     80.5996     36.7670   6.4047996707e+01   5.8700540268e+01    0.1756047    0.1232189 -41.40 0.0005432325    1.635    0.388
       471  -7.8824    133.4050     36.2126   4.9691275194e+01   4.7197756158e+01    0.1870465    0.1250295 -44.35    0.0006171    1.643    0.391
       472  -8.1776    125.9821     35.6631   5.1108011769e+01   4.9016178346e+01    0.1941397    0.1595878  55.45 0.0003910976    1.107    0.097
       473  -9.2430     26.2235     35.3820   8.6426832693e+01   6.7079089114e+01     0.255888    0.1956003 -55.66  0.000996048    1.700    0.412
       474  -8.5595    111.8239     34.6937   5.4123351920e+01   5.2396483037e+01    0.2384155    0.1646098 -58.32 0.0006748258    1.953    0.488
       475  -7.6991     88.6897     34.3714   6.0493080104e+01   5.7423890482e+01    0.1294067    0.1072311 -73.44 0.0007034079    1.772    0.436
       476  -8.7773     48.6256     33.4625   7.5091633409e+01   6.4625404334e+01    0.2128322    0.1984619  22.46 0.0007452547    1.342    0.255
       477  -8.4794    119.1947     33.2124   5.1827991181e+01   5.0899991024e+01    0.1807154    0.1579701 -76.80 0.0004711875    1.341    0.254
       478  -8.6255     60.8872     32.5398   6.9581776162e+01   6.2851870755e+01    0.2119134    0.1760809 -43.16  0.000557019    1.509    0.337
       479  -8.6205     72.2763     31.2597   6.4750439492e+01   6.1032207321e+01    0.2199077    0.1865176 -79.28 0.0007422177    1.921    0.480
       480  -7.6229    139.2765     31.6389   4.7076602274e+01   4.6363378917e+01    0.1379615   0.09959438 -67.21 0.0007008105    1.663    0.399
       481  -8.9030     12.9099     30.1611   9.1345980006e+01   6.9190001988e+01    0.2568428    0.1552645 -57.86 0.0009525412    2.017    0.504
       482  -8.2408    101.7204     29.7555   5.4973930986e+01   5.5254826861e+01    0.1716512    0.1561864 -87.35 0.0006525334    1.345    0.257
       483  -8.8290     81.3844     27.4320   6.0089585013e+01   5.9786855961e+01    0.2427354    0.2105295 -54.75  0.000787161    1.539    0.350
       484  -9.0445      3.6536     27.4149   9.5419794768e+01   7.0326205165e+01    0.2948065    0.1575802 -63.27  0.001578117    2.468    0.595
       485  -8.5987     91.9092     26.4653   5.6474539046e+01   5.7754025863e+01    0.2231946    0.1788868 -45.45 0.0005717207    1.525    0.344
       486  -8.0967     34.6360     23.3023   7.7198408525e+01   6.8061152877e+01    0.1553159    0.1483249  52.44 0.0008760769    1.692    0.409
       487  -7.4918    116.6807     22.2700   4.8634464785e+01   5.2742434395e+01    0.1268945     0.100164 -82.92 0.0004301396    1.563    0.360
       488  -8.8821     63.8671     21.2755   6.3625302748e+01   6.3842358781e+01    0.2472946    0.1681917 -42.40 0.0008353649    1.874    0.466
       489  -8.5811     48.3597     21.7052   7.0114229870e+01   6.6359161991e+01    0.1908372    0.1720605 -13.57 0.0005787116    1.291    0.225
       490  -8.0784     19.5109     21.5177   8.4232806487e+01   7.0043389091e+01    0.1170336   0.09398057 -11.37 -6.384528e-05    1.084    0.077
       491  -8.8776     74.0331     19.4663   5.9227679417e+01   6.2170630725e+01    0.2195333    0.1725352 -42.03 0.0007248134    1.610    0.379
       492  -8.6590     11.5062     20.0088   8.8040745074e+01   7.1013835755e+01    0.1369763    0.1036113 -70.71 0.0008104846    2.552    0.608
       493  -8.2367     87.8359     17.7805   5.4233191358e+01   5.9580170620e+01     0.158626     0.150987  84.61 0.0004400833    1.314    0.239
       494  -8.2571     38.8198     18.5722   7.3020326278e+01   6.8173087821e+01    0.1517691    0.1058563  37.61 0.0005837201    1.572    0.364
       495  -7.9989    112.7695     16.9666   4.7637589329e+01   5.4188004420e+01     0.151416    0.1102615 -20.23 0.0003177462    1.561    0.360
       496  -7.9172     30.1824     16.1605   7.6138075685e+01   6.9641305492e+01    0.1474501    0.1324405 -14.90  0.000513804    1.383    0.277
       497  -7.8497     97.1642     15.1130   5.0655228561e+01   5.7859626049e+01    0.1613475       0.1502 -80.42  0.000433148    1.318    0.241
       498  -7.7138     17.4408     14.4383   8.2168402240e+01   7.1325816626e+01    0.1141439   0.09026651  -8.26 7.771357e-05    1.088    0.081
       499  -7.6069    119.6978     11.3340   4.4243050146e+01   5.3127319800e+01    0.1271313   0.09492137 -71.07 0.0007035991    1.658    0.397
       500  -7.8358    191.6666    249.3636   8.6376505321e+01  -4.4148781513e+00    0.1140359   0.09509271  56.84 0.0007036541    1.816    0.449
       501  -7.7481     47.7160     10.3443   6.5077346816e+01   6.7859087364e+01    0.1020764   0.09710435 -49.48 0.0004120114    1.642    0.391
       502  -9.0109    175.5067    247.6600   8.9346616509e+01  -1.8719511988e+00    0.2745771    0.2178751  63.18 0.0009869379    1.927    0.481
       503  -8.3048    156.4425    248.3585   9.3351037341e+01   7.9481740210e-01    0.3013481    0.1736849  57.44  0.001197371    2.786    0.641
       504  -8.6704    132.3093    248.1907   9.8366363272e+01   4.3942056032e+00    0.2696579    0.1526208  57.63  0.000681143    2.358    0.576
       505  -8.4602    113.4060    248.7886   1.0241407956e+02   7.0600495812e+00    0.2325723    0.1658451  81.18  0.001098264    1.856    0.461
       506  -9.3289    103.9345    246.9923   1.0420248952e+02   8.7574408197e+00    0.4192559     0.232746 -81.44  0.001954475    2.809    0.644
