#   1 NUMBER                 Running object number                                     
#   2 MAG_AUTO               Kron-like elliptical aperture magnitude                    [mag]
#   3 X_IMAGE                Object position along x                                    [pixel]
#   4 Y_IMAGE                Object position along y                                    [pixel]
#   5 X_WORLD                Barycenter position along world x axis                     [deg]
#   6 Y_WORLD                Barycenter position along world y axis                     [deg]
#   7 A_WORLD                Profile RMS along major axis (world units)                 [deg]
#   8 B_WORLD                Profile RMS along minor axis (world units)                 [deg]
#   9 THETA_WORLD            Position angle (CCW/world-x)                               [deg]
#  10 FWHM_WORLD             FWHM assuming a gaussian core                              [deg]
#  11 ELONGATION             A_IMAGE/B_IMAGE                                           
#  12 ELLIPTICITY            1 - B_IMAGE/A_IMAGE                                       
         1 -10.1407     50.7501     36.5511   1.0375416547e+02   6.2547979650e+01    0.8409992    0.4980462 -53.31  0.004246125    2.722    0.633
         2 -10.6568     39.3235     29.7151   1.0569443056e+02   6.4964812679e+01    0.6852208    0.3267209 -46.22  0.003519011    2.491    0.599
         3 -11.5252     43.2169     20.1862   1.0031143986e+02   6.5786192682e+01    0.7554111    0.7172539 -51.97  0.004649916    1.810    0.448
         4 -10.3147    128.0950     17.8922   7.4044898560e+01   5.0271291751e+01    0.6883803    0.4294653  35.91  0.003619931    1.605    0.377
         5 -12.0003    115.8719      3.9840   7.1986910348e+01   5.4269684144e+01      2.46842    0.3715146  61.15  0.006971336    5.482    0.818
         6 -10.8096    131.7433      3.4370   6.8747733344e+01   5.0724213412e+01    0.9022324    0.2942041  55.94  0.003592555    2.266    0.559
         7 -13.8869    164.3869     10.0132   6.5412100647e+01   4.2380445790e+01     3.637267     1.731755  67.08   0.01724139    1.760    0.432
         8 -10.3506     71.7355      5.6263   8.3932804007e+01   6.2986773633e+01    0.5331103     0.352474  37.50  0.002651214    1.250    0.200
         9  -9.9796     78.5327     12.7410   8.4699292435e+01   6.1099448576e+01    0.5228094    0.3400068  28.99  0.003142193    1.330    0.248
        10 -11.7218    155.8615     19.9010   6.9494809303e+01   4.3469542828e+01    0.9183034    0.5709808  52.09  0.003410105    1.426    0.299
        11 -11.3008     84.1570      3.9124   7.9583308780e+01   6.0846611948e+01    0.8477204    0.3961953  46.19  0.003497089    1.717    0.418
        12  -9.7306    112.1008     15.4480   7.6733772139e+01   5.4092831747e+01    0.6096547    0.2283124  43.48  0.002584346    2.353    0.575
        13  -9.7999    116.5821     18.2726   7.6668676450e+01   5.2833528325e+01    0.7185661    0.2972267 -38.82   0.00310751    2.892    0.654
        14  -9.1512    117.5027     14.4739   7.5177822573e+01   5.2997067757e+01    0.2377293     0.217889  21.12 0.0009492708    1.138    0.121
        15 -10.7067    248.5136     16.3225   5.7621249245e+01   2.1933379011e+01    0.5132459    0.2835243 -42.39  0.002907386    1.731    0.422
        16  -9.4646     93.8740     17.6351   8.2132130463e+01   5.7683144889e+01    0.3779745    0.3305215 -88.32    0.0020814    1.650    0.394
        17  -7.0091     19.8593     14.6729   1.0809829451e+02   6.9102649803e+01    0.4346919     0.214616 -15.71  0.002447332    2.134    0.531
        18  -9.5258    103.6555     12.0723   7.7561076796e+01   5.6215887353e+01    0.4051297     0.288653  22.64  0.002414496    1.384    0.278
        19  -8.6579     69.4686     14.1634   8.8153155395e+01   6.2553209364e+01    0.2504844    0.2068759 -68.51  0.001528837    2.281    0.562
        20  -9.4882    244.9174      2.3465   5.5215759017e+01   2.4316069156e+01     0.246796    0.2022932 -40.65  0.001716148    1.486    0.327
        21 -10.1864    244.4179      8.7721   5.6489218401e+01   2.3704296794e+01    0.2599514    0.2224924  70.54  0.001659887    1.373    0.272
        22  -9.9490    249.8726      5.8294   5.5503094696e+01   2.2867975492e+01    0.4926612    0.2918765 -33.23  0.002892412    1.996    0.499
        23 -10.3247    199.9143      8.1756   6.0507205836e+01   3.3959537664e+01    0.3772185    0.1789349  76.10  0.001804541    1.858    0.462
        24  -9.9300     60.4895      3.1887   8.6589593074e+01   6.5114940682e+01    0.5182303    0.3722088  -2.49  0.003537025    1.278    0.218
        25  -9.0653     39.9808      7.4031   9.6155777819e+01   6.7718595921e+01    0.3094943     0.225411  25.58  0.001981016    1.291    0.225
        26  -7.9976     53.9766      7.4811   9.0754603478e+01   6.5729938171e+01    0.1316216    0.1020099  62.81 0.0004418874    2.313    0.568
        27  -9.6389    229.5044      6.0116   5.7178614110e+01   2.7309049654e+01    0.2548404    0.1604781  78.98   0.00110925    1.342    0.255
        28  -7.9065     49.4860      6.5367   9.2020752985e+01   6.6493659354e+01    0.1169046   0.08755262  11.06 0.0008092384    1.026    0.025
        29 -10.6912     76.6919     19.7390   8.8030055841e+01   6.0701173579e+01     1.018807    0.3996296 -22.53  0.004452191    2.949    0.661
        30  -8.5518     26.3196      2.6603   9.9868051929e+01   6.9906300856e+01     0.233198    0.1571226 -10.97  0.001690092    1.180    0.152
        31  -8.6892     16.9755      2.2798   1.0401960727e+02   7.0936303244e+01     0.230877    0.1939383 -39.24  0.001779179    1.952    0.488
        32  -8.4047     52.4587      1.9176   8.8874561341e+01   6.6498688165e+01    0.2285755    0.1443309  35.54   0.00149014    1.370    0.270
        33  -9.7652    214.6621      4.0112   5.8092564075e+01   3.0916057958e+01    0.2510855     0.237387 -44.15  0.001769648    1.369    0.269
        34  -7.9561     40.5124      1.4640   9.3260903210e+01   6.8265420467e+01    0.2287575   0.09359802  39.63  0.001234433    2.264    0.558
        35  -8.8525     82.6987     69.8632   1.0386396255e+02   5.2234002266e+01    0.2792076    0.2233652   5.46  0.001555935    1.286    0.222
        36  -8.4438     33.6035     68.7073   1.2068142352e+02   5.8849697260e+01    0.2500567    0.1435953   2.31  0.001311668    2.188    0.543
        37  -8.0350     20.7976     82.5999   1.2860808214e+02   5.7086483794e+01    0.1479996    0.1095897  34.41 0.0009454127    1.670    0.401
        38  -8.0727     15.6659     57.7792   1.2448181339e+02   6.2398690417e+01    0.2054899    0.1314481 -58.29  0.001150977    1.523    0.344
        39  -8.1679     91.6601     56.3699   9.6612164149e+01   5.2992255129e+01    0.1977524     0.172227 -88.27  0.001105711    1.684    0.406
        40  -8.8747    198.7097     54.9839   7.2008233023e+01   2.8368226605e+01    0.2399889    0.1930427  68.35 0.0004988492    1.161    0.139
        41  -7.5891      9.3222     55.6470   1.2638006025e+02   6.3210371119e+01    0.1012359   0.08645926  84.08 -3.576545e-05    1.755    0.430
        42  -8.0238     35.0008     52.5312   1.1541688697e+02   6.1741997171e+01    0.1669808     0.111277  16.93  0.001021161    1.565    0.361
        43  -7.9635     22.5255     52.4933   1.2031035448e+02   6.2866747938e+01     0.117608   0.09288155 -31.12 -3.511474e-05    1.028    0.028
        44 -10.2544     83.7893     47.6608   9.6120052629e+01   5.5784398952e+01     0.523182    0.4665313  48.61  0.002846251    1.349    0.258
        45  -8.1038    110.9978     46.0150   8.7479690707e+01   5.0711096836e+01    0.2278422    0.1569554  20.12  0.001135098    1.641    0.391
        46 -10.3020      3.6569     39.5634   1.2422828376e+02   6.6446136208e+01    0.5063248    0.3281796 -40.21  0.002606393    1.149    0.130
        47  -9.0627     12.2257     34.2391   1.1886515025e+02   6.6800077598e+01    0.3481134    0.1728334 -45.22  0.001991947    1.636    0.389
        48  -9.8391     81.4068     38.8146   9.3728551639e+01   5.7490947442e+01    0.4830549    0.3493012 -20.48  0.002809821    1.361    0.265
        49 -10.0065    182.5181    246.0157   1.1720650722e+02  -3.7125075676e+00    0.2755807    0.1758577  37.55  0.001524272    1.309    0.236
        50 -10.6368    171.7186    243.4465   1.1895521025e+02  -1.4335264772e+00    0.3492795     0.259164   0.14  0.001938207    1.781    0.438
        51  -9.5767     50.1739     27.9744   1.0069349469e+02   6.3846017837e+01    0.3466938    0.2237563  31.73  0.001832767    1.518    0.341
        52  -9.8870    163.0005    243.9916   1.2078024387e+02   2.1078061636e-03    0.2786275    0.1840949  68.82  0.001382647    2.195    0.544
        53  -8.2837     27.1686     35.6744   1.1295478814e+02   6.5336329609e+01    0.1853048    0.1397077 -39.35  0.001277607    1.330    0.248
        54  -9.5533     66.5216     31.1101   9.5870813305e+01   6.1029458895e+01    0.5784508    0.2143849 -29.98  0.002488935    2.820    0.645
        55  -9.2340     36.0051     19.5041   1.0300294524e+02   6.6758599387e+01    0.2549551    0.1737512   6.71  0.001408111    1.269    0.212
        56 -10.1054     86.1655     31.7447   8.9627266945e+01   5.7564532397e+01    0.2763219    0.2620905  65.32  0.001813954    1.408    0.290
        57 -10.4555    225.3253     28.8817   6.2415928619e+01   2.5568597601e+01    0.4063687    0.3666539  83.77  0.001218886    1.182    0.154
        58 -10.0084    207.7586    226.2629   1.0892069983e+02  -4.9554711379e+00    0.3395269    0.1952389  -8.54  0.001415079    2.958    0.662
        59  -9.7327    196.8163    224.6566   1.1081952659e+02  -2.7786241914e+00    0.2877395    0.1586459  58.85  0.001158035    3.007    0.667
        60  -9.7296    239.3256    203.7831   9.8662060050e+01  -6.7501070056e+00    0.3556221    0.2055163 -34.26  0.001818684    1.678    0.404
        61  -8.4785     20.4170    156.1932   1.4037523040e+02   4.0523816813e+01    0.1837203   0.09850535 -83.40 0.0009560586    1.713    0.416
        62 -12.6935    240.8727    133.3551   8.3673107173e+01   5.1597084075e+00     1.565101     1.171889  54.09  0.005347374    1.481    0.325
        63 -11.3081     12.9734    128.5153   1.3883749584e+02   4.7496698253e+01     0.700992    0.2462447 -73.00  0.003024724    2.547    0.607
        64  -7.8164     10.5556     26.5944   1.1697170047e+02   6.8142998968e+01    0.3220088   0.07635704 -38.10  0.001369787    3.366    0.703
        65  -9.4055    132.7596     26.0277   7.5677561860e+01   4.8339464572e+01     0.327011    0.2847075  89.91  0.001883278    1.313    0.238
        66  -8.9457    104.5919     25.9707   8.2276115462e+01   5.4604386612e+01    0.3936372    0.2331447  50.06  0.002053831    1.499    0.333
        67 -10.3891     13.1358    119.8576   1.3759679406e+02   4.9452876894e+01     0.242898    0.2046479  67.83  0.001230299    1.350    0.259
        68  -9.4562     41.4126    142.1662   1.3326025473e+02   4.1764583202e+01    0.3185349    0.1905802  83.04  0.001534888    2.092    0.522
        69  -8.1874     37.3214    119.6761   1.3069416697e+02   4.7466765516e+01    0.1289591   0.09340986  77.50 0.0003598673    1.679    0.404
        70  -8.5310     60.3281    123.3079   1.2468137521e+02   4.4023797588e+01    0.1405198   0.09884265 -30.93 0.0007038648    1.658    0.397
        71 -11.5600     10.5032    139.5046   1.4084984413e+02   4.5168762141e+01    0.5997706    0.4613135 -70.36  0.004072687    1.051    0.048
        72  -7.7687     19.4085     21.8127   1.1118198096e+02   6.8149510920e+01    0.1580565   0.07878458 -30.84 0.0009393525    1.654    0.395
        73  -8.3634     92.5223    118.4733   1.1421360739e+02   4.0337794812e+01    0.1467329    0.1398501 -56.93 0.0004593416    1.021    0.020
        74  -7.5575     24.3343    116.6637   1.3393940497e+02   4.9326634307e+01    0.1254256      0.08768  76.09 0.0007052026    1.742    0.426
        75  -8.6593    125.3614     28.6588   7.8134311428e+01   4.9752031750e+01    0.2674765     0.221038  28.45  0.001576334    1.190    0.160
        76  -8.6218     64.2044     16.0589   9.0711470863e+01   6.3224528243e+01    0.2026066    0.1623614 -38.04  0.001332885    1.660    0.398
        77  -8.6769     14.5214    114.4835   1.3641078319e+02   5.0568603849e+01     0.122972   0.09687029 -62.12 0.0001805191    1.019    0.018
        78 -10.0038     16.8516    104.2415   1.3406683278e+02   5.2693710307e+01    0.3650428    0.3235404  79.31   0.00257611    1.307    0.235
        79  -9.9892     29.4453    102.5017   1.2987750937e+02   5.2094843231e+01     0.448332    0.2081871 -36.63  0.002074415    2.400    0.583
        80  -9.1787    226.5945     14.3719   5.9174341355e+01   2.7032480490e+01    0.3873407    0.1401891  76.72  0.001602752    2.704    0.630
        81 -10.4809     47.0477    100.2740   1.2385235005e+02   5.0877689336e+01    0.6043097    0.1453118 -55.17  0.002089671    3.286    0.696
        82  -9.6953     57.0331     98.6097   1.2027416259e+02   5.0084952298e+01    0.3509783    0.2218076 -79.52  0.001583916    2.446    0.591
        83  -9.0133      2.2682     90.4648   1.3622128961e+02   5.6582699247e+01    0.5240178     0.168141 -62.72  0.002482945    2.235    0.553
        84 -11.7628     43.4227     81.9318   1.2067472815e+02   5.5210691212e+01     1.025386    0.6773833 -20.62  0.004888355    1.666    0.400
        85  -8.8532     19.6585     88.8632   1.3030701531e+02   5.5844832359e+01    0.2051836    0.1794315  28.54  0.001217054    1.404    0.288
        86 -10.2356     24.4840     65.8323   1.2327639175e+02   6.0198819103e+01    0.6554472     0.203039 -45.95  0.002920462    2.438    0.590
        87 -10.5509      3.6384     75.8011   1.3306985599e+02   5.9568604141e+01    0.7439338    0.3437159 -56.88  0.003951988    1.592    0.372
        88 -10.8395     15.2313     75.6582   1.2900625628e+02   5.8911437064e+01    0.9546477    0.3527261 -31.83  0.004043896    3.330    0.700
        89 -10.4534     11.4052     70.5486   1.2921809727e+02   6.0189884676e+01    0.4876826    0.2885795 -54.25  0.002817897    1.330    0.248
        90  -8.3724     98.0156     27.4315   8.4574722514e+01   5.5788671472e+01    0.2507029    0.1699448   2.59 0.0009722405    1.674    0.403
        91  -9.3808    227.6850     78.5484   7.3331887103e+01   1.7701944559e+01    0.4071064    0.3112887  23.19  0.001489576    1.970    0.492
        92  -7.8692    204.4736     76.4897   7.6450556770e+01   2.3535836823e+01    0.1488666    0.1353984 -80.63  0.000317841    1.027    0.027
        93 -10.2979     74.6902     68.5205   1.0608435305e+02   5.3779823629e+01    0.5264449    0.4334793 -25.80  0.003101677    1.116    0.104
        94  -9.2910     16.2526     64.0930   1.2589714879e+02   6.1148975891e+01    0.2989304    0.1436684 -65.28  0.001496276    2.378    0.579
        95  -9.5508     48.7483     61.8070   1.1311049922e+02   5.8573446555e+01    0.5578533    0.2637508  23.43  0.002655143    2.397    0.583
