#   1 NUMBER                 Running object number                                     
#   2 MAG_AUTO               Kron-like elliptical aperture magnitude                    [mag]
#   3 X_IMAGE                Object position along x                                    [pixel]
#   4 Y_IMAGE                Object position along y                                    [pixel]
#   5 X_WORLD                Barycenter position along world x axis                     [deg]
#   6 Y_WORLD                Barycenter position along world y axis                     [deg]
#   7 A_WORLD                Profile RMS along major axis (world units)                 [deg]
#   8 B_WORLD                Profile RMS along minor axis (world units)                 [deg]
#   9 THETA_WORLD            Position angle (CCW/world-x)                               [deg]
#  10 FWHM_WORLD             FWHM assuming a gaussian core                              [deg]
#  11 ELONGATION             A_IMAGE/B_IMAGE                                           
#  12 ELLIPTICITY            1 - B_IMAGE/A_IMAGE                                       
         1 -13.6464     11.5423     27.4162   1.0505324644e+02   6.6257306365e+01    0.8038842    0.4658924  24.02  0.005591539    1.911    0.477
         2 -13.7208     22.1751     23.4907   9.9515576219e+01   6.5985779229e+01    0.6573938    0.3557683 -15.91   0.00411192    1.794    0.442
         3 -12.8824    209.4941     20.8375   5.2861635344e+01   3.1446369869e+01    0.5626094    0.3587207  30.46  0.001835863    2.793    0.642
         4 -13.0343    202.7098     28.6523   5.5460098132e+01   3.2044735391e+01    0.6114261    0.4866868 -87.24  0.003744726    1.137    0.120
         5 -13.2014    218.4979     10.6115   4.9676884867e+01   3.0605379604e+01    0.6150156    0.5109203 -74.95  0.003236479    1.119    0.106
         6 -12.1737      2.6963      4.9372   1.0096091946e+02   6.9955434733e+01     0.558225      0.20295 -34.32  0.003368214    2.143    0.533
         7 -11.9646     98.0187    227.6765   1.2023461462e+02   1.4022996088e+01    0.4320842    0.3588877  81.79  0.001598138    1.075    0.070
         8 -11.6972    249.1593    249.2908   9.3963208550e+01  -1.4918265041e+01    0.4955714    0.1801705  36.77  0.002309691    2.530    0.605
         9 -12.1016    249.4957    244.9929   9.3171766057e+01  -1.4381399024e+01    0.4585012    0.1741831 -33.39  0.002113815    2.743    0.635
        10 -12.4324    179.8431    249.6097   1.0706481210e+02  -4.0398215637e+00     1.838762    0.4114875  44.97  0.005890999    4.148    0.759
        11 -12.5268    214.2791    247.3810   1.0009065082e+02  -9.3894859961e+00     0.591869    0.4379902   9.34  0.002733069    1.401    0.286
        12 -13.1091    200.1522    246.9324   1.0271775479e+02  -7.0212934091e+00     1.245754    0.7734672 -33.19  0.006823456    1.846    0.458
        13 -12.2262    208.8492    243.1302   1.0042708235e+02  -7.8606906999e+00    0.5533517    0.4237345   0.39  0.002399018    1.424    0.298
        14 -11.6286    108.2844    203.6194   1.1482892681e+02   1.7508495483e+01    0.5812054    0.4636131 -52.25  0.003244823    1.382    0.276
        15 -11.3746    116.4664    250.0157   1.1937253776e+02   6.6315893080e+00    0.6270022    0.2055684  39.80   0.00248963    2.874    0.652
        16 -13.2272    125.1082    211.2718   1.1236638163e+02   1.2921328161e+01     1.879869     1.062609 -61.96  0.008768387    1.890    0.471
        17 -13.1753    123.6542    197.5441   1.1051014411e+02   1.6176019732e+01     1.547781     1.014588 -19.63   0.00606764    3.236    0.691
        18 -12.7275    134.4805    248.9260   1.1578579456e+02   3.8326901258e+00     1.982338    0.5863653  44.97  0.007596068    2.845    0.649
        19 -13.8079    155.4305    232.1980   1.0925879999e+02   3.2822467272e+00     1.447222     1.088441  68.93   0.00717003    1.498    0.333
        20 -13.3791    137.3633    229.4877   1.1253002898e+02   7.0123688861e+00     1.225852    0.7904731 -58.65  0.005334355    1.700    0.412
        21 -13.0307    128.6981    233.8581   1.1490341029e+02   7.6648983843e+00    0.9816744    0.4936019 -58.41  0.004400511    2.191    0.544
        22 -13.8746    117.9016    228.4579   1.1634217618e+02   1.0588077595e+01     1.715438     1.011256  84.79  0.007631405    2.502    0.600
        23 -12.4541     88.4973    204.8607   1.1924855090e+02   2.0443766247e+01    0.8089091    0.4867347  53.84  0.003654407    1.586    0.369
        24  99.0000     77.5291    213.3361   1.2260249072e+02   2.0226945881e+01      2.90599     1.459507 -63.15   0.01431966    1.900    0.474
        25 -13.8970     29.4739    162.0842   1.2665701604e+02   3.7804100742e+01      2.27217     1.474692 -67.14    0.0124815    1.255    0.203
        26 -13.8474     50.3194    161.4189   1.2177080180e+02   3.5734777060e+01     2.130424     1.242379 -41.56   0.01060141    2.124    0.529
        27 -15.8524     13.6791    239.8152   1.3661347894e+02   2.2717498856e+01     2.157757    0.9031603  72.83   0.01152925    2.311    0.567
        28 -12.4150     32.1955    239.6111   1.3356080233e+02   2.0694230390e+01    0.7659611    0.3126239  75.54  0.003525241    2.935    0.659
        29 -12.8083     29.3722    200.6297   1.3079555654e+02   2.9161084242e+01     1.037276    0.5604648  69.06  0.004946141    1.839    0.456
        30 -13.6727     32.7434    189.5975   1.2904369202e+02   3.1236697912e+01     1.206193    0.6933411 -53.32  0.005829133    1.884    0.469
        31 -12.2180     31.2100    221.2742   1.3227870635e+02   2.4543109198e+01     2.310748    0.9430498  71.61   0.01018098    3.062    0.673
        32 -15.3641     65.7514    245.3725   1.2823157775e+02   1.5250748695e+01     1.928699    0.8245046  48.74  0.009929979    1.987    0.497
        33 -14.4481     51.6673    228.4966   1.2920841636e+02   2.0555309028e+01      1.20772    0.7339413  81.74  0.005663982    1.502    0.334
        34 -11.4679    238.4038    221.9034   9.1125514154e+01  -9.3084126108e+00    0.2930792    0.2179617 -46.42   0.00140559    1.565    0.361
        35 -11.7275    187.3050    225.9550   1.0178567200e+02  -1.2918490403e+00    0.6097788    0.3979239 -18.17  0.002889567    2.232    0.552
        36 -10.2526     93.4317    220.7922   1.2029662164e+02   1.6196127880e+01    0.2683559    0.1747152  66.57  0.001146644    1.500    0.333
        37 -12.8827    233.7506    217.8445   9.1253078198e+01  -7.9104820188e+00    0.5382369    0.3166684 -20.55  0.002622835    2.051    0.512
        38 -11.4674     96.2124    215.9129   1.1910230559e+02   1.6800809814e+01    0.7546395    0.2341373  41.81  0.002839139    2.970    0.663
        39 -10.7285     98.5148    210.9946   1.1796535742e+02   1.7499411333e+01    0.2924922    0.2669897 -73.06  0.001052857    1.192    0.161
        40 -10.5409     93.9228    211.0465   1.1893441795e+02   1.8223774282e+01    0.2776808    0.2605454  28.73   0.00111324    1.374    0.272
        41 -12.7172    212.6504    210.9201   9.4037066111e+01  -3.1392826369e+00    0.9540524     0.694438   8.10  0.004997609    1.627    0.386
        42 -13.3126    225.4109    197.6207   8.9023460817e+01  -3.0332135319e+00     1.823049    0.7926587 -30.21  0.006797299    3.040    0.671
        43 -14.3086    219.8880    187.7492   8.8155350801e+01  -2.2288273830e-01     2.067732     1.024453 -27.07  0.007827712    2.868    0.651
        44 -12.4263     46.6883    202.6197   1.2760000342e+02   2.6738917584e+01    0.7031857    0.5506958 -81.55  0.002965234    1.099    0.090
        45  -9.9222     40.6336    214.0233   1.2990605671e+02   2.4982331080e+01    0.1615717    0.1174061 -75.13 0.0006836363    1.237    0.191
        46 -10.7283    147.1276    204.1990   1.0647747972e+02   1.0402254808e+01    0.3782004    0.1927075  33.16  0.001522964    2.281    0.562
        47 -13.6915     94.1332    188.3669   1.1565499251e+02   2.3306273991e+01     1.543454     0.983954  86.31  0.006764518    1.911    0.477
        48 -12.5036    202.1758    198.2971   9.3752145835e+01   1.0945923563e+00    0.8038406    0.4451413  48.79  0.003588429    1.894    0.472
        49 -12.5073    169.8624    185.7486   9.8140381785e+01   9.9152844593e+00     0.814734    0.5302677  25.47  0.003556724    1.949    0.487
        50 -13.5224    114.1421    188.3591   1.1112849368e+02   1.9942805462e+01     1.396812    0.9914288  43.54  0.006028141    1.406    0.289
        51 -11.9060     76.1794    182.9643   1.1889729005e+02   2.7301236154e+01     1.092265    0.4971916 -52.93  0.004774587    2.181    0.542
        52 -11.4725     71.3733    178.4406   1.1933427989e+02   2.9041310810e+01    0.6122202    0.3597721 -47.93 0.0009615703    1.892    0.471
        53  -9.5571     66.2163    184.3966   1.2131942027e+02   2.8364144643e+01      0.13072   0.08884194 -49.83 0.0004401071    1.630    0.387
        54 -10.1270     16.3509    183.4111   1.3172842108e+02   3.4249277994e+01    0.2346532    0.1181167 -76.75  0.001306182    1.592    0.372
        55 -12.1420    164.5107    180.5033   9.8293497229e+01   1.2111905235e+01     0.680187    0.4730086  14.96  0.002924215    2.134    0.531
        56 -11.4610    181.0292    215.5470   1.0126813958e+02   1.7645387898e+00    0.5043176    0.3037842  55.17  0.002334971    1.874    0.466
        57 -11.6607    125.7841    177.2010   1.0649910052e+02   2.0406310308e+01    0.5986091     0.494679 -63.11  0.003157085    1.192    0.161
        58 -11.3882    196.7915    173.3903   8.9893125574e+01   7.0772206952e+00    0.3989957     0.215814 -64.40  0.001388025    3.180    0.686
        59 -13.7475     47.0987    247.6012   1.3166590635e+02   1.7298105569e+01    0.7747188    0.3980097  60.83  0.004432403    1.651    0.394
        60 -12.6548    155.7197    165.1228   9.7174746855e+01   1.7297712267e+01    0.7913774    0.5825188 -45.55  0.003771082    1.383    0.277
        61 -13.3439    100.0126    147.1177   1.0703362826e+02   3.2074174303e+01     1.178932    0.8330924 -40.72  0.005763039    1.530    0.346
        62 -11.8742     79.1779    163.8472   1.1525599372e+02   3.1369063590e+01    0.7989056     0.513104 -86.04  0.003807219    1.820    0.451
        63 -12.1660     68.0097    164.0989   1.1797633526e+02   3.2879613672e+01    0.5335621    0.3117809 -35.15  0.001810097    2.581    0.613
        64 -13.1546     88.6596    158.7378   1.1206845854e+02   3.1151761677e+01     1.273826    0.7615556 -65.99  0.005011374    1.638    0.390
        65 -12.4062     88.7447    144.2184   1.0935128447e+02   3.4584922894e+01    0.4565096    0.3475277 -46.20 0.0004740574    1.310    0.236
        66 -13.8135    167.3625    227.5403   1.0609713326e+02   2.0101024759e+00     1.319133    0.9268818  37.77  0.006404937    1.321    0.243
        67 -10.5719      9.1922    155.0682   1.3036464871e+02   4.1149701206e+01    0.2304632    0.1883927  23.67  0.001647328    1.646    0.393
        68 -10.8044      5.0880    149.5990   1.3068022408e+02   4.2667562270e+01    0.3439377    0.2062358  88.60  0.002080657    1.585    0.369
        69 -12.5033    247.5162    145.3471   7.4365192109e+01   2.5630557606e+00    0.4760682    0.3455409  33.07  0.002497138    1.634    0.388
        70 -11.4817     69.3634    144.1332   1.1432470891e+02   3.7417025046e+01    0.5826125    0.3633224  73.29  0.002662432    2.255    0.557
        71 -10.4322     64.6684    141.6907   1.1509967669e+02   3.8608223357e+01    0.2019599    0.1917525 -71.15 0.0006517202    1.095    0.087
        72 -12.1813      9.8693    138.3100   1.2827279256e+02   4.4821525337e+01    0.6946922    0.4699074 -65.50  0.004567276    1.146    0.127
        73 -10.6511     98.2963    129.4317   1.0379412932e+02   3.6500629664e+01    0.2893285    0.2285312 -29.94 0.0007469301    1.430    0.301
        74 -12.1502     70.5159    119.8945   1.0932849714e+02   4.2877566075e+01    0.7367101    0.5405622 -80.11  0.003890784    1.619    0.382
        75 -11.2692     53.3287    112.7595   1.1269799605e+02   4.6595978050e+01    0.3586393    0.1706182 -34.27  0.001495288    2.765    0.638
        76 -12.6144      2.6924     76.0577   1.2056673062e+02   5.8355008560e+01     0.537623    0.1009962 -56.51  0.002285876    3.046    0.672
        77 -11.9907    194.0406     34.8886   5.8115354823e+01   3.3259229930e+01    0.2580151    0.2451516  78.93  0.001073201    1.151    0.132
        78 -11.5009    229.1139    242.1973   9.6431290980e+01  -1.0953349333e+01    0.2610181    0.1779571 -40.55  0.001543106    1.630    0.387
        79 -11.1055    189.2630    238.1730   1.0342599213e+02  -3.7559047850e+00    0.4703795    0.3239352   6.14  0.002404261    1.999    0.500
        80 -10.6668    181.8413    238.5456   1.0495289199e+02  -2.5313944254e+00    0.2550083    0.2037718   2.99  0.001341471    1.492    0.330
        81 -11.4272     92.8168    234.1977   1.2203703962e+02   1.3503755506e+01     1.204441    0.4130653  49.14  0.004725194    2.606    0.616
        82 -11.9688    106.8457    233.1160   1.1916202682e+02   1.1485165874e+01    0.8082122     0.435239  82.99  0.003344693    3.012    0.668
