#   1 NUMBER                 Running object number                                     
#   2 MAG_AUTO               Kron-like elliptical aperture magnitude                    [mag]
#   3 X_IMAGE                Object position along x                                    [pixel]
#   4 Y_IMAGE                Object position along y                                    [pixel]
#   5 X_WORLD                Barycenter position along world x axis                     [deg]
#   6 Y_WORLD                Barycenter position along world y axis                     [deg]
#   7 A_WORLD                Profile RMS along major axis (world units)                 [deg]
#   8 B_WORLD                Profile RMS along minor axis (world units)                 [deg]
#   9 THETA_WORLD            Position angle (CCW/world-x)                               [deg]
#  10 FWHM_WORLD             FWHM assuming a gaussian core                              [deg]
#  11 ELONGATION             A_IMAGE/B_IMAGE                                           
#  12 ELLIPTICITY            1 - B_IMAGE/A_IMAGE                                       
         1 -14.3913     68.3879    144.7583   1.0010569918e+02   3.7474464858e+01     4.621801     2.429965  80.58  0.006489489    4.544    0.780
         2 -13.7481    228.0645     21.0314   3.4051425370e+01   2.6447455121e+01    0.9225516    0.8223099  63.24  0.002729828    1.361    0.265
         3 -12.5900    218.7751     29.8075   3.6825646303e+01   2.7421565490e+01    0.5026514    0.4360897  48.10  0.001159999    1.449    0.310
         4 -13.7070    202.1084     42.9272   4.1760306379e+01   2.9518859271e+01     1.240829     1.046995  19.18  0.004508271    1.618    0.382
         5 -13.8498    210.6679     37.3211   3.9405816052e+01   2.8293375615e+01     1.548952     1.140013 -25.28  0.007814844    1.600    0.375
         6 -11.8921    248.2069      2.8829   2.8943403257e+01   2.4306235132e+01    0.4253143    0.2521884 -82.71  0.002459959    1.478    0.323
         7  -9.1465     99.3418    181.0527   9.7990295656e+01   2.3836760052e+01    0.1970828    0.1801246 -87.89 0.0004691016    1.091    0.083
         8 -10.5668    139.9951    249.6715   9.8816370741e+01   3.4242976465e+00    0.2177337    0.1724308  66.80  0.001343333    1.567    0.362
         9 -13.4954      5.8584    185.8348   1.2124578398e+02   3.4185200026e+01     1.287239    0.6348636  76.10  0.002106237    1.942    0.485
        10 -14.1803     82.6903    222.3526   1.0759074367e+02   1.7166816091e+01     2.742662    0.6066843  40.51   0.00286359    3.505    0.715
        11 -16.1143     35.1462    187.6797   1.1470905990e+02   3.0977016983e+01     9.528907     3.757713  81.19   0.03083881    4.687    0.787
        12 -12.0640     59.4516    177.0286   1.0753724792e+02   3.0655898507e+01    0.4303515    0.2989199 -32.48  0.001617254    1.974    0.493
        13 -11.9653     64.7149    171.7360   1.0545597571e+02   3.1254357809e+01    0.3337164    0.2757394 -40.25 0.0008486648    1.396    0.284
        14 -11.8489     74.8149    162.4198   1.0134145954e+02   3.2143208400e+01    0.3565499    0.2938613  39.26 0.0003447431    1.256    0.204
        15 -12.7486     81.6171    156.3143   9.8433105785e+01   3.2645541724e+01     1.066458    0.8235813 -51.67  0.001761108    1.275    0.216
        16 -10.4867    172.3182    242.4125   9.1239934870e+01  -3.0758134386e-01    0.4532945    0.2431015 -61.78  0.001854177    3.825    0.739
        17  -9.3276    146.4910    172.0598   8.4646916371e+01   1.7482030378e+01    0.2217473    0.1485937 -49.50 0.0005866101    1.535    0.349
        18 -13.5750     62.0106    158.0867   1.0414618921e+02   3.4993804974e+01    0.5649853    0.3563212 -42.50  0.001823512    1.792    0.442
        19 -13.2043     30.9745    203.8153   1.1710320928e+02   2.7723503742e+01    0.4935442    0.3958126 -51.00  0.001114871    1.541    0.351
        20  -8.6089    151.7178    151.3912   7.8978577841e+01   2.1003746950e+01    0.1577987    0.1238268 -83.81 0.0007001507    1.749    0.428
        21  -9.3319    174.9065    149.1239   7.3120372558e+01   1.6765974244e+01    0.2266335    0.2086137 -81.48 0.0005434656    1.280    0.219
        22 -10.4184    133.8636    145.5949   8.2107142957e+01   2.5907865657e+01    0.8308582      0.22353 -54.70  0.001892508    5.864    0.829
        23 -11.2497     54.6394    146.5704   1.0439260108e+02   3.8824102015e+01    0.3485181     0.207224 -54.50  0.001664913    1.551    0.355
        24 -10.7880     98.2066    140.8360   9.0721500448e+01   3.3763402215e+01      0.64941    0.3975338 -17.73  0.002310095    3.057    0.673
        25 -12.3463     85.0168    140.5165   9.4450278053e+01   3.6046124176e+01    0.3180451    0.2677853 -47.96 0.0003822893    1.160    0.138
        26 -10.0495    198.0458    139.7592   6.6151744617e+01   1.3941458642e+01    0.3252819    0.1946097 -54.60  0.001101497    1.990    0.498
        27 -10.9555     29.2524    143.5245   1.1121768719e+02   4.2330813423e+01    0.3756155    0.3122856  15.30  0.001666096    1.469    0.319
        28 -11.6874     74.9972    136.1391   9.6516532479e+01   3.8684835014e+01    0.5540993    0.2930503  56.33  0.002123764    2.599    0.615
        29 -11.4150     67.7394    128.6203   9.7195948354e+01   4.1614499174e+01     0.472503    0.2927486 -81.25  0.001997202    2.149    0.535
        30 -10.8549     17.6756    130.2997   1.1283539244e+02   4.6598387012e+01    0.3062894    0.2082952  50.61  0.001081197    1.646    0.392
        31  -9.9770    135.6208    128.0495   7.7479038041e+01   2.9554599311e+01     0.441867    0.1387343 -55.63 0.0009548712    6.326    0.842
        32 -10.8355     95.5278    127.1934   8.8443839172e+01   3.7561105505e+01    0.3311748    0.2689804 -22.26   0.00123341    1.402    0.287
        33 -10.8678    107.0951    130.8950   8.5950012618e+01   3.4571636544e+01    0.4910961    0.3651279  37.75  0.002118591    1.383    0.277
        34  -9.7881     21.4919    132.4233   1.1198613351e+02   4.5770240106e+01    0.2042928    0.1756887 -65.31 9.566647e-05    1.063    0.059
        35  -9.6887    105.9504    119.5939   8.3529350621e+01   3.7471147470e+01     0.234719    0.2008293 -33.26 0.0004099596    1.182    0.154
        36 -15.3298     10.8980    209.8220   1.2176283803e+02   2.8402964804e+01     1.800241     1.157583  67.68   0.01153198    1.295    0.228
        37 -10.2138    242.6598    111.6697   5.2268385869e+01   1.0281802937e+01    0.1334655    0.1017325  -1.73 0.0007051633    1.742    0.426
        38 -10.0650    205.3113    110.5565   5.7914524389e+01   1.7940063721e+01    0.2834905    0.2450004  37.79 0.0007869063    1.275    0.215
        39  -9.1548    134.5042    105.5231   7.1870496625e+01   3.4743264686e+01    0.1550164    0.1529037 -25.66 0.0003616546    1.009    0.009
        40 -10.8811     53.3766     92.3226   9.3662879767e+01   5.2311953687e+01    0.4213115     0.256633 -69.15   0.00137265    2.023    0.506
        41 -15.8316     47.1950    247.1022   1.1714332717e+02   1.6847005009e+01     9.880514     2.887617  26.14   0.01714128   11.720    0.915
        42 -10.1551     41.6796     92.0412   9.7861891973e+01   5.3742798454e+01    0.2147584    0.1919052  -3.20 0.0005955711    1.191    0.161
        43 -10.1944     81.3328    182.2263   1.0271878387e+02   2.6364991890e+01    0.2945913    0.2431903  32.31 0.0006858846    1.285    0.222
        44  -9.1521    160.9529     82.7500   5.9226226156e+01   3.3123730615e+01     0.196552    0.1277126  52.66 0.0004202761    1.537    0.349
        45 -10.2749     10.5097     76.4935   1.0628355602e+02   5.9923647651e+01     0.225973    0.1226914  13.36  0.001086728    2.149    0.535
        46  -9.2526     36.4970     63.5322   9.2122876070e+01   6.0575653039e+01     0.194304    0.1163646  36.48 0.0006350442    1.951    0.488
        47 -11.2492     13.4213     60.1707   1.0114042486e+02   6.3291070527e+01    0.2549371    0.2073545 -54.88 0.0004070695    1.201    0.167
        48 -10.1877     39.9666     58.4589   8.9028410016e+01   6.1213435808e+01    0.2395971    0.1980406  50.17  0.001427986    1.663    0.399
        49 -15.3690      7.5688    241.2015   1.2411964365e+02   2.2287830230e+01     1.761834     1.405782  80.66   0.01368548    1.159    0.137
        50  -9.9753     90.6606    214.6244   1.0489901319e+02   1.7637880955e+01    0.4227887    0.2169776  73.99   0.00154769    3.649    0.726
        51  -9.4904    107.4745    204.2320   9.9618023080e+01   1.7275489656e+01    0.1823539    0.1334257 -80.02 0.0006284786    1.606    0.377
        52 -10.8707    192.2040    193.4088   7.8729929243e+01   4.8417754641e+00    0.5113506    0.2853356 -63.08  0.001773046    4.243    0.764
        53 -10.0921     17.5036     55.0333   9.7857493608e+01   6.4057956369e+01    0.1811291    0.1492124 -15.70 0.0004394717    1.150    0.130
        54 -10.9312     11.8010     52.9914   9.9872617648e+01   6.4884218943e+01    0.2034518    0.1643778 -10.78 0.0007875618    1.222    0.181
        55  -9.9626      4.8562     49.6636   1.0217090832e+02   6.5989542185e+01    0.1475108    0.1020748  22.56 0.0004579537    1.704    0.413
        56  -9.5458     14.4925     44.4873   9.5971345506e+01   6.6373385812e+01    0.1241075   0.09547922 -30.01 0.0008104364    1.019    0.019
        57 -10.4329    132.8194     39.8813   5.2200621080e+01   4.6609186140e+01    0.2758341    0.2269472 -80.37 0.0005657054    1.427    0.299
        58 -10.6607    133.1637     32.3805   4.9671995313e+01   4.7462798403e+01    0.2934729     0.224145 -88.01 0.0007829641    1.552    0.356
        59  -9.7565    189.6753     15.0871   3.6300886886e+01   3.5728153194e+01    0.1731859    0.1567171 -66.29 0.0006393729    1.123    0.110
