#   1 NUMBER                 Running object number                                     
#   2 MAG_AUTO               Kron-like elliptical aperture magnitude                    [mag]
#   3 X_IMAGE                Object position along x                                    [pixel]
#   4 Y_IMAGE                Object position along y                                    [pixel]
#   5 X_WORLD                Barycenter position along world x axis                     [deg]
#   6 Y_WORLD                Barycenter position along world y axis                     [deg]
#   7 A_WORLD                Profile RMS along major axis (world units)                 [deg]
#   8 B_WORLD                Profile RMS along minor axis (world units)                 [deg]
#   9 THETA_WORLD            Position angle (CCW/world-x)                               [deg]
#  10 FWHM_WORLD             FWHM assuming a gaussian core                              [deg]
#  11 ELONGATION             A_IMAGE/B_IMAGE                                           
#  12 ELLIPTICITY            1 - B_IMAGE/A_IMAGE                                       
         1 -16.5045     35.1556     70.7268   1.1771503745e+02   5.9849087552e+01      1.45347    0.5087249 -47.43  0.006038219    2.367    0.578
         2 -17.6249     29.3022     96.5047   1.2602823216e+02   5.4506406023e+01     1.998318     1.513402  86.83   0.01057759    1.524    0.344
         3 -17.9085     12.1331     67.0056   1.2649283347e+02   6.2510620168e+01     3.618905     1.549794 -69.72   0.01657663    2.433    0.589
         4  99.0000    214.5872     38.2218   6.0837231225e+01   2.6933364963e+01     4.893416     2.177068  85.78   0.01896956    2.981    0.665
         5 -16.6556    187.9071     63.1981   7.0798856834e+01   2.9824919017e+01     1.788852     1.209419 -57.05  0.007994513    1.527    0.345
         6 -16.1575    126.0969     50.9978   7.9500543845e+01   4.7198058660e+01     2.311263      1.75895  49.25    0.0118206    1.225    0.184
         7 -16.1791    106.9970     48.3402   8.3650219514e+01   5.2068485429e+01     1.514163     1.177318 -26.23  0.007133114    1.359    0.264
         8 -15.8906     94.4404     38.1820   8.3565225480e+01   5.6316272623e+01     1.594664    0.8576189 -42.60  0.007221465    2.134    0.531
         9 -17.3421     70.0661     46.7615   9.5327197572e+01   5.9746653064e+01      2.25364     1.910431 -26.37   0.01344395    1.158    0.137
        10 -16.1680    171.8331     35.6156   6.5703262489e+01   3.7800769505e+01     1.874756     0.917027 -46.04  0.008099834    2.113    0.527
        11 -16.8911    157.0219     23.0441   6.4288957537e+01   4.3064064872e+01     2.412569     1.465758 -27.02   0.01194469    1.872    0.466
        12 -16.8141    244.3954     70.9899   6.4976950187e+01   1.5645576150e+01     1.991375     1.078175 -39.91  0.009972386    1.612    0.380
        13 -14.2633      3.3281      6.1542   1.1037472551e+02   7.4493162984e+01    0.4981114    0.2559285 -41.78  0.003121859    1.674    0.403
        14 -16.7813    226.3071    166.0571   8.8612503392e+01   3.3189255567e+00     2.256953      1.54112 -17.65   0.01165395    1.551    0.355
        15 -16.8440     34.1821    173.2675   1.3543859242e+02   3.5262496924e+01     2.108173     1.092833  61.49   0.01023916    1.975    0.494
        16 -14.2618    193.8202    171.7810   9.6080013728e+01   8.3316165373e+00    0.4493776    0.3858827 -47.15  0.002472491    1.268    0.211
        17 -13.8949     62.8419    165.8630   1.2716375805e+02   3.3585166874e+01    0.2128254    0.1930558 -53.38  0.001252681    1.237    0.191
        18 -13.1792    138.4921    158.9930   1.0600015568e+02   2.2125143940e+01    0.2390989    0.1535962 -50.04  0.001039298    1.609    0.379
        19 -16.1410     26.7792    144.7604   1.3426028312e+02   4.2931463050e+01     2.109151    0.8654034  69.43   0.00722411    4.173    0.760
        20 -16.5826     17.8910    122.9770   1.3414252355e+02   4.9025818585e+01      1.69278      1.50989   2.27   0.01124103    1.382    0.276
        21 -14.2139    248.9993    246.6419   9.9412254880e+01  -1.1712363803e+01    0.4001301     0.183913 -31.05  0.002282099    2.139    0.533
        22 -17.3267     53.0518    111.4312   1.2077598824e+02   4.8400284935e+01     2.272765     1.672304 -83.68  0.009904256    1.526    0.345
        23 -15.5473      8.9662    239.6786   1.4536160464e+02   2.3480339037e+01    0.4349414    0.2789672  79.00   0.00296945    1.222    0.182
        24 -15.8870      2.1441    226.0518   1.4598968250e+02   2.6816583306e+01      1.36143    0.2578141 -79.99  0.005095098    4.748    0.789
        25 -13.9085    240.6403    133.5742   7.9279384444e+01   6.2345121060e+00    0.6654361    0.2060741 -41.34  0.002406283    2.858    0.650
        26 -15.8750    222.9285    120.2729   7.9180557048e+01   1.1995216911e+01     1.120081    0.9007738 -10.95  0.005555699    1.433    0.302
        27 -15.5407    240.8985    122.8986   7.6916900723e+01   7.9819688909e+00    0.6267456     0.485863  42.95   0.00226106    1.459    0.314
        28 -14.3910    237.4538    116.2208   7.5964764077e+01   9.7730203245e+00      0.37835    0.2858251 -59.43  0.001301164    1.431    0.301
        29 -13.4748    145.0150    133.4988   9.8613653816e+01   2.6498999488e+01    0.3432223    0.2726032  16.01  0.001571232    1.543    0.352
        30 -15.0051    149.3099    127.5012   9.6075928301e+01   2.6875254814e+01    0.8653338    0.5322315 -62.54  0.003367064    2.112    0.526
        31 -16.4916    131.1150    115.4376   9.7680309188e+01   3.3605833694e+01     1.770724      1.16109  56.47   0.00747658    1.667    0.400
        32 -14.9264    168.6398    106.9655   8.6274061560e+01   2.6712817277e+01     1.103429    0.6012651 -54.32  0.004195401    2.148    0.534
        33 -13.1696    170.7653     99.1209   8.3731727221e+01   2.7745441173e+01    0.4262313    0.2931584  32.59  0.001842767    1.772    0.436
        34 -14.7589    150.5553    111.3672   9.1623772983e+01   3.0070785851e+01    0.4939556    0.3326073 -46.25  0.001784778    1.496    0.332
        35 -14.3147    248.4939    118.4882   7.4840352269e+01   7.2847981362e+00    0.4032897    0.2853528 -52.77  0.001611063    1.421    0.296
        36 -15.3078    247.1923    108.1156   7.2773947837e+01   9.2277522001e+00    0.7532285    0.5717503  87.20  0.004191865    1.700    0.412
        37 -15.4306      5.4620    202.1460   1.4414915425e+02   3.1487213274e+01     1.315832    0.3940847 -73.71  0.006022919    2.765    0.638
        38 -14.1457    189.3916     99.6441   8.0130149485e+01   2.3194894031e+01    0.7416731     0.466251 -65.34  0.003035255    2.120    0.528
        39 -16.5098     75.7709     93.1635   1.0854552139e+02   4.9503385771e+01     1.567217     0.694516 -46.93   0.00616049    2.133    0.531
        40 -15.4872    103.6765     86.3023   9.7361463414e+01   4.5846995105e+01     1.048028    0.8987839 -21.96  0.005397211    1.232    0.188
        41 -15.6751     86.2635     81.2112   1.0144186105e+02   5.0310831223e+01    0.9060911    0.5815314 -53.15  0.004161015    1.660    0.398
        42 -13.6020    136.0503     84.7800   8.7756576571e+01   3.8918729705e+01    0.6652873    0.2870456  58.94  0.002165364    2.895    0.655
        43 -15.6057     61.6033     67.5867   1.0606706336e+02   5.7231619487e+01     1.001725    0.5682493 -28.16  0.004481637    2.058    0.514
        44 -17.0756     50.6739     80.1602   1.1411140951e+02   5.6037668639e+01     1.080286    0.8293075 -63.14  0.005990124    1.376    0.273
        45 -16.7508     52.6182     68.6377   1.0995507831e+02   5.8273241754e+01    0.9425551     0.620608 -52.20  0.004932801    1.484    0.326
        46 -16.2714    200.9591     77.9157   7.2537189195e+01   2.4269511144e+01     1.837724    0.9016839  68.24  0.007221959    2.397    0.583
        47 -14.5443    213.3471    227.1320   1.0258837923e+02  -4.2542327221e+00    0.2940564    0.1944861  33.10   0.00172618    1.360    0.265
        48 -14.6124    154.3512     79.1370   8.1713705800e+01   3.5525175765e+01    0.8370966    0.5466939  45.69  0.003515047    1.547    0.353
        49 -14.9375    131.7597     74.4701   8.5708178861e+01   4.1890436350e+01     1.014227    0.6093946  62.75  0.004174846    1.903    0.474
        50 -14.1657    121.1224     87.4616   9.2564198441e+01   4.1843562178e+01     0.594367    0.4681759 -58.07  0.002844636    1.401    0.286
        51 -16.4763     95.5738     63.4900   9.2521110133e+01   5.1988357060e+01     1.167331    0.8364113  69.02  0.005401858    1.977    0.494
        52 -13.8506    115.2632     72.0899   8.9422347677e+01   4.6163629478e+01     0.458049    0.3935404  56.08  0.002053747    1.189    0.159
        53 -13.2855    220.9941     68.9853   6.7408405371e+01   2.1034857392e+01    0.3027064    0.2648574 -63.53  0.001128078    1.017    0.017
        54 -14.9033    166.4398     63.2358   7.4583247773e+01   3.5208433446e+01    0.7530611    0.3603736 -35.28  0.002278123    2.161    0.537
        55 -14.9739    206.0260    219.3899   1.0266598508e+02  -1.9651835746e+00     0.433872    0.2181885  25.57  0.002023689    2.075    0.518
        56 -16.4336    238.4507    206.8865   9.4405818085e+01  -5.0953099884e+00     1.797304    0.7333984  31.92  0.008165366    2.491    0.599
        57 -14.8891    216.2454    207.0683   9.8509271581e+01  -1.6961624834e+00    0.4925487    0.2979133  40.19  0.002610956    1.653    0.395
        58 -16.0843    175.2204     72.8693   7.5654392838e+01   3.1415354828e+01      1.24774    0.9101589  67.12  0.005150388    1.377    0.274
        59 -16.0184    174.0153    192.5744   1.0439598502e+02   8.1562601648e+00     1.668448    0.9451849  42.00  0.007076866    1.660    0.397
        60 -16.9584     78.6858    120.0435   1.1429112191e+02   4.2650925831e+01     1.968822     1.303926  60.63  0.007378979    1.870    0.465
        61 -15.9731    162.6515     46.0528   7.0246661695e+01   3.8751176146e+01     1.550766    0.7911804  68.16  0.006441912    1.968    0.492
        62 -15.7169    191.2142    189.9574   1.0025559072e+02   5.4718685877e+00    0.9791292    0.7276601  -6.40  0.005082546    1.533    0.348
        63 -15.1181    248.0755    164.4135   8.4544521289e+01  -1.2106992168e-01    0.8975501    0.4777528  33.14  0.004405092    2.130    0.531
        64 -16.2406    247.1907     94.6157   6.9824374583e+01   1.1407622621e+01     1.212021    0.8748521 -29.84  0.005667571    1.386    0.279
        65 -14.8186    231.8028    130.0107   7.9913502648e+01   8.5172832168e+00    0.8167036    0.5185639 -45.21  0.004070837    1.489    0.328
        66 -13.1902    135.8279     31.1765   7.0628776163e+01   4.7492478570e+01    0.3021664    0.2686141  52.05  0.001295666    1.057    0.054
        67 -13.3611    131.9529     31.5078   7.1535051293e+01   4.8417989662e+01    0.3308749    0.2694923  59.96  0.001727027    1.107    0.097
        68 -13.8448     38.6455     27.2921   1.0066776032e+02   6.7649154556e+01    0.2976167    0.2643926   2.47  0.002061518    1.200    0.167
        69 -13.8236    210.0754     59.4414   6.6553139753e+01   2.5019255191e+01    0.5055949    0.3455223  82.64  0.002376957    1.536    0.349
        70 -15.7200    223.1966    183.3315   9.2681701397e+01   9.6425957588e-01     1.502079    0.9783617 -67.19   0.00611959    3.617    0.724
