#   1 NUMBER                 Running object number                                     
#   2 MAG_AUTO               Kron-like elliptical aperture magnitude                    [mag]
#   3 X_IMAGE                Object position along x                                    [pixel]
#   4 Y_IMAGE                Object position along y                                    [pixel]
#   5 X_WORLD                Barycenter position along world x axis                     [deg]
#   6 Y_WORLD                Barycenter position along world y axis                     [deg]
#   7 A_WORLD                Profile RMS along major axis (world units)                 [deg]
#   8 B_WORLD                Profile RMS along minor axis (world units)                 [deg]
#   9 THETA_WORLD            Position angle (CCW/world-x)                               [deg]
#  10 FWHM_WORLD             FWHM assuming a gaussian core                              [deg]
#  11 ELONGATION             A_IMAGE/B_IMAGE                                           
#  12 ELLIPTICITY            1 - B_IMAGE/A_IMAGE                                       
         1 -13.8152     54.4273    119.8599   6.5569286104e+01   4.5750049515e+01     2.910055    0.9470401 -72.26  0.005378843    4.688    0.787
         2 -12.9397    249.5212     37.4854   1.3787084935e+00   1.9904674132e+01    0.9510521    0.3833068 -27.90  0.002640359    2.632    0.620
         3 -13.9949    228.4776     52.9747   6.5473946797e+00   2.2037215335e+01     1.229305     0.994597  48.05  0.006811515    1.583    0.368
         4 -12.0443      2.1445     24.2888   6.6536455344e+01   7.4053725145e+01    0.6197345    0.2180816 -65.76  0.002554264    3.138    0.681
         5 -13.1385      4.5645      7.6491   5.6375742329e+01   7.7091635130e+01    0.9234216    0.5654641 -35.74  0.005620694    1.380    0.275
         6 -10.0768     43.4042      3.8010   2.6788912586e+01   7.2090857682e+01    0.1696428    0.1126892  -7.24 0.0009410956    1.584    0.369
         7  -9.0518    158.0268      8.9543   2.0810387330e+00   4.3800692108e+01    0.1620907    0.1411208 -81.24 0.0003929865    1.018    0.017
         8 -11.5974    118.9142    230.7030   6.4394802702e+01   1.0329856097e+01    0.3735969    0.1397935  31.06  0.001573408    2.337    0.572
         9 -12.6402     44.1109    163.6866   7.5348779300e+01   3.5466109993e+01    0.7670252    0.5256349 -11.77  0.001404942    2.209    0.547
        10 -12.1232     50.9859    159.2088   7.2799105131e+01   3.5791728423e+01    0.5221463    0.3142271  36.95 0.0008016251    1.590    0.371
        11 -15.1629      6.9611    239.3250   8.9246165852e+01   2.2248109534e+01     3.392765     1.822624  16.74    0.0115185    2.516    0.602
        12 -14.1135      9.7162    184.8778   8.6374153635e+01   3.3664041861e+01    0.9791924    0.7116262 -37.24 0.0008540412    1.915    0.478
        13 -16.5314     21.9541    177.1555   8.2739291449e+01   3.4419073545e+01     7.763348      3.03686  80.87    0.0300477    2.990    0.666
        14  -9.8221     95.6532    197.6833   6.5646862721e+01   2.0292780395e+01    0.1384365    0.1072141 -10.60 3.638427e-05    1.724    0.420
        15 -12.0577     82.8107    195.6832   6.8622536762e+01   2.2626052603e+01    0.4067446    0.3270316 -78.42  0.002307108    1.341    0.254
        16 -12.0068     77.9308    193.7808   6.9634437342e+01   2.3751815204e+01    0.5177071    0.3189148 -63.69  0.001895425    1.733    0.423
        17 -10.7466     76.1724    189.1774   6.9527467732e+01   2.5057240510e+01    0.4215208    0.2302254  29.25  0.000282579    1.804    0.446
        18 -10.2226    126.5149    192.9923   5.7374769295e+01   1.6426110272e+01    0.2581924    0.2176098  79.70 0.0007183052    1.479    0.324
        19 -10.6246     70.4136    194.4830   7.1641570870e+01   2.4634217013e+01    0.2906026    0.1248121  31.42  0.001208078    2.158    0.537
        20 -15.0336      4.8278    218.2170   8.8965627047e+01   2.6673104761e+01     3.655848     1.068214  20.17  0.007211904    4.889    0.795
        21  -9.9549     76.0811    183.0883   6.8782946207e+01   2.6496462949e+01    0.4577796    0.2191457  67.44  0.001569227    3.505    0.715
        22 -10.5576     99.0995    181.2703   6.2425903317e+01   2.3430312096e+01    0.2782084    0.2519215  28.72 0.0006323099    1.104    0.094
        23  -8.8004    159.7915    181.0748   4.7562389583e+01   1.3208152515e+01     0.177638    0.1119631 -45.21 0.0006301344    1.668    0.400
        24  -9.7529     66.9053    178.7924   7.0714486722e+01   2.8810172795e+01     0.234506    0.1847772  76.80 0.0002445572    1.267    0.210
        25  -9.9454     73.7513    170.1656   6.7677597919e+01   2.9957216777e+01    0.2956802     0.198595  84.16  0.001378313    1.742    0.426
        26 -10.0528     72.1590    166.1823   6.7562099707e+01   3.1176389936e+01    0.2837881    0.2090565 -81.67 0.0006234812    1.423    0.297
        27 -12.4845     76.7468    133.1596   6.0575862694e+01   3.8955102627e+01    0.5461283    0.3740184 -55.52  0.000491803    1.433    0.302
        28 -10.7272     72.2759    242.6000   7.5799159191e+01   1.4445459689e+01    0.2307575    0.1994095  59.46 0.0009441174    1.139    0.122
        29 -13.4882     48.4255    146.9491   7.1974804075e+01   3.9298094361e+01     0.747734    0.4308306  18.20  0.001210261    2.102    0.524
        30 -11.7866     49.2522    139.9363   7.0712315161e+01   4.1052182034e+01    0.3868207    0.2805954  71.76 0.0008304497    1.440    0.306
        31 -11.0879     64.9188    158.2446   6.8525877027e+01   3.4211050579e+01    0.5862442    0.3094821  54.13 0.0006306618    2.040    0.510
        32 -12.1004     63.2270    151.3108   6.8007000180e+01   3.6233868965e+01    0.6503417    0.4074446  84.51  0.001492072    1.930    0.482
        33 -12.4339     69.8680    152.6476   6.6191880948e+01   3.4944488241e+01    0.6147515    0.5089177  69.97  0.001461108    1.207    0.172
        34 -14.2740     69.7594    145.2416   6.5011548261e+01   3.6878807529e+01     2.787443     1.403547  70.23  0.008872475    3.671    0.728
        35 -11.4229     35.7389    228.3659   8.2732971220e+01   2.1520061775e+01    0.2636975    0.2031479  56.91  0.001036893    1.024    0.024
        36 -11.4568    125.3190    227.2169   6.2549880583e+01   1.0031549830e+01     0.388973    0.2494394 -68.66  0.001542777    2.224    0.550
        37 -10.2867     89.9576    135.9904   5.6974271530e+01   3.6017421778e+01    0.3388175    0.2824433  -5.28  0.001017122    1.480    0.324
        38  -9.7975     94.1037    133.3182   5.5131946247e+01   3.5961867295e+01    0.2984958    0.2410378 -22.23  0.001407128    1.504    0.335
        39  -9.4203    110.4994    167.1160   5.7062753227e+01   2.4809822243e+01    0.2066895    0.1493331 -58.28 0.0004137452    1.467    0.319
        40 -10.5580    104.5573    128.5609   5.0895098775e+01   3.5204897543e+01    0.5332489    0.3994543 -72.70   0.00220679    1.545    0.353
        41 -12.4778    235.2817    158.3989   2.8714821606e+01   4.7696825099e+00    0.4142016    0.3017169 -27.75  0.002555837    1.143    0.125
        42  -9.3709    135.1135    148.3728   4.6893750040e+01   2.4569656382e+01    0.3126615    0.1876261  52.74   0.00128649    1.895    0.472
        43 -10.4967     38.1255    125.8819   7.2371083912e+01   4.6088857174e+01    0.2255818    0.1846813  73.88 0.0005470167    1.216    0.178
        44 -10.3497     90.0415    122.4555   5.3981986744e+01   3.9443753551e+01    0.3339772    0.2597264  37.85 0.0009461955    1.297    0.229
        45 -10.6089     31.7788    118.2870   7.3497843917e+01   4.8776420906e+01    0.2397075    0.1735998  31.25 0.0007825759    1.471    0.320
        46  -9.6104    102.8608    116.7403   4.8556417678e+01   3.8436388645e+01    0.2226885     0.210905  -0.77 0.0004140146    1.137    0.121
        47  -8.7453    183.5099    116.5137   2.8478254256e+01   2.1225293425e+01    0.1479887    0.1366072 -21.53 0.0008095689    1.066    0.062
        48 -10.2668    205.1159    110.6402   2.3233958783e+01   1.7857900374e+01    0.2901059    0.2380776  26.73 0.0009349877    1.419    0.295
        49 -11.4905     41.4471    108.5537   6.8225786895e+01   5.0365869386e+01    0.5449086    0.2947174  66.83  0.001942214    2.684    0.627
        50 -11.5598     21.7998    107.5714   7.5655007211e+01   5.2530729444e+01    0.4297796    0.3230291 -36.71   0.00134892    1.434    0.303
        51 -11.2407     13.9750    101.4369   7.7858075277e+01   5.4735219925e+01    0.4627964    0.2299732  55.01   0.00159132    2.382    0.580
        52 -10.0320     21.7731     94.1984   7.3533380913e+01   5.6072650139e+01    0.3271647    0.1976789  68.83  0.001263638    2.050    0.512
        53 -10.6555     99.3468     92.4997   4.3011145304e+01   4.4930444323e+01    0.2943778    0.2579823 -86.69 0.0003284768    1.294    0.227
        54  -9.3390    143.4890     90.9604   3.0209186598e+01   3.5230283808e+01    0.2370643    0.1498756 -46.07  0.001001566    1.565    0.361
        55 -10.4503    148.5024    228.9786   5.7777355814e+01   6.3800303642e+00     0.171725    0.1257496 -43.48  0.001033947    1.593    0.372
        56 -11.9895      4.7232     61.3838   7.5431583413e+01   6.5496029152e+01    0.4731771    0.2801377  72.99 0.0009933824    2.275    0.561
        57  -8.7225    123.2075    215.9352   6.1534212600e+01   1.2412969431e+01    0.1511002    0.1094257 -56.20 0.0004515778    1.627    0.386
        58  -9.2877    111.6501    241.2397   6.7187629467e+01   9.4973564464e+00    0.1432064     0.115059 -42.41  0.000395925    1.531    0.347
        59 -13.1400    236.2943     47.9074   4.6809434674e+00   2.1140222503e+01    0.6364814    0.5133058  53.93  0.001519302    1.573    0.364
        60 -11.0025     13.4932     60.3483   7.0488180567e+01   6.5246411512e+01    0.2464986    0.2212162 -64.57 0.0005547586    1.121    0.108
        61  -9.3631     82.7611     61.9481   3.8531453933e+01   5.5039845825e+01    0.2087179    0.1901139 -40.09 0.0002904818    1.112    0.101
        62 -12.3162      8.7714     43.1754   6.8516484843e+01   6.9568138085e+01    0.5283295    0.2661203  24.59  0.001662846    2.137    0.532
        63  -9.0413     61.8075     42.8182   3.9190827811e+01   6.2863042462e+01    0.1820208    0.1702999  76.89 0.0003763761    1.330    0.248
        64 -10.1519     28.6055     32.8417   5.2026826891e+01   6.9936726990e+01    0.1748915    0.1221005 -57.51 0.0004778973    1.681    0.405
        65 -11.6226      7.7835     29.8753   6.4586719463e+01   7.2534721944e+01    0.2306391    0.1791644 -33.27  0.001102796    1.066    0.062
        66  -9.6779    149.0062    238.9987   5.9026679916e+01   4.6983612300e+00    0.1778748    0.1372204  52.50 0.0004666682    1.601    0.375
        67  -9.6712     60.2202     21.1766   2.9316334067e+01   6.6635725578e+01    0.2025785    0.1665625  16.83 0.0004984429    1.156    0.135
        68  -9.8742     33.0000     18.4708   4.1813331773e+01   7.1895070484e+01    0.1643766    0.1106452  56.90 0.0005538078    2.444    0.591
        69  -8.9026    189.4737     15.4337   8.9439999598e-01   3.5369977470e+01    0.1321107    0.1104902 -72.12 0.0001765997    1.008    0.007
        70 -11.8825     41.9277    232.0250   8.1605287913e+01   2.0100954486e+01    0.5618215    0.2125932 -83.65  0.002508025    3.189    0.686
        71 -15.0653      9.4447    207.7996   8.7534083231e+01   2.8485327505e+01     1.749438     1.245202  28.37   0.01009541    1.495    0.331
