#   1 NUMBER                 Running object number                                     
#   2 MAG_AUTO               Kron-like elliptical aperture magnitude                    [mag]
#   3 X_IMAGE                Object position along x                                    [pixel]
#   4 Y_IMAGE                Object position along y                                    [pixel]
#   5 X_WORLD                Barycenter position along world x axis                     [deg]
#   6 Y_WORLD                Barycenter position along world y axis                     [deg]
#   7 A_WORLD                Profile RMS along major axis (world units)                 [deg]
#   8 B_WORLD                Profile RMS along minor axis (world units)                 [deg]
#   9 THETA_WORLD            Position angle (CCW/world-x)                               [deg]
#  10 FWHM_WORLD             FWHM assuming a gaussian core                              [deg]
#  11 ELONGATION             A_IMAGE/B_IMAGE                                           
#  12 ELLIPTICITY            1 - B_IMAGE/A_IMAGE                                       
         1 -14.9294    188.9950     76.2478   2.5821731718e+01   2.8692868532e+01     4.646393       2.5123 -27.97   0.02214982    2.042    0.510
         2 -15.9125    207.7065    110.0759   3.0891047076e+01   1.9980296762e+01     4.885703     2.763661 -58.83   0.02363654    2.300    0.565
         3 -14.6081    222.1028     67.1193   1.9944351563e+01   2.3812746807e+01     2.267184     1.526815 -12.27    0.0122061    2.204    0.546
         4 -15.0308    192.9587    157.5505   4.3126111672e+01   1.4364435275e+01     6.450705     2.921586 -50.60   0.02731881    2.660    0.624
         5 -15.0953    142.7401    140.4649   4.9827671794e+01   2.5952400025e+01     20.19154     4.220542  46.18   0.04736389    6.774    0.852
         6 -16.1311    246.3635     69.2885   1.8197199305e+01   1.9514183061e+01       5.1938     2.245224 -49.71    0.0287434    1.925    0.481
         7 -10.2944    213.1554     16.3562   9.7593414182e+00   3.1504284389e+01    0.2142944    0.1745573 -63.48 0.0005130129    1.074    0.069
         8  -9.8439    221.2872     14.3099   8.8683993977e+00   3.0197089047e+01    0.2661195    0.1937657  52.44   0.00140658    1.912    0.477
         9  -9.8499    221.0595      9.9980   7.9899065438e+00   3.0669060683e+01    0.2956968    0.1686029  67.09  0.001913355    1.990    0.497
        10  -9.5756    225.5323      6.9772   7.1594889509e+00   3.0150601185e+01    0.2711692    0.1488588  60.31   0.00105829    2.307    0.566
        11 -10.8541    231.8679      4.0297   6.2976191405e+00   2.9307173764e+01    0.4572125    0.2374103  60.91   0.00214194    2.470    0.595
        12 -10.1525    231.4721      9.0300   7.2966907346e+00   2.8894461737e+01    0.1790363    0.1686233  27.80  0.001023697    1.623    0.384
        13 -10.9027    235.4389      7.0136   6.7277893136e+00   2.8399601797e+01    0.4742486    0.2108215  58.87 0.0007025914    3.030    0.670
        14 -10.2086    239.5028      5.0093   6.1756817419e+00   2.7896335982e+01    0.2067429     0.162575  59.51 0.0005579558    1.781    0.438
        15 -10.1327    120.3071      9.2710   1.6122153839e+01   5.2629942271e+01    0.2865871     0.275011 -59.10 0.0009737394    1.154    0.133
        16  -9.2879    208.2085      9.6122   8.5862166531e+00   3.3125278708e+01    0.1781721    0.1587523 -41.97 0.0004405765    1.296    0.229
        17  -9.3208     97.7681      3.0732   1.7176706751e+01   5.8629138362e+01    0.1920159    0.1584629 -77.97 0.0005147629    1.217    0.178
        18  -8.9724    113.9867      1.4475   1.4201711372e+01   5.4802744870e+01    0.1865969    0.1092425  75.16 -3.003803e-05    1.479    0.324
        19  -9.3862    250.7769    196.6579   4.1013650706e+01   1.2981253694e+00    0.4094584   0.08540651 -37.38  0.001666238    3.681    0.728
        20 -11.9334    245.0349    247.4752   4.9671443442e+01  -4.5696820546e+00    0.6519472    0.3382626  19.70  0.004596227    1.811    0.448
        21  -8.1601     97.9745    250.8095   7.8310807131e+01   9.8940705292e+00    0.1591509   0.07952228  25.16            0    1.644    0.392
        22  -9.3581    232.2529    201.0135   4.4461666802e+01   2.5864627650e+00    0.1664512    0.1276453 -12.41 0.0002659991    1.081    0.075
        23  -9.2972    113.8513    201.1177   6.8327706437e+01   1.7548726806e+01    0.1979294    0.1759597   2.38 0.0002974332    1.040    0.038
        24 -14.0376    156.3712    109.7915   3.9585538559e+01   2.9514533655e+01      2.92463     1.963498  35.63   0.01422554    1.714    0.417
        25 -10.5753    185.5497    169.4537   4.6805674805e+01   1.3372472182e+01    0.4978569    0.2494374  39.45  0.002398116    2.222    0.550
        26 -10.6696    177.0184    169.3300   4.8428371919e+01   1.4646266805e+01    0.6830134    0.2515647 -51.72  0.002362734    3.807    0.737
        27  -9.2044    181.0043    182.2945   5.0083407489e+01   1.1758308001e+01    0.5607107    0.1591089 -48.43  0.001844577    4.296    0.767
        28 -10.0327    180.9038    175.3125   4.8807370189e+01   1.3004789548e+01    0.3793373    0.2933218 -64.74   0.00173743    1.962    0.490
        29  -8.4372     57.4635    184.4864   8.1249760988e+01   2.8692682233e+01    0.1388569    0.1340051  32.07 0.0002694615    1.031    0.030
        30  -9.7892    237.1882    181.6659   4.0439611379e+01   4.7985651833e+00    0.3566982    0.2116628   3.25  0.001569025    2.039    0.510
        31  -9.2897    174.0445    180.2404   5.1082449874e+01   1.3101021730e+01     0.292898    0.2391409  84.74  0.001575982    2.254    0.556
        32  -9.0357    101.0202    175.9934   6.7657855075e+01   2.4917778176e+01    0.2018071    0.1897477  10.57  0.001138151    1.007    0.007
        33  -8.5948    151.0121    169.0927   5.3870679248e+01   1.8674738878e+01    0.2040835    0.1766042  88.26  0.001111632    1.676    0.403
        34  -8.8518     23.6937    165.0439   8.9377349527e+01   3.7156287756e+01    0.1916198    0.1737231 -81.83 0.0004052511    1.071    0.066
        35  -9.7576    213.6498    161.4361   4.0380965103e+01   1.0774180866e+01    0.3409447    0.2535218 -60.11  0.001625737    1.977    0.494
        36  -8.8921    141.4785    163.5132   5.4973913555e+01   2.1337578429e+01    0.2651567    0.1368149 -48.14 0.0006578633    1.920    0.479
        37  -8.6507    129.9746    156.7713   5.6418383674e+01   2.4678097957e+01    0.2810419    0.1764316 -32.89  0.001261319    1.698    0.411
        38  -9.7054     97.5325    153.7044   6.4600662133e+01   3.0752574796e+01    0.4467846    0.3007554 -86.56  0.001834235    2.320    0.569
        39  -9.5977    133.0006    247.0431   7.0188980223e+01   6.6042820517e+00    0.1858437    0.1344025  46.40 0.0008666303    1.755    0.430
        40  -8.1992     83.5414    151.4415   6.8360308867e+01   3.3501837441e+01    0.1491603    0.1462528   9.06 7.751723e-05    1.006    0.006
        41 -11.4637    229.4698    238.8862   5.0839283276e+01  -2.2008728723e+00    0.5073696    0.1928297  37.79   0.00245134    4.188    0.761
        42  -8.9073    250.0270    185.9483   3.9342164707e+01   2.8171332038e+00    0.1715287    0.1201451 -22.03 0.0004581112    1.030    0.029
        43 -11.7860     68.0927    144.2236   7.1955764330e+01   3.7629575604e+01    0.8925746    0.6380048  75.41  0.003207727    1.793    0.442
        44 -10.9637     68.2062    137.5908   7.0673225347e+01   3.9345186530e+01    0.3507195    0.3230466  30.80  0.001248384    1.089    0.082
        45  -8.4126     22.8290    244.2385   9.4957170154e+01   1.8792101959e+01    0.1427834    0.1302668  -2.92 0.0003395151    1.316    0.240
        46  -8.4247     85.5277    142.5116   6.6005778897e+01   3.5438399089e+01    0.1516102    0.1484746 -12.41  0.000166809    1.004    0.004
        47 -15.6915    246.1432    111.0666   2.6299931902e+01   1.3891276412e+01     1.880169     1.126157  48.61   0.01006139    2.186    0.543
        48  -9.4034     15.6344    138.7961   8.9476484006e+01   4.4859658517e+01    0.2198952    0.1903553 -17.80 0.0005413972    1.276    0.216
        49 -13.3741     10.5254    120.9639   8.9416304860e+01   5.0097274101e+01     1.278462     1.062366 -34.74   0.00465798    1.245    0.197
        50 -12.4444     69.1733    116.4573   6.5841072273e+01   4.4676639921e+01     1.905802     1.523663  43.26   0.00936652    1.289    0.224
        51 -13.0654     49.6631    117.7657   7.3426327071e+01   4.7150345117e+01     1.040413    0.9433576 -47.66  0.003476957    1.071    0.066
        52 -12.1126     40.6302    118.6070   7.7110792089e+01   4.8029427046e+01    0.5977881    0.4943413  31.70  0.001351508    1.241    0.194
        53 -11.1956    122.2423    104.5516   4.6127181546e+01   3.7518738273e+01    0.8386281    0.5582466  89.56   0.00287691    2.861    0.650
        54  -8.5450    109.1477    106.8318   5.0332556855e+01   3.9696629695e+01    0.2066136    0.1805574  -2.91 0.0004044702    1.283    0.220
        55 -10.2502    246.4067    233.6896   4.7448890082e+01  -3.0376092669e+00    0.2727393    0.1821581  44.24   0.00169685    3.476    0.712
        56 -10.0165    141.0792    103.2192   4.1198795641e+01   3.3884000759e+01     0.313536    0.2688775  88.86  0.000672963    1.372    0.271
        57 -11.4004     37.9486    126.3216   7.9509983529e+01   4.6236884068e+01    0.4823529    0.4412803 -35.99 0.0006167244    1.106    0.096
        58  -8.5018    115.4023    224.3349   7.1225311748e+01   1.2710388983e+01    0.1461607    0.1293694 -66.68 0.0003293334    1.433    0.302
        59 -10.7886    176.4920     91.2428   3.1315789108e+01   2.8799578631e+01    0.5470563    0.2972772 -38.72  0.001654482    1.659    0.397
        60 -12.0126     57.5021    119.7527   7.0864181419e+01   4.5564931673e+01    0.7790112    0.4845615 -53.93  0.001767434    1.541    0.351
        61  -8.9215    157.5988     89.7629   3.4255194489e+01   3.2923096925e+01    0.2806712    0.1312557 -35.74  0.001143031    2.120    0.528
        62  -8.7002    118.7341     90.0270   4.2984267744e+01   4.1232704131e+01    0.2179648    0.1902679 -42.92 0.0007577798    1.131    0.116
        63  -9.2920    135.7747     83.1856   3.6912874168e+01   3.8806416462e+01    0.2359755     0.198163  74.53 0.0005879992    1.291    0.225
        64  -8.4929    148.4523     81.9783   3.3933894530e+01   3.6239109006e+01    0.2200297    0.1320298 -41.92 0.0006022037    1.576    0.366
        65  -8.2375     84.8312     81.1416   5.0431461287e+01   5.0216694356e+01    0.1933957    0.1701579  -7.65            0    1.245    0.197
        66  -9.0811    139.7963     79.1987   3.4912947629e+01   3.8627687685e+01    0.1931815    0.1715328   9.78 0.0004872601    1.344    0.256
        67  -8.6992    148.7854     76.2173   3.2278792898e+01   3.7148568052e+01    0.2381229     0.160178 -40.57 0.0005606147    1.418    0.295
        68  -9.0588    227.4555    220.1945   4.8313055295e+01   4.3090048041e-01    0.2778592    0.1791758  46.79  0.001589767    3.267    0.694
        69  -9.0538    159.9500     73.9797   2.9656972061e+01   3.5072918016e+01    0.2071132    0.1865694 -53.88 0.0003356143    1.026    0.025
        70  -9.0802    140.0306     73.8278   3.3325052125e+01   3.9500629491e+01     0.237878    0.1703673 -70.07  0.001147672    1.671    0.402
        71  -9.2409    136.5045     72.4988   3.3665014221e+01   4.0520146421e+01    0.2548595    0.1392691  55.05  0.001036321    1.850    0.459
        72  -9.3572    150.1392     70.9058   3.0545184058e+01   3.7723120362e+01    0.2180212    0.1788014 -65.00 0.0004504365    1.228    0.186
        73  -9.6865    150.8647     67.1054   2.9349048731e+01   3.8167461870e+01    0.2932292    0.1732279 -50.37 0.0008730321    1.682    0.406
        74  -9.6986    134.7303     63.4865   3.1344218233e+01   4.2409521518e+01    0.3353014    0.2437516  34.30  0.001005309    1.686    0.407
        75 -10.0989    162.8480     60.9591   2.5686417289e+01   3.6441651237e+01    0.3819488    0.2287718  26.36  0.001545269    3.289    0.696
        76  -9.2732    152.9648     61.9916   2.7549448907e+01   3.8485443677e+01     0.238829    0.1561736 -67.83  0.001150166    1.792    0.442
        77  -9.3718    144.4254     59.5188   2.8319634228e+01   4.0797486057e+01    0.2585962    0.2180882 -63.37 0.0006091552    1.155    0.134
        78  -8.0226     96.3045     60.3290   3.9696024218e+01   5.1790676463e+01    0.1479902    0.1145829  13.39   0.00070358    1.652    0.395
        79 -14.9068    248.3265     91.2533   2.2272297289e+01   1.6319103424e+01     1.313758    0.7509918 -28.32  0.004552207    1.674    0.403
        80 -11.3680    163.8250     52.1453   2.3159081512e+01   3.7480370950e+01    0.6179458     0.425898   8.37  0.002941452    2.546    0.607
        81 -10.2708    137.2355     50.7897   2.6994925186e+01   4.3748563390e+01    0.3896545    0.2076062 -23.00   0.00150312    2.436    0.590
        82 -11.2314    139.8080     43.2767   2.4249638937e+01   4.4179732812e+01     0.635976    0.3376959 -15.74  0.002217765    2.995    0.666
        83 -10.9079    154.5977     50.8994   2.4158981370e+01   3.9723480206e+01    0.3525937    0.2093612 -43.76  0.001768969    1.577    0.366
        84  -9.8090    165.1319     38.9709   1.9414832989e+01   3.8912820630e+01    0.2292176    0.1920966 -33.77 0.0005165891    1.267    0.211
        85 -10.5678    168.5759     34.8183   1.7894553259e+01   3.8651980317e+01    0.3588739    0.2580018  -2.07  0.001121049    2.097    0.523
        86  -9.9740    174.0406     44.4985   1.9808579840e+01   3.6256242167e+01     0.372328    0.1684145 -35.66 0.0008772895    2.023    0.506
        87  -8.6959     71.0077     37.5213   3.8916394305e+01   6.1133857773e+01    0.2081468    0.1836903 -27.38 0.0005394786    1.207    0.171
        88 -15.2347    241.5130    119.1194   2.8369759581e+01   1.3391620560e+01     2.294335    0.5713661 -44.82  0.006864625    3.692    0.729
        89  -9.7939    199.9695     32.8275   1.4360563366e+01   3.2276878276e+01    0.2882223      0.16921  37.29  0.001438312    3.047    0.672
        90  -9.1116    103.5257     33.5154   2.7941756724e+01   5.4136449229e+01    0.2319317    0.1392095 -12.69  0.001030561    2.340    0.573
        91  -9.3697    144.0825     32.9476   2.0457070208e+01   4.4473969479e+01    0.1958252    0.1775151 -80.69 0.0003420649    1.018    0.018
        92  -8.8209    123.5415     29.9141   2.2690719326e+01   4.9734963010e+01    0.2273261    0.1672159  57.49 0.0005862435    1.307    0.235
        93  -9.2550    146.1911     28.1150   1.8720559300e+01   4.4539914868e+01    0.1921957    0.1708979  48.38  0.001127422    1.291    0.226
        94 -10.2899    178.7142     23.9163   1.4041159606e+01   3.7677913870e+01    0.4465418    0.2781865 -69.80  0.002572801    1.519    0.341
        95  -8.9109    147.0036     19.9408   1.6187580056e+01   4.5233234863e+01    0.1854061    0.1714507  86.04 0.0004404322    1.113    0.102
        96  -8.6844    243.1609     18.1693   8.5193859291e+00   2.5972268028e+01    0.1439562    0.1186768 -54.68 0.0004850378    1.175    0.149
        97  -8.6156     21.6739    219.6824   9.3938233866e+01   2.4038113839e+01    0.1216171   0.09214853 -31.38 0.0007045351    1.675    0.403
        98  -9.2775     31.7626    218.4513   9.1339558745e+01   2.3395942174e+01    0.1738906    0.1176016   8.67 0.0009462861    1.650    0.394
        99  -8.7280    235.0928    216.3125   4.6498769677e+01   2.0738459088e-01     0.145362    0.1115436  -1.63 0.0006720042    1.192    0.161
       100 -10.1183    246.9894    212.6838   4.4135737310e+01  -4.4572130864e-01    0.4098735   0.09196716 -32.23  0.001586454    4.251    0.765
       101  -9.8090    192.6456    213.1888   5.3194347808e+01   5.1691952289e+00     0.207734     0.178173   5.05 0.0004236879    1.237    0.192
       102  -9.6551    235.4790    210.6786   4.5541293073e+01   9.2624708351e-01    0.1995952    0.1597857 -13.88 0.0007512756    1.215    0.177
       103 -10.2545    207.9470    206.7113   4.9388652973e+01   4.4088869021e+00    0.6449456    0.4975312 -75.10  0.003096986    3.624    0.724
       104 -10.1486    200.5164    199.4885   4.9482521429e+01   6.3829460222e+00    0.3121398    0.1833074 -42.42  0.001137991    1.701    0.412
       105 -11.4756    194.0042    194.8564   4.9865447349e+01   7.9219747829e+00    0.7605482    0.5501773 -64.18  0.004071462    2.604    0.616
       106  -9.0335    226.9169    206.0711   4.6131789470e+01   2.4354614831e+00    0.1665137    0.1249391 -13.42 0.0004698353    1.036    0.035
       107  -9.2850    250.0762    203.1274   4.2164195652e+01   5.1017718867e-01     0.241674    0.1142256 -30.55 0.0008766681    1.596    0.373
