#   1 NUMBER                 Running object number                                     
#   2 MAG_AUTO               Kron-like elliptical aperture magnitude                    [mag]
#   3 X_IMAGE                Object position along x                                    [pixel]
#   4 Y_IMAGE                Object position along y                                    [pixel]
#   5 X_WORLD                Barycenter position along world x axis                     [deg]
#   6 Y_WORLD                Barycenter position along world y axis                     [deg]
#   7 A_WORLD                Profile RMS along major axis (world units)                 [deg]
#   8 B_WORLD                Profile RMS along minor axis (world units)                 [deg]
#   9 THETA_WORLD            Position angle (CCW/world-x)                               [deg]
#  10 FWHM_WORLD             FWHM assuming a gaussian core                              [deg]
#  11 ELONGATION             A_IMAGE/B_IMAGE                                           
#  12 ELLIPTICITY            1 - B_IMAGE/A_IMAGE                                       
         1 -10.7364      2.0662     64.2558   1.0433601707e+02   6.3337484052e+01    0.7782469    0.1305479 -65.91  0.002160278    6.286    0.841
         2 -11.9274    215.7084     38.2699   3.6007912082e+01   2.7810837920e+01    0.9237709      0.67762 -56.26  0.005745339    1.191    0.160
         3 -11.5954    235.0597     21.5806   3.0806515617e+01   2.5893599553e+01    0.6448107    0.4691971 -63.61  0.002817683    1.095    0.087
         4 -10.0795      2.3690      5.3533   8.3589635632e+01   7.4093927655e+01    0.5988243   0.09372539 -44.14   0.00213901    5.414    0.815
         5 -11.8394    107.0914    229.9554   9.9660966187e+01   1.1073725173e+01    0.8481628    0.3480482  30.34  0.003431816    2.429    0.588
         6  -8.5744     81.3885    250.1571   1.0759572758e+02   1.0639335858e+01    0.2418977    0.1522488  42.55 0.0008127635    1.335    0.251
         7 -13.4617      2.4692    123.8585   1.1405350973e+02   4.9177560031e+01     7.352299      1.00349 -74.71   0.01620273    8.451    0.882
         8 -13.7000     34.9580    191.2545   1.1233039101e+02   2.9520481680e+01     4.487253     1.802246  73.68   0.01445836    4.436    0.775
         9 -11.9461     55.1925    241.1039   1.1228128537e+02   1.5841903484e+01     0.962406    0.6839653   2.06  0.002509667    2.281    0.562
        10  -9.8796     48.2973    182.9789   1.0806238778e+02   3.0083532196e+01    0.4251239     0.279787  45.34  0.001417539    1.501    0.334
        11 -10.2555     55.0581    176.1057   1.0541026700e+02   3.1007435450e+01    0.4247385    0.2649834 -36.80   0.00155349    2.054    0.513
        12 -10.2524     61.1323    170.5491   1.0298196615e+02   3.1660444218e+01    0.3968782    0.2955825 -32.90 0.0008099811    1.625    0.385
        13 -11.9835     10.9232    232.1444   1.2070254921e+02   2.2584594222e+01     0.959936    0.5323125  65.60  0.002878318    1.531    0.347
        14 -10.2535     75.8581    221.1486   1.0575766093e+02   1.7452370970e+01     0.442797    0.1754696  40.97  0.001512458    2.204    0.546
        15 -10.0917     82.8221    162.8491   9.5661456096e+01   3.0586865857e+01    0.4167064    0.2934301  79.68  0.001872006    1.801    0.445
        16 -11.2017     57.5856    128.6872   9.6931806093e+01   4.2981855487e+01     1.106681    0.3709846 -68.96  0.003058251    4.488    0.777
        17 -10.9283     79.7037    154.9427   9.5131175257e+01   3.3093714341e+01    0.8030902    0.5457275 -33.92  0.001965267    1.734    0.423
        18  -9.6117     73.2682    154.1522   9.6869929478e+01   3.4245381288e+01    0.3706042    0.2874331 -89.47  0.001457107    1.432    0.302
        19 -10.0016     71.8899    161.2717   9.8502514793e+01   3.2597674203e+01    0.3142376    0.2992166 -55.15 0.0004144413    1.070    0.065
        20  -9.7084     35.1135    159.2141   1.0870157110e+02   3.7585474705e+01    0.6047308    0.3044848  71.02  0.002261508    2.762    0.638
        21 -11.6866     58.4818    157.0269   1.0167964578e+02   3.5497940924e+01    0.6150062     0.321578 -44.78  0.001441352    2.056    0.514
        22  -7.7969     75.3063    209.6542   1.0453667152e+02   2.0139852612e+01    0.1468148   0.09536292  66.63 0.0007042579    1.695    0.410
        23  -8.0854    134.3901    149.5802   7.8745398178e+01   2.4822594213e+01    0.3138067    0.1461205 -61.99 0.0009647249    3.273    0.694
        24  -8.9994     22.7534    146.8773   1.1070180270e+02   4.1910800448e+01    0.2615736    0.2146424 -74.26  0.001551785    1.042    0.040
        25  -8.2836    144.7509    141.1110   7.4146512043e+01   2.4739909875e+01    0.3258975    0.1938895 -68.33  0.001150953    2.693    0.629
        26  -9.1106     96.1172    140.6423   8.7419433518e+01   3.4110497032e+01    0.5503153    0.3340372 -15.01   0.00189657    3.093    0.677
        27 -10.6306     82.8145    139.8637   9.1250099305e+01   3.6500163106e+01    0.3419122    0.2935811 -46.45 0.0004157151    1.125    0.111
        28  -9.3755    107.0853    130.7371   8.1923148837e+01   3.4612503138e+01    0.4463212    0.3405992   9.64  0.001583617    1.620    0.383
        29 -13.7519     17.1998    247.6659   1.2033848446e+02   1.8765103085e+01     4.657651     1.448247  25.43   0.01838314    4.495    0.778
        30  -8.0167     93.6727    126.8049   8.5014059471e+01   3.8000074990e+01    0.2195755    0.1419783 -61.29  0.000458229    1.644    0.392
        31 -10.4396     65.6752    126.7628   9.3901172911e+01   4.2401021661e+01    0.5006111    0.3541352  67.91  0.002287403    1.866    0.464
        32 -11.8447     68.3212    144.8381   9.6650843303e+01   3.7365178436e+01       1.0282    0.6842906  77.12  0.002916829    2.042    0.510
        33  -8.0419    105.1267    119.1744   7.9656977984e+01   3.7776782353e+01    0.2300376    0.2043363  -9.62 0.0004293581    1.208    0.172
        34  -7.8093    205.5601    110.4670   5.3918704553e+01   1.8468125164e+01    0.1438578     0.128149 -49.85 0.0008065675    1.022    0.021
        35 -13.2570      8.9208    207.7679   1.1966603304e+02   2.8137171444e+01     1.876104     1.057276 -74.46   0.00794945    1.566    0.361
        36  -7.3347     41.2796     92.3062   9.4695901101e+01   5.3926011630e+01     0.144514   0.09284037 -31.85 0.0003073585    1.554    0.357
        37 -10.6185     83.4950    217.8968   1.0359553950e+02   1.7114628352e+01    0.7425213    0.3472858 -74.82  0.003003805    2.788    0.641
        38  -8.7599     57.2372     76.1400   8.4005328462e+01   5.5585855158e+01    0.2600282    0.1807415  56.52  0.001067256    2.126    0.530
        39  -9.2643     13.4774     59.8591   9.7995106965e+01   6.3613702196e+01     0.205744    0.1635259  -8.23 0.0005481233    1.233    0.189
        40 -10.7522    199.5543     52.7620   4.1199429957e+01   2.9352276485e+01    0.6265854    0.2368362 -45.77  0.002591074    2.442    0.590
        41 -11.7097    208.1275     43.8186   3.8070552495e+01   2.8706849285e+01    0.6031334    0.5043547 -66.58  0.003152547    1.040    0.039
        42 -11.6008     96.1015    227.4214   1.0184543164e+02   1.3223214176e+01    0.7903679    0.4918538  36.43  0.004086306    1.454    0.312
        43 -11.0618    222.9888     32.2923   3.4010775811e+01   2.7044271129e+01     0.460456    0.3714271  44.21  0.001613744    1.725    0.420
        44 -11.4288     25.1690    202.0570   1.1562790491e+02   2.7931985287e+01    0.4964426     0.380478 -32.02 0.0009810025    1.817    0.450
        45  -8.1475    127.0274     34.9820   4.8315099782e+01   4.8663480804e+01    0.2036813    0.1562373 -77.25 0.0004195642    1.599    0.375
        46  -8.3270    129.9221     29.4969   4.5966206788e+01   4.8637162803e+01    0.1838281    0.1776811  74.57 0.0004458893    1.083    0.077
        47 -11.8731    113.4265    231.2250   9.8391372469e+01   9.8664012886e+00    0.9536237    0.5340856  21.75  0.004351432    2.086    0.521
        48  -9.8311      1.9285     23.3387   9.1971607469e+01   7.1329510036e+01    0.2676702    0.1223256 -46.63  0.001321626    1.836    0.455
