#   1 NUMBER                 Running object number                                     
#   2 MAG_AUTO               Kron-like elliptical aperture magnitude                    [mag]
#   3 X_IMAGE                Object position along x                                    [pixel]
#   4 Y_IMAGE                Object position along y                                    [pixel]
#   5 X_WORLD                Barycenter position along world x axis                     [deg]
#   6 Y_WORLD                Barycenter position along world y axis                     [deg]
#   7 A_WORLD                Profile RMS along major axis (world units)                 [deg]
#   8 B_WORLD                Profile RMS along minor axis (world units)                 [deg]
#   9 THETA_WORLD            Position angle (CCW/world-x)                               [deg]
#  10 FWHM_WORLD             FWHM assuming a gaussian core                              [deg]
#  11 ELONGATION             A_IMAGE/B_IMAGE                                           
#  12 ELLIPTICITY            1 - B_IMAGE/A_IMAGE                                       
         1 -14.7915     68.2708    144.4034   1.1176637641e+02   3.7720325537e+01     4.423257     2.100826  66.71  0.003928864    3.067    0.674
         2 -14.5261     10.1568     17.2851   1.0689670401e+02   7.3415487808e+01     3.608835     1.420242 -49.92   0.01744853    1.947    0.486
         3 -14.3116    197.8250     32.8151   5.3226201943e+01   3.0740840915e+01      2.05807     1.312752  29.78  0.007830991    1.945    0.486
         4 -14.1995    209.4957     19.3063   4.7968647218e+01   2.9288275556e+01     1.386155    0.9537002  21.37  0.006892672    1.810    0.448
         5 -11.6060     57.5574      3.1283   7.1406477851e+01   6.9392126951e+01    0.3826525    0.2711805  63.77  0.002027713    1.834    0.455
         6 -11.6352     41.4077      2.7750   7.8967966554e+01   7.2377539201e+01    0.3599752     0.182731  41.33  0.001760086    2.080    0.519
         7  -9.9522     84.1101    233.5149   1.1718829164e+02   1.9418575485e+01    0.2025079    0.1419521  46.45  0.001020676    1.044    0.042
         8 -10.3889    174.2806    249.0289   1.0297554075e+02   5.6797143249e+00    0.1913716    0.1474963  61.13  0.001196602    1.971    0.493
         9 -15.1864      2.6038    139.7460   1.2844880122e+02   4.5446292239e+01      3.59908    0.9780075 -80.46   0.01228419    3.093    0.677
        10 -15.9450     51.6686    203.4842   1.2123694353e+02   2.8119286174e+01     3.845668     2.113842  59.62   0.02443741    1.538    0.350
        11 -16.7086     29.9455    239.5564   1.2712658281e+02   2.4511177801e+01     2.495557    0.6877308  31.01  0.006982648    3.534    0.717
        12 -17.3411     10.9112    231.4046   1.3012676160e+02   2.7556099858e+01     6.721265    0.8874325  33.82    0.0133812    4.144    0.759
        13  -9.9413    164.0044    216.4722   1.0081067542e+02   1.0836127385e+01    0.1775233    0.1225693 -26.08  0.001181015    1.820    0.451
        14  -9.0610    164.3857    206.2227   9.9363882676e+01   1.2104390749e+01    0.1296352    0.1139453 -54.55 0.0003487171    1.554    0.357
        15 -11.8569    193.5431    194.3245   9.2339501559e+01   9.1299220079e+00    0.6534209    0.4255503 -53.90  0.003677536    2.661    0.624
        16 -16.2910      4.0001    182.4708   1.2990609827e+02   3.6638186564e+01     2.886304     1.582324 -63.58   0.01872166    2.148    0.534
        17 -15.0843     57.2186    248.3670   1.2285918205e+02   2.0383247789e+01     1.296235    0.3625177  39.15  0.007169729    2.317    0.568
        18  -8.9349    180.0063    192.5012   9.4474679199e+01   1.1489585494e+01    0.1587956   0.09502351  56.31 0.0006140855    2.388    0.581
        19  -9.0626    167.3047    187.6716   9.6083132599e+01   1.4188298677e+01    0.1145146   0.09273852  64.55  0.000703565    1.651    0.394
        20 -14.0778     29.5252    229.7363   1.2681418759e+02   2.6071215745e+01    0.5586427     0.226919  41.86  0.002045208    1.710    0.415
        21 -12.0171     70.2026    180.8205   1.1546840532e+02   3.0041396811e+01    0.3849151    0.2748174 -42.17  0.001920061    1.983    0.496
        22 -11.8618     74.6185    175.2868   1.1391297162e+02   3.0527193990e+01    0.2622053    0.2478539 -18.10  0.001277392    1.417    0.294
        23  -9.8736     99.5676    180.5350   1.0897084204e+02   2.6045758117e+01    0.2121858    0.1784892  48.23 0.0005770581    1.031    0.030
        24 -10.2954    211.1540    179.3205   8.6785290275e+01   8.1805229881e+00    0.2348353    0.1429144  -1.93  0.001106185    1.906    0.475
        25 -15.0588      9.6835    206.4856   1.2959208007e+02   3.1788552474e+01     1.012216    0.6463771  18.08  0.005066896    2.194    0.544
        26 -10.3671    141.0199    175.5227   9.9399959669e+01   2.0382042781e+01    0.1984125    0.1094898  41.40 0.0005076706    1.556    0.357
        27 -12.2339     46.9150    172.5186   1.1995592999e+02   3.4466625785e+01    0.3533344    0.3001917 -72.39  0.001537182    1.329    0.247
        28 -15.8196      4.6838    248.4032   1.3158033055e+02   2.5527902715e+01    0.7265666    0.3395283  38.91  0.004461555    1.591    0.371
        29 -12.6582     89.4071    158.2480   1.0837908418e+02   3.1820508700e+01     1.058172     0.563101 -65.40  0.002491384    2.067    0.516
        30 -12.4339     83.1532    164.7077   1.1071661024e+02   3.1434135784e+01    0.6423517    0.4104512  67.11 0.0007849484    1.679    0.404
        31 -13.5842     71.2967    161.0954   1.1309736539e+02   3.3795316070e+01    0.6211167    0.5427726 -10.48  0.002158867    1.604    0.377
        32  -9.0710    168.3043    248.3031   1.0387722818e+02   6.5424302071e+00     0.102182   0.06447297  18.17 0.0002356916    1.596    0.373
        33 -10.5337    137.6661    170.8415   9.9362012213e+01   2.1725358691e+01    0.2344527    0.1600893  32.86  0.000803435    1.361    0.265
        34  -9.9217    146.0053    168.4662   9.7219181169e+01   2.0705853505e+01    0.2001603    0.1133261  40.74 0.0004866605    1.543    0.352
        35 -10.9338    126.3002    173.1519   1.0214889343e+02   2.3211834380e+01    0.3314065     0.131403  44.38  0.001442327    2.208    0.547
        36 -10.0349    188.9924    154.4868   8.6115566273e+01   1.5239039032e+01    0.2065783    0.1174498  41.65  0.001041091    1.615    0.381
        37 -10.9501    133.7544    144.0487   9.5533905743e+01   2.7199522747e+01    0.9402462    0.2382865 -52.64  0.002637565    5.645    0.823
        38  -9.8583    174.9941    148.9776   8.7709581939e+01   1.8645745554e+01    0.1990958    0.1681092  80.62 0.0007359058    1.696    0.411
        39 -10.7083     87.9056    146.4844   1.0704127408e+02   3.4465272623e+01    0.2494413     0.193205  69.05 0.0008331853    1.292    0.226
        40 -12.1792     90.6886    142.4426   1.0570552301e+02   3.4888314111e+01    0.2634531     0.255112  36.64 0.0003204927    1.160    0.138
        41 -11.0338    103.2895    142.0156   1.0245767206e+02   3.2949547816e+01    0.4956399    0.3224906 -24.78  0.002231636    2.596    0.615
        42 -10.5664    195.4225    169.3969   8.7757282503e+01   1.2031705655e+01    0.2913771    0.2563943  11.19  0.001135884    1.092    0.084
        43 -10.1250    112.1732    131.5253   9.8293528734e+01   3.3581307558e+01    0.3016544    0.2314402  18.19  0.000826138    1.616    0.381
        44 -10.2898    106.0524    130.7531   9.9702948173e+01   3.4820726709e+01    0.3128875    0.2732543  77.48  0.001324287    1.182    0.154
        45 -12.3289     45.7586    130.0213   1.1600218131e+02   4.3715002636e+01    0.4799263    0.2885595  35.90  0.002622646    1.670    0.401
        46 -11.5056     42.0912    126.2773   1.1658701377e+02   4.4978200862e+01    0.3873771    0.1583023  34.52  0.001199904    2.361    0.576
        47 -11.0399     99.3226    128.2951   1.0098534346e+02   3.6498316446e+01    0.2988828    0.2419513 -33.61 0.0007044179    1.482    0.325
        48 -11.1466    117.7794    126.4008   9.5842544407e+01   3.3613366778e+01    0.4249495    0.2928598 -44.06  0.002131948    1.548    0.354
        49  -9.6281    160.6545    127.3316   8.6062513488e+01   2.5025415727e+01    0.1415387    0.1143032  88.95 0.0007050024    1.760    0.432
        50  -9.8734    125.6911    127.1310   9.4032334530e+01   3.1978744363e+01    0.2219611     0.178852 -75.37  0.001019639    1.481    0.325
        51 -10.6330    135.3170    122.2002   9.0625487442e+01   3.1075099713e+01    0.5090161    0.1267099 -50.27  0.001349998    5.306    0.812
        52 -11.5918     14.1341    122.3390   1.2421918282e+02   4.8478541335e+01    0.3341935    0.1869038  53.94  0.001911475    1.646    0.393
        53  -9.6260    108.1661    120.1406   9.7003366506e+01   3.6685081189e+01    0.1947154    0.1862353  18.49 0.0003395972    1.138    0.121
        54 -12.8179     44.6562    114.9871   1.1435199134e+02   4.7322337452e+01    0.5533355    0.3944261 -84.55  0.003177213    1.304    0.233
        55 -11.4007     45.4248    109.2073   1.1326524958e+02   4.8600387873e+01    0.3085975    0.2171228  60.79  0.001184461    1.425    0.298
        56 -11.3977     41.8046    109.1820   1.1440045423e+02   4.9007889457e+01    0.3175986    0.2051226 -64.34  0.001621985    1.417    0.294
        57  -9.8612    167.9797    112.7934   8.1099389772e+01   2.6012827636e+01    0.3374653    0.2412284 -69.44  0.001524198    2.157    0.536
        58  -8.9949    107.9911    113.7802   9.5660682039e+01   3.8071842943e+01     0.192615    0.1752831  49.56  0.001080254    1.075    0.069
        59 -11.4877    119.5312    110.2363   9.1781519336e+01   3.6607587033e+01    0.5031849    0.3398521  65.61   0.00228075    1.865    0.464
        60  -9.9483    205.5147    110.1509   7.3402245748e+01   1.8497028096e+01    0.2958046    0.1890797  38.20 0.0009906497    1.569    0.363
        61 -10.2139    134.5832    103.4281   8.6277217353e+01   3.4894454944e+01    0.4953076    0.1413623 -44.98  0.001502628    3.599    0.722
        62 -10.5625    242.1962    101.4045   6.5761344471e+01   1.2392329420e+01    0.1616304    0.1294581  67.53   0.00066984    1.674    0.403
        63  -8.9325     86.8230     99.6276   9.8460306255e+01   4.4972339971e+01    0.2080728    0.1259305  51.02 0.0009415601    1.746    0.427
        64  -9.4365    121.5359     98.5275   8.8319837202e+01   3.8614141851e+01    0.1458784    0.1442266  73.09 0.0001061458    1.008    0.008
        65 -11.5367     55.3653     94.9318   1.0752244792e+02   5.0798662173e+01    0.5179499    0.2428047  49.26  0.002212079    2.371    0.578
        66  -8.8299     24.8156     82.3926   1.1610936242e+02   5.7098181624e+01    0.1428632    0.1239655  -9.75 0.0002365602    1.439    0.305
        67  -8.8778    157.2796     79.6831   7.4414797960e+01   3.4150648089e+01    0.1508119    0.1183613 -66.98 0.0002362985    1.575    0.365
        68  -8.7385    184.3427     77.3205   6.8469825184e+01   2.8082065372e+01    0.1572354    0.1108938  19.43 0.0007049969    1.723    0.420
        69  -9.9232     58.8881     67.3549   9.9591244533e+01   5.6827294097e+01    0.2778565    0.1169061  43.25  0.001101208    2.606    0.616
        70 -10.4085     63.4186    222.6399   1.2023861967e+02   2.3562504156e+01    0.3259559    0.1534795  65.42  0.001879274    2.246    0.555
        71 -12.6006    188.9089     39.3121   5.6362008299e+01   3.2224661862e+01    0.6540161    0.5071529  35.02   0.00126133    1.414    0.293
        72 -12.7788    167.3196    234.3924   1.0245606646e+02   8.2093213704e+00    0.8263776    0.1742886  35.19  0.003000082    4.477    0.777
        73 -11.6654     92.4205    235.0016   1.1579783151e+02   1.8171685582e+01    0.2062082    0.1549209  64.33 0.0008342901    1.300    0.231
        74 -10.4929     13.4628     59.8483   1.1683071140e+02   6.3398464521e+01    0.2411719     0.187488 -68.95 0.0004229081    1.063    0.059
        75 -10.9934    153.2888     56.2154   6.7860887157e+01   3.9000473344e+01    0.4431549    0.3014633 -77.17  0.001093911    2.144    0.534
        76  -9.6130    170.6557     19.7170   5.2414523053e+01   3.9261711958e+01    0.1545691    0.1050578  36.73 0.0004369926    1.640    0.390
        77 -10.1524    189.5326     14.9934   4.8634467301e+01   3.4768701043e+01     0.214892    0.1924724  83.50 0.0005715566    1.127    0.113
        78 -11.0024    155.9154     50.4762   6.5409413655e+01   3.9207082246e+01    0.3582624    0.2802509 -80.70  0.001075971    1.557    0.358
        79 -10.2601    182.8213    233.8210   9.9766138113e+01   6.1381221184e+00    0.1437991    0.1071683  41.57 0.0006680288    1.345    0.256
