#   1 NUMBER                 Running object number                                     
#   2 MAG_AUTO               Kron-like elliptical aperture magnitude                    [mag]
#   3 X_IMAGE                Object position along x                                    [pixel]
#   4 Y_IMAGE                Object position along y                                    [pixel]
#   5 X_WORLD                Barycenter position along world x axis                     [deg]
#   6 Y_WORLD                Barycenter position along world y axis                     [deg]
#   7 A_WORLD                Profile RMS along major axis (world units)                 [deg]
#   8 B_WORLD                Profile RMS along minor axis (world units)                 [deg]
#   9 THETA_WORLD            Position angle (CCW/world-x)                               [deg]
#  10 FWHM_WORLD             FWHM assuming a gaussian core                              [deg]
#  11 ELONGATION             A_IMAGE/B_IMAGE                                           
#  12 ELLIPTICITY            1 - B_IMAGE/A_IMAGE                                       
         1 -13.3229    212.2204      2.3598   6.0537937323e+01   3.1864168871e+01     1.626073    0.6783645  62.99  0.002388367    2.073    0.518
         2 -13.9901    188.6606     25.8182   6.9059050758e+01   3.5003331193e+01      1.61759     1.304463 -21.02  0.006193608    1.498    0.333
         3 -13.7882    196.2753     20.2717   6.6616665407e+01   3.3774227578e+01       1.1893    0.8846069 -76.35  0.004495542    1.327    0.246
         4 -12.9603    202.1837     11.8147   6.3815004679e+01   3.3275389674e+01    0.7055625    0.5198417  54.56  0.001329085    1.408    0.290
         5 -11.3243     32.7839      3.1047   9.9935395152e+01   6.8943399840e+01    0.3682342    0.1137653 -26.92  0.001648693    3.362    0.703
         6 -10.8283    192.9271    194.4545   1.0949372928e+02   3.6426086744e+00    0.8370667    0.4059038 -63.71  0.002148802    7.134    0.860
         7 -12.2090    247.2461    248.2722   1.0892865690e+02  -1.3756381573e+01    0.5852329    0.3000054  33.31  0.003335701    1.660    0.398
         8 -16.0781     57.0952    211.8163   1.4028551324e+02   2.3924538905e+01     9.020716     1.870611  50.13   0.02615247    4.493    0.777
         9 -11.8921     72.1205    191.8856   1.3500457943e+02   2.6160118097e+01    0.4072811    0.2577744 -46.85  0.001394809    2.027    0.507
        10 -11.8269     76.5678    185.2070   1.3316977095e+02   2.7009986615e+01    0.3003636    0.2370082 -55.02 0.0006532698    1.408    0.290
        11 -13.1876     57.3409    128.9098   1.2897486538e+02   4.2788399652e+01     2.259184    0.7221037 -70.75  0.005462881    7.185    0.861
        12 -13.1487     90.5093    165.8137   1.2704721535e+02   2.9325296405e+01     2.751059    0.7427428  50.61  0.001151928    5.144    0.806
        13 -13.3570     72.6701    170.7748   1.3200708134e+02   3.0891012706e+01     0.496112    0.2821858 -45.75   0.00171843    2.132    0.531
        14 -14.3405     81.2817    235.0689   1.3807953791e+02   1.5804466707e+01     2.400545    0.9671268  69.12  0.008309447    4.656    0.785
        15 -11.3573    137.3105    172.0423   1.1719159889e+02   1.9392049447e+01    0.4073911    0.2171394  38.02  0.001665935    1.980    0.495
        16 -10.8941     39.2543    162.1671   1.3850007119e+02   3.7117495898e+01    0.3082528    0.1647491  46.78  0.001641111    1.955    0.489
        17  -9.5621    164.7498    158.0231   1.0804582408e+02   1.6762513660e+01    0.2012311    0.1317209 -47.22 0.0006140578    1.555    0.357
        18 -12.2116     91.7586    148.4106   1.2363717823e+02   3.3223502083e+01    0.2885378    0.2562842 -45.50 0.0004800424    1.223    0.182
        19 -12.5307     46.3001    147.4821   1.3485827788e+02   3.9739263480e+01    0.5572686    0.2840886 -75.63  0.002654723    1.910    0.476
        20 -10.2080    133.6223    143.5457   1.1215250343e+02   2.6580999801e+01    0.6134386    0.1448127 -54.17  0.001375261    6.046    0.835
        21 -10.2585    102.8970    148.8856   1.2092555605e+02   3.1218184060e+01    0.3235047    0.2806084  -8.97 0.0009148148    1.516    0.341
        22  -9.6898    105.2332    145.1666   1.1958858377e+02   3.1679389265e+01    0.3009848    0.2144287 -30.86   0.00138856    1.833    0.454
        23 -11.8829     57.1143    145.2907   1.3183819410e+02   3.8966552728e+01    0.3580359    0.2918364  47.37  0.002165373    1.350    0.259
        24  -8.7785     82.7013    141.2892   1.2459577376e+02   3.6351398664e+01    0.1413066    0.1044662  80.36 0.0002015143    1.558    0.358
        25  -9.9711    112.7565    134.9519   1.1548144174e+02   3.2688988193e+01    0.3390145    0.2260287 -30.24 0.0009973259    1.976    0.494
        26 -14.6032     11.9955    206.9246   1.4819780165e+02   3.0155346983e+01     1.273928    0.8921699  60.00  0.004996284    1.311    0.237
        27 -11.7744     36.1906    132.7876   1.3520309733e+02   4.4231963469e+01    0.3184088    0.1706847 -32.56  0.001445787    2.921    0.658
        28 -10.8035    100.2415    132.0647   1.1811152409e+02   3.5641308251e+01     0.313788    0.2278586 -35.01 0.0007393344    1.585    0.369
        29 -12.4334     68.6445    222.6092   1.3917136566e+02   2.0109137591e+01    0.3432907    0.2141285  68.51 0.0005494501    1.424    0.298
        30 -11.4663     45.0945    130.3300   1.3248803021e+02   4.3875555737e+01    0.2464835    0.1530059 -55.56  0.001342524    1.391    0.281
        31  -9.6290    160.5036    127.4925   1.0192755604e+02   2.4312381584e+01     0.157471    0.1531905 -84.87 7.359065e-05    1.016    0.016
        32 -13.7583     68.2240    145.1717   1.2901352116e+02   3.7539103594e+01     1.623225    0.8417403  89.18  0.004767026    3.687    0.729
        33  -9.5515    108.9133    122.6526   1.1366092281e+02   3.6254305354e+01    0.1968055     0.184835  51.54 0.0003718376    1.109    0.098
        34 -11.0239    168.2951    113.0694   9.6505073029e+01   2.5553259988e+01    0.3959887    0.3147647 -83.99  0.000959479    1.537    0.349
        35 -11.4551     84.6798    173.3312   1.2962266172e+02   2.8499591756e+01    0.3408908    0.2478475 -85.63 0.0007073703    1.361    0.265
        36 -12.1431    165.2027    224.3065   1.2036097841e+02   3.5461693920e+00    0.5213442     0.208157  39.25  0.002125543    2.317    0.568
        37  -9.4958    205.2179    110.5630   8.8263970672e+01   1.7289619141e+01    0.2240082    0.1419315  41.26 0.0009554519    1.758    0.431
        38 -13.3095     49.2333    231.5870   1.4352545947e+02   2.0936839206e+01    0.6332282    0.4334292  48.01  0.001615902    1.448    0.310
        39 -13.0991     48.7735    224.5931   1.4301743195e+02   2.2384147977e+01    0.4549165    0.3881357 -40.45   0.00130248    1.951    0.488
        40 -10.6080    126.3026     53.0618   8.9109022192e+01   4.6416634037e+01    0.3941148    0.2854155  85.42  0.001250097    2.086    0.521
        41 -14.9461     34.2252    247.2900   1.4721036043e+02   1.9810078638e+01     3.501207     1.134241  40.66   0.01761278    2.917    0.657
        42 -11.0348    229.2062    248.9294   1.1222330104e+02  -1.1132198877e+01    0.2143476    0.1474892  31.28 0.0007486321    1.204    0.170
        43 -16.5413      7.8204    240.3540   1.5094583789e+02   2.4040236957e+01     17.56205     1.091424 -74.51   0.04376693   10.542    0.905
        44 -10.6600    227.4632    203.3125   1.0445919114e+02  -4.3297763080e+00    0.2732147    0.2267558 -56.68 0.0009189841    1.602    0.376
