#   1 NUMBER                 Running object number                                     
#   2 MAG_AUTO               Kron-like elliptical aperture magnitude                    [mag]
#   3 X_IMAGE                Object position along x                                    [pixel]
#   4 Y_IMAGE                Object position along y                                    [pixel]
#   5 X_WORLD                Barycenter position along world x axis                     [deg]
#   6 Y_WORLD                Barycenter position along world y axis                     [deg]
#   7 A_WORLD                Profile RMS along major axis (world units)                 [deg]
#   8 B_WORLD                Profile RMS along minor axis (world units)                 [deg]
#   9 THETA_WORLD            Position angle (CCW/world-x)                               [deg]
#  10 FWHM_WORLD             FWHM assuming a gaussian core                              [deg]
#  11 ELONGATION             A_IMAGE/B_IMAGE                                           
#  12 ELLIPTICITY            1 - B_IMAGE/A_IMAGE                                       
         1 -15.0385      7.8489    146.1096   1.4488312960e+02   4.4061897391e+01     6.885923     1.932298 -84.94   0.02534747    3.940    0.746
         2 -13.3894    196.8004     28.4916   6.8256570956e+01   3.2570599117e+01     1.500344     1.428514  41.80  0.007015739    1.190    0.159
         3 -13.4843    211.8057      8.7532   6.1247339915e+01   3.0988425657e+01     1.256911    0.9161613  45.14  0.006915313    1.630    0.386
         4 -12.1915      2.5556      3.9911   1.1776298739e+02   7.4335552333e+01    0.5531729    0.3786349 -46.86  0.004010314    1.406    0.289
         5 -10.3105    161.9884    249.5015   1.2419833930e+02   2.4261330960e+00    0.1664765    0.1539872  36.71 0.0009297364    1.199    0.166
         6 -11.3960    247.2279    249.4632   1.0946899101e+02  -1.0491696870e+01    0.5471884    0.1985179  34.03    0.0028462    2.231    0.552
         7 -11.4348    238.2759    248.8471   1.1084307027e+02  -9.1829279777e+00    0.2891243    0.1837926  38.26   0.00143136    1.436    0.303
         8 -11.5460    139.2367    249.9834   1.2834901370e+02   5.9709223198e+00    0.4043631    0.1831225  44.12  0.002160848    1.689    0.408
         9 -11.4290    124.9284    250.2161   1.3094555013e+02   8.1694346410e+00    0.5395334    0.1214769  43.12  0.002090491    3.281    0.695
        10 -10.6051     98.4685    249.5217   1.3559517226e+02   1.2262181857e+01    0.2088538    0.1810041  33.36  0.001539415    1.483    0.326
        11 -11.1443     33.8874    249.3958   1.4656869008e+02   2.0726767868e+01    0.3867525    0.1622148  49.56  0.002419989    1.719    0.418
        12 -10.1467     29.1481    249.8457   1.4735283538e+02   2.1184575377e+01    0.2253676    0.1519145  46.21  0.001718189    1.449    0.310
        13 -11.9862     33.4835    244.9277   1.4639898184e+02   2.1539348243e+01     0.486488    0.3390246  26.46  0.003347648    2.287    0.563
        14 -10.0089     17.0056    250.2944   1.4928814820e+02   2.2422320963e+01    0.1485632   0.09455661  59.99   0.00115794    1.128    0.113
        15 -10.8223     12.2602    249.3687   1.4998557995e+02   2.3070620779e+01    0.2043695    0.1316884  81.51  0.001627389    1.221    0.181
        16 -10.1714      2.3232    249.3424   1.5150264689e+02   2.4066096534e+01    0.2163347    0.1327501  60.05  0.001339006    1.154    0.133
        17 -10.6236      3.3478    246.6718   1.5125225118e+02   2.4417925318e+01    0.4049285    0.1182081  62.09  0.002234532    2.518    0.603
        18 -10.5820     51.0182    245.0186   1.4348274116e+02   1.9443771384e+01     0.184203    0.1755592 -66.19   0.00150786    1.694    0.410
        19 -11.4888     20.1150    243.4170   1.4849256516e+02   2.3271378911e+01    0.3608598    0.1478895  63.44   0.00181492    1.856    0.461
        20 -10.2532     22.3849    237.0104   1.4781730267e+02   2.4155415732e+01    0.2519713    0.1290194 -59.17  0.001552023    2.692    0.629
        21 -11.7470     11.9063    239.9660   1.4965309339e+02   2.4724762442e+01    0.4106962    0.1085963  54.43  0.002063105    2.546    0.607
        22 -14.2879    107.1046    229.7388   1.3206173501e+02   1.4294711821e+01     6.607319          nan  44.75   0.01391398   10.552    0.905
        23 -10.7864    152.3487    248.8613   1.2585518521e+02   4.0544472697e+00    0.2211693    0.1317539  47.93 0.0008449573    1.356    0.262
        24 -11.4527     21.9981    126.5694   1.3937267201e+02   4.7395608655e+01    0.4185436    0.2088168  53.04  0.001181929    2.187    0.543
        25 -10.5354     54.3950    229.2569   1.4181819939e+02   2.1835308429e+01     0.285043    0.1703583  89.50  0.001505582    1.559    0.359
        26 -10.1328    174.1207    222.9192   1.1831798979e+02   4.2714047785e+00    0.3903965    0.2312955  57.06  0.001994252    1.994    0.499
        27 -12.8193     33.4697    233.9720   1.4579544207e+02   2.3479184840e+01    0.2807069    0.2170325  86.65 0.0007268558    1.251    0.201
        28  -8.9616     92.2254    214.6598   1.3332358659e+02   1.9339610442e+01    0.2257934    0.1389203  78.76 0.0009828466    1.791    0.442
        29  -8.7832    152.5134    213.0383   1.2104751812e+02   9.6321533762e+00    0.1610569    0.1315398 -54.46 0.0002987176    1.443    0.307
        30 -12.4454      9.9342    207.0660   1.4844431024e+02   3.1016811007e+01    0.6055361    0.3803588  33.04  0.002916786    1.954    0.488
        31 -10.2947     15.7961    197.6556   1.4683714527e+02   3.2324263982e+01    0.3049649    0.1353868  49.82  0.001163799    1.870    0.465
        32  -9.5365    192.2316    193.5646   1.0995990656e+02   5.6476316128e+00    0.5265153     0.267997 -63.20  0.001477293    7.162    0.860
        33 -11.6487     60.2801    199.7149   1.3823097910e+02   2.6840747523e+01    0.2471108     0.218921 -83.54 0.0005187033    1.276    0.216
        34 -11.9165     66.7209    191.2210   1.3603855789e+02   2.7753488844e+01    0.2571559    0.2205223 -74.47 0.0004453215    1.271    0.214
        35 -12.9120     48.2892    215.9575   1.4195286445e+02   2.5110030994e+01    0.9866772     0.873194 -14.26  0.006761724    2.034    0.508
        36 -13.2223     63.6078    176.4371   1.3507408785e+02   3.1371195179e+01    0.4694816    0.2720032 -48.49  0.001688708    2.216    0.549
        37 -10.7852     77.0596    178.2263   1.3226166997e+02   2.9100451751e+01    0.2350678    0.2053133  80.71 0.0003202682    1.063    0.059
        38 -10.0319     97.9563    174.9060   1.2704044529e+02   2.6594964109e+01    0.2779446    0.1933061  62.80 0.0007156426    1.393    0.282
        39 -11.8086     85.0402    168.8957   1.2916170521e+02   2.9977243874e+01    0.7240214    0.5820746  31.24  0.004163553    1.484    0.326
        40 -13.9103     38.4334    227.1084   1.4451997113e+02   2.4167182409e+01    0.8051928    0.5199327  60.35  0.002392346    1.169    0.145
        41 -10.0538     97.3093    152.7011   1.2361634931e+02   3.1683593246e+01    0.2984409    0.2661661 -66.82 0.0007591165    1.131    0.116
        42  -9.1516    100.2243    148.7401   1.2217887706e+02   3.2098414884e+01    0.2331114    0.1966484 -35.53 0.0005847808    1.446    0.309
        43 -12.0447     85.9100    152.0384   1.2635282283e+02   3.3688082568e+01    0.2944263    0.2472368 -50.85 0.0005778045    1.318    0.241
        44  -8.8075    134.0000    146.5389   1.1339369978e+02   2.6256870614e+01    0.5036733   0.08520636 -49.46  0.001168928    6.061    0.835
        45 -12.2173     67.3235    143.6288   1.2974195859e+02   3.8386557708e+01    0.6866694    0.4230047  65.37  0.002930101    1.806    0.446
        46 -10.1465     56.4159    223.2940   1.4100132012e+02   2.2690387699e+01    0.2525495    0.2404367 -12.67  0.001313827    1.755    0.430
        47  -9.9173    109.1495    137.7028   1.1775715659e+02   3.3053592010e+01    0.4197779     0.293584 -18.29  0.001493681    2.427    0.588
        48 -10.4353     96.3754    134.9892   1.2055108876e+02   3.5952628283e+01     0.238706    0.2327266 -28.39 0.0004306911    1.193    0.161
        49 -10.3001     55.3525    129.6130   1.3070924623e+02   4.3258589532e+01     0.330432    0.1977246 -51.82  0.001687092    1.645    0.392
        50  -8.1544     80.2519    132.3051   1.2436149218e+02   3.9196012957e+01    0.1331144    0.1044615 -38.27 0.0002058344    1.506    0.336
        51 -10.9302     31.6118    131.6125   1.3742921332e+02   4.5361190326e+01    0.2763952     0.198092  58.20 0.0008724077    1.432    0.302
        52  -8.9152    106.3435    124.0880   1.1556692825e+02   3.6715944094e+01    0.1940825    0.1767022 -69.84 0.0004028396    1.053    0.050
        53  -9.3635    167.9105    113.0896   9.7498257546e+01   2.5882769075e+01    0.2497972    0.2075596 -79.97  0.001149172    1.423    0.297
        54  -9.2464    203.3703    111.7876   8.9920606389e+01   1.7782533849e+01    0.2152437    0.1416019 -25.70 0.0005116321    1.662    0.398
        55  -9.6508    158.0398     76.5030   8.9419065848e+01   3.5342062655e+01     0.237121    0.1527921  54.35 0.0005483874    1.540    0.351
        56  -9.4355     39.0388     65.4548   1.2248916039e+02   5.9838480447e+01    0.2860868    0.1504871  45.17  0.001395043    2.510    0.602
        57 -11.2352      2.5675     61.6049   1.3571032284e+02   6.3347974171e+01    0.2871768    0.2168807 -85.80  0.001630779    1.404    0.288
        58 -11.8753     11.3255     54.2587   1.3059870234e+02   6.4431075976e+01    0.4110176    0.2521873  19.20  0.001826736    1.976    0.494
        59 -10.9769      2.6614     45.9238   1.3223304581e+02   6.6620878299e+01    0.2572942    0.1246151 -57.13  0.001503472    1.512    0.338
        60 -10.0179     82.0031    249.1527   1.3845498087e+02   1.4669351771e+01    0.2047676   0.08982593  58.68    0.0010951    2.016    0.504
        61 -10.6369     46.5284    248.8557   1.4447061812e+02   1.9334267581e+01    0.2779032    0.1189769  55.73  0.001235936    1.726    0.421
        62 -11.1294      3.0503     37.9718   1.2998455926e+02   6.8197167337e+01    0.2521193      0.19254 -62.73  0.001814457    1.245    0.197
        63 -11.0904      3.4216     21.7872   1.2468097477e+02   7.1247604733e+01    0.2254468     0.145581 -28.98  0.001277311    1.308    0.235
