#   1 NUMBER                 Running object number                                     
#   2 MAG_AUTO               Kron-like elliptical aperture magnitude                    [mag]
#   3 X_IMAGE                Object position along x                                    [pixel]
#   4 Y_IMAGE                Object position along y                                    [pixel]
#   5 X_WORLD                Barycenter position along world x axis                     [deg]
#   6 Y_WORLD                Barycenter position along world y axis                     [deg]
#   7 A_WORLD                Profile RMS along major axis (world units)                 [deg]
#   8 B_WORLD                Profile RMS along minor axis (world units)                 [deg]
#   9 THETA_WORLD            Position angle (CCW/world-x)                               [deg]
#  10 FWHM_WORLD             FWHM assuming a gaussian core                              [deg]
#  11 ELONGATION             A_IMAGE/B_IMAGE                                           
#  12 ELLIPTICITY            1 - B_IMAGE/A_IMAGE                                       
         1 -12.7551    203.7195     40.9151   4.0601976374e+01   2.9972352385e+01     1.292831     1.013762  33.95  0.007540724    1.675    0.403
         2 -12.5252    216.1698     29.5423   3.6603626369e+01   2.8654488320e+01    0.8891542    0.7364404  19.96  0.004501891    1.753    0.429
         3 -10.7141    241.4417      7.2319   2.9872446684e+01   2.5943103948e+01    0.6279994    0.2504917  88.83  0.003016647    2.820    0.645
         4 -11.1963    244.5450      3.7555   2.9004969365e+01   2.5698412575e+01    0.8128608     0.377995  84.29  0.004601151    2.072    0.517
         5 -10.2013    141.3702    220.7117   9.3574835489e+01   8.7504324235e+00    0.3375194    0.2072732  40.36  0.001712039    1.509    0.337
         6 -14.6379      4.0438    163.9589   1.1927841685e+02   3.9095106422e+01     11.87604      1.35797 -74.84   0.03012742    7.149    0.860
         7  -7.4557     82.6275    182.2875   1.0157842544e+02   2.6182888253e+01    0.1496892    0.1006822  63.91 0.0007020021    1.715    0.417
         8  -8.2457     79.2573    181.8152   1.0236279821e+02   2.6775030417e+01    0.2028048    0.1718643  52.05   0.00113991    1.164    0.141
         9  -8.0665     99.7351    180.6172   9.6972839266e+01   2.4002019497e+01    0.1996776    0.1282912  44.38 0.0007946977    1.548    0.354
        10 -13.7927      9.1909    207.6184   1.2130478215e+02   2.8710782018e+01     2.019056     1.065197 -49.32   0.01007239    2.449    0.592
        11 -10.6306     64.6499    173.9161   1.0497125944e+02   3.0652530958e+01    0.4907179    0.3184651 -32.67  0.002321911    2.050    0.512
        12 -10.4183     69.6223    168.8880   1.0292561540e+02   3.1228198727e+01    0.3752857    0.2785572 -25.56 0.0009267653    1.733    0.423
        13  -9.2907    111.6274    204.7882   9.7896822919e+01   1.6688638837e+01    0.3170294     0.217139  82.38  0.001192722    2.099    0.524
        14  -9.6212    102.3900    172.0283   9.4814620981e+01   2.5605525369e+01    0.4573516    0.1657097  50.26  0.001368769    3.971    0.748
        15 -10.2009     34.5722    171.5574   1.1240818444e+02   3.4669642684e+01     0.358557    0.1638426  49.52  0.001614764    2.319    0.569
        16 -12.4131     68.5462    144.4189   9.9145178114e+01   3.7449095840e+01     2.144028     1.135414  85.51  0.006469673    4.697    0.787
        17  -9.7581     23.1158    156.2900   1.1366452256e+02   3.9462259300e+01    0.2308446    0.1520341 -62.90 0.0008000432    1.322    0.244
        18 -10.6671     85.9416    153.5327   9.5866995506e+01   3.2680227774e+01    0.6154535    0.4236951 -24.94  0.002032005    1.900    0.474
        19  -9.5006     32.1941    154.9529   1.1106679519e+02   3.8972324510e+01    0.2143892      0.16444  79.98  0.001233674    1.303    0.233
        20  -7.6621    112.3399    150.6639   8.8023933338e+01   2.9020313982e+01    0.1582956    0.1205687  77.03 0.0002838923    1.757    0.431
        21  -9.2603    133.6903    144.3377   8.0990860056e+01   2.6540662039e+01    0.3052949     0.151209 -52.92   0.00114124    2.135    0.532
        22 -10.0893    100.5563    139.3539   8.8860273949e+01   3.3789252099e+01    0.5350643    0.3544743 -17.19  0.002193004    2.217    0.549
        23 -10.7722     87.8567    138.7789   9.2395954150e+01   3.6019329339e+01     0.310836    0.2604674 -36.05 0.0004521788    1.209    0.173
        24 -13.5907     39.4000    198.7126   1.1405205940e+02   2.7757935756e+01     2.396989      1.18279  74.53  0.003637583    2.503    0.600
        25  -9.0170    106.1068    131.3285   8.5463557920e+01   3.4742625234e+01    0.4167407    0.3252925 -35.57  0.001950532    1.296    0.229
        26  -8.5514    109.8107    130.3843   8.4189161449e+01   3.4295309836e+01    0.2699037      0.21405 -28.09 0.0006763761    1.344    0.256
        27 -12.5655     49.0859    189.1488   1.1079468556e+02   2.8896179181e+01     1.360412    0.8658299  57.40  0.007258344    1.577    0.366
        28  -9.5151     97.5074    125.7520   8.6649775082e+01   3.7584470687e+01    0.2990146    0.2403069  -7.84 0.0006844342    1.463    0.316
        29  -8.1396    116.3450    124.2994   8.0876724858e+01   3.4490716825e+01    0.1600869    0.1213011  -7.09 8.664288e-05    1.677    0.404
        30 -11.2269     78.7176    159.8518   9.9002856818e+01   3.2190398521e+01    0.8159721    0.4676348  59.39 0.0004375527    2.295    0.564
        31  -7.9131    163.3197    120.6954   6.8059285797e+01   2.5633505726e+01    0.1522315    0.1233142 -82.59 0.0007029051    1.632    0.387
        32  -8.3395    107.0177    118.7193   8.2138082795e+01   3.7535288514e+01     0.206958    0.1950235  10.97 0.0003004161    1.079    0.073
        33  -9.3696     58.5909    196.4229   1.0935079323e+02   2.6066971148e+01    0.2460186    0.2166552 -38.54 0.0005762596    1.361    0.265
        34  -7.6974     82.7561    116.9856   8.9048504052e+01   4.2123222991e+01    0.1925698    0.1204048 -51.63 0.0003463564    1.504    0.335
        35  -8.1964     39.9531    113.4583   1.0221667338e+02   4.8529769757e+01    0.1780303     0.104644  53.13  0.000686444    2.259    0.557
        36  -9.0335    193.7759    195.3762   7.7881197007e+01   4.9615867947e+00    0.2715582    0.1730664 -71.08 0.0009598522    4.419    0.774
        37 -11.8319     66.4605    155.5143   1.0166594399e+02   3.4956342548e+01    0.5596994    0.3696783 -40.01   0.00108362    1.668    0.400
        38  -8.8234     33.0243    108.7826   1.0364437776e+02   5.0330797630e+01    0.1867604    0.1650635 -46.38 0.0004465521    1.053    0.050
        39  -8.0795    205.8512    110.2981   5.7008571778e+01   1.8649542265e+01    0.2111204    0.1790325  85.65 0.0006061115    1.420    0.296
        40  -8.7162     39.1136    101.7216   1.0010357293e+02   5.1450878567e+01    0.3197621    0.1402332  43.73  0.001285063    2.968    0.663
        41  -9.0031    120.6018     98.1920   7.2748163837e+01   3.9397945085e+01    0.2196444    0.1411848 -31.65 0.0005444711    1.661    0.398
        42  -8.7092     32.6003     96.8133   1.0136722556e+02   5.3235906503e+01    0.1935989    0.1198986 -71.83 0.0009523497    1.739    0.425
        43  -9.9482    246.5888     95.4671   4.7556563470e+01   1.3200292606e+01    0.3400998    0.1448507 -57.14  0.001243367    3.598    0.722
        44 -12.5377     18.2333    218.4862   1.2017130264e+02   2.5549350738e+01     0.773604    0.5970085 -34.32  0.005068422    1.925    0.481
        45  -9.0515     73.0370     83.5491   8.3332804859e+01   5.1252059132e+01    0.2780705    0.2293818  59.68  0.001468946    1.591    0.371
        46 -10.3193     13.3152     60.1767   1.0026124113e+02   6.2925609138e+01    0.3196981    0.1598706 -49.75 0.0008668088    1.562    0.360
        47 -12.0801    194.6282     47.6275   4.3403649273e+01   3.1132695161e+01    0.6982828    0.5801286  42.62  0.002623191    1.393    0.282
        48  -9.5348    115.5337    243.6827   1.0229884925e+02   8.3503049535e+00     0.387137    0.1333517 -60.70  0.001519137    3.809    0.737
        49 -15.6026     15.8882    242.6181   1.2206839602e+02   2.0874485532e+01     6.028058     2.415906  24.41   0.02897754    3.425    0.708
        50  -9.8938     95.2527    241.9394   1.0633009682e+02   1.1545223084e+01    0.3174698    0.1804276 -60.45  0.001719578    1.965    0.491
        51 -10.2582     31.7688    204.9655   1.1631745407e+02   2.7150161737e+01    0.3169245    0.2682595  80.11  0.001521186    1.017    0.017
