#   1 NUMBER                 Running object number                                     
#   2 MAG_AUTO               Kron-like elliptical aperture magnitude                    [mag]
#   3 X_IMAGE                Object position along x                                    [pixel]
#   4 Y_IMAGE                Object position along y                                    [pixel]
#   5 X_WORLD                Barycenter position along world x axis                     [deg]
#   6 Y_WORLD                Barycenter position along world y axis                     [deg]
#   7 A_WORLD                Profile RMS along major axis (world units)                 [deg]
#   8 B_WORLD                Profile RMS along minor axis (world units)                 [deg]
#   9 THETA_WORLD            Position angle (CCW/world-x)                               [deg]
#  10 FWHM_WORLD             FWHM assuming a gaussian core                              [deg]
#  11 ELONGATION             A_IMAGE/B_IMAGE                                           
#  12 ELLIPTICITY            1 - B_IMAGE/A_IMAGE                                       
         1 -14.4815      2.9692     87.3291   1.3365965702e+02   5.7543582679e+01     3.143352    0.3367037 -65.19  0.008426487    7.088    0.859
         2 -14.4775      3.6430    138.6950   1.4087407200e+02   4.6032756700e+01     3.493605     1.104763 -83.65   0.01156195    4.715    0.788
         3 -13.2605    201.3291     29.6444   6.3482799855e+01   3.1425680458e+01     1.079307    0.9317036 -50.69   0.00521094    1.258    0.205
         4 -13.5552    219.3450     11.1659   5.7476575089e+01   2.9404471827e+01    0.8515831    0.7250439  71.42  0.002067899    1.281    0.219
         5 -12.7136      3.4535      6.3605   1.1011509251e+02   7.1792682153e+01      0.88061    0.2393108 -39.57  0.004436709    2.961    0.662
         6 -11.1274     63.0780    246.3255   1.3876607906e+02   1.5384878945e+01    0.2804828    0.1874344  68.72 0.0005152809    1.260    0.207
         7 -13.4769    235.7435    247.4974   1.0465270118e+02  -1.2673864500e+01     1.721259    0.6927451  25.32  0.007378024    2.886    0.653
         8 -13.0133      9.4035    207.0481   1.4580329693e+02   3.0059051822e+01    0.7293218    0.5586305  36.06  0.002837551    1.627    0.385
         9 -14.5988      9.2808    240.7389   1.4800589351e+02   2.3076946833e+01     2.828431     1.594913  57.72    0.0187687    1.423    0.297
        10 -14.7817     29.2686    225.3531   1.4339350508e+02   2.4032885844e+01     1.072422    0.9387704 -70.82  0.007752073    1.424    0.298
        11 -12.8104     41.4009    212.1456   1.3987602260e+02   2.5453135305e+01    0.7534117    0.4865263  80.24  0.002818733    1.382    0.277
        12 -11.2159    181.4716    244.5060   1.1471746056e+02  -3.6658026181e+00    0.2464023    0.1308154 -43.91  0.001138214    2.173    0.540
        13 -11.4842    184.0192    239.1660   1.1334064096e+02  -3.2201849121e+00    0.3238909    0.1606063  44.44  0.001334306    1.876    0.467
        14 -12.8906    199.6320    247.8767   1.1163278408e+02  -7.2054271909e+00    0.6398473    0.3734233  33.80  0.003447507    1.471    0.320
        15 -10.6828    128.7925    232.3908   1.2384710050e+02   7.7260997839e+00    0.2625338    0.1261857  31.07  0.001063553    2.461    0.594
        16 -12.1346    109.0100    230.7791   1.2782384381e+02   1.1448659690e+01    0.7651888     0.114175  46.07  0.001934319    5.953    0.832
        17 -11.6822     58.0555    213.1111   1.3651392926e+02   2.3090451516e+01    0.5479648    0.2611782  64.47  0.002443884    2.353    0.575
        18  -8.7880    152.4774    212.9913   1.1565821086e+02   7.3031322224e+00    0.1897299    0.1441713 -51.28 0.0003466355    1.442    0.307
        19 -11.9803     54.1458    197.0998   1.3558252977e+02   2.7255806038e+01    0.3045887    0.2362753 -63.27 0.0005477002    1.321    0.243
        20 -11.3053      4.0807    190.2679   1.4560338373e+02   3.4231324613e+01    0.2891497    0.2208293  66.29  0.001044471    1.225    0.184
        21 -11.5754      5.4573    185.0925   1.4491368593e+02   3.5269260310e+01    0.4782882    0.2148257  59.38  0.001931212    2.257    0.557
        22 -12.1292     61.2673    188.6273   1.3292762249e+02   2.8290897497e+01     0.268254      0.23773 -72.91 0.0004560289    1.160    0.138
        23 -13.2293     58.7289    173.8215   1.3154260417e+02   3.2181154011e+01    0.5551953    0.2816362 -46.74  0.001770513    2.303    0.566
        24 -10.8778     72.6895    175.7776   1.2838349586e+02   2.9757997216e+01    0.2449191    0.2237383 -83.31 0.0003269897    1.063    0.059
        25 -11.2376    124.9380    249.8004   1.2698778456e+02   5.0799626377e+00    0.4086242    0.1226452  42.38  0.001557955    2.718    0.632
        26 -12.8079      3.7552    152.9821   1.4238354692e+02   4.2732464995e+01    0.7400761    0.3154991 -69.11  0.003815359    1.780    0.438
        27 -11.2991    138.8152    249.2161   1.2409937934e+02   2.8366779406e+00    0.3378972    0.2129915 -46.33  0.001817205    1.925    0.481
        28 -11.9653     80.2896    167.2256   1.2510043144e+02   3.0698253304e+01      0.62784    0.4798507 -47.63  0.003275033    1.395    0.283
        29 -10.5552     89.7328    167.4280   1.2270812921e+02   2.9140564043e+01    0.4479038    0.2489885  61.54  0.001264671    2.303    0.566
        30 -10.7296     94.2145    151.7746   1.1860097523e+02   3.2225069890e+01    0.3316631    0.2967747  89.24 0.0007988734    1.116    0.104
        31 -12.2334     82.6805    150.4541   1.2146926054e+02   3.4446276230e+01    0.3269876    0.2557069 -48.12  0.000730089    1.285    0.222
        32  -9.5588     97.8183    147.6086   1.1678166138e+02   3.2619502283e+01    0.2443279    0.1954873 -48.95 0.0004523405    1.240    0.193
        33 -11.9641     68.1598    143.1652   1.2409792955e+02   3.8401405252e+01    0.5481359    0.4355442  80.88   0.00190685    1.383    0.277
        34 -10.9287     64.6623    141.6926   1.2480274369e+02   3.9244197948e+01    0.3239544    0.2306619 -39.90 0.0008469182    1.526    0.345
        35  -9.9984    107.2892    136.8841   1.1186157028e+02   3.3494284888e+01    0.4384635    0.2945145  -9.49   0.00125702    2.668    0.625
        36 -10.5939     94.1834    133.9907   1.1487752347e+02   3.6557403375e+01    0.2484898    0.2263093 -43.81 0.0003580393    1.098    0.089
        37  -9.7942     71.4279    125.7646   1.1968439087e+02   4.2152277119e+01    0.4523007    0.2266658  57.98  0.001623619    3.314    0.698
        38  -9.1487    105.1800    123.4877   1.0930787675e+02   3.7060812034e+01    0.2023483    0.1516712  39.37  0.000328182    1.373    0.272
        39  -9.1957     71.6473    117.0366   1.1769072293e+02   4.4183693446e+01    0.1959542    0.1652101 -53.20 0.0003724394    1.095    0.086
        40  -8.7281     63.6949    111.3180   1.1884077143e+02   4.6621795866e+01    0.1363288    0.1080757  81.10 0.0004420703    1.629    0.386
        41  -9.0788     52.4990    103.4716   1.2060285018e+02   4.9823961710e+01    0.1339629    0.1206689 -50.86 3.061664e-05    1.058    0.055
        42 -10.1940    159.8477     77.8258   8.2898145276e+01   3.4434758624e+01    0.2119802    0.1770684 -85.13 0.0004896342    1.330    0.248
        43  -8.7993     56.3169     75.7286   1.1212028715e+02   5.5238036280e+01    0.1174681    0.1049852  72.21 0.0003301873    1.560    0.359
        44 -13.9674      6.0839    117.3412   1.3750362566e+02   5.0763127611e+01     1.545963    0.6460878 -75.58   0.00726966    2.254    0.556
        45 -11.9242    162.5241    249.4063   1.1930824432e+02  -1.2511567832e+00     0.474732     0.163914  39.95  0.001905002    2.436    0.589
        46 -11.0250     99.2088    247.9187   1.3191834993e+02   9.6518351387e+00      0.22015    0.1843304 -46.29  0.001380902    1.593    0.372
