#   1 NUMBER                 Running object number                                     
#   2 MAG_AUTO               Kron-like elliptical aperture magnitude                    [mag]
#   3 X_IMAGE                Object position along x                                    [pixel]
#   4 Y_IMAGE                Object position along y                                    [pixel]
#   5 X_WORLD                Barycenter position along world x axis                     [deg]
#   6 Y_WORLD                Barycenter position along world y axis                     [deg]
#   7 A_WORLD                Profile RMS along major axis (world units)                 [deg]
#   8 B_WORLD                Profile RMS along minor axis (world units)                 [deg]
#   9 THETA_WORLD            Position angle (CCW/world-x)                               [deg]
#  10 FWHM_WORLD             FWHM assuming a gaussian core                              [deg]
#  11 ELONGATION             A_IMAGE/B_IMAGE                                           
#  12 ELLIPTICITY            1 - B_IMAGE/A_IMAGE                                       
         1 -15.3080    244.5896     41.0107   5.6387153265e+01   2.0749773822e+01     5.485595    0.7972906 -31.58    0.0167825    5.558    0.820
         2 -12.4358      3.4972      3.8968   1.1299627451e+02   7.8846984746e+01    0.8709373    0.5257224  32.79  0.005045934    1.838    0.456
         3 -13.0613      6.5469     21.9257   1.1910174955e+02   7.5024969449e+01    0.9363351    0.5548892 -25.13  0.005101215    1.629    0.386
         4 -11.9693      2.5860     15.0051   1.1973477577e+02   7.6718510280e+01    0.5067678    0.3563073 -58.38  0.003116609    1.395    0.283
         5 -13.1328      4.1411     47.3312   1.2850193753e+02   6.9377501610e+01    0.9792882    0.5831892 -77.06  0.005114771    1.679    0.404
         6 -12.2506     49.9738     15.9086   8.5033508084e+01   7.0109227793e+01    0.6197897    0.4616427  33.63  0.003480003    1.235    0.190
         7 -13.0704     73.2033     11.9111   7.2955279539e+01   6.5485041546e+01    0.5382258    0.3119226  40.88  0.002567418    1.676    0.403
         8 -11.2349    100.6775      2.8942   6.1422932137e+01   5.9419198901e+01    0.3831532    0.2286676 -86.05  0.001782455    1.882    0.469
         9 -13.6129     80.0057    224.6683   1.2445565245e+02   1.7867504014e+01     1.018861    0.8877287  24.73  0.004795214    1.175    0.149
        10 -12.2424     83.9334    245.5275   1.2538977999e+02   1.3582334106e+01    0.6873419    0.3380898  53.07   0.00328741    2.079    0.519
        11 -11.0732     88.0168    239.8899   1.2400289546e+02   1.4053745956e+01     0.659054    0.1670906  42.02  0.002580056    2.993    0.666
        12 -11.9568     36.1261    148.8207   1.2902363342e+02   4.0584445722e+01     3.282642    0.9436163  30.22   0.01167072    2.922    0.658
        13 -13.6161     67.3761    243.9942   1.2891206596e+02   1.5847157348e+01      1.55073    0.6803185  58.37  0.007450089    2.579    0.612
        14 -12.0329      3.8954    215.6021   1.4184189011e+02   2.7931326007e+01     1.238786    0.3917638  87.88   0.00541974    3.261    0.693
        15 -14.4947    107.1001    163.6697   1.0962694883e+02   2.6781838068e+01      2.59626      1.45833  29.84  0.009132448    1.761    0.432
        16 -13.8299     79.3398    182.9238   1.2012645899e+02   2.6724885638e+01     1.294635    0.7975012  62.05  0.004818699    1.828    0.453
        17 -14.7779     52.8001    177.7030   1.2693868399e+02   3.1474449775e+01     3.849286     1.718082  57.01   0.01555019    2.426    0.588
        18 -11.7937     34.8150    181.0104   1.3229095211e+02   3.2727681245e+01     3.037945    0.7045012  49.34  0.009801917    3.886    0.743
        19 -12.5496     53.3152    222.2977   1.3057869888e+02   2.1602129459e+01     1.018045    0.3098171  37.17  0.004026853    2.290    0.563
        20 -14.1560     23.2198    187.3090   1.3587240848e+02   3.2407955663e+01     2.677619    0.2197705  41.95  0.008445665    4.234    0.764
        21 -14.6776     72.3850    207.3607   1.2466178727e+02   2.2324623117e+01      1.85125    0.8841247  40.11  0.008831198    1.685    0.406
        22 -16.0117     98.1240    193.1537   1.1647744268e+02   2.1728404625e+01     2.803831     2.657912 -56.93   0.01209951    1.211    0.174
        23 -15.4002     31.6190    202.1753   1.3457010358e+02   2.8221414536e+01     3.494916    0.6388703  32.27   0.01259506    3.332    0.700
        24 -13.7749      4.1862    189.1048   1.4093854308e+02   3.3643305852e+01     1.075637    0.4429628  83.90  0.005038201    2.335    0.572
        25 -11.5683     34.7252    249.2939   1.3629187043e+02   1.8506610522e+01    0.5293764    0.1262559  39.46  0.002424063    2.420    0.587
        26 -13.7582     43.0056    246.6214   1.3439397752e+02   1.8118646425e+01     1.583351          nan  38.71   0.00498136    4.972    0.799
        27 -12.6015     26.7400    238.5101   1.3754097341e+02   2.1296427173e+01     1.028004          nan  40.68  0.003764431    3.737    0.732
        28 -12.9033      2.1287    249.8329   1.4304709609e+02   2.1497346478e+01    0.2784447    0.1539769  49.20  0.001465824    1.252    0.201
        29 -14.5493     16.1171    246.2048   1.4008774991e+02   2.0893547107e+01     0.805717    0.2850354  47.08  0.004204472    1.893    0.472
        30 -15.4188      7.2149    237.4442   1.4170616141e+02   2.3330294916e+01      1.43745    0.8224195  46.62  0.009342398    1.247    0.198
        31 -11.1740     12.1508    154.1416   1.3706190873e+02   4.1402734010e+01    0.3222263    0.2993036  30.02  0.001430639    1.200    0.167
        32 -11.7599     11.8361    148.6521   1.3681606468e+02   4.2815306452e+01    0.5384201    0.3586701  67.54  0.002163427    1.364    0.267
        33 -12.1065      2.3343    139.9961   1.3935745188e+02   4.5667708206e+01    0.7890366    0.3708999 -66.11  0.003166748    2.011    0.503
        34 -12.8719      2.4738    126.4925   1.3853814053e+02   4.9134750975e+01      1.06814    0.4262633  89.10  0.004399856    2.398    0.583
        35 -12.6927      6.8099    119.0949   1.3645678417e+02   5.0816354371e+01     1.063346    0.5160864  67.85  0.004515312    2.130    0.531
        36 -13.2533    108.9447    135.6421   1.0373513079e+02   3.2949698765e+01      1.63479    0.6505306  42.88   0.00571083    2.390    0.582
        37 -11.1446     14.3050    136.0637   1.3511321434e+02   4.5871357374e+01    0.5396005    0.2212954  42.01  0.002302239    2.207    0.547
        38 -11.1525     41.1055    132.0459   1.2534384866e+02   4.4433333461e+01    0.8335417    0.4005432   6.32  0.002923984    3.378    0.704
        39 -11.3138     25.2326    122.7503   1.2994407612e+02   4.8494798436e+01    0.6613811    0.2610309  47.38  0.002546073    2.554    0.608
        40 -12.9766    118.9109    114.2332   9.5893867709e+01   3.5901248243e+01     1.119483    0.9371078  74.00  0.005465597    1.349    0.259
        41 -11.0579     32.0061    117.8355   1.2676558621e+02   4.9174761525e+01    0.4827498    0.2520555 -80.12  0.002058671    1.956    0.489
        42 -10.9975     42.2825    114.6423   1.2231814251e+02   4.8926961596e+01    0.4971064    0.1386682  42.43  0.001545737    3.503    0.714
        43 -11.9303     11.1668    109.3810   1.3392777970e+02   5.3112109577e+01    0.6621968    0.4001286  64.29  0.002750178    1.698    0.411
        44 -11.8979     49.3252    104.1746   1.1761193469e+02   5.0836157581e+01    0.9226902    0.5259879  75.40   0.00350335    2.616    0.618
        45 -10.0549      1.4728    106.9480   1.3757495672e+02   5.4286542105e+01    0.2065792    0.1180159 -80.76 0.0007785159    1.558    0.358
        46 -11.1409     62.4092    102.1586   1.1195915193e+02   4.9497388342e+01    0.7776949    0.3257771  56.44  0.002173686    4.413    0.773
        47 -10.2170     12.3578     98.7044   1.3228663312e+02   5.5863037348e+01    0.5683813    0.3322375  70.26  0.002682297    1.853    0.460
        48 -12.6169     23.3228     87.6969   1.2579196800e+02   5.7972681447e+01    0.9124456    0.6590958  -0.29  0.004670939    1.577    0.366
        49 -13.4165      6.3812     91.1971   1.3405374031e+02   5.8177634598e+01     1.067581    0.8492823 -44.29  0.005473576    1.264    0.209
        50 -12.6818     12.7736     87.2250   1.3063555869e+02   5.8859830857e+01    0.7548496    0.4800149 -84.83   0.00285378    1.539    0.350
        51 -10.0262     49.4461    239.4842   1.3258679198e+02   1.8723444332e+01    0.1812434    0.1455647 -66.79 0.0008483922    1.568    0.362
        52 -11.8246    102.1759     85.7514   9.3085244531e+01   4.5902863854e+01    0.3438098     0.288537  85.97  0.001656999    1.376    0.273
        53 -10.7575     79.1047     76.8833   9.8424072908e+01   5.2734670676e+01    0.2489624    0.2157016  71.91  0.001250924    1.279    0.218
        54 -11.3256     28.0004     72.5031   1.2043228441e+02   6.1477564309e+01    0.4939853    0.3353149  63.75  0.002397184    1.815    0.449
        55 -12.9942     18.8444     67.3362   1.2410551184e+02   6.3569939884e+01     1.251782    0.4567347 -63.55  0.004978725    2.354    0.575
        56 -12.7038      2.9500     67.3462   1.3274369257e+02   6.4483586519e+01     1.035794    0.5370769 -58.86  0.003949425    1.642    0.391
        57 -12.2135     11.7181     67.5268   1.2801690082e+02   6.4003945300e+01    0.6194693    0.5408573  13.45   0.00334949    1.231    0.187
        58 -10.4761     65.4846     70.0214   1.0173477286e+02   5.6872710890e+01    0.2360357    0.1478163 -51.10  0.001041685    1.617    0.382
        59 -10.5890    102.3971     67.2316   8.7016904976e+01   4.9727339049e+01    0.2244375     0.145259 -53.37 0.0009567994    1.704    0.413
        60 -11.6612     31.8528     63.0164   1.1594448267e+02   6.3438221553e+01    0.4431899    0.3584617  56.99  0.002416561    1.426    0.299
        61 -11.6373     44.8049     62.0046   1.0880097875e+02   6.2057174875e+01     0.418192    0.2956894  15.71    0.0020572    1.545    0.353
        62 -12.5469    132.5600     50.3458   7.3225544060e+01   4.5218489736e+01    0.8245456    0.5784842 -50.04  0.003937774    1.467    0.319
        63  -9.8492     50.3671    236.2778   1.3218621808e+02   1.9220500022e+01    0.2244396    0.1383589  33.90  0.001261175    1.289    0.224
        64 -11.4987     36.4324    234.1309   1.3519524299e+02   2.1140460934e+01    0.9809621    0.1472897  43.85  0.003697219    3.413    0.707
        65 -13.7939     60.4975    215.9518   1.2836971810e+02   2.2037342446e+01     1.513765    0.3447573  39.27  0.005676555    2.899    0.655
        66 -10.4875     14.5767    168.4686   1.3718394875e+02   3.7659089525e+01    0.2638186    0.2303741  -4.47  0.001324156    1.432    0.302
        67 -12.0477      3.8737     33.4213   1.2521417968e+02   7.2644834209e+01     1.254669    0.2505009  30.94  0.004167415    4.832    0.793
        68 -12.5160     45.2076     38.2167   9.9353605359e+01   6.7153417740e+01    0.9254473     0.551515  17.12  0.004098543    2.134    0.531
        69 -11.4330     72.7763     23.2216   7.8983438920e+01   6.4164793938e+01    0.3352998    0.2302614  78.63  0.001565651    1.978    0.494
        70 -13.9124     30.4182    215.0128   1.3559186466e+02   2.5593444276e+01     1.279366    0.6354784  32.76  0.005210947    1.638    0.390
        71 -11.1914      1.7647    157.5145   1.4037304985e+02   4.1308089281e+01    0.4577119     0.166335 -86.47    0.0019048    2.559    0.609
