#   1 NUMBER                 Running object number                                     
#   2 MAG_AUTO               Kron-like elliptical aperture magnitude                    [mag]
#   3 X_IMAGE                Object position along x                                    [pixel]
#   4 Y_IMAGE                Object position along y                                    [pixel]
#   5 X_WORLD                Barycenter position along world x axis                     [deg]
#   6 Y_WORLD                Barycenter position along world y axis                     [deg]
#   7 A_WORLD                Profile RMS along major axis (world units)                 [deg]
#   8 B_WORLD                Profile RMS along minor axis (world units)                 [deg]
#   9 THETA_WORLD            Position angle (CCW/world-x)                               [deg]
#  10 FWHM_WORLD             FWHM assuming a gaussian core                              [deg]
#  11 ELONGATION             A_IMAGE/B_IMAGE                                           
#  12 ELLIPTICITY            1 - B_IMAGE/A_IMAGE                                       
         1 -11.1279     61.9175     16.6404   7.3612831520e+01   6.5013294329e+01     0.658848    0.3388285   7.13  0.002607021    3.451    0.710
         2 -11.1956    135.2753     22.2989   5.4994312181e+01   4.8952833281e+01    0.7434139    0.3451966  33.41  0.002768969    2.882    0.653
         3 -12.6378    129.2399     22.3843   5.6296501757e+01   5.0406181677e+01    0.4545096    0.3014636 -22.44 0.0005915525    1.597    0.374
         4 -11.5827     84.4447     20.9394   6.7605867292e+01   6.0422902881e+01    0.5553157    0.5299963 -88.32  0.003442093    1.429    0.300
         5 -10.9636    120.2187     21.3294   5.7926063670e+01   5.2667478869e+01    0.3497762    0.2441699   1.57 0.0007209865    1.645    0.392
         6 -10.6856     19.2753     19.2499   9.4174526723e+01   6.9973948108e+01    0.5213449    0.2372524  26.74 0.0007845371    2.431    0.589
         7 -11.6707      4.3817     18.5807   1.0167328568e+02   7.1171372807e+01    0.3839892    0.2851641  22.52  0.002783506    1.683    0.406
         8 -10.7808      9.9002     15.6994   9.7566844857e+01   7.1314600542e+01    0.2334073    0.1358764 -27.28  0.000780677    1.415    0.293
         9 -10.9413     73.8585      8.2926   6.5321062480e+01   6.3924373390e+01    0.5116025     0.238459 -10.84  0.001575529    2.727    0.633
        10 -12.1993     75.9213     15.4720   6.7978360335e+01   6.2717939851e+01    0.5264705    0.3303308 -13.66  0.002149594    1.601    0.375
        11 -10.6309     70.5313     13.9851   6.9163333030e+01   6.3877872418e+01    0.4685688    0.2004448 -21.65  0.002038606    2.539    0.606
        12 -10.5559     55.2041     12.8122   7.4442043963e+01   6.6583451854e+01    0.3815756    0.1662504 -33.87  0.001220763    2.172    0.540
        13  -9.9018     51.2254     10.6650   7.5028373348e+01   6.7468006291e+01    0.3546034    0.1780572  -2.10  0.001454746    3.353    0.702
        14 -10.3178     40.0140     11.1102   8.0196023649e+01   6.8984203275e+01    0.2405264    0.1644625 -30.17 0.0003979971    1.337    0.252
        15 -10.2374     30.7940     13.2966   8.5670794734e+01   6.9787385270e+01    0.2522386     0.133617 -28.37  0.001034305    1.630    0.386
        16 -10.3692    157.9305     13.3422   4.7871998315e+01   4.4266554928e+01    0.3242713      0.18604 -55.31   0.00146252    2.093    0.522
        17 -10.2743    118.2296     12.5936   5.5004856447e+01   5.4077111076e+01     0.397324    0.1892584  43.98  0.001759689    1.941    0.485
        18 -10.0226    117.2235      9.0135   5.3827568567e+01   5.4662719239e+01    0.2551673    0.1777845 -28.77 0.0008162846    1.539    0.350
        19 -11.0742    113.5473      7.8354   5.4173326338e+01   5.5625964934e+01    0.4491849    0.2623034 -16.35  0.002224652    1.852    0.460
        20 -10.0875    100.0330     12.5470   5.9410764338e+01   5.8184349833e+01    0.2487593    0.1721871   5.33 0.0009546933    1.541    0.351
        21 -11.1853      6.4584      8.8329   9.6460754664e+01   7.2704581817e+01    0.3368194     0.143216 -42.67 0.0007481215    1.763    0.433
        22 -11.1739     22.7543      7.4350   8.6860051352e+01   7.1519163875e+01    0.3302197    0.2717111  47.58  0.001108901    2.110    0.526
        23  -9.7567     20.0364      1.7101   8.5328815406e+01   7.2614963271e+01    0.1571141    0.1153335  -8.74 0.0003768042    1.066    0.062
        24 -10.3240     17.2912      5.1339   8.8622558413e+01   7.2393819433e+01    0.3335899    0.1478638 -49.03  0.001674253    2.774    0.640
        25 -11.5301     11.2748      2.9140   9.0857193298e+01   7.3260271122e+01    0.3511739    0.1955157 -23.63  0.002022976    1.490    0.329
        26 -10.8278    133.1410     10.9041   5.1299359621e+01   5.0681512036e+01    0.2920474    0.2212678   0.74 0.0008660308    1.478    0.323
        27 -11.3166    234.9516     10.2894   3.8276967670e+01   2.5664000638e+01     0.254082    0.1561447  88.95  0.001377045    1.579    0.367
        28 -10.4486    148.6999      8.3360   4.7678051798e+01   4.7079554667e+01    0.3664542    0.1979805 -41.61  0.001705191    2.017    0.504
        29 -10.5458    145.5898      7.6143   4.7938542768e+01   4.7923249761e+01    0.3578231    0.2219926  -7.61  0.001750695    1.954    0.488
        30 -10.1503    138.4531      9.9280   4.9968034585e+01   4.9473781594e+01    0.2424782    0.1846866  86.24 0.0006116687    1.453    0.312
        31 -10.1822     59.1490     10.0478   7.1510150876e+01   6.6301174178e+01    0.1900124    0.1556509   1.31  0.001247357    1.029    0.028
        32  -9.6482    107.6037      9.2206   5.6112060698e+01   5.6847638997e+01    0.1732112    0.1216671  -0.29 0.0007640251    1.525    0.344
        33  -9.7449     42.9813      8.0671   7.7300354223e+01   6.8993463064e+01    0.2008146    0.1531827 -49.82  0.001228427    2.059    0.514
        34 -10.5610    127.0434      8.0751   5.1435732184e+01   5.2425417231e+01    0.2012075    0.1810853  45.33   0.00034965    1.006    0.006
        35 -10.9097     81.0681      6.3467   6.2084224562e+01   6.2745118969e+01    0.2400253    0.1851724  -6.10 0.0001960729    1.233    0.189
        36 -10.4651     84.8913      5.0824   6.0349286544e+01   6.2106756902e+01    0.2691867    0.1825861  60.14  0.001119335    1.656    0.396
        37  -9.5323     67.4161      7.7109   6.7271829352e+01   6.5160919301e+01    0.1621702     0.105913  -6.53 0.0002754868    1.490    0.329
        38 -10.3152    180.7578      6.9774   4.2798145981e+01   3.9125323359e+01    0.2516323     0.170698 -50.44  0.001043632    1.506    0.336
        39 -10.5505     92.0447      6.0640   5.8760811266e+01   6.0538103943e+01      0.44261    0.2366893  10.80  0.001389323    2.415    0.586
        40 -11.2456    237.1225      3.0776   3.6452080634e+01   2.5955251639e+01    0.4635138    0.1074855 -33.36  0.001764674    3.390    0.705
        41 -11.1820    241.6441      2.7630   3.6050077444e+01   2.4978695886e+01     0.410284    0.1724554 -75.62  0.001622422    2.891    0.654
        42  -9.9770    164.7241      5.5849   4.4422597617e+01   4.3304255111e+01    0.2363034    0.1588009  80.62 0.0008585914    1.448    0.309
        43 -10.6748    232.1944      4.8153   3.7228373160e+01   2.6888236597e+01    0.1973345    0.1446073 -63.99 0.0004554218    1.185    0.156
        44 -10.7849    228.1713      4.9493   3.7581538556e+01   2.7798622382e+01    0.2250395    0.1536444 -82.71 0.0008303243    1.349    0.259
        45  -9.4591    131.4810      5.5156   4.9646855454e+01   5.1586072364e+01    0.1347978    0.1210634  51.18 0.0001274809    1.008    0.008
        46 -10.2206    150.8607      3.8634   4.5847986298e+01   4.6946532504e+01    0.3018113    0.1185735  45.64 0.0008752221    2.556    0.609
        47 -12.4612     32.0270      2.0284   7.9275410397e+01   7.1210709231e+01    0.2750984    0.1812005  17.92 0.0006653881    1.404    0.288
        48 -10.2424     26.7275      2.6528   8.2290393196e+01   7.1761392944e+01    0.2149332    0.1566575  12.45  0.001120479    1.266    0.210
        49  -9.7374    166.9483      1.6185   4.2908310701e+01   4.3102832632e+01     0.279876     0.158893  89.19  0.001299995    1.933    0.483
        50  -9.8980    127.0858      2.1330   4.9209484221e+01   5.2938793493e+01    0.2184844    0.1571425  40.53  0.001212312    1.292    0.226
        51 -10.1773     73.3224      2.1837   6.2556892037e+01   6.4649667971e+01    0.2099213    0.1504245  38.54 0.0003791191    1.250    0.200
        52  -9.2898    139.5458      1.5127   4.6819613995e+01   4.9957627347e+01    0.1349666    0.1182149  52.45 0.0002004185    1.035    0.034
        53  -9.6900     34.5166    201.3472   1.2277471621e+02   2.8220490342e+01    0.1468737    0.1403663   1.49 0.0006174981    1.622    0.384
        54 -10.0658    247.1357    250.2688   8.8372197522e+01  -1.1314193177e+01    0.1826897    0.1169673  12.63  0.001236421    1.283    0.221
        55 -10.4440    250.2381    246.3687   8.7244454322e+01  -1.1308124121e+01    0.2399851    0.1440011 -18.80  0.001577278    1.625    0.385
        56  -9.9604     72.6332    250.0768   1.1947721344e+02   1.4276351645e+01    0.1658514    0.1486978  26.90  0.001258333    1.614    0.381
        57 -10.4382      5.5750    235.3288   1.2984008228e+02   2.4559106460e+01    0.2504213     0.189539  84.35  0.001457665    1.229    0.186
        58 -11.8935     18.8924    238.2201   1.2781568430e+02   2.2712029363e+01    0.4948226    0.2167156  38.47   0.00302632    2.177    0.541
        59 -13.0498     20.3355    248.5522   1.2807518105e+02   2.0731947457e+01    0.9607875    0.2628144  38.51  0.004942087    3.073    0.675
        60 -13.1374      7.0891    244.5152   1.2997805739e+02   2.2776642943e+01    0.8396219    0.5819421  40.22  0.005307931    1.663    0.399
        61 -10.0042      1.9183    188.7653   1.2824042324e+02   3.3989054482e+01    0.2691185    0.1061163  81.23  0.001366926    2.315    0.568
        62  -9.6050    211.3880    188.7303   8.4086870068e+01   2.3028438809e+00     0.189601     0.119483 -23.82 0.0009468279    1.695    0.410
        63  -9.4379     61.6508    184.8734   1.1564525530e+02   2.8544414346e+01    0.1854278    0.1050705 -83.70 0.0009436677    1.764    0.433
        64 -10.2053     15.4921    180.5089   1.2504595154e+02   3.4568702713e+01    0.2046485    0.1647066  86.80 0.0006699552    1.109    0.098
        65 -10.0671    167.1665    183.6086   9.2047659334e+01   1.1339018324e+01    0.2056345    0.1257689  31.65 0.0008007234    1.687    0.407
        66 -10.7410     16.5166    183.5119   1.2504953157e+02   3.3824604169e+01    0.2759216    0.1624797 -86.38  0.001716292    1.362    0.266
        67  -9.5890      2.1376    180.3823   1.2771858596e+02   3.5741808517e+01     0.148648   0.08055195  51.47 0.0005913988    1.678    0.404
        68 -10.0823    244.3971    178.2848   7.6010112363e+01  -1.7426678586e+00    0.2458341    0.1132454 -28.77  0.001107749    2.113    0.527
        69 -10.6727    224.0857    178.5047   7.9681099644e+01   1.6964181884e+00    0.2405991    0.2045126 -27.86 0.0004042641    1.196    0.164
        70  -9.0634     36.4584    178.4428   1.2047416406e+02   3.2952221813e+01    0.1225066   0.09818622  85.24 0.0002177226    1.024    0.024
        71  -9.5128     70.2090    177.6068   1.1288647010e+02   2.9036622426e+01    0.1601313    0.1259869  26.04 0.0005150249    1.608    0.378
        72  -9.8319     46.5286    177.4781   1.1818349088e+02   3.2047402587e+01    0.2387661    0.1166465  35.73  0.001206469    2.154    0.536
        73  -9.9260    200.5540    176.2726   8.3737047447e+01   6.3647922217e+00    0.1934626    0.1290026 -24.61 0.0009432122    1.615    0.381
        74 -10.0810    100.9772    175.9925   1.0557534733e+02   2.4801121713e+01    0.1939197    0.1764383  76.95  0.001154007    1.013    0.013
        75 -10.9083     17.8101    172.6872   1.2398276544e+02   3.6076488747e+01    0.3993947    0.2113024  72.33  0.002241836    1.744    0.427
        76 -10.7947     12.7641    170.7485   1.2490637959e+02   3.6951597973e+01    0.3841703    0.1477289  85.88  0.001717443    2.721    0.632
        77 -11.7846     36.1902    163.7057   1.1910316979e+02   3.6326438512e+01    0.5880756    0.4937412  74.27    0.0039564    1.115    0.103
        78 -11.9791     36.9762    157.9448   1.1830940763e+02   3.7582336077e+01    0.2803535    0.1980081  88.15 0.0003377552    1.225    0.184
        79  -9.5041      4.7684    168.2720   1.2641620937e+02   3.8157897140e+01     0.186088    0.0614462 -67.76 0.0008907442    2.391    0.582
        80  -9.5628     67.1580    165.1791   1.1199520897e+02   3.2305350636e+01    0.1930759    0.1387583  70.56  0.001013668    1.362    0.266
        81 -10.9631     51.2588    163.9987   1.1562157466e+02   3.4583402355e+01    0.4292277    0.2288976 -59.58   0.00218927    1.758    0.431
        82 -11.2047     45.8652    161.3217   1.1658266485e+02   3.5831194162e+01    0.4879648    0.3607528 -32.30  0.002624836    1.985    0.496
        83  -9.2610    200.4697    162.5643   8.0906072051e+01   8.8196365145e+00    0.1422118    0.1339446   4.93  0.000186539    1.039    0.038
        84 -11.6100     22.7649    156.9739   1.2153953639e+02   3.9185948392e+01    0.4957552    0.3709584  71.01  0.003259082    1.212    0.175
        85  -9.0422    147.6637    156.3246   9.1030076006e+01   2.0665410944e+01    0.1544816    0.1182287  81.46 0.0007051231    1.717    0.418
        86 -10.2940     12.1301    153.3664   1.2366681132e+02   4.0920329741e+01     0.261466    0.1858121   4.98  0.001632921    2.211    0.548
        87 -10.3176    178.0285    151.4378   8.3143742604e+01   1.5478193001e+01     0.273385    0.2542404 -75.96  0.001103642    1.230    0.187
        88 -11.2297     12.5738    146.6928   1.2297670974e+02   4.2419691305e+01     0.527293    0.1034738  40.89  0.002069956    4.204    0.762
        89 -10.0570    207.1506    146.2174   7.5980586660e+01   1.0462232408e+01    0.2203615    0.1938773   4.77 0.0008600162    1.131    0.116
        90  -9.4862     30.5312    144.9487   1.1842640093e+02   4.1279820522e+01    0.1975121    0.1036204 -72.55 0.0006439329    1.569    0.363
        91  -9.6661    220.3846    144.1522   7.3005415888e+01   8.1675499153e+00    0.2018252    0.1266588 -44.82 0.0006941326    1.642    0.391
        92 -10.2367      2.8340    143.8984   1.2503464089e+02   4.3777990251e+01    0.1816098     0.129024 -67.08 0.0009661354    1.276    0.216
        93  -9.3846     49.7790    141.8035   1.1311349133e+02   4.0027735151e+01    0.2212404    0.1206987 -36.47 0.0007493525    2.804    0.643
        94  -9.8684     19.5300    140.0135   1.2062917308e+02   4.3418392298e+01    0.1906545   0.09820078 -73.45 0.0004963318    1.544    0.352
        95 -10.4903     15.4875    140.0000   1.2163222070e+02   4.3747347323e+01    0.3305924    0.1291859  14.87  0.001367786    4.487    0.777
        96 -10.9193      2.7716    137.4298   1.2450694263e+02   4.5265645460e+01    0.3383763    0.1297817 -74.01 0.0008642815    1.953    0.488
        97 -10.0932      5.5520    133.5281   1.2347317173e+02   4.5980914891e+01    0.2216055    0.1412934 -75.64 0.0007983794    1.202    0.168
        98 -10.7679      9.1271    136.7617   1.2288963625e+02   4.4981088842e+01     0.206247    0.1435772 -71.61 0.0002603447    1.169    0.145
        99 -10.7713     21.8703    136.0330   1.1960449143e+02   4.4163116257e+01    0.2523583    0.1830029  47.55  0.001591721    1.508    0.337
       100  -9.2294    122.7051    135.3314   9.2626879232e+01   3.0293718764e+01    0.1551809    0.1190224  87.05  0.000331231    1.636    0.389
       101  -9.5217    249.9527    134.2305   6.5698763406e+01   4.1540845536e+00    0.1667297    0.1154036  46.56 0.0008756936    1.635    0.389
       102 -10.2259    107.0279    133.2186   9.6269805994e+01   3.3711285688e+01    0.2597064    0.2155388 -52.91  0.001182864    1.165    0.142
       103  -9.7232     33.0621    133.5152   1.1638219930e+02   4.3767583386e+01    0.2255477    0.1464853 -82.89 0.0004955473    1.362    0.266
       104 -11.0849     37.2917    130.5301   1.1484631156e+02   4.4077818208e+01    0.3385089    0.2700699  21.36 0.0006533112    1.596    0.373
       105  -9.7727     79.5077    133.0007   1.0368020108e+02   3.8277423418e+01    0.2134599    0.1298468 -59.63 0.0003731503    1.501    0.334
       106 -10.1315     55.1579    132.9047   1.1033849112e+02   4.1557350036e+01    0.3197901    0.1689804  43.82  0.001526415    2.020    0.505
       107 -10.2674     73.9844    129.3063   1.0450905101e+02   3.9977883247e+01    0.2484771     0.188969 -63.02 0.0006687011    1.185    0.156
       108 -11.2627      2.1904    124.4402   1.2346330608e+02   4.8305700887e+01    0.4801278    0.1289469 -67.62  0.001211418    2.531    0.605
       109 -11.3912     10.4443    122.7047   1.2110798585e+02   4.8177295739e+01    0.2552718    0.2133332  77.68 0.0008311204    1.203    0.169
       110  -9.3875     81.9856    125.0566   1.0142906915e+02   3.9835237171e+01    0.1796456    0.1513411 -63.40 0.0006775467    1.084    0.078
       111  -9.2979     33.4430    125.5790   1.1520497596e+02   4.5640770520e+01    0.1289976    0.1059915 -75.61 8.118831e-05    1.007    0.007
       112  -9.7904    219.6270    124.2390   6.8501973300e+01   1.1851547339e+01    0.2081469    0.1321016 -27.58  0.000583284    1.577    0.366
       113  -9.7859    226.0030    124.0000   6.7320050842e+01   1.0563103605e+01    0.2217732   0.08391916  50.04 0.0007320925    2.870    0.652
       114 -10.1998     21.1412    121.1904   1.1801524710e+02   4.7750187228e+01    0.1906555    0.1438087 -52.84 0.0008560904    1.315    0.240
       115  -9.7257    250.0182    118.7634   6.2191706822e+01   6.6448305330e+00    0.1656124    0.1186056  49.88 0.0008743645    1.598    0.374
       116  -9.5723    220.2773    116.9671   6.6632412412e+01   1.3007481679e+01    0.2149982    0.1780111 -35.78 0.0004512319    1.118    0.106
       117 -10.4513     85.9805    116.6933   9.8497821343e+01   4.1236728203e+01    0.2483726    0.1916429 -56.30 0.0005755921    1.190    0.160
       118 -11.4288     16.8210    115.3608   1.1847220429e+02   4.9463008209e+01    0.2454676    0.2218359 -69.68 0.0003321088    1.170    0.146
       119 -12.6185     15.7583    108.7051   1.1789293471e+02   5.1114893223e+01    0.6157452     0.510285 -84.14  0.002449286    1.116    0.104
       120 -10.7462     14.3549    103.3531   1.1756354373e+02   5.2473421111e+01    0.2844677    0.1920696 -17.79  0.001202323    2.001    0.500
       121  -9.2422    214.1675    115.6127   6.7390050281e+01   1.4571212721e+01    0.2008046    0.1377477  37.48 0.0005801665    1.607    0.378
       122 -10.5905    249.0027    112.3217   6.0863169504e+01   7.8890813672e+00    0.1896577    0.1776979 -30.68  0.000734915    1.084    0.078
       123 -13.2950     55.2332    109.9925   1.0623760486e+02   4.7124479299e+01    0.3236099    0.2878903 -55.79 0.0006664933    1.075    0.070
       124 -12.2761      3.2014    106.4026   1.2125106718e+02   5.2441960110e+01    0.4775513    0.2896697 -70.09  0.002928445    1.239    0.193
       125 -12.3424      2.9202    100.2027   1.2057468856e+02   5.3897160848e+01    0.2933213    0.2175266 -87.23 0.0005056203    1.216    0.177
       126 -10.8009     34.6100    103.2330   1.1132316670e+02   5.0910119079e+01    0.3827366    0.2460508 -21.22  0.001996121    2.145    0.534
       127  -8.9440    207.3324    110.7153   6.7419545080e+01   1.6975691558e+01    0.1501391    0.1185283 -73.90 0.0003839605    1.617    0.382
       128  -9.7491     91.3399    108.1467   9.4929679050e+01   4.2402876179e+01    0.2347132    0.1716777 -39.07 0.0006580396    1.393    0.282
       129 -10.9262     23.0776    107.2964   1.1551938371e+02   5.0910679696e+01    0.3010516    0.1958385  43.15  0.001603026    1.792    0.442
       130  -9.0905    103.6663    107.7317   9.1231216645e+01   4.0335926319e+01    0.1483942    0.1188307  -9.40 0.0002253082    1.588    0.370
       131 -10.5123     62.2482    107.1275   1.0350162524e+02   4.6951891649e+01    0.2479336    0.2076899  41.93 0.0006871258    1.340    0.254
       132 -10.9247    243.6719    104.6871   5.9876759640e+01   1.0204425847e+01    0.2407473    0.2039859  -9.11 0.0005895497    1.254    0.203
       133  -9.7687    223.1727    103.8945   6.2925872039e+01   1.4678280916e+01    0.2215767    0.1876734 -52.20 0.0004468548    1.194    0.162
       134  -9.4464     93.3695    103.8788   9.3262626575e+01   4.3062304229e+01    0.2126326    0.1272101 -42.37 0.0005915045    1.644    0.392
       135 -10.1699    119.5813    102.1524   8.5262029142e+01   3.8525319359e+01    0.3168333    0.1861892 -33.80  0.001267883    1.925    0.481
       136 -10.8978    247.6578    102.1296   5.8687848248e+01   9.8128595992e+00    0.2273835    0.1984881  83.56  0.001002214    1.382    0.276
       137 -11.0448    161.7988     98.8739   7.3659209341e+01   2.9851784283e+01    0.3517467    0.2237233 -27.19  0.001309754    1.804    0.446
       138 -10.6999    147.4902     97.4600   7.6655473289e+01   3.3466266078e+01    0.2376386     0.153392  58.59 0.0007420085    1.756    0.431
       139 -11.0473     62.1142     98.6649   1.0166863014e+02   4.8993303743e+01    0.3165577    0.3113642  60.35 0.0009507922    1.150    0.131
       140 -11.1425     66.9331     97.4344   9.9839304775e+01   4.8647574486e+01    0.5043142    0.1823207 -53.34  0.001700554    2.357    0.576
       141 -11.1052     20.4828     96.9486   1.1468882006e+02   5.3555317395e+01    0.4755512      0.21887 -73.50  0.002280418    1.942    0.485
       142 -10.2165     40.8011     97.0726   1.0819215013e+02   5.1791894689e+01    0.2449643    0.1476605 -49.46 0.0007243773    1.448    0.310
       143  -9.9044     57.5052     96.5008   1.0265476083e+02   5.0084333215e+01    0.1838239     0.128944  45.71 0.0009641454    1.653    0.395
       144 -11.1869     93.9087     93.1626   9.0255123753e+01   4.5436780910e+01    0.7928802    0.4075772 -29.41  0.002786962    2.983    0.665
       145 -10.0433    250.1238     95.8386   5.6863255173e+01   1.0326677251e+01    0.2126236    0.1719526 -52.59 0.0006080938    1.223    0.183
       146 -10.2720     31.4940     93.5335   1.1053057596e+02   5.3488590574e+01    0.2528971    0.1658194 -77.30 0.0006902802    1.498    0.332
       147 -10.8580     25.7686     91.3767   1.1200815978e+02   5.4465686914e+01    0.2839488    0.2268522 -14.12  0.001075714    1.521    0.342
       148 -10.8342     22.9410     87.1117   1.1215617047e+02   5.5676186617e+01    0.3117586     0.169906 -56.46  0.001303705    1.429    0.300
       149 -12.2090     35.4335    108.2463   1.1194242019e+02   4.9632929450e+01    0.4781647    0.3115866 -89.14   0.00105036    1.667    0.400
       150 -11.7298    158.4622     89.8954   7.1878616581e+01   3.2430502700e+01    0.5004092     0.345747 -14.46  0.002075036    1.931    0.482
       151 -10.9300    162.5157     92.0410   7.1570407883e+01   3.1042995061e+01    0.3229704    0.2362934 -16.83 0.0004305435    1.665    0.399
       152 -12.0583    164.8269     84.6960   6.8938660812e+01   3.1905909161e+01    0.8197318    0.6305655  71.98  0.002688642    1.513    0.339
       153 -11.0798    103.3183     91.4744   8.6938830874e+01   4.4101175816e+01    0.4621609    0.3061229  72.07  0.001853567    2.506    0.601
       154 -10.4535     47.5661     91.8200   1.0485944208e+02   5.2333779979e+01    0.2812225    0.1606616 -42.97  0.001114749    1.661    0.398
       155  -9.3324     36.3729     92.2959   1.0867884949e+02   5.3344608366e+01    0.1370202   0.08479764 -35.88 0.0007026927    1.738    0.425
       156 -11.1688     11.0667     90.9958   1.1674534379e+02   5.5570626453e+01     0.307339    0.2240578  14.52  0.001151929    1.768    0.434
       157  -9.6327     10.3157     99.0617   1.1818250695e+02   5.3738343431e+01    0.1769784     0.122318 -70.99 0.0004062012    1.127    0.113
       158  -9.5882     46.3001     88.3312   1.0449515504e+02   5.3286355477e+01    0.1403879   0.08802514 -36.58 0.0007032177    1.647    0.393
       159 -11.1045      4.5419     85.6825   1.1804923153e+02   5.7159417091e+01    0.3228678    0.2064506 -67.21  0.002017896    1.185    0.156
       160 -10.1306    112.5650     86.4732   8.2762408347e+01   4.3381919110e+01    0.1526693    0.1438337 -29.21 -5.508417e-05    1.022    0.021
       161 -11.1238     67.1282     85.0392   9.6630544663e+01   5.1497070803e+01    0.3704919     0.214478 -39.56  0.001168077    1.687    0.407
       162 -10.8978     87.8920     83.2568   8.9312767809e+01   4.8688705435e+01    0.3260089    0.2229941 -61.49 0.0004572742    1.648    0.393
       163 -10.5261     44.7859     83.4305   1.0386878891e+02   5.4581766593e+01    0.3892173    0.2154209  40.29   0.00193236    2.148    0.534
       164 -12.1098      6.1451     75.3282   1.1580216203e+02   5.9428132703e+01     0.835474    0.5876405 -34.20  0.005489053    1.462    0.316
       165 -12.1697     16.4703     67.8977   1.1055833994e+02   6.0490726235e+01    0.3879633    0.2197891 -58.69  0.002218337    1.360    0.265
       166 -11.5334     20.6562     65.0331   1.0830593686e+02   6.0838711566e+01    0.7052612    0.4131497  84.40  0.003245801    3.114    0.679
       167 -11.4349     12.9930     81.3435   1.1448543320e+02   5.7677700925e+01    0.3209589    0.1937422 -85.06  0.001136195    1.782    0.439
       168 -11.0016     12.9528     77.7678   1.1384449819e+02   5.8494869042e+01    0.2491716    0.1903919 -49.24 0.0006709624    1.139    0.122
       169  -9.1933     58.2953     93.3280   1.0165947410e+02   5.0735313938e+01     0.142912   0.09498589 -33.94 0.0002536725    1.630    0.386
       170  -9.7630    132.9022     83.1945   7.6166216573e+01   3.9708633237e+01    0.2267256    0.2090946 -76.31 0.0005994053    1.198    0.165
       171  -9.4746    117.5474     83.5296   8.0449820845e+01   4.2977791225e+01    0.1528966    0.1458953 -26.98 0.0001321295    1.007    0.007
       172 -11.0490     75.7004     81.9347   9.2903852020e+01   5.0949319539e+01    0.4078743    0.2324457 -66.25  0.001677208    2.376    0.579
       173 -10.2893     30.5091     81.9623   1.0851786931e+02   5.6268074217e+01    0.2118872    0.1601222 -29.82 0.0006369646    1.396    0.284
       174  -9.4772    134.6308     91.7878   7.8277078553e+01   3.7556461090e+01    0.2325716    0.1423766 -50.77 0.0009518799    1.706    0.414
       175  -9.3737    146.5042     81.5534   7.2237105420e+01   3.6897448631e+01    0.1555093    0.1512114 -65.68 0.0001322554    1.061    0.057
       176  -9.1415     20.6833     81.6566   1.1188352687e+02   5.7099599376e+01    0.1308687    0.1056028 -62.54 0.0008446892    1.047    0.045
       177 -11.5886     21.2951     77.8064   1.1089660108e+02   5.7936180754e+01    0.4377813    0.3277188 -48.42  0.001745973    1.134    0.119
       178 -10.3884     54.0604     74.5035   9.8287425190e+01   5.5557257330e+01    0.2240886    0.1673872 -59.82 0.0004658331    1.301    0.231
       179 -12.0586     60.0547     77.2969   9.6938593472e+01   5.4187536213e+01    0.6325029    0.4143326 -65.99  0.002082599    1.715    0.417
       180  -9.2518    196.2788     82.3096   6.1981479080e+01   2.4683758525e+01    0.1492349    0.1200639   9.92 0.0003102536    1.559    0.359
       181 -11.1214     92.2418     77.7954   8.6281392627e+01   4.9110690109e+01    0.4025693    0.2148045  27.62  0.001599682    2.434    0.589
       182 -10.4420    138.0918     74.7009   7.2202862575e+01   4.0185844614e+01    0.3603011    0.2728446 -76.48  0.001605269    1.807    0.446
       183  -9.9803     49.2014     76.3514   1.0053078338e+02   5.5711660148e+01    0.2070892    0.1634669 -39.58 0.0003184184    1.130    0.115
       184 -12.0721     44.7561     75.1993   1.0182944987e+02   5.6455507223e+01    0.2215043    0.2122995 -30.56 0.0002817814    1.151    0.131
       185 -10.4393    109.0287     75.0551   8.0266893053e+01   4.6475351374e+01    0.2334105    0.2247548 -11.85 0.0008471113    1.025    0.025
       186  -9.7352    145.4993     74.0314   7.0170137283e+01   3.8567987495e+01    0.2437975    0.1515214 -37.40   0.00103276    1.589    0.371
       187 -12.0961    102.6660     72.4788   8.1348244227e+01   4.8262903636e+01    0.4680457    0.3000352 -36.85   0.00051879    1.509    0.337
       188 -11.4212    150.1779     71.6785   6.8331103750e+01   3.7879262307e+01     0.417947     0.255936 -43.15 0.0003885897    1.634    0.388
       189 -11.1556     77.3158     71.1733   8.9129199128e+01   5.3031615295e+01    0.3553036    0.3165762  46.06  0.001784148    1.293    0.227
       190 -10.7139     37.1746     69.3933   1.0310790921e+02   5.8508995235e+01    0.4210844    0.2568811 -71.98  0.002137643    1.930    0.482
       191  -9.3342    128.8042     71.6222   7.3620759960e+01   4.2901881044e+01     0.196632     0.147143  59.62 0.0002339051    1.485    0.327
       192 -10.5117    167.7381     70.0011   6.3966760004e+01   3.3866929066e+01    0.2441184    0.2143184  56.77 0.0004623881    1.149    0.130
       193 -10.6935     68.7427     68.2480   9.1186982214e+01   5.4954326061e+01    0.4722319     0.163306 -46.89  0.001199421    2.543    0.607
       194 -11.7797     62.5317     71.5915   9.4417842221e+01   5.5113078163e+01    0.3435158    0.2485278 -37.36    0.0015723    1.252    0.201
       195 -10.8332     50.5356     68.3156   9.7818314500e+01   5.7331230732e+01     0.321401    0.1828131 -38.00 0.0006052505    1.642    0.391
       196 -10.5645     51.0424     63.5122   9.6199894695e+01   5.8299863051e+01    0.3345841    0.1586093 -45.21 0.0008950565    1.784    0.440
       197  -9.3426    194.6902     69.6881   5.8775336872e+01   2.7224768679e+01     0.151014    0.1184524  18.69 0.0004826738    1.626    0.385
       198  -9.5135    144.4835     69.5130   6.8994261687e+01   3.9641988223e+01     0.154304    0.1485732   6.45 -9.999714e-06    1.048    0.046
       199 -11.8310     94.3209     67.4085   8.2286621186e+01   5.0871278484e+01    0.5980158    0.2746361 -38.54  0.002367491    2.115    0.527
       200  -9.4296    140.6040     68.7248   6.9682860637e+01   4.0708406893e+01    0.1625229    0.1172359  21.07 0.0006989832    1.744    0.426
       201  -9.2762    123.2433     68.3397   7.4045275577e+01   4.4767758779e+01    0.1509005    0.1164832  -4.44 0.0004339026    1.558    0.358
       202  -9.4910     31.3290     68.3236   1.0503587478e+02   5.9275686620e+01    0.2285338    0.1221123 -48.63 0.0008154872    1.495    0.331
       203  -9.7689     30.9987     65.4870   1.0443325892e+02   5.9927071755e+01    0.1611843     0.147663 -31.32 0.0004075425    1.152    0.132
       204 -10.2221      6.4115     67.8362   1.1431568680e+02   6.1087293373e+01    0.1986752    0.1311328 -44.57 0.0003983594    1.298    0.229
       205 -11.9515      3.0919     64.5538   1.1492160075e+02   6.1973407090e+01     0.352444    0.2456282 -60.78  0.001217315    1.089    0.081
       206  -9.8366     60.3362     65.8547   9.3463666242e+01   5.6633226019e+01    0.2156362    0.1043672 -42.22 0.0009553179    1.839    0.456
       207 -10.6542     77.0297     63.9924   8.6902124424e+01   5.4559752882e+01    0.3772069    0.2370171 -47.30  0.001519874    1.512    0.338
       208  -9.5821    222.6972     62.9432   5.2616295445e+01   2.1547527341e+01     0.203061    0.1612089 -44.83 0.0003481202    1.154    0.133
       209 -12.2099     87.1320     56.2709   8.0790561886e+01   5.4336871038e+01    0.9232728    0.4556634 -23.69 0.0002840307    3.030    0.670
       210 -10.9151     87.4074     52.2941   7.9259356592e+01   5.5016883415e+01    0.2911557    0.2194998 -41.85   0.00102349    1.323    0.244
       211 -11.3247    201.2838     61.8367   5.5503614574e+01   2.6868438556e+01    0.2611364    0.2384842  61.01 0.0003133654    1.134    0.118
       212  -9.3747    189.8439     62.1900   5.7495124896e+01   2.9648893642e+01    0.1970669    0.1743381  15.24  0.001023677    1.311    0.237
       213  -9.7582    155.3095     61.4596   6.3967674686e+01   3.8413330872e+01    0.3283836    0.1976477 -17.44  0.001297392    2.184    0.542
       214 -10.4033     11.4582     61.0531   1.1096044511e+02   6.2300102385e+01    0.3978195     0.109475 -55.53  0.001747339    2.360    0.576
       215 -11.4185     63.8146     59.9794   9.0291527133e+01   5.7370300983e+01    0.3735906     0.196968  33.08  0.001472463    2.085    0.520
       216 -11.3780     57.9049     59.2724   9.2261964926e+01   5.8321078672e+01    0.3384791    0.2984023  -2.50  0.002098407    1.158    0.136
       217  -9.8442     31.4810     44.9963   9.8178400482e+01   6.4157279135e+01    0.2062763    0.1526282 -17.13 0.0007871009    1.314    0.239
       218 -10.6058     45.0129     49.7426   9.4117685440e+01   6.1818755142e+01    0.4486904    0.1694189 -46.73  0.001726619    2.199    0.545
       219 -11.1417     29.7390     60.8121   1.0367805310e+02   6.1047391493e+01    0.6169582    0.2787603   9.27  0.002702944    3.308    0.698
       220 -12.9725     37.4121     50.6819   9.7548735333e+01   6.2447738637e+01    0.7854939    0.5739237 -20.67  0.003720857    1.333    0.250
       221  -9.9108    102.8255     60.3723   7.7232656451e+01   5.0580386768e+01    0.2511639    0.1702585  26.15 0.0003594906    1.683    0.406
       222  -9.5906     99.5161     60.5042   7.8297363450e+01   5.1212759506e+01    0.2121601    0.1370675  31.78 -0.0001065907    1.681    0.405
       223 -11.2817      5.3747     58.7898   1.1285687151e+02   6.3117733569e+01    0.3000489    0.1605008 -62.27 0.0001685809    1.436    0.304
       224 -10.9853      5.7895     51.6737   1.1106945974e+02   6.4615295064e+01    0.3520255    0.1725886 -46.10  0.001711021    1.549    0.354
       225 -10.0685      4.0904     47.1660   1.1068667824e+02   6.5642477490e+01    0.1899756    0.1170613 -41.03 0.0008621477    1.309    0.236
       226 -10.2291     47.7905     57.9918   9.5729992808e+01   5.9834163996e+01    0.2946895    0.1807913 -65.45 0.0007279148    2.090    0.522
       227 -10.4273     43.9445     57.0046   9.6928498078e+01   6.0470295025e+01    0.2209182    0.1776356  -1.41 0.0003218705    1.327    0.246
       228 -10.3697    146.9835     56.6935   6.4281110988e+01   4.1254833167e+01    0.2691715    0.2152207 -45.46 0.0003634868    1.290    0.225
       229 -10.2518    129.7695     56.2816   6.8276115351e+01   4.5439302594e+01    0.2822101    0.1969822 -24.11 0.0005677251    1.522    0.343
       230 -11.2934     75.3140     56.1044   8.4795423328e+01   5.6391151076e+01    0.2313822    0.2094996 -26.63 0.0002917922    1.066    0.062
       231 -10.1924    122.9464     56.1549   7.0010360588e+01   4.7026015091e+01    0.2678848    0.1927702 -32.40  0.001287884    1.381    0.276
       232 -10.7521    100.2775     55.3365   7.6235803439e+01   5.2009113211e+01     0.314782    0.1933982  38.09  0.001452275    1.675    0.403
       233 -10.3611     61.9496     53.9128   8.8916195762e+01   5.8839763957e+01    0.3178488    0.2423252 -36.06  0.001629258    1.149    0.129
       234 -10.3132    151.8987     51.8914   6.1632923838e+01   4.0812273510e+01    0.2213343    0.2124194 -58.40  0.001212761    1.075    0.070
       235 -11.0950    151.7539     47.9053   6.0360999651e+01   4.1460939152e+01    0.3111077    0.2610132   9.91 0.0004090329    1.350    0.259
       236 -10.0992    156.0294     46.9279   5.9161371987e+01   4.0537840998e+01    0.3400118    0.2332661  14.38   0.00129832    2.018    0.504
       237 -11.9694    128.4605     50.2417   6.6522369851e+01   4.6739242954e+01    0.4927176    0.3506545   1.50 0.0006383298    1.798    0.444
       238 -11.2244     70.0661     50.2567   8.4579105895e+01   5.8330785812e+01    0.4467599     0.355976 -80.63  0.002235755    2.077    0.519
       239  -9.6007     16.8666     51.8244   1.0647496870e+02   6.3932148912e+01    0.1441666    0.1277425 -67.26            0    1.280    0.219
       240 -10.7455     12.3585     51.1306   1.0818365032e+02   6.4364782795e+01    0.2072561    0.1744065 -60.67  0.000425712    1.201    0.167
       241 -11.4556     11.4350     44.4166   1.0675899125e+02   6.5807509219e+01    0.4598981    0.2065713 -41.96  0.001678239    1.751    0.429
       242 -10.5731      6.9722     41.3052   1.0786805146e+02   6.6694179388e+01    0.3020024    0.1142038 -55.37 0.0006550496    1.899    0.473
       243 -11.4051     78.1546     48.4876   8.1013834124e+01   5.7333377500e+01    0.4550339    0.2492225 -28.58  0.002055495    1.906    0.475
       244 -11.2796    104.4736     49.2465   7.2748943151e+01   5.2211263459e+01    0.3496741    0.3352409 -36.39   0.00203415    1.147    0.128
       245  -9.8479     53.3028     49.8835   9.0840360194e+01   6.0786902021e+01    0.2025792    0.1782653  32.34 0.0009251807    1.349    0.258
       246  -9.4235     95.0044     49.0352   7.5582347549e+01   5.4155515425e+01    0.2343799    0.1650421  11.46  0.001126843    1.704    0.413
       247  -9.6330    166.9389     48.5334   5.7543607609e+01   3.7545202539e+01    0.2209142    0.1433393  59.09 0.0004162636    1.506    0.336
       248 -10.5202    120.2244     46.8110   6.7432067288e+01   4.9180329833e+01    0.3586549    0.2549778   2.01  0.001171448    1.754    0.430
       249 -10.3724    124.5357     42.0443   6.4598473985e+01   4.8921096524e+01    0.3096928    0.2189941  16.15 0.0003167758    1.710    0.415
       250 -10.6379     85.8328     46.1168   7.7475030422e+01   5.6391641024e+01    0.3107597    0.1734875 -29.65  0.000832193    1.794    0.443
       251 -10.1042    142.5407     45.5412   6.1563416710e+01   4.4093980924e+01    0.2866233    0.2361026 -71.65 0.0008272293    1.448    0.310
       252 -10.2786     91.6762     42.3410   7.4099390162e+01   5.5919969115e+01    0.4372149    0.1927531 -38.95  0.001800956    2.223    0.550
       253 -10.3824     89.2946     39.0286   7.3570813817e+01   5.6908534222e+01    0.3166234    0.1958772 -33.04 0.0008914085    1.559    0.358
       254  -9.7062     51.2036     44.8369   8.9858171072e+01   6.2017432708e+01    0.1846542    0.1425262 -30.33  0.000382035    1.096    0.087
       255 -11.0113     51.6047     40.1556   8.7926942044e+01   6.2827739688e+01    0.3768171    0.2418984 -42.49  0.001313091    1.417    0.294
       256  -9.3328    175.0104     43.9977   5.4694140054e+01   3.6155231359e+01    0.1799329    0.1641481 -38.76 0.0009803153    1.114    0.102
       257  -9.4334    167.4664     43.4924   5.5873587304e+01   3.8146392223e+01    0.1459318    0.1415068  83.59 0.0001398306    1.008    0.008
       258 -10.1928    163.0771     42.3007   5.6306857030e+01   3.9430114247e+01    0.2024736    0.1821164  68.78 0.0003628955    1.091    0.083
       259 -11.4325     68.7482     39.5086   8.0947044680e+01   6.0450679323e+01    0.5379913    0.4119046  -4.07  0.001583096    1.295    0.228
       260 -10.8475     23.3336     41.0560   1.0044154868e+02   6.5641254459e+01    0.2650441    0.1996528  31.98 0.0007890486    1.671    0.402
       261 -11.1153     20.5973     37.7371   1.0056975634e+02   6.6504630808e+01     0.283318    0.1679089 -42.22 0.0008656378    1.306    0.234
       262 -12.2392     27.8304     37.8921   9.7339420637e+01   6.5868407570e+01     0.681637    0.4027749 -17.47  0.001753911    1.843    0.458
       263 -11.9925     24.3481     35.0636   9.7915412115e+01   6.6709255223e+01    0.3728604    0.2133127  -0.28 0.0004002701    2.106    0.525
       264  -9.4852    110.2801     41.4635   6.8169668503e+01   5.2221967569e+01    0.1928343    0.1399591  63.45 0.0009409255    1.646    0.392
       265 -10.7769    101.8331     23.8415   6.3619119654e+01   5.6498084527e+01    0.3852503    0.2338447 -12.84  0.001846836    1.842    0.457
       266 -10.1723     96.4818     40.5285   7.1877922925e+01   5.5260397430e+01    0.3992325    0.1774331 -39.02  0.001636598    2.248    0.555
       267 -10.8699    100.6970     38.0359   6.9625701676e+01   5.4781740964e+01    0.5470961    0.3312975  39.15  0.001552118    1.627    0.386
       268 -11.3386    105.4704     34.4553   6.6838417580e+01   5.4297217969e+01    0.3197673      0.27812  75.85 0.0006737657    1.450    0.310
       269 -11.2632     98.2763     31.6108   6.7800714468e+01   5.6218912672e+01    0.5630859    0.3216352  16.70  0.002331249    2.538    0.606
       270 -11.2810    101.2121     28.3911   6.5643991879e+01   5.6043276546e+01    0.3304131    0.2497686 -37.72 0.0004470204    1.430    0.301
       271  -9.0543     62.2695     40.7182   8.3893296117e+01   6.1240749016e+01    0.1765124   0.09802908 -39.29 0.0002132857    1.632    0.387
       272  -9.3367     61.7276     37.6847   8.2896631565e+01   6.1845919079e+01    0.1762523    0.1120258 -42.32 0.0002075888    1.536    0.349
       273 -10.3340     42.8781     37.4493   9.0542152144e+01   6.4395728204e+01    0.3064722    0.1971793 -59.36  0.001613116    2.102    0.524
       274  -9.7478    112.9888     46.2701   6.9199603492e+01   5.0879736624e+01    0.2051842    0.1776877  38.75 0.0005912142    1.135    0.119
       275 -12.0651     81.5874     35.5921   7.4760703240e+01   5.8888584488e+01    0.6924362    0.3801685 -24.41  0.002926398    1.909    0.476
       276 -11.1922     78.8415     31.7559   7.4121379656e+01   5.9972768221e+01    0.6047974    0.3229418   0.65  0.002127484    3.913    0.744
       277 -10.6373    181.9152     37.0581   5.1479039440e+01   3.5354637442e+01    0.3328141    0.1817774 -77.89  0.001211288    2.967    0.663
       278  -9.9906    165.1917     36.6794   5.4141380521e+01   3.9666652856e+01    0.3004421    0.1371714  71.72  0.001084318    2.655    0.623
       279  -8.7866    127.2966     36.3492   6.1855989891e+01   4.9092890204e+01    0.1520378    0.1065495  19.76 0.0007029763    1.681    0.405
       280 -11.1127     57.1708     34.6497   8.3466812169e+01   6.3026709462e+01    0.3645546    0.2804511  38.03  0.001590845    1.509    0.337
       281 -11.2213     16.5031     30.0454   9.9805413154e+01   6.8274811397e+01    0.4576699    0.3791721 -67.38  0.003102997    1.590    0.371
       282 -10.2053     21.1932     28.0550   9.6796624560e+01   6.8269440048e+01    0.3034623    0.1280126 -43.58  0.001493142    1.831    0.454
       283 -10.1519     24.6413     26.9894   9.4717077678e+01   6.8159771602e+01    0.1858826    0.1744275   6.34 0.0004047718    1.383    0.277
       284 -10.6703     12.9938     33.9773   1.0284626673e+02   6.7777654037e+01    0.2078756    0.1638356 -15.93 0.0003262937    1.239    0.193
       285 -10.9654      8.7677     33.0166   1.0453927059e+02   6.8229446047e+01    0.4382424    0.3033915 -77.42  0.002690344    2.038    0.509
       286  -9.2225    155.4737     35.4889   5.5538579348e+01   4.2289679265e+01    0.1471641    0.1352775  38.77 5.565584e-05    1.093    0.085
       287  -9.2222    110.8613     34.8322   6.5486884643e+01   5.3068491920e+01    0.1812325    0.1661712 -66.94 0.0004555468    1.333    0.250
       288  -9.2422    185.3323     35.6927   5.0554293046e+01   3.4667508756e+01    0.1525734    0.1039915 -67.48  0.000704023    1.666    0.400
       289 -10.9439    192.7733     33.0931   4.8729550284e+01   3.3124238148e+01    0.2407551    0.2082493  64.55 0.0002537944    1.143    0.125
       290 -10.8887    247.6733     33.3300   4.2484191084e+01   2.0038097308e+01    0.2724656    0.1697969  81.57  0.001450602    1.693    0.409
       291  -9.4364    232.6725     33.7025   4.4065285288e+01   2.3365197203e+01    0.1274528    0.1030345  33.13 0.0002721183    1.633    0.388
       292  -9.5602     66.1010     33.1637   7.9351337523e+01   6.1919190517e+01    0.1653182    0.1464752 -34.84 0.0003611974    1.276    0.216
       293 -11.3664    177.4998     31.3137   5.0448655540e+01   3.7226768726e+01    0.3424958    0.2197785 -37.47  0.001419892    1.562    0.360
       294  -9.8848    156.5336     31.7268   5.4107472856e+01   4.2511804974e+01    0.1862787    0.1339596 -42.57 0.0002956362    1.450    0.310
       295 -10.5634     49.3276     30.4400   8.4951924983e+01   6.4812352004e+01    0.4434366    0.2179246 -29.73  0.001716854    1.970    0.492
       296 -10.0163    144.9354     31.1291   5.6132475759e+01   4.5499476150e+01    0.2185081    0.1895621 -62.54  0.001050591    1.279    0.218
       297 -11.2973    139.4160     30.8129   5.7155984171e+01   4.6904740706e+01    0.2499648     0.224776  46.06 0.0002987982    1.051    0.049
       298  -9.9052    223.6670     30.3220   4.4190228367e+01   2.5904094076e+01    0.1482385   0.08985252 -63.38 0.0007049971    1.702    0.413
       299 -10.9914    112.0234     24.9267   6.1327031058e+01   5.4120001443e+01    0.2953675    0.1932185 -28.06 0.0004814595    1.563    0.360
       300 -12.1391    226.0037    246.1602   9.1325099295e+01  -7.9653210449e+00    0.5862525     0.323103   4.97  0.003123526    2.356    0.576
       301 -11.0491     61.1839     24.6718   7.7584752682e+01   6.4004625425e+01    0.6192886    0.2098496 -34.39  0.002505667    2.781    0.640
       302 -10.4449     59.4841     21.4626   7.6807586370e+01   6.4737612132e+01    0.1857643     0.166036 -20.41 0.0005883453    1.247    0.198
       303 -10.7786    232.1443     27.9358   4.2719601919e+01   2.4222603477e+01    0.2136643     0.173981 -85.02 0.0002584318    1.159    0.137
       304 -10.3217    151.9833     27.6671   5.3602239803e+01   4.4166920217e+01    0.2639354     0.189397 -57.79 0.0008219566    1.611    0.379
       305 -10.6141    214.9200     27.1355   4.4343961348e+01   2.8397360471e+01    0.2166548    0.1669732 -65.28 0.0005081348    1.225    0.184
       306 -11.5755     70.2910     26.0820   7.4744693691e+01   6.2308665884e+01    0.4053836    0.2135321  43.17  0.001994877    1.959    0.490
       307 -10.2662    242.9754     26.5061   4.1344074175e+01   2.1942459189e+01    0.1856046    0.1214801  75.95 0.0004392368    1.543    0.352
       308 -12.0378    237.3291     25.2721   4.1579412431e+01   2.3366000209e+01    0.2598457     0.215807 -59.06 0.0003642502    1.043    0.041
       309 -10.7773     10.0701     25.1885   1.0120686257e+02   6.9621654394e+01    0.2390762    0.1527007 -19.14 0.0007401909    1.461    0.315
       310  -9.9513      1.8802     25.2015   1.0535154767e+02   7.0098805808e+01    0.2803358    0.1209952 -42.21  0.001596296    1.673    0.402
       311 -10.7505    197.1694     24.8472   4.5838434499e+01   3.3047583470e+01    0.2213418    0.1989489 -78.74 0.0002950509    1.027    0.026
       312 -11.9228    233.1008    244.9964   8.9921001904e+01  -8.8316921273e+00    0.6378339    0.2539068 -27.97  0.003198376    2.887    0.654
       313 -10.3279    156.5011    241.5121   1.0327265447e+02   3.2759370483e+00    0.1225195   0.09944049  38.27 -3.94977e-05    1.016    0.015
       314 -10.7568     93.2683     23.2762   6.5865218103e+01   5.8365978677e+01    0.5590553    0.2971168  41.24  0.002650818    1.777    0.437
       315  -9.8588     88.6488    241.1618   1.1588171650e+02   1.3637302156e+01    0.1455608    0.1011422 -58.02 0.0008490145    1.769    0.435
       316  -9.9214    114.0085     20.2431   5.8987553704e+01   5.4227720097e+01    0.2314946    0.1868925 -36.68  0.001076696    1.360    0.265
       317  -9.1720     50.3251    240.3016   1.2264071227e+02   1.8811223748e+01   0.08949437   0.08741989 -54.51 0.0006130293    1.637    0.389
       318  -9.9807     34.0100     22.9995   8.8586335073e+01   6.7901761783e+01     0.179898    0.1354652 -16.93  0.001179908    1.093    0.085
       319 -10.1676     66.8035     21.6270   7.4054486091e+01   6.3529407333e+01    0.2183959    0.1628097  42.72  0.001286705    1.482    0.325
       320 -10.8341     29.4334     20.6375   8.9729532910e+01   6.8779329517e+01     0.257813    0.1454955 -30.57   0.00110377    1.485    0.327
       321 -10.2274    195.5414    238.6261   9.5613733426e+01  -2.4744740092e+00    0.2581878    0.1700332  20.10  0.001544996    1.467    0.319
       322 -10.6693     19.7802     15.5384   9.2286400738e+01   7.0546756100e+01     0.249619    0.1995678  23.75  0.001197001    1.534    0.348
       323  -9.5364    185.4329     21.4554   4.6397161616e+01   3.6401695197e+01    0.1384506    0.1271079 -85.80 7.812236e-05    1.015    0.015
       324  -9.9979     45.5215     20.5057   8.2218997304e+01   6.6896470331e+01    0.2278842    0.1553898 -30.19 0.0006690116    1.284    0.221
       325 -10.1183     41.8148     19.6661   8.3485683244e+01   6.7505563316e+01    0.2531526    0.1380892  29.41  0.001284778    1.898    0.473
       326 -12.0342     30.0307    233.6913   1.2571652565e+02   2.2355952075e+01    0.4026406    0.1884423 -89.37  0.002396789    1.971    0.493
       327 -10.2033    159.9864    235.9929   1.0187971247e+02   3.5607405539e+00    0.1887212    0.1386201  12.36 0.0005885321    1.656    0.396
       328  -9.6420    151.0094     18.7526   5.0792744274e+01   4.5441980868e+01    0.1957622    0.1664633  60.26 0.0003536881    1.088    0.081
       329  -9.8975    107.9264     17.9103   5.9576117859e+01   5.5866172242e+01    0.2581258    0.1454064  41.39    0.0012317    1.655    0.396
       330 -10.2944    215.4067     17.0152   4.1698939778e+01   2.9485038120e+01    0.4813471   0.08682792  61.43  0.001518989    4.223    0.763
       331 -10.7919    164.9958     16.5087   4.7801392776e+01   4.2144646091e+01    0.2705653    0.2081322 -30.55   0.00147167    1.382    0.276
       332 -12.0640     37.7926    242.6111   1.2492087344e+02   1.9869043832e+01    0.5688139     0.319154 -82.34  0.003828384    1.664    0.399
       333  -9.9984    177.2058    235.0351   9.8489273281e+01   9.3261124643e-01    0.1910905     0.148527  14.52 0.0009250737    1.320    0.242
       334 -11.1628    153.7604    233.7134   1.0275800946e+02   4.9215142345e+00     0.224601    0.1733711 -37.87 0.0008230137    1.584    0.369
       335 -10.6892     35.5342     15.0535   8.4226009125e+01   6.8975827942e+01    0.2374204    0.1560507   4.01  0.000373189    1.509    0.337
       336 -10.3991    171.3125     15.3257   4.6512988015e+01   4.0665525082e+01     0.143671   0.09867222  36.59 0.0004047764    1.662    0.398
       337  -9.9084    167.3655    233.7857   1.0017123330e+02   2.7066681195e+00    0.1531113    0.1149369 -29.54 0.0008751018    1.620    0.383
       338 -10.0677     50.2174     15.3063   7.7731285622e+01   6.6998004538e+01    0.2794336    0.1428808  43.06  0.001436785    2.236    0.553
       339 -10.4184     86.5497    233.2142   1.1553280935e+02   1.5348548650e+01    0.2336068    0.1128787  50.52 0.0008726022    1.700    0.412
       340  -8.9899     39.2849     15.3278   8.2599906878e+01   6.8475653837e+01     0.125066   0.07785241  -9.83 0.0003732443    1.608    0.378
       341 -10.1607    109.6391    243.2064   1.1222363722e+02   1.0250819986e+01    0.2582887    0.1551682  65.01  0.001134951    1.748    0.428
       342  -9.9600     24.2274    232.2962   1.2662417650e+02   2.3238126359e+01    0.1686854    0.1364267  81.41  0.000657652    1.231    0.187
       343 -12.0068     74.2505    239.1426   1.1832034790e+02   1.5970289381e+01    0.5806752    0.3508176 -60.74  0.003645484    1.941    0.485
       344 -10.7699     26.5832     14.0845   8.8141200039e+01   7.0120912473e+01    0.1864567    0.1358729  -4.42  0.001256877    1.214    0.176
       345  -9.5756     15.2117     14.1553   9.4061206564e+01   7.1166164680e+01    0.1401553    0.1158725 -37.60 0.0003987909    1.312    0.238
       346  -9.8259     79.9500    231.5046   1.1660887406e+02   1.6582221251e+01    0.1763822   0.09701904  44.39 0.0004854033    1.534    0.348
       347 -10.0661    215.6378    194.8385   8.4447513176e+01   6.0043648518e-01    0.2057138    0.1509545  -9.18 0.0005623826    1.397    0.284
       348 -11.5872      5.2765    226.0531   1.2948927385e+02   2.6294565537e+01    0.4424213    0.1996361  86.44  0.002745716    1.818    0.450
       349 -10.1114    190.5999    226.9822   9.4750735413e+01  -5.4379562171e-02    0.3040228    0.1213296 -45.28  0.001358986    3.051    0.672
       350  -9.6623      1.8074     13.4318   1.0104274248e+02   7.2226997253e+01    0.2436944    0.1069806  -8.15  0.001245323    2.910    0.656
       351  -9.9812    248.7825    227.4198   8.4376234518e+01  -8.9791181806e+00    0.2017484    0.1197447  -4.57 0.0008360951    1.740    0.425
       352  -9.7101    129.9135    226.7206   1.0646814912e+02   9.9392211124e+00      0.28493    0.1239324  56.95  0.001156178    2.991    0.666
       353 -10.8999    120.1489    226.4971   1.0835599103e+02   1.1532062952e+01    0.1979999    0.1490032  65.57 0.0006010128    1.303    0.232
       354  -9.7862     88.1556    227.1553   1.1464168890e+02   1.6235084606e+01    0.1726315    0.1185744  66.29  0.001020727    1.304    0.233
       355 -10.3375     66.3990    226.1998   1.1867691849e+02   1.9399167782e+01    0.2653166     0.135866  47.82 0.0009877036    1.608    0.378
       356  -9.9977     26.2448    224.9749   1.2586725299e+02   2.4400082327e+01    0.1592518    0.1105981 -56.81 0.0008779763    1.976    0.494
       357 -10.4579    147.5996    245.2176   1.0540328960e+02   4.1150145043e+00    0.1483535     0.113061 -33.95 0.0009568983    1.714    0.417
       358 -10.1597    123.4407    222.2796   1.0718466237e+02   1.1765253162e+01    0.2018896    0.1218818 -52.70 0.0007030336    1.920    0.479
       359 -10.5165     13.5637    222.1462   1.2790752692e+02   2.6236878473e+01    0.1836752    0.1111054 -79.78  0.001277774    1.477    0.323
       360 -10.1258    141.3844    221.2618   1.0347692717e+02   9.0192963461e+00    0.2445078    0.1842006  20.90  0.001419618    1.542    0.352
       361 -10.1384    179.3166    243.6729   9.9324430500e+01  -6.3442835022e-01    0.1144296   0.08709245  60.40 0.0007045096    1.675    0.403
       362  -9.1833     41.6740    220.7138   1.2283277573e+02   2.3509841397e+01   0.09488593   0.08745873 -55.95 0.0007008094    1.607    0.378
       363  -9.3973    250.4927    219.4483   8.2710503451e+01  -8.2602186900e+00    0.1216053    0.0918857   6.73 0.0001120252    1.043    0.041
       364  -9.6337    173.7691    219.7705   9.6855587804e+01   3.8344657741e+00    0.2114972   0.08768089  48.04 0.0008841064    2.458    0.593
       365 -10.9542      9.6050    217.0493   1.2833243974e+02   2.7599531062e+01    0.2781882    0.1565724  64.81  0.001161817    1.355    0.262
       366 -11.3557    240.6216    212.7121   8.3212317917e+01  -5.9654142197e+00    0.4683721    0.2871843 -18.12  0.002704244    1.608    0.378
       367 -10.9451     30.9073    215.8325   1.2447144056e+02   2.5674253781e+01    0.2785073    0.1703782  37.92  0.001799917    1.741    0.426
       368  -8.7876    201.6617    215.6913   9.0821623834e+01  -2.0648705502e-01    0.1329344   0.08906021   9.90 0.0007043373    1.683    0.406
       369  -9.6929    194.5266    215.4895   9.2145186398e+01   1.0106448233e+00    0.1294631    0.1096675  22.15 -4.639011e-05    1.004    0.004
       370  -9.3313    115.2149    215.0217   1.0791987639e+02   1.4422993755e+01    0.1538574    0.1029783 -61.47 0.0004366309    1.657    0.396
       371 -10.9131     21.3454    212.4361   1.2599914345e+02   2.7351217747e+01    0.3103423    0.1285568  54.73  0.001740597    1.967    0.492
       372 -10.1754    208.9666    212.0573   8.8823134448e+01  -8.7576437577e-01    0.1956102    0.1619684  14.59 0.0004674096    1.036    0.035
       373  -9.9290      1.8902    212.2020   1.2943351113e+02   2.9252712939e+01    0.1677016    0.1025497  70.17 0.0007055674    1.203    0.169
       374 -11.9258      4.5644    207.3781   1.2873236793e+02   2.9963380275e+01     0.593465    0.2247859  84.30   0.00308918    2.389    0.581
       375  -9.9193     37.7531    217.5507   1.2333164096e+02   2.4577811365e+01     0.185466    0.1047938  34.54   0.00110764    1.979    0.495
       376  -9.1568    188.4755    209.4954   9.2305464891e+01   2.9713890342e+00      0.13169    0.1140386  24.01 1.378099e-05    1.003    0.003
       377 -10.3651     10.7542    208.5698   1.2768953573e+02   2.9157122285e+01    0.1943509     0.150555 -62.79  0.000569106    1.646    0.393
       378 -11.1838     18.9124    202.7772   1.2585711795e+02   2.9542780011e+01    0.3473406    0.2104373 -83.58  0.002070934    1.368    0.269
       379 -10.3736    175.4757    202.7603   9.3739966525e+01   6.3586206706e+00    0.2437662    0.1937119  48.42 0.0005403399    1.261    0.207
       380  -9.4111    223.5929    201.7851   8.4268186894e+01  -1.7777957398e+00    0.1647636    0.1174641 -43.59 0.0006148731    1.706    0.414
       381  -9.2035    238.6575    201.2778   8.1469444440e+01  -4.1235481897e+00    0.1083193    0.1019653  60.56 0.0007005181    1.625    0.385
