#   1 NUMBER                 Running object number                                     
#   2 MAG_AUTO               Kron-like elliptical aperture magnitude                    [mag]
#   3 X_IMAGE                Object position along x                                    [pixel]
#   4 Y_IMAGE                Object position along y                                    [pixel]
#   5 X_WORLD                Barycenter position along world x axis                     [deg]
#   6 Y_WORLD                Barycenter position along world y axis                     [deg]
#   7 A_WORLD                Profile RMS along major axis (world units)                 [deg]
#   8 B_WORLD                Profile RMS along minor axis (world units)                 [deg]
#   9 THETA_WORLD            Position angle (CCW/world-x)                               [deg]
#  10 FWHM_WORLD             FWHM assuming a gaussian core                              [deg]
#  11 ELONGATION             A_IMAGE/B_IMAGE                                           
#  12 ELLIPTICITY            1 - B_IMAGE/A_IMAGE                                       
         1 -10.5178      6.6133     15.1541   6.1083834986e+01   7.1713645371e+01    0.2499903    0.1799861 -46.94  0.001006586    1.628    0.386
         2 -11.4954     20.8586     17.0811   5.4151251124e+01   7.0154796744e+01    0.3950889    0.2888094  18.20  0.002386444    1.359    0.264
         3 -11.0927     85.1319     15.3859   2.7158223986e+01   6.0211229277e+01    0.4092324    0.2529751  47.61  0.001908932    1.399    0.285
         4 -12.5510    159.6290      4.2043   8.5686803335e+00   4.4102691628e+01    0.8596487    0.3884828  82.91  0.003735408    2.424    0.587
         5 -12.4145    183.0980     12.8075   8.0028993777e+00   3.7679453724e+01     1.249135    0.7662428  -9.09  0.006294034    2.513    0.602
         6 -10.5741    178.7043      1.9290   5.7538654348e+00   3.9761942699e+01    0.3649788    0.2261644 -76.55  0.001224215    1.624    0.384
         7 -11.3226    177.9964      7.2871   7.1845134719e+00   3.9434212619e+01    0.2841265    0.2531229  71.93 0.0009354377    1.135    0.119
         8 -12.0105    174.2445      3.2972   6.5842537125e+00   4.0693925308e+01    0.5380019    0.3406339 -87.64  0.001606527    1.512    0.339
         9 -10.8004    128.3310     14.4512   1.6561119331e+01   5.0678935628e+01    0.3022609    0.2227319  69.64  0.001092862    1.269    0.212
        10 -10.9824     49.6315     13.8857   3.9024690172e+01   6.6824440305e+01    0.3002846    0.2291012   7.93 0.0008660574    1.071    0.066
        11 -10.5137     45.3451     12.0593   3.9985722854e+01   6.7695837371e+01    0.2440683     0.187403   2.22 0.0008396672    1.073    0.068
        12 -10.8978    192.0300     11.7112   6.7547707280e+00   3.5687566960e+01    0.3709035    0.1506727 -48.25  0.001557411    2.450    0.592
        13 -11.4764    114.4412      2.0735   1.5022965532e+01   5.4968627506e+01    0.4208777    0.2272523  63.13  0.001195009    1.571    0.363
        14 -11.2322    119.3450      9.7976   1.6737891768e+01   5.3206934099e+01    0.3941035    0.2432168 -28.25  0.001316426    1.844    0.458
        15 -10.0234    115.1230      8.8651   1.7265946348e+01   5.4262687591e+01    0.2266929    0.1827282  54.42 0.0008360413    1.052    0.049
        16 -11.4161    123.7888      6.4339   1.4750165393e+01   5.2456941115e+01    0.3314218    0.2271802  76.76  0.001005357    1.471    0.320
        17 -10.5679     34.9347     13.6665   4.5486862242e+01   6.8972421926e+01    0.2553064    0.1933264  10.71 0.0008304256    1.094    0.086
        18 -10.7145     32.3836     10.2084   4.5040217034e+01   6.9739682788e+01    0.3270719    0.1558281 -34.25  0.001799239    2.077    0.519
        19 -10.8872    162.2829     11.8506   1.0335052692e+01   4.2764337660e+01     0.234065    0.1602494  83.65 0.0008619235    1.375    0.273
        20 -11.7155     66.8266     10.1483   3.0757811462e+01   6.4288505633e+01    0.8657085     0.292621  34.91  0.003411226    3.148    0.682
        21 -10.6345     79.1866     11.9885   2.7535546821e+01   6.1742705325e+01    0.2898573    0.2274007  59.07 0.0006104506    1.440    0.306
        22 -11.0194     74.6185      9.2216   2.7775932549e+01   6.2903187239e+01    0.3402577    0.2030284  -1.81  0.001310198    1.902    0.474
        23 -10.5691     78.1949      7.6209   2.5986871122e+01   6.2346683128e+01    0.2295192    0.1822828  25.76 0.0003363614    1.072    0.068
        24  -9.9064     40.2402     11.6026   4.2029127796e+01   6.8499125126e+01    0.1725842    0.1142199   6.41 0.0006896067    1.353    0.261
        25 -10.5655     27.3871     11.1747   4.7992286634e+01   7.0242119887e+01    0.2211058     0.172886 -18.71  0.001279929    1.248    0.199
        26 -10.0723    200.4927     11.4628   5.8375393870e+00   3.3751067760e+01    0.2073962    0.1482224  27.94 6.736038e-05    2.166    0.538
        27 -10.8489    203.4682      4.7760   4.0291167018e+00   3.3752604695e+01    0.2578254    0.2185613  37.00 0.0008375231    1.595    0.373
        28 -11.2011    104.5839      8.5820   1.9444765072e+01   5.6674226866e+01     0.352594    0.3231484  14.46  0.001702031    1.166    0.142
        29 -11.7254     56.8984      8.5421   3.3623216462e+01   6.6214265084e+01    0.4999967    0.2892467  22.61  0.002044943    1.638    0.389
        30 -10.3690    213.0277      8.8230   4.0878851063e+00   3.1189495063e+01    0.1879213    0.1517192 -69.92 0.0004495373    1.080    0.074
        31  -9.7136     10.8443      8.9171   5.5815552318e+01   7.2285356660e+01     0.184551    0.1135025 -14.29  0.001213647    1.334    0.250
        32 -10.4663      3.4640      8.1131   5.9738137261e+01   7.3011878664e+01    0.2250176    0.1546206 -26.77 0.0007951763    1.155    0.134
        33 -11.9465     87.1758      6.2110   2.2841816247e+01   6.0637884997e+01    0.5902536    0.3000249  32.68  0.002954896    1.926    0.481
        34  -9.6825     20.5180      8.4643   5.0238041649e+01   7.1382605449e+01    0.1663492    0.0888297  15.50 0.0009668579    1.777    0.437
        35 -10.1209     22.5360      4.9723   4.7402343750e+01   7.1597215580e+01    0.2122301    0.1260985 -11.15 0.0008208846    1.513    0.339
        36  -9.4434    236.5320      6.8239   1.8218285172e+00   2.6338500326e+01    0.2105739   0.07174475  70.95 0.0009804985    2.631    0.620
        37  -9.8088    196.5068      6.4815   5.0644167656e+00   3.5175980495e+01    0.1256204    0.1029801 -86.70 1.112797e-05    1.005    0.005
        38  -9.6985    242.9097      5.4825   1.1173847348e+00   2.5172520244e+01    0.1611334   0.09675085  82.28 0.0003801334    1.490    0.329
        39 -10.0197      8.1962      5.0745   5.5470321116e+01   7.3054598544e+01    0.1830441    0.1247482   1.09 0.0005498939    1.190    0.160
        40  -9.7273     16.1356      4.3697   5.0567018447e+01   7.2381236295e+01    0.1752286    0.1096036   5.80 0.0006618301    1.360    0.265
        41 -10.3136    131.4494      3.2307   1.2370388200e+01   5.0914774770e+01    0.2288728    0.1522596  63.24 0.0005756444    1.249    0.200
        42 -11.1715     97.3210      6.9576   2.0540719179e+01   5.8411963603e+01    0.5042911    0.2879243 -41.62  0.002615117    2.248    0.555
        43 -10.1913     37.6394      2.0628   3.8462861764e+01   6.9936869795e+01    0.2378069    0.1565387  28.16 0.0008739577    1.279    0.218
        44 -10.5408     76.8402      1.7611   2.3875557488e+01   6.3113511146e+01    0.4358535    0.1094236  51.86  0.001134196    2.934    0.659
        45  -9.3257    230.0640      1.5013   1.2218817704e+00   2.8252991615e+01    0.1682473   0.09763517  79.65 0.0004873285    1.514    0.339
        46 -10.3105    102.9908     96.9946   5.0078238764e+01   4.3265442122e+01    0.3841861    0.3133223 -46.97  0.000984025    1.224    0.183
        47 -10.6341     64.2774     96.0166   6.2596085512e+01   4.9985316887e+01    0.3566765    0.3258232 -68.52  0.001245256    1.214    0.177
        48  -9.6201     61.1135     90.9190   6.2367430678e+01   5.1583874493e+01    0.2960909    0.1783857 -52.10  0.001133314    1.543    0.352
        49 -10.0625      3.9898     96.2389   8.4038340557e+01   5.5547183806e+01    0.2497857    0.1634495 -46.75 0.0009462396    1.307    0.235
        50  -9.1171    143.1934     96.2104   3.8644178540e+01   3.4812815926e+01    0.2081196    0.1844536 -81.23 0.0005957341    1.286    0.222
        51  -9.9397     94.2077     96.0665   5.2564522373e+01   4.5129352052e+01    0.2414498    0.2108918  28.17 0.0003534054    1.164    0.141
        52  -8.9807    237.3308     95.3242   2.0566933843e+01   1.3836269167e+01    0.1311884    0.1064115   2.56 0.0004058777    1.703    0.413
        53 -11.9154     40.9065     95.1277   7.0703951389e+01   5.3015616977e+01    0.4737911    0.3033246  24.70  0.002477179    1.739    0.425
        54 -10.6328     15.4893     93.5056   7.9534771124e+01   5.5519173218e+01    0.2654857    0.1929586  53.45   0.00155748    1.762    0.432
        55 -10.5748    132.4986     92.6244   4.0369400343e+01   3.7966069231e+01    0.2849496    0.2691872  60.98  0.000532378    1.102    0.092
        56  -9.2207    108.5574     89.7559   4.6278545014e+01   4.3702937144e+01    0.2116032    0.1454705 -54.43 0.0009406423    1.628    0.386
        57 -10.1861     11.9815     86.0008   7.9396724035e+01   5.7471327917e+01    0.1897671     0.150192 -50.87 0.0003044179    1.013    0.013
        58  -9.5628      5.9540     85.5439   8.1542466633e+01   5.7912372195e+01    0.1610798    0.1206799   7.78   0.00102496    1.581    0.368
        59 -12.3824     54.9230     78.9831   6.1324936699e+01   5.5039315173e+01    0.3097944    0.2871876 -24.25 0.0004858793    1.084    0.078
        60 -10.1389     40.7130     78.6792   6.6693355691e+01   5.6768162634e+01    0.2267355    0.2024509 -51.95 0.0005735126    1.171    0.146
        61  -9.0680    216.0204     78.0191   1.9654081104e+01   2.1188756509e+01    0.1879109    0.1649407  15.32  0.001056072    1.483    0.326
        62  -9.3407     77.8967     77.9043   5.2615694118e+01   5.1866119326e+01    0.2109158    0.1770025 -11.08            0    1.176    0.150
        63  -8.8043    143.9997     77.4934   3.3049239339e+01   3.8210401231e+01    0.2257931    0.1467625  51.07 0.0006663623    1.501    0.334
        64 -10.8452      3.0448     75.0814   8.0679978127e+01   6.0404069284e+01    0.3240735    0.2332027 -76.26  0.002035814    1.439    0.305
        65  -9.6214    121.7493     74.9767   3.7967583335e+01   4.3789857283e+01    0.2644219    0.2158113  44.71 0.0007385406    1.195    0.163
        66  -9.5664     83.7811     74.8021   4.9602070670e+01   5.1481987100e+01    0.2143801    0.1821259  -4.92 0.0004950337    1.166    0.142
        67 -10.2154    128.5611     71.3646   3.5026649008e+01   4.2903591916e+01    0.2607489    0.2410645  17.54 0.0003787457    1.093    0.085
        68  -9.0388     94.5277     70.9779   4.4792813593e+01   5.0230026000e+01    0.2195626    0.1224355 -19.27 0.0008094892    2.736    0.634
        69  -8.6511     82.6567     71.6717   4.8978068452e+01   5.2296840666e+01    0.1528879    0.1074953  -4.02 0.0007050979    1.745    0.427
        70  -8.9452     76.6673     71.2878   5.0946518807e+01   5.3402737379e+01     0.133048    0.1156807  76.81 0.0005483952    1.624    0.384
        71 -10.0659     63.9923     69.6713   5.5058265525e+01   5.5722739262e+01    0.2354496    0.1855621 -43.32 0.0005509457    1.250    0.200
        72  -9.4248     34.4469     68.9163   6.6500865024e+01   5.9501027424e+01    0.2030822    0.1129454 -52.46  0.001029297    1.598    0.374
        73  -9.7702      7.9038     68.8741   7.7432405852e+01   6.1513852334e+01     0.183217     0.145988 -45.05 0.0004990411    1.022    0.022
        74  -9.3884     83.0290     68.2533   4.7725780012e+01   5.2888091788e+01    0.1946942     0.175336  17.75 0.0003292972    1.080    0.074
        75  -9.7340     46.5851     67.8957   6.1273806751e+01   5.8402407824e+01    0.2271454    0.1683097   4.53   0.00059539    1.396    0.284
        76 -10.5362     69.9871     65.9544   5.1607769225e+01   5.5532014544e+01    0.3261728    0.2735817  -5.12 0.0007637689    1.125    0.111
        77  -9.1353    192.0821     65.8374   2.0323458180e+01   2.8633949005e+01     0.205134    0.1730351 -74.64 0.0003475295    1.174    0.148
        78  -8.9478    152.1737     66.3648   2.7914658653e+01   3.8176390413e+01    0.2066425    0.1378596  65.87  0.000649473    1.597    0.374
        79  -8.8782    204.3168     65.6130   1.8385164152e+01   2.5810446383e+01    0.1546774   0.09725311 -66.51 0.0007014991    1.836    0.455
        80 -10.5915     43.2350     62.6943   6.1015927109e+01   5.9846616763e+01    0.3743099    0.2270169 -24.78  0.001913801    1.683    0.406
        81 -10.2535      4.3222     64.2224   7.7871628072e+01   6.2697252291e+01    0.2619954    0.1517387 -51.38 0.0006310608    1.310    0.237
        82 -10.9876      3.6450     59.1623   7.6981902514e+01   6.3795713435e+01    0.3360708    0.2408467 -34.45  0.001164276    1.160    0.138
        83  -8.4128    145.3137     64.3204   2.8814625756e+01   4.0163193788e+01    0.1518218    0.1140858  21.01 0.0004545086    1.653    0.395
        84  -8.7586    126.4541     64.4586   3.3400070582e+01   4.4578952922e+01    0.1465505    0.1403718  37.39 0.0002229254    1.019    0.019
        85  -9.1421     85.0328     63.7485   4.5523793084e+01   5.3362770853e+01    0.1922878    0.1724376  10.12  0.001096113    1.036    0.035
        86  -9.3496     75.1148     64.5148   4.9256195756e+01   5.4966052462e+01    0.2012905    0.1337457  36.87  0.001003759    1.521    0.343
        87 -10.5805     98.9664     61.6464   4.0270320108e+01   5.1037456937e+01    0.3924668    0.2998425 -64.08  0.001930196    1.837    0.456
        88  -8.8614     78.3064     62.6679   4.7488107178e+01   5.4762902872e+01     0.131535    0.1154992 -87.17 0.0005147164    1.663    0.399
        89 -10.8437    233.0227     60.2541   1.3370180039e+01   2.0263683690e+01    0.3701858    0.2439685  52.58  0.001165121    1.759    0.432
        90  -9.7014    114.1124     60.9690   3.5578291189e+01   4.7940665630e+01    0.2216653    0.2002585  21.33 0.0003635827    1.067    0.063
        91  -9.9965     35.2055     60.8410   6.3793094359e+01   6.1087247896e+01    0.2549936    0.1700316   5.75 0.0005617688    1.589    0.371
        92 -10.3507     14.0632     61.0889   7.2949690881e+01   6.2797493214e+01    0.2995136    0.1688603  16.23  0.001686888    1.969    0.492
        93  -9.8813     57.4880     59.9430   5.4348313136e+01   5.8556972178e+01    0.2428782    0.1718372   8.62 0.0005200583    1.479    0.324
        94 -11.7801     23.9589     57.3923   6.7599349694e+01   6.2819587080e+01    0.5309597    0.3797675 -24.59   0.00230512    1.227    0.185
        95 -10.6531     22.9457     50.8634   6.6045427049e+01   6.4192895481e+01    0.4149206    0.1538134 -39.88  0.001528434    2.266    0.559
        96  -8.6954     68.3440     59.2799   4.9943272786e+01   5.7046566892e+01    0.1421302   0.09886489  -1.71 0.0007009655    1.632    0.387
        97 -10.0541     16.9342     57.2594   7.0655490210e+01   6.3389048751e+01    0.2060758    0.1096086 -23.89  0.001072388    1.906    0.475
        98 -10.2985     85.3661     58.5789   4.3624242273e+01   5.4221223973e+01    0.3155856      0.24202 -59.08 0.0007557172    1.769    0.435
        99  -9.7253     77.9474     55.5231   4.5112883801e+01   5.6097469362e+01    0.2784762    0.1624862  39.09  0.001220891    1.685    0.406
       100  -9.7037     44.6148     55.9504   5.8232365839e+01   6.0999158971e+01    0.2856148    0.1670518  47.20  0.001242167    2.548    0.608
       101  -9.2737    149.5304     53.2578   2.4575525939e+01   4.0865104806e+01    0.3239226    0.1507066 -21.71  0.001145363    3.200    0.688
       102 -10.3122     63.6214     52.1866   4.9214106900e+01   5.9058570623e+01    0.3232158     0.217142 -32.45   0.00150881    1.406    0.289
       103  -9.1436     88.4664     52.5454   4.0447187323e+01   5.4648069623e+01    0.1408324    0.1257178  11.19 5.068618e-05    1.006    0.006
       104 -10.3963     69.2365     51.4100   4.6794576470e+01   5.8291666319e+01    0.2959458    0.2601912  32.67  0.001241383    1.245    0.196
       105  -8.7849    111.4497     51.5191   3.3135174395e+01   5.0036000209e+01    0.1479845    0.1265275  21.31 0.0001923437    1.151    0.131
       106  -8.4194     15.3197     51.3104   6.9661210536e+01   6.4695081006e+01    0.1311437   0.07110342 -29.97 0.0003883285    1.644    0.392
       107  -8.7994    189.8369     50.3461   1.6693781128e+01   3.1488721857e+01    0.1794605    0.1185215  55.87            0    1.502    0.334
       108  -9.1225    130.4397     50.4834   2.7928362634e+01   4.5850261338e+01    0.1443248     0.132477  36.99 0.0002346983    1.045    0.043
       109 -11.7822     94.0468     48.4059   3.7161408466e+01   5.4198296556e+01    0.2929295    0.2248669 -26.09  0.001593403    1.329    0.248
       110 -10.9647     51.8008     46.3221   5.1785244273e+01   6.1811655676e+01    0.3855395    0.2610892  27.70  0.001348996    1.458    0.314
       111  -9.4334      4.3483     47.2884   7.3585737965e+01   6.6166560923e+01    0.1274831      0.06518 -31.78 0.0005827657    1.660    0.398
       112  -8.9809    142.3399     44.7976   2.3482155885e+01   4.3812964482e+01     0.180298    0.1355969 -17.11 0.0003729631    1.558    0.358
       113 -10.8567     38.2161     43.5302   5.6601096806e+01   6.4024562789e+01    0.3724735    0.2409687  27.89  0.002154725    1.602    0.376
       114 -10.3734     32.8235     44.0105   5.9210786324e+01   6.4536377222e+01    0.3650462    0.1697567  29.32  0.001824771    2.234    0.552
       115  -9.2599      7.0150     44.7258   7.1581736707e+01   6.6516784516e+01    0.1696123    0.1294837 -31.74  0.001070871    1.027    0.026
       116 -10.6779    118.9453     42.7635   2.8167895311e+01   4.9617090767e+01    0.3275014    0.2428368 -34.47 0.0004346271    1.452    0.311
       117  -9.2205    148.8366     47.4265   2.2959621701e+01   4.1873081215e+01    0.2118388    0.1325349  61.71 0.0009918502    1.519    0.342
       118  -9.2380    237.3367     41.2942   8.8158439638e+00   2.2015010646e+01    0.1787564    0.1434272  35.16 0.0008973446    1.845    0.458
       119  -9.7002     89.7845     39.1218   3.5070615184e+01   5.6418576298e+01    0.2376442    0.1724602  -4.73 0.0006616855    1.501    0.334
       120  -9.2386    158.8420     39.2230   1.8651114555e+01   4.0531092067e+01    0.2063797    0.1777745 -85.08 0.0004126559    1.179    0.152
       121  -9.3816    157.0187     36.0150   1.8036166891e+01   4.1384508559e+01     0.260225    0.1780595  16.93  0.001235241    2.124    0.529
       122  -8.7239    151.7286     39.6617   2.0065829859e+01   4.2214140768e+01    0.1390982    0.1040381  27.75 0.0003907303    1.603    0.376
       123  -9.9608     29.1983     38.4886   5.8854826983e+01   6.5886742290e+01    0.3029982    0.2105296  51.26   0.00117323    2.571    0.611
       124  -9.3251     96.1873     37.9992   3.2688389945e+01   5.5261704377e+01    0.1831402     0.161556  22.17  0.000380736    1.017    0.017
       125 -10.9336     48.1201     33.8140   4.8434057972e+01   6.4356648251e+01    0.5544683    0.2157104 -34.13  0.002443308    2.510    0.602
       126 -10.0021     51.8113     33.1480   4.6590384220e+01   6.3928181831e+01    0.2698535    0.1799282  10.50 0.0004364175    1.478    0.324
       127 -10.6374     17.5708     31.5063   6.1881166415e+01   6.8175684420e+01    0.2233572    0.1683182 -20.03 0.0001493688    1.021    0.021
       128  -9.6262     13.4354     37.5010   6.6131249916e+01   6.7447208751e+01     0.172675    0.1063448  11.58 6.828461e-05    1.656    0.396
       129 -10.1953     13.4950     34.5018   6.5046096930e+01   6.7980793150e+01    0.2516714    0.1293636 -32.12 0.0008646919    1.615    0.381
       130 -10.0154    119.0964     35.1749   2.5537102897e+01   5.0577246275e+01    0.2133268    0.1943069  -1.87 0.0004621236    1.166    0.142
       131 -11.0391     40.2225     35.8924   5.2757706681e+01   6.5072990807e+01    0.4262708    0.1887836  32.63   0.00207243    2.269    0.559
       132  -9.6761    173.8810     34.4399   1.4873865703e+01   3.7461120601e+01    0.2260881    0.1863037 -41.76 0.0005197228    1.285    0.222
       133  -9.8548     82.3282     32.7730   3.5022661801e+01   5.8751065012e+01    0.3967945    0.1583205 -31.39  0.001663693    2.624    0.619
       134  -9.0673     57.3251     35.3094   4.5206022244e+01   6.2772910939e+01    0.1350772   0.08826531   2.35 0.0006415625    1.654    0.395
       135  -9.7429     25.4529     33.3942   5.8698544121e+01   6.7132669295e+01    0.3576352    0.1502946 -23.56  0.001488913    3.149    0.682
       136 -10.0497    153.3693     32.3804   1.7603678867e+01   4.2721548937e+01    0.2850487    0.2078805  38.30 0.0008955952    1.495    0.331
       137 -10.0657    139.3121     32.8578   2.0362163886e+01   4.6079778323e+01    0.2401379    0.1845686  55.61 0.0008726639    1.165    0.142
       138  -9.4738      7.0340     32.7837   6.7726375051e+01   6.8738366061e+01    0.1974934    0.1418746  26.99 0.0007912813    1.726    0.420
       139  -9.5896      3.7826     31.1824   6.8855320770e+01   6.9225774771e+01    0.1669421    0.1279833 -15.95 0.0004132773    1.141    0.124
       140  -9.9157    104.4037     29.2601   2.7143028501e+01   5.4607941939e+01    0.3077132    0.2004289 -45.14  0.001568074    1.893    0.472
       141  -8.4083     85.6599     30.7148   3.3137646142e+01   5.8362846916e+01    0.1402333   0.09043916  21.98 0.0004148711    1.635    0.388
       142  -9.7433     64.8630     29.9543   4.0047967785e+01   6.2311870518e+01    0.1971043    0.1640235   6.55 0.0006349441    1.023    0.022
       143  -9.0770     59.4893     29.4840   4.1929898538e+01   6.3269158820e+01    0.1756473    0.1429391   6.68 0.0008756564    1.023    0.022
       144  -9.5664     60.5999     26.1916   4.0098094088e+01   6.3531275323e+01    0.2354449     0.149618 -10.27 0.0008290136    1.650    0.394
       145 -10.8693    161.5194     27.1506   1.4740512701e+01   4.1342955956e+01    0.4381423    0.2569813  75.76  0.001950299    1.702    0.413
       146  -9.4766    153.1015     27.6751   1.6258567737e+01   4.3337157317e+01    0.1946171    0.1519659  62.14 0.0004293304    1.140    0.123
       147 -10.2305     83.9217     25.4520   3.1598703133e+01   5.9353780635e+01    0.2999231    0.1482239  50.93  0.000907015    1.921    0.479
       148  -9.9051     85.1774     20.7407   2.9315753304e+01   5.9639147023e+01    0.2502439    0.2116339 -83.74  0.001150373    1.789    0.441
       149  -9.2890     42.0965     28.5256   4.8872096993e+01   6.5975843269e+01    0.1699418     0.108737  26.14 0.0004014366    1.472    0.321
       150  -9.8472    142.7837     27.3821   1.7988585025e+01   4.5878647363e+01    0.2047739    0.1078878  53.26 0.0009479211    1.668    0.400
       151 -10.1864    120.2887     25.8437   2.2055308828e+01   5.1401604296e+01    0.3252835    0.2069747  38.08  0.001662042    1.542    0.352
       152 -10.8700     47.0758     26.5312   4.5814026111e+01   6.5577166180e+01    0.2907481    0.1913631   2.71 0.0004246517    1.502    0.334
       153 -10.0044     93.7532     25.6257   2.8712097865e+01   5.7321903272e+01    0.2223441     0.190603  -9.13 0.0006352793    1.214    0.176
       154 -12.0857     96.5867     22.0010   2.6524153573e+01   5.7126241558e+01    0.3554814    0.2526169  62.19 0.0003401503    1.511    0.338
       155 -10.4590     88.8350     26.1965   3.0381016555e+01   5.8274898905e+01    0.4644341    0.2973463 -55.25  0.002216016    2.576    0.612
       156  -9.0360     32.4391     26.5091   5.2498076536e+01   6.7484524757e+01    0.1228576   0.09521742  -9.08 0.0001126917    1.011    0.011
       157 -10.4766    134.7530     24.3517   1.8549285550e+01   4.8147886687e+01    0.3939215    0.1682445  41.60  0.001576962    2.566    0.610
       158 -10.1733    111.0946     24.8675   2.3852792050e+01   5.3617866583e+01    0.3265115    0.1704466  53.83 0.0003353274    1.665    0.399
       159  -9.3667     55.8627     25.1548   4.1531700961e+01   6.4437663351e+01    0.1793847    0.1585261 -10.84 0.0007614798    1.234    0.190
       160 -10.5661     38.0560     22.8813   4.8263115366e+01   6.7324733343e+01    0.3196158    0.1976432  -7.50 0.0005385276    1.618    0.382
       161  -9.7339    250.6577     23.9318   4.1274438273e+00   2.1496285412e+01    0.1652591   0.09366761 -42.97 0.0003112413    1.557    0.358
       162  -9.1482    239.1760     24.2430   5.1122205402e+00   2.3797460367e+01    0.1695509     0.110975 -64.39 0.0004385809    1.307    0.235
       163  -9.5423    128.9783     24.1434   1.9627822407e+01   4.9546706003e+01    0.1998407    0.1769626  50.45 0.0005944971    1.023    0.023
       164 -10.1056      2.1921     24.0093   6.7130468645e+01   7.0573541419e+01    0.1870269    0.1124442 -24.68  0.001048761    1.322    0.244
       165  -8.7518    245.6515     23.2809   4.3914510369e+00   2.2582699762e+01     0.127497   0.07141578 -67.98  0.000249419    1.644    0.392
       166  -9.7762     72.6363     22.4904   3.4102694533e+01   6.1874855934e+01    0.2169519    0.1765866  27.00 0.0005543802    1.062    0.059
       167  -9.7892    196.9173     22.5335   8.8319005131e+00   3.3369373170e+01    0.2954386   0.09939647  63.02  0.001210955    2.568    0.611
       168  -9.6843    238.7456    221.0148   4.6217592935e+01  -7.5259554238e+00    0.1558558   0.09431578 -31.46 0.0004133171    1.534    0.348
       169  -9.5195     21.3932     22.1667   5.6126813859e+01   6.9340207264e+01    0.1696214     0.152321 -17.81 0.0005690684    1.394    0.283
       170 -10.8356     11.9305     17.9053   5.9313816777e+01   7.0863292404e+01    0.4606254    0.2019224   9.18  0.001896042    2.637    0.621
       171  -9.9912      4.7957     19.3897   6.3889686964e+01   7.1173861552e+01    0.2690397    0.1480984  18.18  0.001690974    1.847    0.459
       172 -10.4400     24.4707     19.5354   5.3389152833e+01   6.9417899009e+01    0.2347443    0.2156711 -17.87  0.001158587    1.487    0.327
       173  -9.0694     30.5610    183.4920   8.7170855941e+01   3.2359947032e+01    0.1285565    0.1074194  89.89 0.0002176392    1.024    0.023
       174  -9.6728    159.0776     20.2627   1.3155317462e+01   4.2693727780e+01    0.2040688    0.1922904 -42.22 0.0005971628    1.200    0.167
       175  -9.3728     66.4893     20.9017   3.5604759457e+01   6.3180221659e+01    0.1852622    0.1434551  28.19 0.0003809371    1.113    0.102
       176  -9.8656     48.5774     19.5570   4.2077725804e+01   6.6294388872e+01    0.2038441    0.1637989   3.39 0.0001914758    1.033    0.032
       177  -9.6346    152.6947     18.4530   1.3611293836e+01   4.4432380626e+01    0.2187517    0.1584834  21.80  0.001180083    1.781    0.439
       178  -9.4306    109.5229     19.0918   2.2149058988e+01   5.4583782331e+01    0.1813403    0.1308399 -18.72 0.0009677792    1.551    0.355
       179  -9.5499    147.5112     17.9907   1.4302524944e+01   4.5736026320e+01    0.2005046    0.1593463  67.05 0.0003478295    1.098    0.090
       180  -8.9052     78.6222     18.7523   3.0544965060e+01   6.1158764097e+01    0.1366092   0.08067678  28.29  0.000241148    1.642    0.391
       181  -9.0717     70.5160     18.4301   3.3110107204e+01   6.2734802515e+01    0.1272178    0.1055956  22.04  0.000136373    1.030    0.029
       182  -8.9893    244.2978    180.6355   3.7575900852e+01  -2.0510174759e+00    0.1233002    0.1012491 -58.45 0.0007032707    1.721    0.419
       183  -9.1139     75.1452     15.8050   3.0429878617e+01   6.2147087294e+01    0.1764978    0.1240893  20.86 0.0002873648    1.314    0.239
       184  -9.6246     65.9896     16.2930   3.3777527930e+01   6.3797412022e+01    0.1786484    0.1369686  29.94 0.0002949622    1.111    0.100
       185 -10.0187     20.4089    174.6206   8.8742129192e+01   3.5455276196e+01    0.2232794    0.1745402  60.56  0.001113916    1.240    0.194
       186  -9.4618    224.3357    173.0153   3.9619514081e+01   2.4906409987e+00    0.2212892    0.1048817 -56.07 0.0007049795    4.339    0.770
       187  -8.7590     14.9779    171.9783   8.9800935667e+01   3.6563892267e+01    0.1510223    0.1199534 -86.87            0    1.024    0.024
       188 -10.0368     21.7480    169.9926   8.7976955126e+01   3.6444122170e+01    0.2004924    0.1758332  52.77  0.000508685    1.237    0.192
       189  -9.1117     28.0156    160.0018   8.5338712094e+01   3.8298678619e+01    0.1570677    0.1379723 -88.76 0.0006127716    1.053    0.051
       190  -8.9180      3.4714    156.5084   9.1242424650e+01   4.1149018792e+01    0.1247128   0.09867729 -84.64 0.0001612296    1.009    0.009
       191  -9.4656     17.2869    155.3882   8.7624393847e+01   4.0374354622e+01    0.1571744    0.1119153  45.81 0.0003678456    1.503    0.335
       192  -9.1496     40.0097    147.4861   8.0490696944e+01   4.0222064848e+01    0.1851445    0.1333357  33.84  0.000437441    1.536    0.349
       193 -10.6374     25.5110    146.2202   8.4372243613e+01   4.1931746025e+01    0.2952376     0.218123  12.51 0.0005635106    1.723    0.420
       194  -8.6183     11.3178    147.6628   8.8383264555e+01   4.2721864214e+01    0.1326744   0.08190171  70.18 0.0007048865    1.703    0.413
       195 -10.7516    115.1300     14.1122   1.9107939865e+01   5.3791169362e+01    0.4961167     0.150977  58.12  0.001915238    2.634    0.620
       196  -9.5869      6.9561    143.4795   8.9113526995e+01   4.4046276477e+01    0.2030277    0.1386214 -76.07 0.0007418852    1.181    0.153
       197  -9.3913     91.9390    137.7237   6.3602391489e+01   3.5626580603e+01    0.2030793    0.1898638  45.39 0.0002050814    1.108    0.097
       198  -9.3571     28.6823    138.0950   8.2409825362e+01   4.3669194066e+01    0.1867449    0.1455521 -67.67 0.0003971383    1.089    0.082
       199  -9.4935     94.4899     14.4764   2.4178743366e+01   5.8345161329e+01    0.1298667    0.1103067  37.97 0.0008100187    1.024    0.023
       200  -9.0076     26.4362    134.4909   8.2563990229e+01   4.4762355447e+01    0.1337624    0.1116507 -68.51  5.42848e-05    1.019    0.018
       201  -9.8921     10.8953    133.3283   8.6910413954e+01   4.6247046309e+01    0.2451454    0.1507685 -68.07 0.0009226286    1.305    0.234
       202  -9.8022    108.6885    133.1626   5.7727173118e+01   3.3768102452e+01    0.2533863    0.1982962 -70.67  0.001180241    1.445    0.308
       203  -9.9473     17.6175    132.1142   8.4823277381e+01   4.6061335297e+01    0.1943055    0.1664509  65.49 0.0003952545    1.264    0.209
       204  -9.5904     58.0400    129.9636   7.2254239938e+01   4.2566797063e+01    0.2102193    0.1929986 -62.32            0    1.013    0.013
       205  -9.6680     40.3469    126.2889   7.7082397927e+01   4.5500740087e+01    0.3092193    0.1639118 -71.42  0.001397307    1.836    0.455
       206  -9.3385     63.9836    122.0565   6.8806826923e+01   4.3768711498e+01    0.2179615     0.169025  75.71 0.0006256379    1.592    0.372
       207  -8.8222     81.4741    121.5620   6.3175221919e+01   4.1329161704e+01    0.1482504    0.1418178 -68.21 0.0003532265    1.065    0.061
       208  -8.4862    103.3073    119.7100   5.6054310111e+01   3.8004261977e+01     0.152686    0.1234985  79.70 0.0001687141    1.576    0.366
       209 -10.1991      6.6828    118.5988   8.6337381681e+01   5.0089989376e+01    0.2384963    0.1780302 -48.45 0.0006897224    1.263    0.208
       210  -9.4674     13.1721    116.4087   8.4035023753e+01   5.0212192074e+01    0.2501617    0.1715276  65.22  0.001411751    1.730    0.422
       211 -10.1907    154.5164     11.5024   1.1320295932e+01   4.4673223110e+01    0.1312965    0.1123727  71.22 0.0008104455    1.009    0.009
       212  -9.4590     91.7640    116.2572   5.8701918870e+01   4.0906149430e+01    0.2080354    0.1728374 -21.05 0.0005376068    1.313    0.238
       213  -8.8930     34.1353    116.1764   7.7292927663e+01   4.8609741574e+01    0.1740475    0.1484319  79.78 0.0002569432    1.301    0.231
       214  -8.6302     80.3334    114.2615   6.1811794518e+01   4.3284375765e+01    0.1489432    0.1134314 -15.50 0.0002374795    1.575    0.365
       215  -9.8629     96.0350    111.7560   5.6240849284e+01   4.1217217486e+01    0.2636767    0.2085183 -43.00 0.0006062224    1.219    0.180
       216  -9.5241      3.1646    111.7578   8.6534933331e+01   5.1928197911e+01    0.2459884    0.1036492 -51.15 0.0006896759    1.945    0.486
       217  -8.9436     79.4053    110.7554   6.1252511703e+01   4.4272451515e+01    0.2092201    0.1299837 -43.08 0.0006640547    1.547    0.354
       218  -9.3336     37.7602    111.5572   7.5246295083e+01   4.9396479803e+01    0.1726045     0.125366  41.19 0.0009359487    1.582    0.368
       219  -9.4273     19.1874    108.0692   8.0810386053e+01   5.1812285237e+01    0.1982194    0.1485909 -43.80  0.000818325    1.236    0.191
       220  -8.9988    104.0654    106.0264   5.2262764087e+01   4.1044117882e+01    0.1843407    0.1740576  24.03 0.0004267815    1.073    0.068
       221  -9.6270     12.6189    105.6870   8.2606389610e+01   5.2826887570e+01    0.2465303    0.1461135  58.60 0.0005608618    2.249    0.555
       222 -10.6166      1.9598    104.9858   8.6005084041e+01   5.3597293751e+01     0.284272    0.1478698 -54.77   0.00151608    1.511    0.338
       223 -10.6340     78.3177    101.9727   5.9369355178e+01   4.6513362948e+01    0.5901306    0.2443561 -51.50  0.002205866    2.280    0.561
       224  -8.9295    117.3481    102.2476   4.7294908544e+01   3.9224327233e+01    0.1556346    0.1210215   8.50 0.0004043699    1.581    0.368
       225 -10.1081    246.4985    101.5168   2.0655191248e+01   1.1018953806e+01    0.1342267    0.1155533 -44.68 0.0002367121    1.028    0.027
       226 -10.0669     49.5796    101.1115   6.8999161589e+01   5.0660807761e+01    0.2485296    0.2018815  -0.71 0.0006181204    1.364    0.267
       227 -10.1103     26.0597    101.0231   7.7216755345e+01   5.2977368917e+01    0.1880574    0.1538967 -52.74 0.0004138278    1.022    0.022
       228  -8.7547    159.5311     98.4307   3.5358761006e+01   3.0584286724e+01    0.1524196     0.151043  19.75 0.0001613831    1.028    0.027
