#   1 NUMBER                 Running object number                                     
#   2 MAG_AUTO               Kron-like elliptical aperture magnitude                    [mag]
#   3 X_IMAGE                Object position along x                                    [pixel]
#   4 Y_IMAGE                Object position along y                                    [pixel]
#   5 X_WORLD                Barycenter position along world x axis                     [deg]
#   6 Y_WORLD                Barycenter position along world y axis                     [deg]
#   7 A_WORLD                Profile RMS along major axis (world units)                 [deg]
#   8 B_WORLD                Profile RMS along minor axis (world units)                 [deg]
#   9 THETA_WORLD            Position angle (CCW/world-x)                               [deg]
#  10 FWHM_WORLD             FWHM assuming a gaussian core                              [deg]
#  11 ELONGATION             A_IMAGE/B_IMAGE                                           
#  12 ELLIPTICITY            1 - B_IMAGE/A_IMAGE                                       
         1 -14.3873      2.5147     87.2271   1.4135460310e+02   5.7370758988e+01     2.929021    0.5716254 -75.87  0.008362873    6.493    0.846
         2 -14.7743      2.9346    134.5615   1.4629207406e+02   4.6837764771e+01      3.09999    0.6364665 -73.99   0.01205673    3.563    0.719
         3 -13.6024    197.6730     28.0183   6.8513746697e+01   3.1821286452e+01      1.31915    0.9946955  64.84  0.005093583    1.241    0.194
         4 -13.6533    214.0232      7.4628   6.1155852197e+01   2.9859151463e+01    0.9151353    0.7754616  74.00  0.004101495    1.129    0.114
         5 -11.8151    179.1323    247.6763   1.2169675820e+02   3.8512070657e-01    0.3039008    0.2223091  13.10  0.001686847    1.533    0.348
         6 -12.7918    141.5627    249.3347   1.2877575151e+02   6.2284648492e+00    0.5747537    0.2465421  43.43  0.002985343    1.747    0.428
         7 -12.5061    145.4678    245.4526   1.2760386901e+02   6.1628983096e+00    0.5045605    0.3222267  80.70  0.002664417    2.746    0.636
         8 -12.6044    124.9538    249.7538   1.3185233029e+02   8.7845098001e+00    0.6594936    0.1900405  41.63  0.002846038    2.624    0.619
         9 -11.2916      2.5664    248.4870   1.5248628420e+02   2.4607768675e+01    0.2596541    0.1780127  79.09  0.001861101    1.178    0.151
        10 -11.6911    173.6589    247.9017   1.2272408243e+02   1.2428849724e+00    0.2575386    0.2403619 -66.30  0.001928182    1.488    0.328
        11 -11.0332     99.3211    249.2308   1.3642725365e+02   1.2738906119e+01    0.2162704    0.1359097  48.93  0.001410818    1.192    0.161
        12 -12.2096     19.3117    247.6035   1.4986885151e+02   2.3086427359e+01    0.3771534    0.1895626  41.91  0.002617665    1.759    0.432
        13 -10.6358    198.4913    246.4825   1.1803086903e+02  -2.5788657265e+00    0.1215705   0.09064949  30.47 4.359742e-05    1.005    0.005
        14 -14.6517     34.9144    230.5444   1.4642229852e+02   2.4341312850e+01    0.9106117    0.6779053 -64.31  0.006837067    1.737    0.424
        15 -12.8098    107.2674    231.0427   1.3317271076e+02   1.4530618238e+01     1.129617   0.08582712  43.66  0.002983622    6.670    0.850
        16 -11.8351     90.5691    227.6107   1.3601520067e+02   1.7647101260e+01    0.7068492    0.1109475  46.52  0.002316654    4.548    0.780
        17  -9.7118    249.3356    231.6557   1.0682813756e+02  -8.7279431863e+00   0.09926608   0.09103683  45.31 0.0007049666    1.767    0.434
        18 -11.1838    162.8669    249.6750   1.2492113346e+02   2.7549755045e+00    0.2915711   0.09591018  37.03  0.001242166    2.610    0.617
        19  -9.5374    172.7506    222.2523   1.1928780757e+02   4.9906392656e+00    0.1799702    0.1037077 -28.77 0.0008945022    2.437    0.590
        20 -12.5945     46.4967    216.5482   1.4341921077e+02   2.5572063299e+01    0.8022221    0.4026099  52.89   0.00436328    1.590    0.371
        21  -9.8092     21.0458    211.9968   1.4780287262e+02   2.9236873638e+01    0.1877863    0.1210867  47.75   0.00119253    1.406    0.289
        22 -12.1285     10.3337    206.9939   1.4946027689e+02   3.1226401821e+01    0.4860331    0.3120906  28.52  0.002792714    2.056    0.514
        23 -11.9883     58.6134    200.6041   1.3974936839e+02   2.7177901392e+01    0.2419067    0.2024036 -88.78 0.0005195845    1.181    0.153
        24 -12.2522     65.2555    191.9742   1.3752819914e+02   2.8064612220e+01    0.2407131    0.2119065  81.69 0.0004536221    1.138    0.121
        25 -13.1740     62.3603    176.9713   1.3653754146e+02   3.1608698321e+01    0.4721548    0.2672372 -47.68  0.001736523    2.307    0.567
        26 -10.9585     76.0525    178.5618   1.3363070023e+02   2.9395799700e+01    0.2297164    0.1971399  72.20 0.0003519452    1.016    0.015
        27 -12.1234     83.2820    169.9173   1.3081426437e+02   3.0208084958e+01     0.520439    0.4767492 -24.67  0.003228978    1.453    0.312
        28 -11.6800    248.9639    248.2381   1.0955048070e+02  -1.0367285888e+01    0.3320449    0.2027989 -19.85  0.002234092    1.728    0.421
        29 -10.8958      2.2610    148.5588   1.4753871451e+02   4.3833491377e+01    0.3423491     0.163713 -77.23   0.00168779    1.640    0.390
        30 -12.3527    238.4408    247.8753   1.1125876343e+02  -8.8333553732e+00    0.3459389    0.2685522  37.48  0.002498711    1.455    0.313
        31 -12.1444     67.5820    143.5135   1.3082268758e+02   3.8408974030e+01    0.6197999    0.3766337  62.86   0.00203204    1.846    0.458
        32  -9.6012    134.0000    145.4897   1.1410052556e+02   2.6587765106e+01    0.3244364   0.08634435 -48.75 0.0009357862    3.943    0.746
        33 -10.2241    108.7484    137.9453   1.1895274041e+02   3.3135705574e+01    0.4312773    0.2917317 -14.79  0.001748713    2.695    0.629
        34 -10.7049     95.7724    135.2606   1.2186105465e+02   3.6031667170e+01    0.2373019    0.2221765 -43.45 0.0003061689    1.163    0.140
        35 -11.7540     26.5078    129.0245   1.3970091515e+02   4.6298766713e+01    0.4281382    0.1921139  51.95  0.002080625    2.480    0.597
        36 -11.3177     19.6223    125.3099   1.4110438732e+02   4.7711970392e+01    0.2595251    0.1592744  67.26  0.001195361    1.720    0.419
        37  -9.1751    106.2031    124.2009   1.1669238135e+02   3.6715729376e+01    0.1889535    0.1630899  74.01  0.000310021    1.235    0.190
        38 -10.6316     96.4235    153.3431   1.2502455102e+02   3.1811492608e+01     0.323875    0.2698179 -56.50  0.000904835    1.246    0.198
        39 -10.3253    158.0553     76.3400   9.0109889377e+01   3.5116358922e+01    0.2306373    0.2006261  51.08 0.0006898756    1.116    0.104
        40  -9.6696     99.6637    149.0468   1.2344507401e+02   3.2233431552e+01    0.2297739    0.1925598  31.01 0.0003527439    1.319    0.242
        41 -13.6010      9.7276    157.0641   1.4648821060e+02   4.1443586616e+01     1.270927    0.5400278 -81.98  0.006768873    1.969    0.492
        42  -9.8247    214.3239    249.3492   1.1563662970e+02  -5.3884039357e+00    0.1224412   0.07294679  15.67 0.0007049042    1.749    0.428
        43 -12.1939     85.0833    152.3141   1.2771637073e+02   3.3859387916e+01    0.2958379    0.2442369 -49.74 0.0006561248    1.332    0.249
