#   1 NUMBER                 Running object number                                     
#   2 MAG_AUTO               Kron-like elliptical aperture magnitude                    [mag]
#   3 X_IMAGE                Object position along x                                    [pixel]
#   4 Y_IMAGE                Object position along y                                    [pixel]
#   5 X_WORLD                Barycenter position along world x axis                     [deg]
#   6 Y_WORLD                Barycenter position along world y axis                     [deg]
#   7 A_WORLD                Profile RMS along major axis (world units)                 [deg]
#   8 B_WORLD                Profile RMS along minor axis (world units)                 [deg]
#   9 THETA_WORLD            Position angle (CCW/world-x)                               [deg]
#  10 FWHM_WORLD             FWHM assuming a gaussian core                              [deg]
#  11 ELONGATION             A_IMAGE/B_IMAGE                                           
#  12 ELLIPTICITY            1 - B_IMAGE/A_IMAGE                                       
         1 -14.4083     68.8118    144.2471   1.0137854512e+02   3.7442782721e+01     5.080085      2.28816  63.57  0.007257066    5.397    0.815
         2 -13.4359    199.2442     41.5129   4.3022887750e+01   3.0445139413e+01     1.237729     1.172653 -28.26  0.005570294    1.254    0.203
         3 -13.6002    209.3772     31.5254   3.9389543321e+01   2.9384609607e+01    0.9669011    0.8748626   6.89  0.001696826    1.512    0.338
         4 -11.1823    214.8050     12.7866   3.4520378145e+01   3.0354555022e+01    0.4333942    0.1974903  47.56  0.001897025    3.193    0.687
         5 -12.8168    234.4493      5.7595   3.1491954608e+01   2.6848258220e+01    0.8235737    0.5843037 -89.48  0.004848765    1.224    0.183
         6  -9.5458     60.5031      7.4938   6.0979450640e+01   6.6123838716e+01    0.1254668   0.09933085  20.68 0.0008104532    1.031    0.030
         7  -9.8795     41.2517      7.7590   6.8949946189e+01   6.9295763560e+01    0.1920242   0.07650722  32.24 0.0008923304    2.431    0.589
         8  -9.3421    164.5149    213.5263   8.9629913107e+01   5.4835592196e+00    0.1373056    0.1228678  22.64 0.0003092801    1.005    0.005
         9 -10.0561    140.3360    250.2253   1.0012946061e+02   2.9089850081e+00    0.2715599    0.1425888  44.41 0.0009951595    1.667    0.400
        10 -14.2390     43.3221    197.2248   1.1505000432e+02   2.7675764314e+01     5.338704     2.143486  75.27   0.01780104    4.418    0.774
        11  -8.0272    224.2804    206.6691   7.6364811041e+01  -3.0319619998e+00    0.1120009    0.1045467 -62.23 0.0002786923    1.606    0.377
        12 -10.7923    111.6936    204.4226   1.0003529218e+02   1.6267874814e+01    0.4121301    0.2677681 -79.56 0.0008772365    1.991    0.498
        13 -10.5035    107.5679    203.7168   1.0089209772e+02   1.7095705903e+01    0.2863724    0.2282531  70.72 0.0006996559    1.315    0.240
        14  -9.5817     31.0081    202.7758   1.1827954359e+02   2.7792601099e+01    0.4166682    0.1937692  68.00  0.001958803    2.258    0.557
        15 -11.0080    193.7294    196.0139   8.0323419389e+01   3.6951126982e+00    0.9708347    0.5783213 -67.41  0.003403477    4.408    0.773
        16  -9.5962    120.9805    195.9135   9.6537855547e+01   1.6564454263e+01    0.2490054    0.2070116 -85.81 0.0008013327    1.356    0.262
        17 -10.4937     60.6207    198.1593   1.1116485857e+02   2.5311367767e+01     0.316578    0.2226408  48.32 0.0009331222    1.320    0.242
        18 -10.6068    112.5995    196.0843   9.8555377706e+01   1.7949581967e+01    0.6306445    0.3651506   2.19  0.001752869    6.174    0.838
        19 -15.5594      2.6994    201.6997   1.2416616404e+02   3.0776893019e+01     12.77364          nan -73.49   0.01120267   10.912    0.908
        20 -10.8534     43.5139    178.4178   1.1306321240e+02   3.2107477891e+01    0.6228896    0.3241525 -39.38  0.002628653    3.006    0.667
        21 -12.9254     55.2803    186.3613   1.1109182693e+02   2.8773622401e+01    0.9450531    0.7134236  62.88  0.004293827    1.235    0.190
        22 -10.0225     65.3979    179.3671   1.0772339904e+02   2.9133315980e+01    0.3584698    0.2913995 -68.10 0.0009793955    1.187    0.158
        23  -8.6184     72.2128    188.2559   1.0720389522e+02   2.6053009354e+01     0.190954    0.1423963  69.83 0.0004816667    1.320    0.242
        24  -8.4303     77.2608    185.6563   1.0561376936e+02   2.5946680311e+01    0.1410291    0.1316249  88.97  0.000353666    1.071    0.066
        25  -8.6087     79.8105    183.5985   1.0469203424e+02   2.6063403574e+01    0.2003812     0.154533  71.71 0.0008764628    1.303    0.233
        26  -8.8805     69.3405    183.4525   1.0727948052e+02   2.7603589259e+01    0.2252344    0.1505768  83.65  0.001110873    1.626    0.385
        27  -9.8836     99.3660    180.7002   9.9343480593e+01   2.3693227675e+01    0.2566829    0.2477802 -24.59 0.0007248795    1.179    0.152
        28  -8.9118     90.8582    180.2475   1.0141699409e+02   2.5173716307e+01    0.3986178    0.2539121 -14.82  0.001174885    3.285    0.696
        29 -17.2197     15.7672    243.0812   1.2391120989e+02   2.0939956256e+01     8.365567     5.629833  88.46    0.0206397    1.282    0.220
        30  -9.6493    187.7605    176.3376   7.7675436621e+01   8.4513116422e+00     0.310446    0.3029123 -73.12   0.00178433    1.220    0.180
        31  -9.2227    146.3946    171.2214   8.5951214762e+01   1.7404258382e+01    0.2752107    0.1488284 -61.03  0.001040945    2.402    0.584
        32 -11.6815     54.5383    146.7233   1.0590976183e+02   3.8699421577e+01     3.093923    0.6055156 -59.84  0.009303379    3.832    0.739
        33 -12.1840     82.0585    159.4210   1.0031756610e+02   3.1656961075e+01     1.056238    0.6383164  68.16 0.0004288894    2.211    0.548
        34 -13.0282     70.3630    154.3078   1.0267397376e+02   3.4673615690e+01     0.640588    0.5160548 -47.98  0.000969704    1.290    0.225
        35 -10.7576    124.8898    244.0020   1.0249819040e+02   6.3445811062e+00     0.686551    0.2055114 -58.18  0.002545579    4.364    0.771
        36 -10.2674    136.5708    211.7026   9.5466675501e+01   1.0582055972e+01    0.2544791    0.1574281  53.74  0.001202798    1.765    0.433
        37  -8.6414    148.4907    175.0640   8.6219218489e+01   1.6158228542e+01    0.2203711    0.1487596 -51.17 0.0007839144    1.541    0.351
        38  -9.7516    240.4715    169.4767   6.6221123099e+01   4.9315695561e-01    0.1337783    0.1129146 -20.02 1.239967e-05    1.014    0.014
        39 -10.2136    183.9496    213.4963   8.5531170630e+01   2.2378742930e+00    0.3182658    0.1172583  42.56  0.001230179    2.692    0.629
        40  -8.7909     36.2822    158.6555   1.1261816137e+02   3.7766634530e+01    0.2422622    0.1708539  72.06  0.001179966    1.418    0.295
        41  -9.9429     32.4928    156.5060   1.1336828757e+02   3.8689428777e+01    0.2277662    0.1979425 -88.30  0.000764626    1.035    0.034
        42 -11.5805     89.2844    152.4039   9.7063517298e+01   3.2269559018e+01     0.740059    0.4735078 -28.97   0.00307944    2.244    0.554
        43 -10.7304    133.6940    144.6784   8.3437633400e+01   2.5978360403e+01     1.164705    0.3147903 -54.96  0.002716495    5.509    0.818
        44  -8.8808    111.4591    149.5775   9.0402057294e+01   2.9112222339e+01    0.3914245    0.2030952  63.03  0.001228417    3.525    0.716
        45  -9.0502    174.7230    149.1354   7.4616286846e+01   1.6528820700e+01    0.2624662    0.2120062  55.01 0.0005959902    1.365    0.267
        46  -8.2670    164.3327    148.7148   7.6868761102e+01   1.8764374435e+01    0.1529351    0.1243965  84.41 0.0003842796    1.619    0.382
        47 -10.1805     38.7974    146.2053   1.1031270729e+02   4.0628522733e+01    0.2973529    0.2395202  71.65 0.0008127555    1.249    0.199
        48 -10.1898    102.8348    138.4253   9.0401345212e+01   3.3423524031e+01    0.5885028    0.3653237 -22.90  0.002192542    2.647    0.622
        49 -11.6689     90.1961    138.1119   9.3963303295e+01   3.5700040104e+01    0.3004988    0.2694028 -37.21 0.0004512082    1.169    0.145
        50 -10.0101    105.7902    130.7725   8.7829418714e+01   3.4758070074e+01    0.3712018    0.3231149 -61.74  0.001271701    1.141    0.124
        51 -10.7326     43.4086    129.5377   1.0640992567e+02   4.4355579910e+01    0.3920988     0.222533  52.34   0.00133852    2.076    0.518
        52  -9.6903    135.9652    129.1613   7.9177574717e+01   2.9112069895e+01    0.3397289    0.2078502 -51.44  0.001211751    1.654    0.395
        53  -9.5393    111.6984    129.5100   8.5850843527e+01   3.3944671475e+01    0.2974528    0.2552392  -1.41 0.0009370432    1.376    0.273
        54 -11.0830     31.2073    129.3670   1.1011008209e+02   4.5626707167e+01    0.4362356    0.2997082  28.86  0.002398707    1.671    0.402
        55  -9.1903    160.8159    127.9925   7.2759632968e+01   2.4008949576e+01    0.2705535      0.18582 -70.41  0.001094413    2.046    0.511
        56 -10.2662     99.0406    125.2595   8.8498961109e+01   3.7343355916e+01     0.326607    0.2674379 -14.21  0.001167953    1.473    0.321
        57  -9.3474     67.6948    124.9171   9.7989606246e+01   4.2496413625e+01    0.2129894    0.1818817 -62.72  0.001033312    1.085    0.079
        58 -10.3469    118.5964    122.8749   8.2292204953e+01   3.4165981438e+01    0.5709981    0.3536263   3.01  0.001794122    3.760    0.734
        59  -8.9103     91.0503    124.0354   9.0598416871e+01   3.9053950875e+01    0.2356346     0.182091  78.19 0.0006095542    1.633    0.388
        60  -9.5098    135.0000    121.4524   7.7494491887e+01   3.1078332019e+01    0.3537859   0.08943628 -46.13 0.0009289937    3.888    0.743
        61  -9.0897    108.0764    118.3752   8.4159037099e+01   3.7309901191e+01    0.2394768    0.2046223 -36.97 0.0004616509    1.178    0.151
        62 -10.7393     34.3917    118.9180   1.0744516874e+02   4.7947289118e+01    0.2835606    0.2358851   1.88  0.001170449    1.449    0.310
        63 -11.5089     69.6823    172.3090   1.0565091702e+02   3.0270398986e+01    0.5064559    0.3184599 -32.32  0.002138277    2.383    0.580
        64  -9.9401    231.2811    113.8452   5.5769012398e+01   1.1783961602e+01    0.2651466    0.2494339 -30.47 0.0007989614    1.092    0.084
        65 -11.3848     53.0975    108.5250   9.9240825821e+01   4.8500728925e+01    0.6884949    0.2103531 -56.61  0.002411229    2.735    0.634
        66 -10.4635    116.3051    109.5824   7.9487742882e+01   3.7716323052e+01    0.4718813    0.2991917  41.73  0.002022204    1.613    0.380
        67 -10.3245     43.4039    110.1983   1.0286362202e+02   4.9201578143e+01    0.3044116    0.1278272 -65.98  0.001199135    2.305    0.566
        68 -11.2492     45.6764    105.9621   1.0121658560e+02   4.9994897453e+01    0.3163702    0.2793624  43.14  0.001137972    1.283    0.221
        69 -11.5232     73.6741    167.9172   1.0395162810e+02   3.0788962881e+01    0.3838907    0.3209853 -64.77 0.0009957099    1.154    0.134
        70  -8.7466    134.5019    106.5026   7.3667697586e+01   3.4514075965e+01    0.2939639    0.1464111 -54.30  0.001034063    2.356    0.576
        71  -8.6901    193.9854    171.3197   7.5339544782e+01   8.2657478395e+00    0.2032795    0.1844029  20.64 0.0009140839    1.094    0.086
        72  -8.4345    139.4889    106.4545   7.2364762971e+01   3.3415137630e+01    0.1569875    0.1533451 -74.01 0.0001861053    1.043    0.041
        73 -10.5624     32.7996     99.0408   1.0426942804e+02   5.2987119603e+01     0.337881    0.1778015  33.93  0.001627588    2.138    0.532
        74  -9.4409    205.3430    110.2381   5.9219821932e+01   1.7784296268e+01    0.2931826    0.2082161  46.87  0.001018167    1.530    0.346
        75  -8.1627    120.5007     89.5196   7.2610699063e+01   4.1203417115e+01    0.1528234     0.150641 -71.67 0.0008096788    1.059    0.055
        76  -9.2185    127.6679     95.0431   7.2262417675e+01   3.8477610353e+01     0.262709    0.2180464  63.93 0.0006738414    1.333    0.250
        77  -9.3027    155.5932     87.4222   6.3169403714e+01   3.3557373099e+01     0.304732    0.2172856 -64.23   0.00095269    1.688    0.408
        78  -8.5346    116.2174     85.3336   7.2561387593e+01   4.2990791020e+01    0.2197096    0.1409805  54.46 0.0009376844    1.712    0.416
        79  -8.9303    158.4146     82.7752   6.1226744304e+01   3.3757245976e+01    0.2087133    0.1485199 -27.13 0.0005887915    1.570    0.363
        80 -14.3857     10.3957    206.4102   1.2287893418e+02   2.9053410065e+01    0.8303673    0.7123327  21.81  0.002574788    1.603    0.376
        81  -8.5344     56.4798     66.5075   8.6701436655e+01   5.7632674875e+01    0.1362658    0.1229814 -24.75 0.0003946481    1.055    0.052
        82 -12.9802    188.6070     49.3983   4.6504480945e+01   3.1887289868e+01     1.017782    0.8689965  32.07  0.001018266    1.450    0.311
        83 -10.2351    139.7678    244.9892   9.9565072502e+01   3.8789165455e+00    0.2462051    0.1405627  46.58  0.001291456    1.611    0.379
        84  -8.1375    168.7477    234.6491   9.2136080050e+01   1.0866843745e+00     0.126592   0.09258614  -4.31 0.0002507486    1.595    0.373
        85  -9.4456    154.5076    215.9791   9.2194927496e+01   6.7158957526e+00    0.1862589    0.1127521 -22.85 0.0007823316    2.439    0.590
        86 -11.8480     21.0266     33.3143   9.0653106763e+01   6.8017360283e+01    0.4107101    0.2876518  30.25  0.002009568    1.682    0.405
        87  -9.0289     67.9527     52.2081   7.7266162810e+01   5.8615618969e+01    0.1935338    0.1842999  44.37 0.0009739259    1.298    0.229
        88  -9.3079    198.1667     23.5688   3.8683644636e+01   3.2957085549e+01    0.2278916     0.175597  -3.62 0.0008230963    1.881    0.468
        89  -8.9259    189.3226     15.0509   3.7521549048e+01   3.6001945808e+01     0.179285    0.1541473 -70.19 0.0005991193    1.085    0.078
        90  -9.6345    158.3398    225.3255   9.2860584940e+01   4.3650987234e+00    0.1374371    0.0987042   1.91 0.0007051346    1.728    0.421
        91  -9.3229     89.8916    212.1366   1.0609385011e+02   1.8027169600e+01    0.2172766    0.1803766 -86.02 0.0004507357    1.217    0.178
        92  -9.4132    108.4853    210.9688   1.0171311354e+02   1.5383836996e+01     0.191773     0.116565  87.37 0.0001653334    2.565    0.610
