#   1 NUMBER                 Running object number                                     
#   2 MAG_AUTO               Kron-like elliptical aperture magnitude                    [mag]
#   3 X_IMAGE                Object position along x                                    [pixel]
#   4 Y_IMAGE                Object position along y                                    [pixel]
#   5 X_WORLD                Barycenter position along world x axis                     [deg]
#   6 Y_WORLD                Barycenter position along world y axis                     [deg]
#   7 A_WORLD                Profile RMS along major axis (world units)                 [deg]
#   8 B_WORLD                Profile RMS along minor axis (world units)                 [deg]
#   9 THETA_WORLD            Position angle (CCW/world-x)                               [deg]
#  10 FWHM_WORLD             FWHM assuming a gaussian core                              [deg]
#  11 ELONGATION             A_IMAGE/B_IMAGE                                           
#  12 ELLIPTICITY            1 - B_IMAGE/A_IMAGE                                       
         1 -10.8729      4.7115      6.6686   9.4824736576e+01   7.7392363781e+01     1.125566    0.4366391 -46.19  0.003938105    2.049    0.512
         2 -10.3041     10.3842     18.7926   9.6285838831e+01   7.4470765930e+01     1.345782    0.4390261 -29.22  0.003663873    7.094    0.859
         3 -11.1670     23.6931     32.2638   9.2966089388e+01   7.0371666690e+01     1.734746    0.4856963 -44.69  0.005043765    3.211    0.689
         4 -10.7657     16.5973     66.4358   1.0691794724e+02   6.2798228153e+01     1.863822    0.4371764 -70.43  0.005992728    3.718    0.731
         5 -10.8700     37.2866      9.7888   7.2322770711e+01   7.2859463328e+01     1.275401    0.4033612 -46.26  0.004381978    4.078    0.755
         6 -11.0864     31.9014     64.5823   9.9114633504e+01   6.1950185829e+01     2.130421    0.7373706 -36.49  0.006098377    5.179    0.807
         7 -10.5102      6.9556     30.0774   1.0317169716e+02   7.2216553544e+01     0.637207    0.3127217 -57.42  0.001947166    1.632    0.387
         8  -9.9761      4.8606     42.1196   1.0791561753e+02   6.9505184807e+01     1.105962    0.4038275 -79.20  0.004262706    3.113    0.679
         9 -10.4385     27.5352     11.7018   7.9799570118e+01   7.4006820003e+01    0.8923512    0.4689914  40.51   0.00446967    2.130    0.531
        10 -10.8519    134.0138     31.0108   5.0306269944e+01   4.8115030463e+01    0.3974283    0.2900084  -8.75            0    1.633    0.388
        11 -10.2025     69.5075     40.4534   7.2997015702e+01   6.1768015716e+01    0.9364691    0.4149839 -41.80  0.002319755    2.180    0.541
        12  -9.8360     73.5546     17.9191   6.0304826553e+01   6.4639286607e+01    0.9595195    0.2477407 -30.40   0.00299364    3.977    0.749
        13  -8.0356     71.9786      8.4786   5.5618010995e+01   6.6187023671e+01    0.2582842    0.1868909 -29.34 0.0005818462    1.402    0.287
        14  -9.7671     79.0535     24.3382   6.1674823709e+01   6.2506247300e+01    0.6298859    0.3297837  30.23  0.001880536    2.641    0.621
        15 -10.3456     51.1041     15.2166   6.8255308283e+01   6.9604440126e+01     1.374429    0.7893193   3.14   0.00538429    3.224    0.690
        16 -10.1946     46.2634     29.5215   7.8606822878e+01   6.7969958148e+01    0.6131845     0.392299 -37.91   0.00114543    1.467    0.318
        17  -9.5195     78.0251      4.4823   5.1419954791e+01   6.5230223018e+01    0.5926203    0.3574394  -7.79  0.001980111    1.891    0.471
        18 -10.2790     62.8955      3.4491   5.5852523381e+01   6.8763098176e+01    0.7325184    0.4527045 -15.59   0.00356343    1.694    0.410
        19  -9.8080     63.1205     21.1882   6.6173329939e+01   6.6360675399e+01    0.6112666    0.3159409 -48.89  0.001955243    2.416    0.586
        20  -9.7731     64.6379     13.3698   6.1156007470e+01   6.7178655370e+01    0.3353306    0.2768031  -5.21 0.0002428853    1.208    0.172
        21  -9.8944    155.6088     25.2096   4.4614155363e+01   4.3268434018e+01    0.5712053    0.4043985  -1.57  0.002754928    1.798    0.444
        22  -9.2506    102.8944     21.8509   5.3367706523e+01   5.7218070990e+01    0.5068395    0.2789518 -25.12   0.00100577    1.901    0.474
        23  -9.3790    118.8324     20.7696   4.9260983776e+01   5.3324214720e+01    0.4426308    0.2685265 -26.73  0.001135978    1.688    0.408
        24  -8.0270    155.2923     17.2335   4.1912645371e+01   4.4260668920e+01    0.3119487    0.1146197 -28.19   0.00117246    2.559    0.609
        25  -9.1969    132.9090     16.2333   4.4833418524e+01   5.0194403328e+01    0.4004655    0.2150599 -17.16  0.001628449    2.123    0.529
        26  -8.9202     96.9604     12.5372   5.0494530039e+01   5.9803511117e+01    0.4392161    0.2495661  11.92  0.001777175    2.616    0.618
        27  -8.6909    112.3086     15.4550   4.8342687204e+01   5.5612955074e+01    0.2871118    0.2063305 -40.15 0.0009595738    1.425    0.298
        28  -8.9787    114.2050      9.8459   4.5506538186e+01   5.5722214949e+01    0.2920933    0.2227244  42.79 0.0003917887    1.327    0.247
        29  -8.6691    104.5385     15.0663   4.9875710416e+01   5.7627955945e+01    0.3939854    0.2144903  14.54  0.001474238    3.018    0.669
        30  -9.5330     85.3189     13.0222   5.3875898805e+01   6.2571195605e+01    0.4617989     0.265786 -55.23   0.00145592    2.390    0.582
        31  -7.8967     80.4379     12.7077   5.5190501339e+01   6.3753935108e+01    0.2790805    0.1498421 -40.77 0.0008395322    2.000    0.500
        32  -8.3700    120.3962      6.1622   4.2819915898e+01   5.4474999087e+01    0.3893216    0.1913472  62.67  0.001700314    1.843    0.458
        33  -9.0637    126.3530      9.3104   4.3149478056e+01   5.2622729762e+01    0.3224898    0.2054321  45.45 0.0008727547    1.624    0.384
        34  -9.0864    125.8983      4.9784   4.1452919181e+01   5.3149607749e+01    0.5024406    0.2847083  20.63  0.002133727    2.445    0.591
        35  -9.0268    137.7207      9.3763   4.1454595414e+01   4.9645340630e+01    0.2518176    0.1551819 -38.49 0.0006293973    1.594    0.373
        36  -9.1330    102.3841      8.5307   4.7315774621e+01   5.8871742302e+01    0.3745693    0.2182068 -68.13   0.00114991    2.433    0.589
        37  -7.4723    156.0000      8.4912   3.8810960939e+01   4.4974144131e+01    0.2957817   0.07774361 -22.08 0.0009313199    3.907    0.744
        38  -8.7061    110.3627      8.1526   4.5494993710e+01   5.6878349900e+01    0.1994083    0.1621498 -62.43 0.0006622215    1.328    0.247
        39  -9.0012    110.4670      3.5597   4.3405573768e+01   5.7281063725e+01    0.3276789    0.2616296 -33.91  0.001197394    1.301    0.231
        40  -7.6918     84.3105      7.3482   5.1182942922e+01   6.3444717163e+01    0.1488161   0.09624613  28.03 0.0007045225    1.712    0.416
        41  -7.2234    193.4455      6.4636   3.4678130882e+01   3.5821817331e+01    0.1302045    0.1165182 -60.73 0.0002272912    1.044    0.042
        42  -9.2961    131.6473      5.6035   4.0855981401e+01   5.1590320943e+01    0.3674216    0.1897439  57.10  0.001643228    1.812    0.448
        43  -8.4256     97.9351      5.5775   4.6877086087e+01   6.0280815312e+01    0.2710162    0.1816118  38.50 0.0005299008    1.520    0.342
        44  -8.7764     95.7762      2.9655   4.6065190502e+01   6.1064583614e+01    0.3078076    0.2599424   3.32  0.001143126    1.254    0.202
        45  -7.7343    143.0281      4.9932   3.9105629621e+01   4.8670958710e+01    0.2338613    0.1430508 -58.57 0.0005758937    1.710    0.415
        46  -8.7442    115.4022      4.4049   4.2908890262e+01   5.5931590043e+01     0.271624    0.2157775 -56.16 0.0006088371    1.329    0.247
        47  -8.0988    104.0769      2.2662   4.4006821163e+01   5.9031308384e+01    0.2505208    0.1766708  27.38 0.0008983106    1.558    0.358
        48  -8.4208     89.1292      2.5505   4.7391702599e+01   6.2749027564e+01    0.2472404    0.1874283 -17.44 0.0007371927    1.377    0.274
        49 -10.1844     18.3340      5.7095   8.2616888616e+01   7.6238649650e+01    0.7207807    0.4056408 -54.70  0.002985923    2.132    0.531
        50  -8.2775    136.8391      1.7931   3.8675666819e+01   5.0569206360e+01    0.3220671    0.1605556 -88.19  0.001325475    2.298    0.565
        51  -7.5156    150.5620      1.5202   3.6980642508e+01   4.7018276807e+01    0.1360219    0.1253159 -78.22 9.917307e-05    1.008    0.008
        52 -10.9143    123.4061     90.7735   7.3216067564e+01   4.0069964605e+01     1.519821    0.7857161 -31.36  0.002934402    2.482    0.597
        53  -8.4424    237.0022    250.5860   8.1522672011e+01  -4.3233939257e+00    0.1449258   0.07391755  26.16 0.0003541897    1.553    0.356
        54 -10.4267    204.2807    249.6990   8.6608106455e+01  -6.3704598153e-01    0.4971923    0.1583111  28.48   0.00245939    2.741    0.635
        55 -10.9698    167.8169    248.5889   9.2751324456e+01   3.8497214714e+00     0.517397     0.326148  17.19    0.0034965    1.408    0.290
        56 -11.5848    181.4129    248.7689   9.0375030067e+01   2.1678134268e+00    0.8675489    0.3490926  31.38  0.004861704    1.951    0.488
        57 -11.0177    133.2672    109.3395   7.5727734387e+01   3.4005431360e+01     1.005229      0.62688 -52.40  0.002476293    1.664    0.399
        58 -10.2800    127.7036    102.5254   7.5364551851e+01   3.6633473807e+01    0.5683964    0.4874375  29.14   0.00151543    1.261    0.207
        59 -10.0056    108.5945    114.3879   8.3644056654e+01   3.7835882791e+01     0.616389    0.3829349 -73.61  0.001394617    2.327    0.570
        60 -11.1422    120.5860    110.9046   7.9448246869e+01   3.6271624291e+01      1.27843    0.7006435 -60.39   0.00255931    2.251    0.556
        61  -9.9460     41.9714    122.8204   1.0626508343e+02   4.5907447472e+01    0.7094412    0.3357853  81.18  0.002556494    3.015    0.668
        62  -8.2907     37.9902    127.0333   1.0812109081e+02   4.5251883181e+01    0.2225564    0.1523314 -42.73  0.001034564    1.715    0.417
        63 -10.1500     27.3075    122.9908   1.1110750765e+02   4.7324731807e+01    0.6900977    0.3085181  65.33  0.002089539    2.666    0.625
        64 -10.8385    108.6035    100.7353   8.0173369301e+01   4.0976127872e+01     1.124582    0.7351944 -71.74  0.004376696    2.082    0.520
        65  -7.7057    157.9990    122.0421   7.3046166312e+01   2.6297515802e+01    0.2247829    0.1821652 -81.21 0.0006005456    1.647    0.393
        66  -7.9460      9.6541    121.6962   1.1674842899e+02   4.9045120309e+01    0.1310558   0.08707778 -47.57 0.0007040625    1.690    0.408
        67  -8.8426     99.8327    119.1466   8.7287595008e+01   3.8345772442e+01    0.4228613    0.2839943   4.88  0.001685713    2.555    0.609
        68  -8.6216      1.5710    116.9770   1.1904024112e+02   5.0741088095e+01    0.3658735    0.1372475  89.97  0.001358907    2.422    0.587
        69 -10.3061     92.0219    112.9997   8.8230250226e+01   4.1210235667e+01     0.655309    0.4801069  85.13  0.001549734    1.740    0.425
        70  -9.0523     93.3533    103.4667   8.5514646881e+01   4.3265852902e+01    0.6713684     0.458687  15.06  0.002717214    2.111    0.526
        71 -10.2896     78.3477    113.0998   9.2562813442e+01   4.3486100699e+01    0.5813484    0.3559504 -88.16  0.001848371    2.400    0.583
        72 -11.0302     44.8751    102.4647   1.0198526728e+02   5.0851779544e+01     1.407261    0.5913131  64.57  0.002986683    5.467    0.817
        73  -9.0103     65.0994     85.0287   9.0451265868e+01   5.2574484437e+01    0.6178071    0.5358275 -21.26  0.002846684    1.309    0.236
        74 -10.4744     62.9819     95.5816   9.3890436161e+01   5.0251176609e+01    0.7492077    0.4223556 -80.02  0.001694294    2.421    0.587
        75  -9.4663     67.2276    103.8891   9.4271988771e+01   4.7521360667e+01    0.5876048    0.4353616 -22.68  0.002799686    1.787    0.440
        76 -10.1389     65.5070    110.9318   9.6350211194e+01   4.5986132682e+01    0.7316781    0.4805092  83.31  0.001001494    1.928    0.481
        77  -9.2747     59.1130    109.0699   9.8164378021e+01   4.7355564036e+01    0.6722863    0.2859277 -69.34  0.002103376    2.516    0.603
        78  -7.9571    152.8143    115.5711   7.2626585660e+01   2.8637304767e+01    0.1991025    0.1439234  58.47 0.0004694377    1.578    0.366
        79  -7.2555    167.3649    114.1987   6.9126713001e+01   2.5875619923e+01    0.1984307    0.1310692 -47.68 0.0003486824    1.540    0.351
        80  -9.8521     14.2184    111.4784   1.1430249707e+02   5.1341884672e+01    0.5339393    0.2439188  75.31  0.001751612    2.410    0.585
        81  -8.4111     14.3199    105.2894   1.1362162332e+02   5.2932775795e+01    0.2451235    0.2033688 -51.54  0.001014109    1.274    0.215
        82  -8.2988    158.7770    111.6028   7.0305806255e+01   2.8167613632e+01    0.2695771    0.1952162 -39.07 0.0002526244    1.334    0.250
        83  -9.7195      7.0961     77.9795   1.1320373697e+02   6.0434586899e+01    0.8197619    0.3038369 -32.72  0.003026101    3.791    0.736
        84  -9.5772    148.5048    249.5616   9.6362152527e+01   6.1221840998e+00    0.3477837   0.07599448  36.49  0.001422161    3.364    0.703
        85  -8.1572    223.9992    247.4838   8.3122304823e+01  -2.6246506820e+00     0.128097   0.07733824  43.96  0.000542191    2.531    0.605
        86  -8.4017     96.0070    245.3349   1.0590733373e+02   1.3256735806e+01    0.1575671    0.1131384  38.37 0.0003460799    1.068    0.064
        87 -10.9206     21.3447    101.7743   1.1061850557e+02   5.3322555720e+01     1.577444    0.6555135  72.93  0.003375218    3.537    0.717
        88  -8.7224    207.7616    241.2628   8.4912740972e+01  -1.1883580748e-01    0.1822368    0.1373784  17.12   0.00042649    1.117    0.105
        89 -10.9984     21.6768     53.4321   1.0128453569e+02   6.5642284762e+01     0.964425    0.5498181  74.20  0.002949961    2.814    0.645
        90 -10.1785     49.9646     53.7670   8.7103327948e+01   6.2306667996e+01    0.6641248    0.5285107 -77.82  0.001808038    1.509    0.337
        91  -9.0150     56.3681     43.1934   7.9936052708e+01   6.3602526752e+01    0.7840955    0.6366358 -25.70   0.00429516    1.235    0.191
        92  -8.5951    246.0618    235.0911   7.7980612875e+01  -3.7759750304e+00    0.1299806    0.1133629   9.81 0.0004249196    1.630    0.386
        93 -10.9088     25.6690     77.7725   1.0499264718e+02   5.9195640929e+01    0.9357828    0.6457612 -61.36  0.004328175    1.256    0.204
        94  -9.1510    188.1524    233.5637   8.7223817771e+01   3.1731217206e+00    0.2143235    0.1663583  21.29  0.001040637    1.102    0.092
        95 -10.4112     36.7676     81.1289   1.0089984005e+02   5.7265945145e+01     1.627862    0.7636725 -14.76  0.004317997    6.927    0.856
        96  -8.9627    206.3078    223.3868   8.2630899203e+01   2.1304425747e+00    0.2270676     0.201755  53.42 0.0008495076    1.891    0.471
        97  -8.0313    149.7012    110.4602   7.2048760635e+01   3.0310731959e+01    0.2636662    0.1328166 -41.32  0.000473994    1.937    0.484
        98  -9.2809     35.4856    110.7771   1.0674317663e+02   4.9704394226e+01    0.2718278    0.1883449  62.75 0.0007622194    1.489    0.328
        99  -8.4189     40.1779    106.7166   1.0443556060e+02   5.0271454550e+01    0.2484613    0.1677457 -83.38 0.0006246645    1.443    0.307
       100  -8.3197     82.0013     94.1595   8.6817791894e+01   4.7545410780e+01     0.406976    0.2565525 -23.78  0.001120071    2.517    0.603
       101  -8.4617     78.5345    104.9743   9.0677036760e+01   4.5476246171e+01    0.4207499    0.2779358  -9.41  0.001648245    2.724    0.633
       102  -9.5203     81.6024    100.3684   8.8544145725e+01   4.6098942939e+01    0.4082356    0.2924509 -85.82 0.0009706225    1.754    0.430
       103  -9.4770      6.3334    103.6427   1.1634949560e+02   5.3867879178e+01    0.4119228    0.2153419  67.92  0.001390669    1.937    0.484
       104  -9.6156    149.4911    103.2692   7.0220006892e+01   3.1791184827e+01    0.4548264    0.2876257 -55.83  0.001093816    1.808    0.447
       105  -8.5585    150.6400     96.6388   6.8162943201e+01   3.2844983026e+01    0.3093941    0.2029703  22.95 0.0009335352    2.186    0.542
       106  -8.4260    165.9681    104.3345   6.6911438497e+01   2.8018292220e+01    0.2742247    0.1951088 -52.61 0.0005209764    1.499    0.333
       107  -9.3933    243.6895    104.4783   5.4267497427e+01   1.2724603638e+01    0.3311877    0.1842568 -54.00  0.001329505    2.430    0.589
       108  -9.0783    246.9816    103.2596   5.3587288323e+01   1.2332652735e+01    0.1737083     0.147175 -24.40 0.0006618921    1.050    0.047
       109  -8.3771     73.9949    102.5765   9.1645080605e+01   4.6807765665e+01    0.2876186    0.2010809 -77.67 0.0007028289    1.610    0.379
       110  -9.0262    158.9611    100.6463   6.7416843470e+01   3.0235747682e+01    0.4689579     0.192592 -38.17  0.001311713    2.372    0.578
       111  -9.9733    243.1368     96.6958   5.2601854853e+01   1.3893299592e+01    0.3716525    0.2171274 -51.43  0.001920086    1.955    0.489
       112  -8.3622    239.2336     96.8792   5.3127826402e+01   1.4556981795e+01    0.1817792    0.1400769 -27.66 0.0002338416    1.082    0.076
       113  -9.4750     94.3154     97.1909   8.3578095763e+01   4.4580268409e+01    0.3848095      0.30325 -64.07 0.0007167854    1.299    0.230
       114  -9.6497     97.7802     88.4733   8.0041142913e+01   4.5941697244e+01    0.6727092    0.4105648 -21.61   0.00159417    2.840    0.648
       115 -10.1508      4.5285     89.6370   1.1566328586e+02   5.7571614798e+01     0.770149     0.292426  78.98  0.002166549    3.203    0.688
       116  -9.6397    140.4970     82.0348   6.6298112857e+01   3.7991252818e+01    0.6729103    0.3162312 -33.76  0.001521807    2.289    0.563
       117  -9.9223    138.6496     92.5781   6.9834487364e+01   3.6324786030e+01    0.4748328    0.3658844 -38.84 0.0007014906    1.272    0.214
       118  -8.8362    139.9288     74.7833   6.4203813109e+01   3.9506642235e+01    0.4714368    0.2148494 -39.52  0.001207533    2.108    0.526
       119  -8.5848    164.3609     94.3938   6.4594751683e+01   3.0215506342e+01    0.2847802    0.2222679 -51.09 0.0007306815    1.299    0.230
       120  -8.8434    157.6347     91.2992   6.5145251396e+01   3.2299420861e+01    0.4078632    0.2207894 -31.11  0.001448772    1.979    0.495
       121  -9.1649    150.3490     89.8262   6.6319018420e+01   3.4229199693e+01    0.4959484    0.2328959 -32.17  0.001395039    2.378    0.579
       122  -9.5411    111.1067     90.0062   7.6437660212e+01   4.2873122943e+01     0.772989    0.3745812  31.93  0.002627644    2.933    0.659
       123  -9.3774     48.7699     77.2135   9.4887943332e+01   5.6844345853e+01    0.7084007    0.3847512   9.54  0.002732291    3.003    0.667
       124  -8.3938    194.8769     87.4973   5.7171728930e+01   2.4700502438e+01    0.3862345    0.1916848 -29.24  0.001608709    1.994    0.499
       125  -7.3327     78.2569     89.6171   8.6891569964e+01   4.9297480227e+01    0.1542033    0.1156555 -89.11  0.000696874    1.671    0.402
       126  -7.4938    173.6861     88.3156   6.1097022832e+01   2.9222084573e+01     0.151073    0.1128921 -67.42 0.0003177407    1.643    0.391
       127  -9.3510     74.2880     79.1980   8.5348156905e+01   5.2486401406e+01    0.7247751    0.3234826 -53.75   0.00188999    2.148    0.534
       128  -9.8930     81.5405     72.4858   8.0592550326e+01   5.2737943019e+01    0.4771046    0.3592193 -85.66 0.0008914955    1.791    0.442
       129  -9.1872     83.4183     64.7381   7.7280588970e+01   5.4094687421e+01    0.5618142     0.379312  -7.77  0.002255416    2.475    0.596
       130 -10.1796     85.3338     86.5755   8.3586499428e+01   4.8764717079e+01    0.5099897    0.3789659  71.97 0.0008225883    1.709    0.415
       131  -9.7217     87.6304     78.8034   8.0470123306e+01   5.0140133910e+01    0.7037545     0.431376  20.25  0.002240983    2.514    0.602
       132  -8.2641    163.5867     86.6754   6.2611250326e+01   3.1799449390e+01     0.356815    0.1452447 -32.71  0.001233682    2.597    0.615
       133  -9.9919     13.3676     45.2477   1.0367149229e+02   6.8253272940e+01    0.6984745    0.3487867 -21.79  0.002608194    2.575    0.612
       134 -10.3398    226.3557    217.1974   7.8369126182e+01   3.7997004395e-01    0.1915623    0.1492395   4.21 0.0002605141    1.087    0.080
       135  -8.6960    242.0144     86.4755   5.0417492228e+01   1.5494101099e+01    0.1698246    0.1296347  58.17  0.001035283    1.600    0.375
       136 -10.3930     47.9054     84.3546   9.7026870526e+01   5.5152546980e+01    0.7364486    0.4432954 -74.67  0.001778853    1.774    0.436
       137 -10.2766    103.8838     82.6081   7.6378877126e+01   4.6018721605e+01    0.5601797    0.3207409 -56.28  0.000932776    1.919    0.479
       138  -9.6447    104.8771     71.7338   7.2581080542e+01   4.8144593288e+01    0.9913509    0.3923071 -36.69   0.00324063    2.891    0.654
       139  -8.4554    157.8348     83.6864   6.2937227100e+01   3.3663678246e+01    0.2864287    0.2060805 -43.01 0.0004398467    1.328    0.247
       140  -8.7548    157.4474     76.7760   6.0988649678e+01   3.5000990767e+01    0.5024425     0.239813 -49.60  0.001867783    2.302    0.566
       141  -8.4233    156.7432     70.1169   5.9119880293e+01   3.6336541355e+01    0.4382883    0.1843864 -38.71  0.001550508    2.215    0.549
       142  -8.9724    150.2034     79.9702   6.3473177740e+01   3.6122308603e+01    0.6208583    0.2566091 -32.30  0.001874573    2.680    0.627
       143  -8.7801    119.0852     80.5821   7.1322001534e+01   4.3164480422e+01    0.3582039    0.2255604 -61.12 0.0006913423    1.964    0.491
       144  -8.5705    120.2932     75.8846   6.9503230627e+01   4.3855545171e+01    0.3468632    0.2530359  32.59 0.0008686344    1.581    0.367
       145  -8.3818     68.8901     79.1049   8.7348809581e+01   5.3417577978e+01     0.365434    0.1817766 -55.88  0.001469285    1.925    0.481
       146  -7.9809    166.5314     78.3412   5.9649438531e+01   3.2597342197e+01     0.267821    0.1353263 -40.45 0.0006831506    1.846    0.458
       147  -7.9622    184.1720     78.1324   5.6424580776e+01   2.8579527686e+01    0.2151567    0.1933106  -8.41 0.0006421436    1.192    0.161
       148  -7.3858    174.4913     78.5392   5.8224061506e+01   3.0720493707e+01    0.1478415    0.1382153 -43.17 -5.717741e-06    1.009    0.009
       149  -8.8123    194.6409    217.9244   8.3851780474e+01   4.3191321273e+00    0.1974106    0.1376225  29.39 0.0003543775    1.264    0.209
       150  -8.6286    130.6679     64.3477   6.3021306030e+01   4.3649447482e+01    0.5560374    0.1873687 -43.46  0.001771723    2.923    0.658
       151  -9.3254    127.3603     75.1764   6.7406385867e+01   4.2374933433e+01    0.3970779    0.2594903 -52.42 0.0007143776    1.609    0.379
       152  -8.2908    128.2167     70.1712   6.5566181242e+01   4.3144854944e+01    0.3881201    0.2654256   0.33  0.001263862    2.427    0.588
       153 -10.5344     54.9582     70.8113   9.0484970999e+01   5.7574564722e+01    0.7253951    0.3764725  54.96  0.001179033    2.756    0.637
       154  -9.1890     55.3567     63.2734   8.7948823790e+01   5.9314563946e+01    0.4454051    0.3062537   2.58  0.001413808    2.049    0.512
       155  -9.9717     62.8918     60.7660   8.3866907410e+01   5.8705070188e+01    0.7199297    0.2669975  36.67   0.00126886    2.888    0.654
       156  -9.2583    115.2089     72.2087   6.9711243461e+01   4.5751912541e+01    0.6049504    0.3031146 -35.94  0.001577818    2.108    0.526
       157  -8.1864    162.7542     72.9796   5.8802478260e+01   3.4410277621e+01    0.2791378    0.1851889 -52.02  0.001075012    1.568    0.362
       158  -7.7580    175.4639     72.5269   5.6335849112e+01   3.1495798032e+01    0.1485806    0.1362875 -48.99 0.0008086966    1.036    0.035
       159  -9.3460    147.0986     69.4021   6.0903095205e+01   3.8779789093e+01    0.4530343    0.2762721 -59.49 0.0008688268    2.048    0.512
       160  -8.2358    169.0657     71.0735   5.7053656953e+01   3.3238283072e+01    0.2286866    0.2078439 -48.71 0.0005604357    1.045    0.043
       161  -9.7165     94.8397     68.3450   7.4609486337e+01   5.1002101268e+01    0.4697656    0.2830898 -52.71 0.0008183178    1.724    0.420
       162  -9.1846     97.3117     58.4613   7.0263270362e+01   5.2500958476e+01    0.7729571    0.5198025 -13.39   0.00320109    2.187    0.543
       163 -10.0431     34.4410     90.3991   1.0374299619e+02   5.5113941835e+01    0.6176288    0.2969489 -88.40  0.001862933    2.828    0.646
       164  -8.4368    170.5317     65.8869   5.5255983849e+01   3.3740303136e+01    0.3391196     0.147926 -26.97  0.001205769    2.602    0.616
       165  -9.2184    138.9289     56.8496   5.8570918940e+01   4.2951322278e+01    0.6346233    0.2236709 -42.50 0.0008955766    2.755    0.637
       166  -9.0147    141.6344     48.4896   5.5124269343e+01   4.3634611853e+01    0.6578121    0.3330337 -22.12  0.001635274    2.461    0.594
       167  -8.8681    137.9616     66.1139   6.1882481146e+01   4.1571707509e+01    0.3415071    0.2442451 -54.80 0.0005931242    1.485    0.327
       168  -7.9853    138.3609     62.3147   6.0536504399e+01   4.2150377782e+01    0.2737897    0.1806819  37.27  0.001186914    1.774    0.436
       169  -9.0153    121.1563     65.9511   6.5981173446e+01   4.5610557293e+01    0.3630021    0.2585821 -60.35 0.0007808632    1.613    0.380
       170  -8.3593    122.0409     61.0598   6.4059818014e+01   4.6318373204e+01    0.3722382    0.2433261  32.89  0.001399505    1.890    0.471
       171  -9.2474    109.7653     63.8116   6.8400426567e+01   4.8660844579e+01    0.3754156    0.2710695 -63.87  0.000696274    1.661    0.398
       172  -8.7846    111.0515     57.8395   6.5887572216e+01   4.9508377503e+01     0.330191    0.2910981 -19.14 0.0009404036    1.208    0.172
       173  -8.2902    233.3926     63.8617   4.6059525737e+01   2.0178512594e+01      0.19316    0.1126236 -19.99 0.0009513134    1.807    0.447
       174  -8.4942    146.9863     62.9844   5.8876492266e+01   3.9927716195e+01    0.3586441    0.2559812  38.91 0.0008392757    1.583    0.368
       175  -8.0461    157.5231     63.0223   5.6769448717e+01   3.7348254193e+01    0.2322104    0.1416789 -36.81 0.0006516594    1.555    0.357
       176  -8.0869    164.6411     60.5310   5.4676081094e+01   3.6019289654e+01    0.3602513    0.1206127 -37.42  0.001129044    2.669    0.625
       177  -8.9327     49.5280     60.8203   8.9738144406e+01   6.0735290337e+01    0.3638869    0.1358984 -57.95  0.001312062    2.616    0.618
       178  -9.9543     73.0966     58.9842   7.9078124352e+01   5.7310750349e+01    0.6283565    0.2864075 -55.58  0.001638296    2.531    0.605
       179  -9.3721     74.9995     50.8360   7.5195239132e+01   5.8661229815e+01     0.629572    0.3925442  16.11   0.00249664    2.608    0.617
       180  -9.2171    146.9742     56.3994   5.6721143447e+01   4.1033977125e+01    0.8064821    0.2419727 -27.89  0.002123309    4.676    0.786
       181  -9.2155     88.1715     56.2851   7.2491247216e+01   5.4895898036e+01     0.914405     0.483971 -33.28  0.002897464    2.114    0.527
       182 -10.2728     85.1027     48.0704   7.0317156233e+01   5.7151745125e+01    0.4664204    0.3278482 -64.02 0.0009513052    1.841    0.457
       183 -10.3635     90.4640     38.0487   6.4236470441e+01   5.7775283377e+01     1.064617    0.4415753  35.46  0.003312806    3.812    0.738
       184  -8.5719    130.0399     57.8754   6.0957093711e+01   4.4959212219e+01    0.2929263    0.2253176 -59.00 0.0004811411    1.405    0.289
       185  -9.4113    117.8790     55.3512   6.3110408904e+01   4.8349664036e+01    0.4707115    0.3264335 -88.64  0.001523786    2.114    0.527
       186  -9.1495    120.8756     47.7177   5.9515942905e+01   4.8938024471e+01    0.5019533     0.328795 -10.69 0.0007496711    2.120    0.528
       187  -8.8238    162.7865     54.1063   5.2999496151e+01   3.7479561530e+01    0.2356282    0.1828005 -55.03 0.0005150386    1.288    0.224
       188  -8.5128    105.5271     53.1912   6.5749337861e+01   5.1653511894e+01    0.3150683    0.2336562 -64.56 0.0007141661    1.628    0.386
       189  -7.8183    106.2207     48.7735   6.3843071642e+01   5.2287504574e+01    0.3128801    0.1694082  33.45  0.001162793    2.518    0.603
       190  -7.6445    152.9517     53.5487   5.4607371879e+01   4.0005785582e+01    0.2167637    0.1471478  61.42 0.0003913955    1.512    0.339
       191  -7.6285    130.9858     53.4651   5.9186864632e+01   4.5484375615e+01     0.227962    0.1479242  54.88 0.0004945564    1.552    0.355
       192  -7.2675    172.3323     50.6484   5.0346466087e+01   3.5649916670e+01    0.1607164    0.1026456 -61.54 0.0007046854    1.779    0.438
       193  -7.0320    167.2810     49.6737   5.0848826131e+01   3.7035333339e+01    0.1539717    0.1042969 -59.72 0.0002664115    1.597    0.374
       194  -8.8383    157.2504     48.6550   5.2219401559e+01   3.9683399284e+01    0.2857747    0.1993629 -36.86 0.0008854023    1.366    0.268
       195  -9.0741    149.7576     47.0415   5.3042958321e+01   4.1809602904e+01    0.4876052    0.1716622 -35.95  0.001691923    2.592    0.614
       196  -9.5553    130.6683     46.0055   5.6577013933e+01   4.6781473011e+01     1.011848    0.3652599 -28.08  0.002561071    3.229    0.690
       197  -8.9413    139.7020     40.6126   5.2731523198e+01   4.5315042580e+01    0.5298632    0.2830269 -61.07  0.001917778    2.615    0.618
       198  -8.9503    132.9804     35.9839   5.2378012523e+01   4.7696941074e+01    0.5043427    0.3109492 -61.20  0.001444839    1.990    0.497
       199  -7.5366     56.2105    215.7223   1.1173000707e+02   2.3114625327e+01     0.169245   0.07967428 -61.52 0.0008948321    2.413    0.586
       200  -8.8271    112.0301     46.0754   6.1171894162e+01   5.1368250218e+01     0.568725    0.2658742 -26.93  0.001907498    2.566    0.610
       201  -8.0057    115.3826     38.7877   5.7426189811e+01   5.1723042616e+01    0.3614381    0.1874036 -24.97  0.001391333    2.189    0.543
       202  -8.7425    195.9965    213.3075   8.2915824264e+01   4.7424855710e+00     0.175712    0.1483244 -11.99 0.0002330834    1.213    0.175
       203  -9.8677     75.9591     32.1668   6.6628333599e+01   6.1940568694e+01    0.5322176    0.3259612  60.74  0.001693737    1.982    0.496
       204  -9.0265     70.6666     26.5704   6.5914689691e+01   6.3968576175e+01    0.4321103    0.2734958  38.17  0.001720744    1.626    0.385
       205  -6.9352    117.6847    213.7032   9.8320333033e+01   1.5621731371e+01    0.1174711   0.08983525   2.15 0.0004438509    1.606    0.377
       206  -8.2363    196.5674    208.5831   8.2085128571e+01   5.2932360987e+00    0.1899369    0.1545999   8.46 0.0002528466    1.032    0.031
       207  -9.9134     10.4778    207.2570   1.2108314505e+02   2.9377069234e+01    0.5579012    0.2569142  18.15  0.002877483    2.819    0.645
       208  -8.7864     84.6815     21.8744   5.8562901047e+01   6.1584303989e+01    0.2632895     0.240009 -40.35 0.0007961416    1.150    0.130
       209  -7.3581    223.2331    205.3911   7.7009765666e+01   2.1704647223e+00    0.1352419   0.09508414  32.03 0.0002275049    1.451    0.311
       210 -10.1261    163.7853    203.2343   8.7423756049e+01   1.0715492670e+01     0.208989    0.1917139  -0.23 0.0003299351    1.139    0.122
       211  -8.5115     42.1350     27.8958   8.0007511539e+01   6.8923888571e+01    0.2124647    0.1508854 -13.63   0.00110194    1.618    0.382
       212  -9.9138     37.8102     42.0043   8.8735937934e+01   6.6605075932e+01    0.4265793    0.3352749  85.57  0.001694366    1.777    0.437
       213 -10.3542     35.8981     38.0094   8.8151436470e+01   6.7721791032e+01    0.5844619    0.3203872 -31.57 0.0003609103    2.083    0.520
       214  -8.2129    122.2238     41.5156   5.6833818498e+01   4.9599095002e+01    0.3507408    0.2126032  15.12  0.001182378    2.991    0.666
       215  -8.4185    109.6205     28.1786   5.4473354259e+01   5.4704561291e+01    0.3889846    0.1837151 -25.42  0.001519189    2.293    0.564
       216  -9.0124    110.3781     33.3261   5.6457723351e+01   5.3783989043e+01    0.3960945    0.2416248 -44.91 0.0008907667    1.703    0.413
       217  -8.9804    104.9336     41.2056   6.1181477039e+01   5.3882132612e+01    0.3496808    0.2290875 -51.11 0.0009157322    1.679    0.404
       218  -8.7650    106.3062     36.2810   5.8761415519e+01   5.4336806009e+01    0.3958369    0.2307302  37.28  0.001187732    1.998    0.499
       219  -9.0664    153.8420     41.7075   5.0509412048e+01   4.1557798033e+01    0.3718715    0.2341079 -57.81   0.00131009    1.759    0.431
       220  -7.2650    160.0000     38.9630   4.8575057734e+01   4.0379824330e+01     0.235389   0.08073903 -29.16 0.0005559468    2.849    0.649
       221  -7.0492    189.7213     37.3100   4.3964482650e+01   3.3255097160e+01    0.1463625   0.09350099 -56.79 0.0003450821    1.560    0.359
       222  -7.8970    167.0078     36.3757   4.6668690867e+01   3.8958765913e+01    0.3102675    0.1203489 -43.98  0.001142658    2.453    0.592
       223  -8.7773    144.2232     36.4240   5.0383028616e+01   4.4754211767e+01    0.2989959    0.2117155 -56.86 0.0005734666    1.490    0.329
       224  -8.4770    115.9588    200.7715   9.7090898200e+01   1.8163310629e+01    0.1791739    0.1755086  42.33 0.0003323166    1.130    0.115
       225  -8.7919    118.8922     34.6712   5.4934643583e+01   5.1462766705e+01    0.3271772    0.1941129 -34.58 0.0006596969    1.662    0.398
       226  -9.1743    101.0733     32.3185   5.8511811165e+01   5.6205879149e+01    0.4575679    0.2348533 -35.15  0.001245158    1.920    0.479
       227  -8.8627    193.7223    197.4606   8.0815650253e+01   7.2251481052e+00    0.3266131    0.2518152 -67.70  0.001873535    2.509    0.601
       228  -9.3686     60.2709     33.3333   7.3664773522e+01   6.4845784857e+01    0.4730781    0.2908378 -54.32  0.001442493    1.947    0.486
       229  -8.7547     62.2454     26.8145   6.9533346949e+01   6.5623457981e+01    0.4072477    0.2301943  31.80  0.001545349    2.043    0.510
       230  -8.8887    191.4730    192.9790   8.0483560750e+01   8.1950681209e+00    0.4204789    0.2825485 -66.82  0.001951735    3.673    0.728
       231  -9.3207     48.2229    191.5133   1.1171733565e+02   2.8888010532e+01      0.20827    0.1839213  66.06 0.0004669814    1.091    0.083
       232  -8.0689    159.4440     33.9805   4.7010059602e+01   4.1187615084e+01     0.208065    0.1372317 -31.56  0.000304013    1.475    0.322
       233  -9.5917    153.6370     33.3810   4.7715281916e+01   4.2749628037e+01     0.415959    0.2537048   1.85   0.00166766    2.584    0.613
       234  -9.3931     91.4288     26.2609   5.8581261734e+01   5.9392495728e+01    0.5547141    0.2315715 -43.13  0.002078477    2.592    0.614
       235  -8.5122     92.2750     20.8675   5.5769512919e+01   5.9934097299e+01    0.4044645    0.2189492  30.45  0.001457152    2.464    0.594
       236  -8.7744    185.9259    188.2016   8.0709729778e+01   9.7296124980e+00    0.1845306    0.1580797  -5.77 0.0003084214    1.084    0.077
       237  -7.2280    147.7430     28.9713   4.7131426318e+01   4.4834526879e+01    0.1846674    0.1238891 -27.96 0.0004581235    1.505    0.336
       238  -8.8441    128.5197     25.2225   4.9135908218e+01   5.0281287210e+01     0.432584     0.254741 -29.65   0.00139274    1.701    0.412
       239  -8.6749    144.2794     25.3854   4.6409285619e+01   4.6176241395e+01    0.3589758    0.2043677 -21.56  0.001502993    1.907    0.476
       240  -7.1279    171.4012    185.4715   8.3059367997e+01   1.2387724101e+01    0.1248313    0.1120205  12.91 0.0001304871    1.060    0.056
       241  -8.0101    140.3006     22.6847   4.6068655998e+01   4.7534042466e+01     0.152202     0.102662 -61.13 0.0002771335    1.614    0.380
       242  -6.9334    214.3061    178.6918   7.3926031014e+01   6.8876614375e+00    0.1037107    0.0994308 -62.71 0.0001798383    1.610    0.379
       243  -8.2228    111.4393     21.3002   5.1080600207e+01   5.5145731147e+01    0.3372408    0.1837268 -20.52  0.001433388    2.035    0.508
       244  -8.6852    232.6086     20.0926   3.5445017081e+01   2.5637758455e+01    0.2130779     0.174341 -83.43 0.0004977633    1.265    0.209
       245  -8.4271    139.8957     18.2422   4.4477978310e+01   4.8150352776e+01    0.2547558    0.1791863 -42.46 0.0005805671    1.400    0.286
       246  -7.5780    113.5088    177.4728   9.4407481479e+01   2.3028684340e+01    0.1336918    0.1223507  38.49 0.0008099125    1.020    0.020
       247  -8.1405    129.2568     17.2496   4.5852226878e+01   5.1034015695e+01    0.3653165    0.1015117 -45.46  0.001057296    4.262    0.765
       248  -8.0982    250.0000     16.9685   3.3624455532e+01   2.2476071068e+01    0.1955002   0.05657548 -27.53 0.0007932806    2.879    0.653
       249  -8.8847     49.8253    176.0019   1.1001035135e+02   3.2095101564e+01    0.1932617    0.1606912  51.27   0.00026417    1.090    0.082
       250  -6.8084    100.9592    175.7868   9.7178781564e+01   2.5298741932e+01    0.1604135    0.1011267  35.09            0    1.473    0.321
       251  -7.8576    230.4780    167.9668   6.9283345023e+01   6.0085772922e+00    0.1551618   0.09674557 -49.93 0.0008088925    2.444    0.591
       252  -7.8771    133.8470    148.0616   8.4389319492e+01   2.5676593628e+01    0.3100803    0.1774129 -65.03  0.001214657    2.506    0.601
       253  -7.8971    133.4175    144.2204   8.3718759464e+01   2.6555278692e+01    0.2634085    0.1467482 -54.81 0.0008762637    1.974    0.493
       254  -7.9901    244.9281     14.9596   3.3454474015e+01   2.3678153419e+01    0.1809388    0.1452843 -51.55 0.0004895136    1.040    0.039
       255  -9.5970    238.8260    145.9285   6.3713865304e+01   7.7700659797e+00    0.3504816    0.1763228  20.69  0.001566525    2.998    0.666
       256  -9.4716     66.8238    144.2993   1.0168501712e+02   3.7440181976e+01    0.5434976     0.297055  62.45   0.00232571    2.183    0.542
       257  -8.5477    125.0886     13.2882   4.4983674661e+01   5.2548076805e+01    0.2210707     0.206059 -62.75 0.0005846816    1.077    0.072
       258  -8.1866    250.3877    139.1861   6.0712720776e+01   6.9427635344e+00    0.1754273   0.09273542 -37.42 0.0009495314    1.705    0.414
       259  -8.0841    236.0045    137.8236   6.2478698688e+01   9.3295450339e+00    0.1825535    0.1496792 -76.49  0.001080886    2.091    0.522
       260  -9.6563    190.8287    134.7791   6.9326058997e+01   1.7579415232e+01    0.2675883    0.2393922 -19.53 0.0003159915    1.033    0.032
       261 -10.1961     58.1713    124.3956   1.0123447000e+02   4.3561570872e+01    0.7022995    0.3816302  81.72  0.002167484    2.634    0.620
       262  -8.3704     95.8571     16.8111   5.2835340444e+01   5.9578996058e+01    0.2153925    0.2014191 -63.82 0.0004647751    1.152    0.132
       263 -10.5542     66.5035    129.5134   9.9459419181e+01   4.1144625571e+01    0.7533118    0.6349881 -49.81  0.004157865    1.263    0.208
       264 -10.2321    133.9515    132.6242   8.1123450866e+01   2.8901389232e+01     0.546133    0.4773113 -55.46  0.001949353    1.182    0.154
       265  -8.1450    120.9555     14.4868   4.6221798433e+01   5.3493375635e+01    0.3326885    0.1845139  54.59  0.001494742    1.706    0.414
       266  -8.8603    112.1092    133.9026   8.7036268610e+01   3.2697931735e+01    0.3525505    0.2564725  83.82  0.001029118    1.867    0.464
       267  -9.0999     83.3770    131.6078   9.4715516987e+01   3.8119215146e+01    0.6857653    0.3805846  73.25  0.002451014    3.144    0.682
       268 -10.2969     71.3081    125.9167   9.7337379986e+01   4.1359535565e+01    0.6910108    0.3955415 -85.24   0.00137583    2.330    0.571
       269  -8.0419    195.8802    131.5970   6.7692389411e+01   1.7179845530e+01    0.2335999    0.1702637 -21.50 0.0004897068    1.340    0.254
       270  -7.9951    142.3064    131.9602   7.8951221892e+01   2.7426805116e+01    0.3145664     0.192061  67.63  0.001198172    2.790    0.642
       271  -9.8979     98.5886    128.5749   8.9682857701e+01   3.6330024480e+01    0.6641753    0.3848551  69.35  0.002434201    2.886    0.654
       272  -7.9600    160.8691    129.1181   7.4079356695e+01   2.4351627642e+01     0.224731    0.2049252 -72.53  0.001014607    1.278    0.217
       273  -8.5461    126.0119    129.3568   8.2396580259e+01   3.1126194596e+01    0.2055308    0.1901775  45.36 0.0006345606    1.077    0.071
       274  -9.1928    130.1208     97.1332   7.3258532188e+01   3.7263145009e+01    0.4701299    0.3006163  21.16  0.001828428    2.417    0.586
       275 -10.4387    131.9973    119.9793   7.8697692921e+01   3.1988455230e+01    0.9367195    0.5512239  71.32  0.002698276    3.462    0.711
       276 -10.1402    140.4288    117.4715   7.6000048769e+01   3.0809488195e+01    0.8056182    0.3433219 -51.37  0.001623173    2.602    0.616
       277  -9.8775    139.4918    104.5647   7.2930212511e+01   3.3688348753e+01    0.7062014    0.4351239 -53.18  0.001955353    1.737    0.424
       278 -10.4930    116.9171    123.5113   8.3471801370e+01   3.4161735446e+01     1.015699    0.7005801 -68.57  0.002500203    1.748    0.428
