#   1 NUMBER                 Running object number                                     
#   2 MAG_AUTO               Kron-like elliptical aperture magnitude                    [mag]
#   3 X_IMAGE                Object position along x                                    [pixel]
#   4 Y_IMAGE                Object position along y                                    [pixel]
#   5 X_WORLD                Barycenter position along world x axis                     [deg]
#   6 Y_WORLD                Barycenter position along world y axis                     [deg]
#   7 A_WORLD                Profile RMS along major axis (world units)                 [deg]
#   8 B_WORLD                Profile RMS along minor axis (world units)                 [deg]
#   9 THETA_WORLD            Position angle (CCW/world-x)                               [deg]
#  10 FWHM_WORLD             FWHM assuming a gaussian core                              [deg]
#  11 ELONGATION             A_IMAGE/B_IMAGE                                           
#  12 ELLIPTICITY            1 - B_IMAGE/A_IMAGE                                       
         1 -11.2746      2.0795     21.6935   9.3301151784e+01   7.0954993349e+01    0.2795997    0.1695096 -48.26 0.0008624477    1.561    0.359
         2 -11.3666     71.7312     14.3667   5.8197748818e+01   6.2639028834e+01    0.4288305    0.2594665 -10.15   0.00131771    1.793    0.442
         3 -11.5884     13.6331     15.9093   8.4372065092e+01   7.0948209937e+01     0.286732    0.2334874 -14.98  0.001200555    1.190    0.160
         4 -10.9839     14.7429      8.3115   8.0110825456e+01   7.1923744203e+01    0.3239739    0.2565455 -19.84  0.001476638    1.261    0.207
         5 -11.7215    234.8761     15.0890   3.1894691856e+01   2.6408385315e+01    0.2280509    0.1723554 -71.51 0.0003028909    1.095    0.086
         6 -11.3149     84.3475     14.3550   5.4350517450e+01   6.0153423321e+01    0.4589341    0.2325061  25.41  0.001688219    2.352    0.575
         7 -10.4005     89.5145     13.4957   5.2577107702e+01   5.9170361118e+01     0.244586    0.1985576  22.30  0.001493299    1.135    0.119
         8 -10.7428     65.4932     13.5257   5.9922140617e+01   6.3889762543e+01    0.4549974    0.1715202 -40.72  0.001827853    3.827    0.739
         9 -10.9544    208.0255     13.2407   3.3722626632e+01   3.2229482706e+01    0.2024118    0.1590327 -46.97 0.0007388041    1.253    0.202
        10 -10.0068     98.8730     12.1568   4.9681399274e+01   5.7302582214e+01    0.3695508    0.2433515 -47.01  0.002012149    1.983    0.496
        11  -9.8717     22.4060      9.5553   7.6594369834e+01   7.0909949297e+01    0.3562373    0.1749902  12.11  0.001816945    2.371    0.578
        12 -11.1584     34.5024     12.5181   7.2049229589e+01   6.8993354411e+01    0.2958441    0.2428831 -20.76  0.001074205    1.335    0.251
        13 -10.8421     38.2580      7.1848   6.7679359372e+01   6.9089672646e+01     0.518589    0.3149195  19.05  0.002774567    1.476    0.322
        14 -11.7917     30.5202      7.4576   7.1436278864e+01   7.0149411436e+01    0.4117122     0.246281  28.37  0.001840142    1.489    0.328
        15 -10.2376     27.7455      2.0203   6.9972179091e+01   7.1146771788e+01    0.2287866    0.1517624 -23.80  0.000941154    1.456    0.313
        16  -9.8394    171.9967     11.9863   3.7158071520e+01   4.0477287549e+01    0.1463796    0.1322541 -88.42 0.0003250043    1.049    0.047
        17 -10.1725     44.8506     10.5673   6.6468056157e+01   6.7711377201e+01    0.3327368    0.1721997  16.87  0.001508506    2.236    0.553
        18 -10.8349    134.2806     10.9728   4.2177454796e+01   4.9390940462e+01    0.2831753    0.1742569  85.95  0.001434638    1.901    0.474
        19 -11.4574    125.2766     10.0382   4.3431067797e+01   5.1560625861e+01    0.4119864    0.2197798 -54.05 0.0007790549    2.608    0.617
        20 -10.3514     57.2868      8.9904   6.0788186753e+01   6.5823559694e+01    0.2669558    0.1880338 -40.07  0.001607977    1.905    0.475
        21 -11.2683     57.8062      2.7439   5.7657720015e+01   6.6326036519e+01    0.4055766    0.2648385  19.75  0.001031405    1.376    0.273
        22  -9.7045    137.9921      9.0074   4.0963630694e+01   4.8697414599e+01    0.1545281    0.1326737  64.14 0.0003424759    1.012    0.012
        23  -9.8507    119.2907      9.6469   4.4406212945e+01   5.2968188667e+01    0.1249582   0.09391394 -66.27 0.0003809784    1.676    0.403
        24 -10.8562    187.7092      7.4209   3.4292267613e+01   3.7314154655e+01     0.262957    0.1571528  32.33  0.001052614    2.581    0.613
        25 -10.0593      2.3478      6.7952   8.6582270104e+01   7.3278961280e+01    0.2046563    0.1288055   3.37 0.0007154489    1.383    0.277
        26 -10.8643    151.0176      6.0039   3.8170648917e+01   4.5910560335e+01    0.1905864     0.164824  78.02 0.0003580424    1.038    0.036
        27  -9.1013     92.5838      6.5462   4.9037154712e+01   5.9141485849e+01    0.1241082    0.1059761  39.57 0.0001701379    1.031    0.030
        28 -11.0523    119.7047      3.7389   4.2322819007e+01   5.3356989544e+01    0.2918589    0.2211184  66.08 0.0009591898    1.182    0.154
        29 -10.4055    135.5740      3.8004   3.9724654258e+01   4.9693624365e+01    0.1622653    0.1123785 -40.84  0.000499921    1.628    0.386
        30 -10.4755    103.6235      2.8083   4.5105751742e+01   5.7042759676e+01    0.3017202    0.2721736  79.66  0.002038734    1.247    0.198
        31  -9.6156     75.1180      3.6152   5.2491297000e+01   6.2979271422e+01    0.1819503   0.08710428  43.39 0.0004891711    1.706    0.414
        32  -9.2659     49.6311      3.1399   6.0888149269e+01   6.7709021334e+01    0.1528589   0.09675854  -3.63 0.0003395151    1.550    0.355
        33 -11.0254     20.6604      2.2262   7.3722499064e+01   7.2030106165e+01    0.2795686    0.1612187  18.15   0.00167927    1.529    0.346
        34 -10.1119    237.4959      2.4991   2.9212565401e+01   2.7204588214e+01     0.111888   0.08952004 -72.59 0.0008104224    1.036    0.034
        35  -9.5893    176.2144      2.6132   3.4271272691e+01   4.0364805967e+01    0.1740239   0.09492643  62.94 0.0004234787    1.614    0.380
        36  -9.9500    162.5318      2.4820   3.5743613863e+01   4.3527279551e+01    0.1237446    0.1057977  82.56 0.0008094547    1.021    0.021
        37 -11.1126     80.2400      1.6523   5.0215928131e+01   6.2107476262e+01    0.2624876    0.1436175  54.00  0.001112341    1.574    0.364
        38 -10.7895     11.3678      1.6575   7.8582167847e+01   7.3148334717e+01    0.1699876    0.1287785  27.62 0.0004882762    1.614    0.380
        39  -9.5162      1.1930      1.9462   8.4862327234e+01   7.4061613250e+01    0.1395934   0.07017282 -38.50 0.0008503753    1.761    0.432
        40  -9.2043    247.3349    155.3075   5.9985378164e+01   3.2575179371e+00    0.1332276   0.09190498  -6.61 0.0007041446    1.673    0.402
        41 -10.5530     30.7853    250.6567   1.1980182030e+02   1.7810450205e+01    0.2251642   0.09176762  36.22  0.000698609    2.151    0.535
        42 -12.3205     18.2931    248.8047   1.2196768322e+02   1.9449132758e+01    0.4697875    0.2919387  18.51  0.002887012    2.363    0.577
        43 -10.3686      5.9931    250.0127   1.2420285298e+02   2.0407208459e+01    0.2077445    0.1844234  54.90  0.001301164    1.325    0.245
        44 -10.7960      2.0842    247.2782   1.2475841152e+02   2.1281835473e+01    0.3657059     0.167207 -84.57  0.002210113    1.957    0.489
        45 -12.4781      9.8419    245.1054   1.2329043034e+02   2.0976128626e+01    0.4225404    0.3061009  53.90  0.003142356    1.177    0.151
        46 -12.0141      4.8970    240.6080   1.2395466706e+02   2.2303447813e+01    0.4672266    0.2036733  45.15   0.00278936    1.855    0.461
        47 -10.9639      3.2574    153.5528   1.1857295234e+02   4.1633964969e+01    0.3774467    0.1046152  24.08  0.001540959    3.866    0.741
        48 -11.1135     22.4628    146.8919   1.1274424719e+02   4.1830155707e+01    0.2625658    0.1970385 -37.55  0.001049742    1.495    0.331
        49  -9.4229    236.3482    139.2938   5.8408482562e+01   7.7596514240e+00    0.1354758   0.09877738  -2.68 0.0004821323    1.672    0.402
        50  -9.4313     24.5345    138.9649   1.1115108015e+02   4.3619469205e+01    0.1977155    0.0755097 -49.65 0.0008081607    2.428    0.588
        51 -11.1419      2.8735    133.3867   1.1668977705e+02   4.6529939999e+01    0.3449736    0.2268953  34.44  0.002052207    1.765    0.433
        52 -10.1265    212.5209    133.9330   6.1283002018e+01   1.3026978736e+01     0.235357    0.2033592  75.55 0.0006614467    1.484    0.326
        53  -9.4895     95.9695    134.0310   8.9003913201e+01   3.5855235653e+01    0.1837374    0.1750144 -43.77   0.00056154    1.005    0.005
        54  -9.1555     61.5245    130.5230   9.8630146227e+01   4.1843133458e+01    0.1439893    0.1313323 -55.27 0.0004537311    1.001    0.001
        55 -10.7413     12.0391    129.5619   1.1358965947e+02   4.6882150037e+01    0.2452698    0.1790589  76.36  0.001439932    1.462    0.316
        56 -10.5419     28.3653    128.1504   1.0846730363e+02   4.5978637626e+01    0.2001803    0.1738796 -30.18 0.0004330638    1.253    0.202
        57 -10.9349     24.6357    122.1011   1.0869450953e+02   4.7785651427e+01    0.3047386    0.1996772  35.38 0.0004302154    1.740    0.425
        58 -10.4398     17.9697    121.9472   1.1075958704e+02   4.8334539372e+01    0.1942828    0.1600496 -57.22            0    1.067    0.062
        59 -11.1165      9.8678    120.0033   1.1300548765e+02   4.9358415792e+01     0.330238    0.1629243 -69.69  0.001642453    1.659    0.397
        60 -10.6058     69.2297    116.7131   9.3284408127e+01   4.4209586004e+01    0.2941658    0.2109548 -36.12 0.0006848288    1.398    0.285
        61 -11.0946     18.7724    116.4093   1.0967717543e+02   4.9632289750e+01    0.2298767    0.1215993  25.94  0.001152092    2.165    0.538
        62 -11.6931      1.9505    110.9776   1.1429124697e+02   5.1992554154e+01    0.5888537    0.1110161 -70.34  0.001919073    4.025    0.752
        63 -10.3785     65.2835    113.2958   9.3786021752e+01   4.5581270760e+01    0.2285546    0.1861945 -38.66 0.0002026279    1.155    0.134
        64 -10.1553     64.9943    109.9578   9.3106393390e+01   4.6423070833e+01    0.2578402    0.1981376 -45.03 0.0004698243    1.184    0.155
        65  -9.0816    139.2498    112.0227   7.1591283709e+01   3.2575761651e+01    0.1942607    0.1300334 -41.69 0.0001959349    1.460    0.315
        66  -9.6067     45.0168    110.5637   9.9938691416e+01   4.8709730829e+01    0.1909041    0.1372674  24.17 0.0006627435    1.553    0.356
        67 -10.7473     13.2718    108.9872   1.1031927310e+02   5.1812636445e+01    0.1943903    0.1807561 -31.68 0.0004951581    1.189    0.159
        68 -10.7543     57.7764    107.7647   9.5012565153e+01   4.7895115538e+01    0.2363192    0.1808723  17.96 0.0007133379    1.443    0.307
        69 -10.3960     27.2909    107.6311   1.0537716328e+02   5.1107582891e+01    0.2047455    0.1498579  71.44  0.001107443    1.738    0.425
        70  -8.9965     85.0016    114.0000   8.7617058239e+01   4.2473450565e+01    0.2356479   0.08603475  34.75 0.0007944046    2.887    0.654
        71  -9.5927    246.6550    101.6924   4.8869999781e+01   1.2200534903e+01    0.1253989   0.09868603  -0.43 0.0003893085    1.697    0.411
        72  -9.4477     84.1575    100.1790   8.4307172727e+01   4.5809443084e+01    0.1856796    0.1744585  80.78 0.0002756164    1.265    0.209
        73 -10.8890     19.9008    100.1886   1.0656324419e+02   5.3469531867e+01    0.2387598    0.1595451 -28.20 0.0009553753    1.570    0.363
        74  -9.2248    100.8592     96.8037   7.8100121291e+01   4.3596492103e+01    0.1969455    0.1795502 -84.62  0.000566354    1.330    0.248
        75  -9.8447      6.9704     85.0424   1.0845151031e+02   5.7833351770e+01    0.2159544    0.1618446 -21.89  0.001091636    1.381    0.276
        76 -11.4433      3.1472     95.3627   1.1162348246e+02   5.5637198428e+01       0.2311    0.1777622 -61.21 0.0002465627    1.048    0.046
        77 -11.3822      7.4038     91.1116   1.0939259526e+02   5.6406530329e+01    0.3608161    0.2348109  10.46 0.0004159606    1.824    0.452
        78 -11.4540     10.6933     86.2355   1.0727836000e+02   5.7347143214e+01    0.3690643    0.2371444  87.23  0.001943218    2.083    0.520
        79 -12.1151     20.5956     92.8814   1.0491279122e+02   5.5145447080e+01    0.3899346    0.2389185 -37.19 0.0004783198    1.520    0.342
        80 -10.6050     24.0950     88.6249   1.0273075078e+02   5.5869826347e+01    0.4678104    0.1652554 -55.50  0.001984813    2.164    0.538
        81 -11.9989    125.2356     93.2943   7.0083740111e+01   3.9431207920e+01    0.2665808     0.259506   2.37 0.0002186046    1.020    0.020
        82 -11.9041     58.0778     91.6811   9.0930483121e+01   5.1612370312e+01    0.2984565    0.2333331 -34.06 0.0002190249    1.173    0.148
        83  -9.8522     29.0525     91.9922   1.0161780455e+02   5.4679906889e+01    0.1916778    0.1535865  62.35 0.0006348951    1.628    0.386
        84 -10.1972     43.0978     88.8942   9.5681300429e+01   5.4035245302e+01    0.2268886    0.2058996 -72.22  0.001373643    1.267    0.211
        85 -10.3635     66.7290     92.0421   8.7964865738e+01   5.0343266267e+01    0.2747485    0.1920811  46.81  0.001211988    1.714    0.417
        86  -9.3765    124.4657     86.4987   6.8306150679e+01   4.0938879463e+01    0.1506752    0.1443364  -1.35 0.0001820109    1.011    0.011
        87 -11.1879     55.3234     85.7203   9.0321383572e+01   5.3305724138e+01    0.2401661    0.2235748 -42.40 0.0002844242    1.128    0.114
        88  -9.7694    145.5108     83.3151   6.2107147048e+01   3.6882644519e+01    0.2602806    0.1370738  51.67  0.001053371    1.922    0.480
        89 -10.5920    139.0657     82.9253   6.3526537271e+01   3.8406686910e+01    0.2185196    0.2116155  19.20 -0.001320134    1.019    0.019
        90 -10.3023      3.0965     82.1739   1.0938429378e+02   5.8689085549e+01    0.3526677    0.1498486 -66.15  0.001698478    1.943    0.485
        91  -9.3887     76.6891     83.0256   8.1908905493e+01   5.0780609361e+01    0.2060793     0.172093 -28.96 0.0006329619    1.112    0.101
        92  -9.6637     88.2510     79.4111   7.6910175032e+01   4.9544290517e+01     0.357884    0.2439591 -85.27  0.001324719    3.499    0.714
        93  -9.3099     80.6492     79.7722   7.9561115245e+01   5.0799153560e+01    0.1923458    0.1312477 -51.70 0.0002136165    1.573    0.364
        94 -10.3352     23.6912     78.3452   1.0054267439e+02   5.8238561862e+01    0.3671674     0.239413 -86.17  0.001824529    2.309    0.567
        95  -9.1021    124.5004     79.4525   6.6184889775e+01   4.2268302880e+01    0.1463663    0.1446419  14.81 0.0002257188    1.056    0.053
        96  -9.5213     47.8918     79.1592   9.1285139651e+01   5.5663716681e+01    0.1880266    0.1390535 -25.18  0.000325535    1.292    0.226
        97 -10.9761      7.8795     77.0618   1.0652775530e+02   5.9593906637e+01    0.3424055    0.2012094  56.87  0.001704543    2.727    0.633
        98  -9.7690    176.4785     76.9471   5.3901250577e+01   3.0891393434e+01    0.2256204    0.1968199  60.25  0.001238885    1.163    0.140
        99  -9.5189    159.5421     77.4239   5.7344067105e+01   3.4711070516e+01    0.1435649    0.1411137  28.34 3.348884e-05    1.037    0.035
       100 -11.3886     55.0823     75.1315   8.7364429174e+01   5.5624167000e+01    0.3042711     0.227769 -18.08            0    1.327    0.246
       101 -11.2499     15.9144     75.1899   1.0290688636e+02   5.9514742879e+01    0.3960522    0.2202026   4.07  0.002076829    2.109    0.526
       102  -9.8615     41.2275     74.7918   9.2646739225e+01   5.7366533443e+01    0.2360645    0.1805167   7.73 0.0007772106    1.368    0.269
       103 -10.2745     37.2329     74.9931   9.4287674323e+01   5.7745598129e+01    0.3581668    0.2041463 -50.95  0.000314872    1.530    0.346
       104 -10.2729     33.8869     73.0000   9.5080100523e+01   5.8510621472e+01     0.336374    0.1824905  18.77 0.0008581132    2.038    0.509
       105 -12.6320    105.9032     70.8227   6.8672433594e+01   4.7782275744e+01    0.3040536    0.2924972 -61.10 0.0004869199    1.200    0.167
       106 -10.8514     10.1761     69.6527   1.0397027293e+02   6.1100467442e+01    0.3443598     0.167163 -50.28  0.001295788    1.568    0.362
       107  -9.0998    100.2460     70.6001   7.0294893000e+01   4.8963583423e+01     0.142103    0.1139921 -66.90 0.0006936857    1.687    0.407
       108 -10.6009     80.6111     67.2300   7.5540916294e+01   5.3266150295e+01    0.4293655    0.2614253 -49.02   0.00176774    1.817    0.450
       109 -10.0504     77.4939     67.4969   7.6708858437e+01   5.3754652886e+01    0.2849368    0.2209397 -14.63  0.001072732    1.295    0.228
       110 -10.7222     45.7113     69.4724   8.9303544174e+01   5.7978773736e+01    0.2786937    0.2538534  -0.73 0.0006346736    1.147    0.128
       111 -10.3149     51.3458     66.4253   8.6113890795e+01   5.7900550447e+01    0.2839001    0.1724123 -22.94 0.0007246013    1.788    0.441
       112 -10.1242      5.0258     68.2790   1.0579959150e+02   6.1689319366e+01    0.2659103    0.1655883  67.57  0.001338176    2.804    0.643
       113  -9.6591      1.4480     66.4694   1.0689679649e+02   6.2260720548e+01    0.1224204   0.09606956 -47.80 4.094312e-05    1.029    0.028
       114 -10.7755     15.0875     63.4654   1.0036229468e+02   6.2113617991e+01    0.3627034    0.2418893 -28.04   0.00125013    1.344    0.256
       115 -12.8496     20.5980     57.6473   9.6331159150e+01   6.2909888927e+01    0.4097699    0.2528435 -54.46  0.001027545    1.499    0.333
       116 -10.9530     96.9118     63.9889   6.9131453265e+01   5.0808850922e+01    0.2759818    0.1951942  33.48 -0.001320134    1.391    0.281
       117 -10.5093     62.5766     62.1147   8.0329011378e+01   5.7168311941e+01    0.2917615    0.2156499 -42.96  0.001598529    1.354    0.261
       118 -10.0848      4.6484     62.3126   1.0458574054e+02   6.2994111640e+01    0.1109421   0.09134866  66.65 0.0003748905    1.726    0.421
       119  -9.3738    130.6523     62.8229   5.9485699269e+01   4.3784478693e+01    0.1939139    0.1304574 -44.84  0.000294866    1.587    0.370
       120 -10.2691     38.7551     61.2374   8.9587014256e+01   6.0451692297e+01    0.2804579    0.1692544  -4.55  0.001114549    1.977    0.494
       121  -9.9343     41.4481     58.5143   8.7573539466e+01   6.0683689225e+01    0.1835436    0.1173518   7.74 6.970381e-05    1.700    0.412
       122  -8.9125    127.6822     59.6625   5.9209680099e+01   4.4960440174e+01    0.1509447    0.1092732  16.91 0.0007048878    1.703    0.413
       123  -9.2943     78.0053     58.2041   7.3344468452e+01   5.5359731015e+01    0.1742774    0.1060028  37.65 0.0003237399    1.625    0.385
       124 -10.1834     85.2994     59.3121   7.1251220773e+01   5.3848733345e+01     0.219804     0.152854   6.50 0.0007787804    1.714    0.417
       125 -12.0247     86.1148     54.4968   6.9283827104e+01   5.4510810721e+01     0.639173    0.3758614  16.44  0.002105679    2.372    0.578
       126 -10.3577     10.4772     59.5205   1.0133733408e+02   6.3247055686e+01    0.2242188    0.1162592  14.38  0.001201419    2.138    0.532
       127  -9.7910    109.5563     58.0548   6.3415041005e+01   4.9204399037e+01    0.2121184    0.1785685  40.02 0.0002762114    1.139    0.122
       128  -9.7973     48.7381     58.3930   8.4514166646e+01   5.9811181003e+01    0.1825952    0.1187628  14.07 0.0007848903    1.625    0.385
       129  -9.8641     71.6049     56.7009   7.5086387925e+01   5.6722137984e+01      0.17629    0.1262295 -45.03 0.0005210527    1.517    0.341
       130 -10.0725     37.6953     48.8853   8.5878831977e+01   6.2941364050e+01    0.2566789    0.1560015   5.82  0.001342763    1.819    0.450
       131 -10.2357     32.5965     56.1697   9.0591723719e+01   6.2110521483e+01    0.3080513    0.1428746 -28.44  0.001227622    2.404    0.584
       132 -10.2939      5.6680     57.0019   1.0282061870e+02   6.4056316271e+01    0.3437287    0.1567841 -15.68  0.001649719    2.582    0.613
       133 -10.4984     96.3732     55.9109   6.6530671094e+01   5.2280873450e+01    0.2541893    0.1908612  32.32 0.0003844853    1.279    0.218
       134 -10.7897    114.5464     53.4884   6.0527402071e+01   4.8841595122e+01    0.2823598    0.2590283  10.21 0.0007935595    1.063    0.059
       135 -11.8853     66.5998     52.7796   7.5517192503e+01   5.8229140359e+01    0.3994138    0.2094625  33.83  0.001112111    1.896    0.473
       136 -10.2460    149.1406     52.0631   5.2119257270e+01   4.1133883436e+01    0.2446403    0.1944217  58.26 0.0005282669    1.206    0.170
       137 -11.0590    105.9470     50.7648   6.1936324412e+01   5.1109516129e+01    0.3044453    0.1983675 -26.88 0.0007711611    1.614    0.380
       138 -10.7471    120.1398     47.9219   5.7236427484e+01   4.8421457062e+01    0.3628502    0.2044112  53.03  0.001668195    1.686    0.407
       139  -9.8651      4.0350     50.9177   1.0195191705e+02   6.5394233387e+01    0.2446775   0.09639405 -40.00  0.000619607    1.982    0.496
       140 -10.6502      9.2847     47.7740   9.8581765739e+01   6.5708920688e+01     0.318912    0.2210193 -12.59  0.001550516    1.363    0.266
       141  -9.5595     76.4641     49.5100   7.0742548540e+01   5.7097626597e+01    0.1369404    0.1213257   3.46 0.0002693371    1.022    0.022
       142 -10.2287    102.0305     48.2947   6.2181283502e+01   5.2305531025e+01    0.1949339     0.166634  38.47 0.0003953141    1.109    0.098
       143 -10.4887    152.7947     45.4091   4.9442042126e+01   4.1192567546e+01    0.4000704    0.2342711 -66.23  0.001347029    2.574    0.612
       144  -9.9986    136.5431     46.7753   5.3096236519e+01   4.4825011157e+01    0.2638969    0.1851585  56.44 0.0009986144    1.349    0.259
       145  -9.6965     53.3085     47.6036   7.8791185949e+01   6.1149385023e+01    0.1819414    0.1144516  19.09 0.0009449315    1.629    0.386
       146  -9.4460     31.0025     45.9894   8.7838712721e+01   6.4209337219e+01    0.1544152    0.1224754 -23.74 0.0004034926    1.032    0.031
       147 -11.2878     18.0079     44.4780   9.3377894014e+01   6.5705424181e+01    0.3626769    0.2379101  21.71  0.002175962    1.648    0.393
       148 -10.2287     25.7146     43.8539   8.9519159326e+01   6.5133689435e+01    0.2050879    0.1602391 -54.76 0.0009552388    1.547    0.354
       149  -9.8790     69.1402     41.8729   7.0464383102e+01   5.9582102140e+01    0.1855474    0.1723009   4.47  0.001173113    1.174    0.148
       150 -10.2864     59.3369     41.8282   7.4163300650e+01   6.1200678324e+01    0.2535382     0.172413  47.41 0.0007518323    1.834    0.455
       151 -10.4016     35.3451     41.7044   8.4287997739e+01   6.4497514786e+01    0.2791682     0.181487   4.20  0.001548601    1.562    0.360
       152 -11.1005    128.2552     39.0177   5.2402646882e+01   4.7774344968e+01    0.3372862    0.2100035 -45.90 0.0009187516    1.837    0.456
       153  -9.5431    183.3825     40.2433   4.3072420612e+01   3.4677155738e+01     0.172547    0.1163564 -45.59 0.0004080473    1.463    0.316
       154  -8.0901    171.4597     40.4870   4.4886404322e+01   3.7428233022e+01    0.2010733    0.1157668  53.05 0.0009684426    1.685    0.407
       155  -8.8780    168.5458     38.8289   4.4882496465e+01   3.8323062256e+01    0.2675312    0.1498299 -44.85 0.0009731727    1.834    0.455
       156 -10.0678    138.8722     40.4720   5.0634883743e+01   4.5118885519e+01    0.3121856    0.1360909  66.00  0.001036706    2.621    0.619
       157  -9.2876     99.4604     40.4919   6.0118658334e+01   5.3957047865e+01    0.1380292    0.1223639  22.60 3.812152e-05    1.019    0.019
       158 -10.3394     97.2470     37.4783   5.9644973690e+01   5.4825796918e+01    0.2689192    0.1941354  12.01 0.0009112859    1.525    0.344
       159  -9.5813     42.9692     40.5634   8.0455683778e+01   6.3756676065e+01    0.1793226    0.1151006  25.54 0.0007022397    1.530    0.346
       160  -9.3230     79.2691     45.6814   6.8346648070e+01   5.7194247087e+01    0.1214048    0.1096643 -68.42 0.0002186001    1.560    0.359
       161  -9.7859    152.3178     39.0333   4.7645443105e+01   4.2132753019e+01    0.1816395    0.1771202 -49.44 0.0005066809    1.090    0.083
       162 -11.8306    121.2259     37.4740   5.3471568051e+01   4.9579927511e+01    0.3927955     0.321692  33.78  0.001243379    1.179    0.152
       163 -10.5190     22.0028     38.3844   8.9304608555e+01   6.6474711478e+01    0.2314181    0.1463815 -35.88 0.0008486254    1.307    0.235
       164 -12.5689     39.7817     32.4378   7.8594599708e+01   6.5485940248e+01     0.355909    0.2495897 -16.64  0.000499855    1.259    0.205
       165 -11.2191     27.1220     34.6082   8.5385486619e+01   6.6622986366e+01    0.2873463    0.2005142 -10.50 0.0009164028    1.267    0.211
       166 -10.7776     91.4945     33.3801   5.9779713931e+01   5.6546919378e+01    0.3951197    0.2791418  13.35  0.001971697    1.533    0.348
       167 -10.4957      6.9063     34.3097   9.5397465716e+01   6.8420130509e+01    0.2990494    0.1690734   0.20  0.001759123    1.803    0.445
       168  -9.8132    133.6643     34.6863   4.9857947509e+01   4.7057461009e+01    0.1439304   0.09632205  31.13  0.000704633    1.689    0.408
       169 -11.0393     48.5560     33.0218   7.5003146072e+01   6.4190007266e+01    0.4213663     0.214044  37.56  0.002132785    1.986    0.496
       170  -9.4390    241.8283     33.1518   3.5000646060e+01   2.2931765203e+01    0.1386334    0.1321517 -63.24 0.0003124983    1.262    0.208
       171 -10.1623     55.1917     33.0884   7.2287786580e+01   6.3182590057e+01    0.1881968     0.143411  -1.40 0.0003074211    1.177    0.150
       172 -10.1317     17.2361     32.7705   8.9549960686e+01   6.7892332017e+01    0.2587867    0.1435098  -0.44  0.001272436    1.933    0.483
       173 -10.9657     71.1623     29.2678   6.4688587084e+01   6.1008930995e+01    0.5217597    0.3660243 -67.49  0.002391454    3.263    0.694
       174  -9.2881    162.6420     31.7001   4.3811169471e+01   4.0579018712e+01    0.1388817   0.09426489  37.42 0.0007036448    1.710    0.415
       175 -11.3380     10.0907     29.6956   9.2057431721e+01   6.9012940736e+01    0.3499215      0.19606  34.84  0.001993874    2.349    0.574
       176 -10.0902      2.7449     26.5743   9.4810956283e+01   7.0074010762e+01    0.3096584    0.1279779   3.80  0.001505094    2.859    0.650
       177 -11.5525      9.4664    237.6699   1.2298015423e+02   2.2455985357e+01    0.2135791    0.1754102   2.41  0.001208722    1.920    0.479
       178 -10.2604    127.2299     30.2436   4.9738519664e+01   4.9075176345e+01    0.2356696    0.1762965  56.87 0.0006482683    1.220    0.180
       179  -9.5398    151.2276     29.5826   4.5037419923e+01   4.3521963675e+01    0.1777476     0.113334  53.94 0.0003280734    1.440    0.305
       180  -9.6460     35.0557     28.7917   7.9225355655e+01   6.6651551891e+01    0.1693417     0.130418  -4.37 -0.0006383859    1.062    0.058
       181  -9.5203    147.5191     28.6009   4.5373809567e+01   4.4509412212e+01    0.1328203    0.1187921  65.13 8.284704e-05    1.021    0.020
       182 -10.2678    113.9302     26.5988   5.1413898355e+01   5.2520101492e+01    0.2372519    0.1890431 -33.29 0.0006630054    1.387    0.279
       183  -9.6786     59.6227     25.7936   6.7453904483e+01   6.3476815987e+01    0.2109213    0.1552709 -33.59 0.0007357615    1.497    0.332
       184  -9.6836     52.7472     26.0154   7.0271732300e+01   6.4561707038e+01    0.1692136    0.1381555  -2.31 0.0003324092    1.057    0.054
       185 -10.7387     45.6172     26.1238   7.3315467085e+01   6.5621980360e+01     0.363661    0.1836768  32.80  0.001547772    1.875    0.467
       186  -9.9080    229.8027    247.9042   8.0202891139e+01  -8.4033885206e+00    0.1745793    0.1250405  -2.23 0.0004589334    1.122    0.109
       187 -10.6694     74.3505     18.6778   5.9189294933e+01   6.1681604409e+01    0.2813254    0.1892789 -42.34  0.001295714    1.923    0.480
       188 -10.0200     35.9116     22.5309   7.6081076035e+01   6.7468093775e+01    0.2001593    0.1321042   9.45  0.001201424    1.401    0.286
       189 -10.4621     37.8988     19.1983   7.3639851333e+01   6.7662595163e+01    0.2582152    0.2145159  49.32  0.001620681    1.871    0.466
       190 -11.2117     14.7779     22.0174   8.6462625987e+01   6.9898873582e+01    0.3960529     0.226239  17.07  0.002401571    1.699    0.411
       191 -10.5752    229.0856     21.6951   3.3718058156e+01   2.6851310015e+01    0.3775748    0.2071809  78.76  0.002128548    1.777    0.437
       192  -9.9763     97.1491     22.0699   5.3887980785e+01   5.6692485454e+01    0.2133125    0.1614641  45.26  0.001248002    1.164    0.141
       193  -9.5603    100.8424     21.1456   5.2588766693e+01   5.5996846308e+01    0.2206008     0.138385  26.79   0.00113424    1.700    0.412
       194 -10.3840     54.5509     21.9899   6.7774350681e+01   6.4802422213e+01     0.217586    0.1565172  27.63 0.0004166297    1.230    0.187
       195 -10.6902     30.2517     21.0277   7.8100337109e+01   6.8397813763e+01    0.2932665    0.1847292  14.65   0.00112876    1.469    0.319
       196  -9.9021    181.5051     20.9652   3.8346243028e+01   3.7366615710e+01    0.1755526    0.1262249 -28.15 0.0005410035    1.558    0.358
       197  -9.5782    114.4614     21.5254   4.9513323642e+01   5.2943976144e+01    0.1319655    0.1160403  43.82  0.000108639    1.003    0.003
       198  -9.3776     84.1844     21.3401   5.7231963456e+01   5.9460119516e+01    0.1751855    0.1132437  56.29 0.0007061209    1.618    0.382
       199  -9.5809     46.2244     21.3764   7.0941139486e+01   6.6179962565e+01    0.1593193    0.1072758  39.55 0.0009377442    1.590    0.371
       200  -9.2734    214.3363     20.2854   3.4717331445e+01   3.0109748056e+01    0.1140785   0.08881579  45.45 0.0005829713    1.627    0.385
       201  -9.8106     20.1892     17.2194   8.1449831958e+01   7.0096965715e+01    0.2785304    0.1507446 -21.64  0.001585105    1.710    0.415
       202  -9.1571      8.3110     18.3045   8.8395311617e+01   7.1047435450e+01    0.1184438   0.08915582 -17.59  0.000321683    1.033    0.032
       203 -10.7794    209.0249     18.4488   3.4803207671e+01   3.1458941081e+01    0.1789507    0.1508317 -62.12 0.0004837585    1.093    0.085
       204  -9.7297     60.2326     18.7276   6.4130555345e+01   6.4248563107e+01    0.3622443    0.1243377  41.92  0.001546147    2.588    0.614
       205  -9.5939    140.8563     18.0671   4.3295487936e+01   4.7189089711e+01    0.1873883    0.1649028 -84.95 0.0006694822    1.187    0.157
       206  -9.3681     49.3545     17.2042   6.7717069285e+01   6.6228438066e+01    0.1552277    0.1052509 -31.87 0.0004999315    1.584    0.369
       207  -9.6037     26.8214     16.8411   7.7863612694e+01   6.9404425377e+01    0.1443702    0.1213749  10.79 0.0004401296    1.280    0.219
       208 -10.3264    225.1129    247.3759   8.0966869648e+01  -7.7480179209e+00    0.2171576     0.154948 -27.52  0.001437522    1.405    0.288
       209  -9.4702    170.7925    247.1615   9.1382462257e+01  -3.1666634566e-01    0.1733423    0.1300367   1.36 0.0006995666    1.343    0.256
       210  -9.3907    116.1449    246.7810   1.0254576252e+02   7.7015560888e+00    0.1580355     0.139583   2.45  0.001037485    1.287    0.223
       211 -10.1776    202.4098     16.1881   3.4920792511e+01   3.3150594163e+01    0.1692525   0.09841501 -46.89 0.0005303832    1.619    0.382
       212  -9.2014    202.3217    240.3158   8.4098368579e+01  -3.7388552736e+00    0.1296553   0.08253539   0.12 0.0003689591    1.661    0.398
       213  -9.7891     35.9746    240.4722   1.1816197887e+02   1.9220441397e+01    0.1678876   0.09842734  39.14 0.0005795694    1.552    0.356
       214 -10.9785     14.8052    239.8091   1.2211364210e+02   2.1527969559e+01     0.164796    0.0994738  63.62 0.0007322748    1.353    0.261
       215 -10.0238    217.4720     15.4854   3.3384340905e+01   2.9963577028e+01    0.1195325   0.09993487 -75.54 0.0002448092    1.011    0.011
       216  -9.6036    168.8474     14.8160   3.8295099029e+01   4.0934610804e+01    0.1726291     0.132777 -78.27   0.00025306    1.292    0.226
       217  -9.9982    117.6809    239.6730   1.0135175565e+02   8.7758131558e+00     0.124946   0.09635877  -4.94 0.0007046677    1.681    0.405
       218  -9.9475     91.0848    237.3022   1.0669386373e+02   1.3013226363e+01    0.1893314    0.1650835 -52.21 0.0004959058    1.330    0.248
       219 -11.6560     25.6107    236.0996   1.1986389920e+02   2.1186179638e+01    0.2403842    0.1835158  38.84  0.001060712    1.364    0.267
       220 -12.0726      3.9133    232.7116   1.2374653049e+02   2.3946249307e+01     0.275901    0.2092268  88.37  0.002052561    1.156    0.135
       221  -9.6983    249.3183    233.8888   7.4435697433e+01  -8.9227206771e+00    0.1627964    0.1181069  -9.34 0.0004993523    1.063    0.059
       222 -11.1546      1.5938    224.7639   1.2377693835e+02   2.5754988619e+01    0.3427899    0.1381578  64.99  0.001697153    2.294    0.564
       223 -11.6381      2.4281    220.6754   1.2340586943e+02   2.6524589465e+01     0.594852     0.192414  84.44  0.002423087    3.693    0.729
       224  -9.5139      7.6871     14.0497   8.6855194594e+01   7.1760249969e+01    0.1529517    0.1046761 -21.84 0.0001889386    1.113    0.102
       225  -9.9538    222.4422     13.5313   3.2549155147e+01   2.9125842155e+01    0.1167161    0.0981617 -75.19 4.935899e-05    1.039    0.037
       226 -12.2489      9.8292    227.6692   1.2237376478e+02   2.4427337557e+01     0.298299    0.2509235  70.38  0.001660181    1.124    0.110
       227  -9.3565     47.8014    229.8325   1.1500252499e+02   2.0039813944e+01    0.1666771    0.1137846  63.66  0.001020052    1.309    0.236
       228  -9.2365    243.0535    230.4583   7.4933263359e+01  -7.6978164307e+00    0.1670431    0.1019807  25.14 0.0006560024    1.535    0.348
       229  -9.7770    209.4911    229.5160   8.0926851847e+01  -3.1159626816e+00    0.1278785    0.1031247   2.70 -1.929093e-05    1.003    0.003
       230 -10.7815    140.5932    228.2147   9.4877358761e+01   7.4577555164e+00    0.2813565    0.2411513 -71.98  0.001704538    1.459    0.314
       231  -9.8533    223.1746    226.8379   7.7886468130e+01  -4.6029886734e+00    0.1743803    0.1209075  -3.18 0.0003572943    1.308    0.236
       232  -9.6077      3.7563     10.6115   8.7556315358e+01   7.2602006709e+01    0.1255099   0.09156172  13.45 0.0002270432    1.399    0.285
       233  -9.2902    233.2440    218.9710   7.4662952910e+01  -4.7985023823e+00    0.1547808   0.09211238 -32.55 0.0005583153    1.543    0.352
       234 -10.5259      8.3721    218.0846   1.2210795945e+02   2.6545173383e+01     0.242878     0.183723  32.46  0.001692755    1.520    0.342
       235  -9.7025    205.5566    212.6614   7.8735422898e+01   1.2515377338e-01    0.2280454    0.1165982 -34.50 0.0009257105    1.904    0.475
       236  -9.0488    249.3373    211.3432   7.0470058043e+01  -5.7975002633e+00    0.1316693   0.07818498  -5.96 0.0007049623    1.769    0.435
       237 -10.1392     15.5546    213.2751   1.2036979404e+02   2.6914358931e+01    0.2018036    0.1149363  47.99 0.0006453383    1.575    0.365
       238  -9.8564     20.2263    209.8851   1.1917108414e+02   2.7208623619e+01    0.1890466    0.1280423  67.02 0.0006481413    1.290    0.225
       239 -10.3592     74.7017     22.3111   6.0600660077e+01   6.1205520015e+01    0.4406393    0.1983106  55.09  0.001926026    2.573    0.611
       240 -11.0403      3.5334    206.7307   1.2240486734e+02   2.9385809205e+01    0.2224304   0.08898464 -72.55  0.001137798    2.120    0.528
       241  -9.4823    193.5056    202.4598   7.9273843926e+01   3.7384567992e+00    0.1364337    0.1197983   0.51 0.0001399977    1.028    0.027
       242 -10.3138     23.6173    196.7285   1.1743034242e+02   2.9815751983e+01     0.338496    0.1782301 -42.72  0.001638111    2.697    0.629
       243  -9.7849     13.9158    192.5275   1.1925078120e+02   3.1656257405e+01    0.1751997    0.1352947  83.98 0.0004802527    1.073    0.068
       244 -10.3996      1.4277    191.5523   1.2190426302e+02   3.2903175918e+01    0.2557933    0.1106277 -89.18 0.0007209668    2.111    0.526
       245 -10.4484      5.7711    191.9677   1.2099448581e+02   3.2466140890e+01    0.2281124    0.1487888 -57.28   0.00139995    1.621    0.383
       246  -9.2995     22.0303    180.0057   1.1634600827e+02   3.3840260033e+01    0.1480293    0.1302799  76.28 0.0005136211    1.089    0.082
       247  -9.2221     13.3244    180.6566   1.1844964417e+02   3.4444048340e+01    0.1335258   0.07622006  66.96 0.0007050687    1.735    0.424
       248 -10.5625      4.7763    167.6796   1.1940775929e+02   3.8161368473e+01    0.2831073     0.158471  49.93  0.001579555    1.817    0.450
       249  -9.6733    226.4400    164.0405   6.5294139837e+01   5.1420506270e+00    0.2077433    0.1186461 -35.97 0.0006669021    1.546    0.353
       250  -9.5065     41.1121    158.2343   1.0906855674e+02   3.7270552286e+01    0.1843148    0.1401619  88.88   0.00102496    1.293    0.227
