#   1 NUMBER                 Running object number                                     
#   2 MAG_AUTO               Kron-like elliptical aperture magnitude                    [mag]
#   3 X_IMAGE                Object position along x                                    [pixel]
#   4 Y_IMAGE                Object position along y                                    [pixel]
#   5 X_WORLD                Barycenter position along world x axis                     [deg]
#   6 Y_WORLD                Barycenter position along world y axis                     [deg]
#   7 A_WORLD                Profile RMS along major axis (world units)                 [deg]
#   8 B_WORLD                Profile RMS along minor axis (world units)                 [deg]
#   9 THETA_WORLD            Position angle (CCW/world-x)                               [deg]
#  10 FWHM_WORLD             FWHM assuming a gaussian core                              [deg]
#  11 ELONGATION             A_IMAGE/B_IMAGE                                           
#  12 ELLIPTICITY            1 - B_IMAGE/A_IMAGE                                       
         1 -12.9080    203.1770     49.8385   2.3705796814e+01   2.8218123793e+01     1.044183     0.954298  88.08  0.003586629    1.040    0.039
         2 -13.0980    212.2213     42.4019   2.0463321828e+01   2.7018409819e+01    0.8129234    0.7319018  44.14  0.001365462    1.272    0.214
         3 -11.4661      2.3516     22.5136   7.5843833160e+01   7.0309171356e+01    0.5380011    0.1189544 -55.41  0.002287121    3.337    0.700
         4 -12.8335    239.2562     18.3549   1.1606705524e+01   2.3632865629e+01    0.8980392    0.7549673 -66.85    0.0043301    1.030    0.029
         5 -11.3425      2.4166      8.2027   7.0358644766e+01   7.2730478627e+01    0.6986108    0.1720046 -53.65  0.002834635    4.207    0.762
         6  -8.6481    158.3094      8.6848   1.8474455799e+01   4.4720050629e+01     0.139219   0.09818532 -68.29 0.0003943134    1.632    0.387
         7 -11.4623    154.6884    228.2088   7.3491764240e+01   5.7611436015e+00    0.4420484      0.32269 -63.42  0.001961468    1.742    0.426
         8  -8.5735     80.5149    250.5716   8.9912693358e+01   1.3585199138e+01    0.1147884   0.08655515  59.90 8.685533e-05    1.035    0.034
         9 -11.2251     75.2218    247.0870   9.0559313631e+01   1.4916407095e+01    0.4751254    0.2935824 -61.18  0.003057524    1.955    0.489
        10 -11.1510     71.7844    241.4975   9.0716489598e+01   1.6372481377e+01    0.4675533    0.3413922 -85.18  0.002538238    1.358    0.264
        11 -13.5876     51.3658    181.2622   8.9198929164e+01   3.1202473600e+01     2.006552     1.235622 -84.06  0.008308823    1.475    0.322
        12 -16.1387     35.2831    187.3415   9.3190351777e+01   3.1718533071e+01     8.204534     3.659909  67.44   0.03511545    2.375    0.579
        13 -10.0559    142.1422    215.7529   7.4226062271e+01   1.0077778857e+01    0.2108341    0.1874986 -58.32 0.0005653841    1.298    0.230
        14  -9.7107    141.1870    204.7867   7.2795667039e+01   1.2275631711e+01    0.2318893    0.1384607  73.86 0.0009530401    2.837    0.648
        15 -15.4015      4.6523    157.8532   9.7303684639e+01   4.1029896272e+01     7.981043    0.6036453 -74.83   0.02018602    8.353    0.880
        16 -10.6469    192.3020    193.6766   6.0308196394e+01   4.8350447680e+00    0.8073757    0.4184707 -64.11  0.002319852    6.486    0.846
        17 -11.0412    163.1125    191.8322   6.6013885075e+01   1.0683081369e+01    0.5642327    0.2822775 -61.72  0.002143239    3.208    0.688
        18  -9.1870    179.3112    193.3710   6.2897894245e+01   7.3303015139e+00    0.1441079    0.1055008   3.16 0.0001139118    1.773    0.436
        19  -9.2527    210.6602    188.3200   5.5667264790e+01   2.3241582668e+00      0.12933    0.1109792  81.19 0.0007049929    1.714    0.417
        20 -15.2822     10.3043    238.3978   1.0095400442e+02   2.4194846873e+01    0.4685591    0.3236127 -87.65  0.002120729    1.308    0.235
        21  -8.9288     77.5047    187.4710   8.4169960867e+01   2.6352632474e+01    0.2051399    0.1504843  67.34 0.0005208382    1.237    0.191
        22 -10.0430     76.6681    183.0181   8.3802546753e+01   2.7455023808e+01    0.5487919    0.2821091  58.56  0.002571576    2.013    0.503
        23 -11.4940     97.7856    181.3224   7.8795274458e+01   2.4602398856e+01    0.5074501    0.4107349  47.48  0.001893996    1.203    0.169
        24 -10.0613    115.9490    182.4796   7.4834385723e+01   2.1288727138e+01    0.2188792    0.1295033  42.16 0.0007357952    1.593    0.372
        25  -8.9853    155.3107    179.6584   6.5500168897e+01   1.4549735485e+01    0.1469371    0.1120469  79.04 0.0004636534    1.696    0.410
        26 -10.6175    180.4859    176.4602   5.9444902930e+01   1.0204172023e+01    0.3356513    0.2270941 -60.67  0.001558464    1.944    0.486
        27 -10.2790    127.0991    176.7440   7.1337696892e+01   2.0521840560e+01    0.2518399    0.1983638 -80.11  0.001319824    1.405    0.288
        28  -9.8676    199.7392    173.4172   5.4858745620e+01   6.9505774945e+00    0.2527946    0.1714623 -50.57 0.0008803062    1.722    0.419
        29 -11.9474     69.1726    172.1242   8.4120300820e+01   3.0962571547e+01    0.5685246    0.2855958  45.79  0.001312113    1.901    0.474
        30 -12.9109     93.0699    164.4629   7.7331949730e+01   2.9169594796e+01     1.713305     0.778111  55.84  0.004872663    2.624    0.619
        31 -11.5544     55.3151    132.6456   8.1910423139e+01   4.2045412733e+01    0.9745299    0.5502212  35.50   0.00344526    1.948    0.487
        32 -12.0301     75.4883    167.2263   8.1974495144e+01   3.1201678320e+01     1.159496    0.4298572  45.19  0.003563768    2.579    0.612
        33 -12.2428     69.3490    162.6517   8.2805953348e+01   3.3123126936e+01    0.8421487    0.5027397 -28.96  0.003418133    3.517    0.716
        34 -11.6221     79.5323    154.1731   7.9029185668e+01   3.3661585023e+01    0.7683296    0.3074895 -57.05  0.002294798    2.311    0.567
        35 -13.9059     68.2329    146.5901   8.0705984486e+01   3.7062152245e+01     1.765852    0.9350841 -76.84  0.001840227    2.069    0.517
        36  -9.2795     77.1447    230.9371   8.8829819574e+01   1.7564460166e+01    0.2305374    0.1431945 -63.73 0.0009155943    1.790    0.441
        37 -10.5671    247.0252    164.0093   4.4069929618e+01  -3.8444702062e-01    0.2085884    0.1835798 -10.02  0.000529844    1.035    0.034
        38 -11.0315    245.7158    159.2870   4.3300629115e+01   5.9005087757e-01    0.3869112    0.2322156 -45.14   0.00133938    1.831    0.454
        39  -9.6457     89.3329    228.8988   8.6330905964e+01   1.6193078124e+01    0.3094607    0.1435623  42.61  0.001590751    1.835    0.455
        40 -10.0513    110.6252    167.3215   7.3578610098e+01   2.5565376441e+01    0.3107438    0.2224911 -83.77 0.0007741707    1.596    0.373
        41  -8.6310     60.7328    159.0126   8.4394820434e+01   3.5115640679e+01    0.1757424    0.1464497 -87.66 0.0003669358    1.032    0.031
        42  -9.9865     30.0758    155.9816   9.1371597245e+01   3.9266473069e+01    0.3527566    0.1715542  39.00  0.001364789    2.133    0.531
        43 -10.3284     22.9036    155.8288   9.3026298122e+01   3.9973633103e+01    0.2657696    0.1999341 -87.90  0.001009231    1.052    0.050
        44 -10.8413    133.8632    145.8537   6.3777935153e+01   2.6046780597e+01     1.262117    0.2976225 -54.69  0.002870999    6.285    0.841
        45 -11.7373     87.0700    147.6308   7.6013276605e+01   3.4063631475e+01    0.5475326    0.4433074 -20.22  0.001662663    1.713    0.416
        46  -9.9973     54.7221    147.3023   8.4275318043e+01   3.8622270307e+01    0.3440334    0.2695817  74.35  0.001603864    1.231    0.188
        47  -9.2546     29.6019    147.3886   9.0557263689e+01   4.1296003899e+01    0.2759904    0.1484025  64.68 0.0009227422    2.015    0.504
        48  -9.9574     23.7844    144.3295   9.1643458484e+01   4.2534768839e+01    0.3345563    0.1943252  47.82  0.001322892    1.797    0.444
        49  -9.8468    167.3231    223.9949   7.0397604524e+01   4.2766145609e+00    0.1717735    0.1641907  37.08   0.00089735    1.141    0.123
        50  -9.2246     35.5665    144.5005   8.8745234107e+01   4.1390929372e+01     0.203988    0.1528563 -55.45  0.001062899    1.369    0.270
        51  -9.5531     32.2502    143.6227   8.9469348035e+01   4.1920855372e+01    0.3303305    0.1947002  85.55  0.001769009    1.697    0.411
        52 -12.9163    113.4836    229.2034   8.1698450590e+01   1.2429775443e+01     1.296924    0.4511339  47.16  0.005596226    2.385    0.581
        53 -11.1116    103.7240    132.8275   6.8755447070e+01   3.4795721886e+01    0.8343282    0.4895409 -26.07  0.002249595    3.206    0.688
        54 -11.6961    230.3966    167.4435   4.7727710412e+01   2.0860603642e+00    0.7509267    0.2697649 -32.42  0.002740712    2.978    0.664
        55 -11.5755     88.8856    134.0557   7.3011016636e+01   3.7010374424e+01    0.2774673    0.2485851 -56.57 0.0003669706    1.109    0.098
        56 -10.1154    135.8061    128.5958   5.9402405158e+01   2.9532577763e+01     0.378323    0.1806197 -50.53  0.001409301    2.129    0.530
        57 -10.5053     45.6996    127.8012   8.3778125004e+01   4.4295162857e+01    0.3110106     0.221393 -43.07  0.001323922    1.550    0.355
        58  -9.6084    110.7365    127.4245   6.5689152622e+01   3.4787557632e+01    0.2815025    0.2463024  11.32 0.0009891819    1.370    0.270
        59  -9.1448     82.4043    129.0528   7.3801704903e+01   3.9221272200e+01    0.2032013    0.1627343 -66.43 0.0004712077    1.161    0.139
        60 -10.1609     98.1144    122.6489   6.8077350439e+01   3.8183266582e+01    0.2863155    0.2381316 -12.23 0.0007316099    1.533    0.348
        61 -15.7225      8.6109    207.3989   9.9702999478e+01   3.0237186467e+01     1.091463    0.9636888 -31.47  0.006441192    1.962    0.490
        62  -9.0543     43.5139    122.0433   8.3479941475e+01   4.5897470343e+01    0.1988873     0.110369 -64.94 0.0005499892    1.515    0.340
        63  -9.4107     24.7243    119.7122   8.8408818844e+01   4.8193299308e+01    0.2408801    0.1684766  61.42  0.001454587    1.571    0.363
        64  -9.9586     70.7253    117.4847   7.4801843348e+01   4.3691937253e+01    0.4536124    0.2576082  67.96  0.001812467    2.848    0.649
        65 -10.4205     54.6357    116.9459   7.9401786827e+01   4.5880623938e+01    0.3834907    0.2183659 -62.33  0.001905167    1.522    0.343
        66 -11.2116     53.3621    110.5610   7.8576441298e+01   4.7546287331e+01    0.3513176     0.302872 -42.71 0.0005977938    1.194    0.163
        67 -10.5267     32.3144    118.3092   8.6074863553e+01   4.7869439389e+01    0.2198222     0.186829 -73.16 0.0002983537    1.037    0.035
        68  -9.0036    107.3455    116.9750   6.4189394731e+01   3.7853570095e+01     0.205016    0.1805139 -54.22  0.000414371    1.092    0.085
        69  -8.7477    183.4862    116.4642   4.5211477493e+01   2.1387054907e+01    0.1563602    0.1499132   4.16 0.0008082424    1.078    0.072
        70  -9.4645     39.0183    112.9818   8.3289890063e+01   4.8497926769e+01     0.193625    0.1637724 -69.27 0.0003587865    1.012    0.012
        71  -9.8394    205.5079    110.3539   3.9251341073e+01   1.7429779227e+01     0.302841     0.252259  36.96 0.0008595507    1.274    0.215
        72 -10.5463     33.2781    109.2292   8.4365898677e+01   4.9917340567e+01    0.3086548    0.1938307 -82.34 0.0002243229    1.603    0.376
        73 -10.6559    115.6944    108.5098   5.9756197801e+01   3.8187966755e+01    0.3575113     0.263024  28.42  0.001550987    1.561    0.359
        74 -10.5173     24.3668    105.1659   8.6379390802e+01   5.1613002217e+01     0.222844    0.1884176  77.84 0.0007893865    1.266    0.210
        75  -9.3762    134.4313    105.1839   5.3823574930e+01   3.5010600808e+01    0.3816727    0.1423726 -52.34  0.001152154    3.236    0.691
        76 -10.2985     38.5088    101.6441   8.1436235285e+01   5.1207814281e+01    0.3391193    0.1771143  49.47  0.001630468    2.410    0.585
        77 -10.8944     21.3790     98.8598   8.6283279182e+01   5.3295611197e+01    0.3540054    0.2327382 -69.87  0.001304468    1.253    0.202
        78  -9.6270    121.3319     99.3199   5.5739512008e+01   3.9081165685e+01    0.1577658    0.1230205  -2.75 0.0007048822    1.695    0.410
        79  -9.4786     32.9055     97.0695   8.2349367706e+01   5.2781182015e+01    0.1918023    0.1555709 -89.21 0.0006236903    1.300    0.231
        80 -11.1605     53.3260     93.6469   7.5049602277e+01   5.1502889177e+01    0.4368069    0.2560951 -51.32  0.001774335    1.463    0.317
        81 -10.0607     21.5675     92.5584   8.5163657376e+01   5.4723462035e+01    0.2934681     0.188788 -83.86  0.001676119    1.617    0.381
        82 -15.2507     12.5369    246.3141   1.0095526731e+02   2.2562070740e+01    0.5770793    0.4386795 -66.38  0.002591066    1.812    0.448
        83  -8.7339     77.2298     90.1083   6.6417208952e+01   4.9118198590e+01    0.1886348     0.162877 -82.36 0.0006042043    1.339    0.253
        84 -17.4544      6.8324    232.7800   1.0125829100e+02   2.5557791150e+01     2.929965     1.757949  32.73   0.02038163    2.142    0.533
        85 -10.2864     16.7502     89.7243   8.6230579769e+01   5.5701184408e+01    0.2267777    0.1479601  72.33 0.0005769365    1.953    0.488
        86  -9.5403     40.4931     86.4886   7.7707785267e+01   5.4501124853e+01    0.1305218    0.1090852 -52.98 -1.568182e-07    1.007    0.007
        87 -11.9008     99.2195    228.1513   8.4351635550e+01   1.4848187687e+01    0.8539048    0.4878307  68.38  0.004524828    1.908    0.476
        88  -9.6978     58.8857     78.5960   6.9453054348e+01   5.4211002703e+01    0.2690751    0.1759461 -70.59  0.001004343    1.898    0.473
        89 -11.1236     30.7465     68.0989   7.6854702360e+01   5.9437251879e+01    0.3071732    0.2574826  29.02 0.0008179199    1.435    0.303
        90  -9.2301     78.0032     67.7426   5.9654848768e+01   5.3771382374e+01    0.1999862    0.1854268  68.83   0.00117678    1.335    0.251
        91  -9.1380     83.3639     67.3052   5.7707169987e+01   5.2981784812e+01    0.1472354    0.1055979  -6.39 0.0007037488    1.738    0.425
        92  -9.0353     69.0015     65.9390   6.2205623050e+01   5.5507802595e+01    0.1960071    0.1677473  87.39 0.0005787895    1.628    0.386
        93 -11.9268     12.4832     60.1094   8.1891880410e+01   6.2437275174e+01    0.3879128    0.3398853  -7.74  0.001296196    1.316    0.240
        94 -12.2825    190.9642     58.3246   2.7986477925e+01   3.0026539735e+01    0.8343755    0.4751186  45.30  0.001089152    1.916    0.478
        95  -9.2427    101.5392    246.0123   8.5739779354e+01   1.1328799989e+01     0.216744     0.113314 -72.59 0.0008077142    2.347    0.574
        96 -10.3205    101.5194    242.5009   8.5398154937e+01   1.1933227273e+01    0.4329402    0.3383604 -10.96  0.002558917    2.519    0.603
        97  -8.9828     32.6708     57.3042   7.3237419150e+01   6.1529030062e+01    0.1121806   0.09522773  81.19 0.0004659224    1.652    0.395
        98 -11.4213    148.2751    228.5438   7.4796054325e+01   6.7970359948e+00    0.3794189    0.3068699 -79.78  0.002363864    1.543    0.352
        99 -10.1772     32.2702     34.1800   6.5877051832e+01   6.5993401994e+01    0.2999272      0.17343 -47.65   0.00132372    1.563    0.360
       100  -8.9708     58.9660     31.1425   5.3418443089e+01   6.3258347482e+01     0.181403      0.14765  61.85  0.000772965    1.983    0.496
       101  -9.1665    125.0000    244.9823   8.1300153757e+01   7.8888296983e+00    0.1664633   0.06963606 -57.26 0.0007995906    2.923    0.658
       102 -10.1702    111.6270    239.0785   8.3157652022e+01   1.0979106607e+01    0.2114758    0.1749684  55.72 0.0003726354    1.062    0.058
       103  -9.2309     60.4966     21.0161   4.8491353434e+01   6.4528988406e+01    0.1824074    0.1487371  11.49 0.0003672056    1.094    0.086
       104 -10.0406     31.8543     19.8447   6.0325706341e+01   6.8432984544e+01    0.3245285    0.1373375  38.98  0.001570036    3.063    0.674
       105  -8.7273     83.4682     61.5236   5.5768594128e+01   5.4091886945e+01     0.139578    0.1274713 -19.12 3.465186e-05    1.015    0.015
       106 -13.4085    129.4500    228.6388   7.8506031429e+01   9.9380539788e+00     1.665431    0.5646938  43.42  0.006994494    2.409    0.585
       107  -9.0759     90.4228    237.6180   8.6977589531e+01   1.4439002136e+01     0.193331    0.1099849 -75.45 0.0007400946    1.971    0.493
