#   1 NUMBER                 Running object number                                     
#   2 MAG_AUTO               Kron-like elliptical aperture magnitude                    [mag]
#   3 X_IMAGE                Object position along x                                    [pixel]
#   4 Y_IMAGE                Object position along y                                    [pixel]
#   5 X_WORLD                Barycenter position along world x axis                     [deg]
#   6 Y_WORLD                Barycenter position along world y axis                     [deg]
#   7 A_WORLD                Profile RMS along major axis (world units)                 [deg]
#   8 B_WORLD                Profile RMS along minor axis (world units)                 [deg]
#   9 THETA_WORLD            Position angle (CCW/world-x)                               [deg]
#  10 FWHM_WORLD             FWHM assuming a gaussian core                              [deg]
#  11 ELONGATION             A_IMAGE/B_IMAGE                                           
#  12 ELLIPTICITY            1 - B_IMAGE/A_IMAGE                                       
         1 -13.8000    225.4691     19.6679   3.5928631897e+01   2.7604815114e+01    0.9077781    0.8394033  39.27  0.002655543    1.421    0.296
         2 -13.6798    200.1484     41.6855   4.3985961434e+01   3.0712126308e+01     1.232275    0.9515176  18.99  0.003530839    1.825    0.452
         3 -13.9796    209.1994     35.6297   4.1347487831e+01   2.9373497734e+01      1.47284      1.19132 -15.19  0.006649893    1.544    0.352
         4 -12.5091    216.7922     28.3211   3.8753575481e+01   2.8533376393e+01    0.4735251    0.4063409  45.37  0.001134558    1.433    0.302
         5 -10.1952    129.6443      8.4474   4.4837427684e+01   5.1570023370e+01    0.2549651    0.1966131 -81.35 0.0008229963    1.504    0.335
         6 -10.8164      2.3071      4.4814   9.0708317298e+01   7.4277265291e+01    0.3655599   0.08990888 -44.66  0.001648731    3.135    0.681
         7 -11.7426    247.3523      2.1394   3.0580923013e+01   2.4868539766e+01    0.5078819    0.2003416  79.34  0.002549221    2.437    0.590
         8  -9.6730     44.0278      1.0000   6.6021825934e+01   6.9858198698e+01    0.1834895   0.05889355  44.50   0.00063722    2.906    0.656
         9 -10.3682    109.9904    201.4245   1.0136128656e+02   1.8030005395e+01    0.1959894    0.1784246 -75.49 0.0001514597    1.150    0.130
        10 -10.7015    134.9858    250.4851   1.0253062738e+02   4.8282356647e+00    0.1944884    0.1562249  58.33 0.0006907125    1.313    0.239
        11 -13.7474     86.4683    227.4684   1.0982447312e+02   1.6166415636e+01     1.143099    0.7472549 -67.60  0.006610103    1.647    0.393
        12 -13.4736      3.3463    184.5268   1.2390201755e+02   3.4832326202e+01    0.9603766    0.5213436  78.71  0.001440198    1.595    0.373
        13 -15.8024     56.3237    246.9698   1.1757862139e+02   1.6357681552e+01     9.652421     2.812972  27.12   0.01292346   10.885    0.908
        14 -11.2623    193.2811    195.1216   8.1779063017e+01   4.9455903757e+00     0.883691    0.4720239 -63.92  0.002509694    6.662    0.850
        15  -9.2342     79.5108    183.0497   1.0601603729e+02   2.6811600400e+01    0.2042854    0.1303512 -67.69 0.0004919432    1.547    0.354
        16  -9.4625     99.4878    180.9859   1.0077634890e+02   2.4270283286e+01    0.2107506    0.1856554  45.66 0.0004915133    1.108    0.097
        17  -9.8075    150.4197    178.9872   8.8078866471e+01   1.5818118556e+01    0.3434675    0.2433211 -76.28   0.00137913    2.096    0.523
        18 -10.2465    144.2030    179.4796   8.9631841092e+01   1.6860272143e+01    0.2754653    0.2097578 -47.34  0.001391531    1.362    0.266
        19 -12.0984     61.4179    177.8214   1.0978829271e+02   3.0490952807e+01    0.4307978     0.293676 -36.30   0.00219176    1.978    0.495
        20 -11.9980     66.4704    172.5824   1.0783612288e+02   3.1091060800e+01    0.3860653    0.2727955 -47.18  0.001134988    1.569    0.363
        21 -10.6868    209.2469    198.5691   7.9233468472e+01   1.6695440584e+00     0.233115    0.2191837 -67.51 0.0008442249    1.510    0.338
        22 -13.3698     58.3361    131.9342   1.0374068639e+02   4.2179878381e+01     3.256866    0.9836966 -72.09  0.006736553    8.841    0.887
        23 -14.3440     68.4622    144.3816   1.0296582162e+02   3.7762742772e+01     4.556896     1.956915  62.52  0.005203575    6.651    0.850
        24 -12.7568     82.8804    156.9622   1.0112474623e+02   3.2591400137e+01    0.9850577    0.7937664 -49.01  0.001801364    1.267    0.211
        25  -9.3478     72.9960    172.8068   1.0620774836e+02   3.0156779853e+01    0.1813245    0.1658952  82.36            0    1.013    0.013
        26 -10.3549    137.3941    169.2780   8.9298119156e+01   2.0348544615e+01    0.3680919    0.2419472 -67.66  0.001597037    1.961    0.490
        27 -13.5052     63.6267    158.9948   1.0664680634e+02   3.4773075695e+01    0.5237407    0.3390191 -46.27  0.001967515    1.670    0.401
        28 -10.7652    134.0000    146.0219   8.5269357690e+01   2.6273234966e+01     0.942591    0.1986943 -51.92   0.00216286    5.742    0.826
        29  -9.9040    174.8164    148.9212   7.6120257709e+01   1.7365798613e+01    0.2875676    0.2175532 -62.33 0.0009804058    1.621    0.383
        30 -10.3260    125.0381    154.0444   8.9317447696e+01   2.6137219315e+01    0.2241248    0.2127329  86.60 0.0003075609    1.098    0.089
        31 -11.4569     32.2191    144.4661   1.1320437479e+02   4.1860718192e+01    0.4431146    0.2841384  30.14  0.002426849    1.767    0.434
        32 -10.8657     99.0954    141.2049   9.3641680431e+01   3.3869490143e+01    0.6496438    0.3895212 -22.04  0.002353466    2.991    0.666
        33 -12.3928     85.9961    140.9869   9.7318069860e+01   3.6058694886e+01    0.3127759    0.2566935 -47.76 0.0004105718    1.202    0.168
        34 -10.9488     25.0676    134.1642   1.1390451382e+02   4.5028127840e+01    0.2778231     0.193778  53.27  0.001590458    1.565    0.361
        35  -9.3890    158.0488    133.7658   7.6422970433e+01   2.4070840214e+01    0.1990769    0.1307629  44.76 0.0003649853    1.550    0.355
        36 -10.9039    107.6084    131.1847   8.9035163501e+01   3.4796763526e+01    0.5341776    0.3635395  35.35  0.002431414    1.535    0.349
        37 -11.4834     67.2932    127.0654   1.0010431918e+02   4.2241578953e+01    0.6144297    0.2906695 -71.10  0.002294446    2.617    0.618
        38 -11.7841     76.3422    163.1196   1.0388806433e+02   3.2036120244e+01    0.3339044    0.2941187  49.87 0.0004100217    1.150    0.130
        39 -11.2333     96.5608    127.3011   9.1338262483e+01   3.7690064856e+01    0.3333965    0.2706096 -18.85   0.00106165    1.449    0.310
        40 -10.1566    115.9955    124.9836   8.5193767627e+01   3.4694845257e+01    0.2524453    0.1919568 -12.63  0.001128905    1.702    0.412
        41 -13.2292     33.5229    205.1243   1.1893753323e+02   2.7481344478e+01    0.5068337    0.3948464 -47.01  0.001192391    1.692    0.409
        42 -10.3409    135.6508    123.8367   7.9567251320e+01   3.0999313918e+01    0.2299125    0.1443048 -55.59 0.0004826757    1.739    0.425
        43 -15.5294      8.3383    239.2765   1.2584766909e+02   2.3031257986e+01     2.054174     1.685121 -82.98   0.01642801    1.357    0.263
        44  -9.7424    106.4648    119.8412   8.6658873283e+01   3.7710288944e+01    0.2076562    0.2020224   3.67 0.0004056057    1.056    0.053
        45  -9.4643    168.0806    113.0458   6.8869287611e+01   2.6222361767e+01    0.2584541    0.1954937 -78.86  0.001132866    1.829    0.453
        46 -10.1362    205.3634    110.4302   6.0669368298e+01   1.8439969485e+01    0.3421794    0.2480173  32.62  0.001041493    1.613    0.380
        47 -10.1699    134.4720    105.4657   7.5029026447e+01   3.5299058473e+01    0.3021818    0.1447354 -53.65  0.001042724    2.499    0.600
        48 -10.0534    241.9788    102.3209   5.2875153542e+01   1.2292571173e+01    0.2041415    0.1131879  83.36 0.0007050129    4.347    0.770
        49 -10.6569     53.1487     90.8800   9.6737800990e+01   5.2806036020e+01    0.2959916    0.1886087 -67.72  0.001327884    1.742    0.426
        50  -9.6575     41.5312     92.0484   1.0122418192e+02   5.3811862120e+01    0.1894619    0.1711672 -33.75  0.000416963    1.089    0.082
        51 -10.5868    250.0049     87.9984   4.8610693625e+01   1.3022950941e+01    0.2149711    0.1401673 -60.28 0.0006905908    1.653    0.395
        52  -9.2366     71.7700     83.0063   8.7894937444e+01   5.2068429916e+01    0.2191956    0.1668181 -84.86 0.0009602183    1.988    0.497
        53  -9.2948    160.3536     82.2836   6.2141748770e+01   3.3976934509e+01    0.1567926    0.1188347  20.14 0.0005370931    1.662    0.398
        54  -8.8813    130.4455     65.4898   6.4073721458e+01   4.4011102526e+01    0.1459391    0.1450083  73.82 9.493105e-05    1.067    0.063
        55  -9.2956     45.9201     61.3251   9.1122761909e+01   6.0135186379e+01    0.1753647    0.1515822  -5.96 0.0004044565    1.124    0.111
        56 -10.9541     13.5047     60.0429   1.0462827296e+02   6.3282652255e+01    0.2478415    0.1784553 -51.97 0.0004049858    1.135    0.119
        57 -16.2256     31.9618    181.8311   1.1730449218e+02   3.2894300235e+01     9.014174     3.529267  78.98   0.03146605    4.166    0.760
        58  -9.0545    108.5805    191.7331   1.0024250760e+02   2.0370374611e+01    0.1887835    0.1338475 -76.20 0.0007500798    1.623    0.384
        59 -13.7975     18.4096    219.0558   1.2294665705e+02   2.6065216373e+01    0.9317036    0.4087747  54.91  0.002927372    1.915    0.478
        60 -14.9231      9.1216    207.6801   1.2409682066e+02   2.9308251952e+01     1.242066      1.15494 -45.16  0.007950018    1.540    0.351
        61  -8.9307     58.4717     60.4779   8.5753520150e+01   5.8697733611e+01    0.1383529    0.1175736 -19.25  0.000369803    1.033    0.032
        62 -10.4164    136.4710     42.7407   5.5143803566e+01   4.6099847022e+01    0.2619515     0.221871  87.39 0.0003373001    1.341    0.255
        63  -9.1324    138.5740     36.7553   5.2705076301e+01   4.6384389619e+01    0.1867438    0.1288652 -43.61 0.0009271517    1.576    0.365
        64 -10.1935    189.8372     15.1851   3.8372902933e+01   3.6309670997e+01     0.199878    0.1610089 -75.15 0.0007053377    1.151    0.132
        65  -9.7299    198.6924    222.8980   8.5677895263e+01  -5.7167379576e-01    0.1731057    0.1506875   0.58 0.0004488686    1.089    0.081
        66  -9.6147     59.9145    197.5458   1.1243376918e+02   2.6107859467e+01    0.1889876    0.1528292 -87.81   0.00011065    1.134    0.118
        67 -12.0301    183.5110    215.6277   8.7488890936e+01   3.0302808961e+00    0.4535666    0.2201511  38.85  0.002100818    1.889    0.471
