#   1 NUMBER                 Running object number                                     
#   2 MAG_AUTO               Kron-like elliptical aperture magnitude                    [mag]
#   3 X_IMAGE                Object position along x                                    [pixel]
#   4 Y_IMAGE                Object position along y                                    [pixel]
#   5 X_WORLD                Barycenter position along world x axis                     [deg]
#   6 Y_WORLD                Barycenter position along world y axis                     [deg]
#   7 A_WORLD                Profile RMS along major axis (world units)                 [deg]
#   8 B_WORLD                Profile RMS along minor axis (world units)                 [deg]
#   9 THETA_WORLD            Position angle (CCW/world-x)                               [deg]
#  10 FWHM_WORLD             FWHM assuming a gaussian core                              [deg]
#  11 ELONGATION             A_IMAGE/B_IMAGE                                           
#  12 ELLIPTICITY            1 - B_IMAGE/A_IMAGE                                       
         1 -13.2659    192.6338     30.3320   6.8837954393e+01   3.3557331096e+01     1.048626    0.9533346  37.32  0.006360286    1.308    0.235
         2 -14.1157    204.8554     14.3730   6.3352481696e+01   3.2452938766e+01     1.830185     1.164812  42.45  0.009521713    2.002    0.501
         3 -13.5277      3.8868      9.9095   1.1518938903e+02   7.0956584551e+01     1.722312    0.6547564 -36.50   0.01011845    1.996    0.499
         4 -14.8914      6.4464    241.6494   1.5067067355e+02   2.3885943947e+01     12.78652    0.9095489 -75.78    0.0304999   13.159    0.924
         5 -11.6029    247.0513    249.1994   1.0800354133e+02  -1.3866138148e+01    0.6237934    0.2039994  35.33  0.002810421    2.702    0.630
         6 -11.9580    139.7141    249.8344   1.2799464855e+02   3.5783909632e+00    0.6548523    0.1714368  42.86  0.002429119    3.116    0.679
         7 -11.3736    139.3727    245.8225   1.2754282676e+02   4.3156947237e+00    0.2395984    0.1956181 -13.23 0.0008996543    1.850    0.460
         8 -12.6546    126.9113    244.8732   1.2979584236e+02   6.5976586337e+00    0.4433799    0.3787442  35.99  0.002892399    1.299    0.230
         9 -13.5456    100.1696    247.4292   1.3509646985e+02   1.0506048356e+01     1.078363    0.4715964  45.85  0.005388102    1.880    0.468
        10 -10.9176     66.4525    249.8431   1.4135322621e+02   1.5076866860e+01    0.2489682     0.163486  60.69 0.0004880548    1.183    0.155
        11 -13.8415     30.3118    246.0302   1.4713776998e+02   2.0438722839e+01     1.829625    0.6918231  45.14    0.0101889    2.225    0.551
        12 -15.7251      8.7071    204.5568   1.4804398466e+02   3.0981325063e+01     8.168419     1.283926 -72.54   0.02776347    4.565    0.781
        13 -11.4687     65.7685    195.4851   1.3602013878e+02   2.6296194905e+01    0.3599645    0.2357056 -47.69   0.00153034    1.959    0.490
        14 -10.1295    192.1331    193.3588   1.0836624954e+02   4.0140634364e+00    0.5299056    0.2652999 -64.74  0.001443376    6.190    0.838
        15  -8.9244    113.7996    193.3587   1.2528788155e+02   1.9127787281e+01    0.1985877    0.1294131  32.97 0.0006586534    1.771    0.435
        16  -9.4236     47.8131    193.1091   1.3949906432e+02   2.9184070926e+01    0.1812654    0.1356857  80.90 0.0002951123    1.116    0.104
        17 -12.5185     40.2096    228.9047   1.4423400818e+02   2.2562070238e+01    0.3123224    0.2522913 -78.10 0.0007542662    1.347    0.257
        18 -11.6846     70.8480    187.5726   1.3394284463e+02   2.7358176377e+01    0.3874758    0.2656538 -86.96 0.0005749883    1.386    0.279
        19 -10.8668     80.4811    175.8029   1.3013029394e+02   2.8643613155e+01    0.2475404    0.2202004 -70.22 0.0004459406    1.152    0.132
        20 -13.1039     67.6143    173.5207   1.3276864119e+02   3.1050310461e+01    0.4953313    0.2753249 -46.04  0.001666569    2.211    0.548
        21 -11.8612     87.5315    166.8914   1.2706814335e+02   2.9633956787e+01    0.6741371    0.5137339  60.98   0.00364289    1.301    0.232
        22 -13.0602     66.3218    143.1997   1.2834027744e+02   3.8397217776e+01     1.537618    0.8213553  86.70  0.003611807    3.409    0.707
        23 -11.5354     32.4506    155.8306   1.3859982868e+02   3.9407797506e+01    0.3831276    0.1220655 -66.36  0.001606454    2.490    0.598
        24  -9.8639     99.7467    151.0336   1.2121099194e+02   3.1362467949e+01    0.2746967    0.2494547 -56.49  0.000833093    1.122    0.109
        25 -11.8866     88.5193    150.1096   1.2388240192e+02   3.3457331951e+01    0.2877537    0.2538308 -43.59 0.0006013977    1.252    0.201
        26  -9.1271    134.3834    148.2675   1.1199361495e+02   2.5429645292e+01    0.2176195    0.1442986 -61.03  0.000603263    1.612    0.380
        27  -8.9809    102.7170    146.6943   1.1959759544e+02   3.1872093155e+01    0.2992567    0.1564825 -31.22 0.0009616355    3.817    0.738
        28 -15.0085     55.4560    210.7012   1.3977837817e+02   2.4379335310e+01     8.531025    0.4891491  47.42   0.02116458    8.402    0.881
        29  -8.7958    192.1726    144.1928   9.7893801515e+01   1.3702322643e+01    0.2044161    0.1789476 -76.95   0.00038886    1.286    0.223
        30  -9.7101    110.7275    136.5247   1.1538223703e+02   3.2813964518e+01     0.318461    0.2385064 -21.99  0.001085238    1.819    0.450
        31 -10.3411     98.1674    133.5467   1.1804086175e+02   3.5778529020e+01    0.2768447    0.2184463 -35.22 0.0005666664    1.420    0.296
        32 -10.9881     50.1899    129.8536   1.3028558402e+02   4.3571599682e+01     0.256509    0.2047238  82.70 0.0007137274    1.329    0.247
        33 -10.2545     44.2184    130.3920   1.3198387095e+02   4.4110692524e+01    0.1721198    0.1147068  47.78 0.0009506997    1.695    0.410
        34 -11.6678     54.9058    121.0851   1.2737710768e+02   4.5066241301e+01    0.6392101     0.193703 -66.52  0.001915656    4.484    0.777
        35  -9.4408    107.7178    123.2353   1.1314255024e+02   3.6466640570e+01    0.2063493    0.1924199 -74.09 0.0004831901    1.060    0.057
        36 -14.3950     47.2006    219.6129   1.4219077276e+02   2.3577831318e+01     1.381753    0.8582638  66.51  0.006889005    1.362    0.266
        37 -10.5638    168.0522    113.1871   9.5541460546e+01   2.5681088901e+01    0.3639859     0.297462 -79.28 0.0008095185    1.423    0.297
        38 -12.7318     82.2391    246.8204   1.3829574387e+02   1.3363827484e+01    0.6182966    0.4220133  53.00  0.003954654    1.222    0.182
        39 -10.3727     76.1002    235.8283   1.3834767478e+02   1.6360732938e+01    0.2022209    0.1320715  68.31 0.0008019194    1.314    0.239
