#   1 NUMBER                 Running object number                                     
#   2 MAG_AUTO               Kron-like elliptical aperture magnitude                    [mag]
#   3 X_IMAGE                Object position along x                                    [pixel]
#   4 Y_IMAGE                Object position along y                                    [pixel]
#   5 X_WORLD                Barycenter position along world x axis                     [deg]
#   6 Y_WORLD                Barycenter position along world y axis                     [deg]
#   7 A_WORLD                Profile RMS along major axis (world units)                 [deg]
#   8 B_WORLD                Profile RMS along minor axis (world units)                 [deg]
#   9 THETA_WORLD            Position angle (CCW/world-x)                               [deg]
#  10 FWHM_WORLD             FWHM assuming a gaussian core                              [deg]
#  11 ELONGATION             A_IMAGE/B_IMAGE                                           
#  12 ELLIPTICITY            1 - B_IMAGE/A_IMAGE                                       
         1 -13.6043    244.1791     10.0638   3.5508526857e+02   2.3155647885e+01     1.819621    0.7728478 -42.46  0.009817841    1.727    0.421
         2 -11.2829      8.7825     26.4127   6.4478638908e+01   7.3534484199e+01    0.5684921    0.1642608 -51.96  0.002292427    2.596    0.615
         3 -11.9675      7.2441     15.7017   6.1161838982e+01   7.5966545428e+01    0.8147299    0.3387655   2.83  0.003350998    3.210    0.688
         4 -10.1643      2.0036      4.0362   5.9974309184e+01   7.8722883543e+01    0.3657678    0.1560877 -56.16  0.001792207    2.124    0.529
         5 -10.7931      9.4884      2.1850   5.0984630433e+01   7.8421209024e+01    0.4733414    0.2013894  18.88  0.002146906    2.631    0.620
         6 -11.4888      5.6526      9.1996   5.9261760759e+01   7.7424103787e+01    0.7282646    0.3359596  -8.83  0.003134225    2.985    0.665
         7 -11.2238     15.9266      8.1597   4.9105681083e+01   7.6630030421e+01     0.440908    0.2365668 -18.00  0.002018219    2.471    0.595
         8 -10.8653     18.3427      3.1116   4.3396501068e+01   7.7206935295e+01    0.3605647    0.1875574  23.02  0.001781156    2.051    0.512
         9  -8.4917     62.6745      1.3289   1.6156321336e+01   6.8933391838e+01    0.1337437     0.103842 -66.20 0.0007050293    1.701    0.412
        10  -9.7082    169.2105    247.6062   5.4260861066e+01   3.0906226023e+00    0.1683627   0.08243145  23.77 0.0009529549    1.685    0.406
        11 -10.7684    242.1519    237.4086   4.0359965471e+01  -4.2448800501e+00    0.5279166    0.2324008  -4.85  0.002687864    3.142    0.682
        12 -10.6976    247.1291    226.9628   3.8054985248e+01  -3.7216576432e+00    0.4344832    0.1813081 -21.34  0.002520672    2.295    0.564
        13  -9.6701    248.2599    233.9453   3.8922666195e+01  -4.5391936755e+00    0.2110394    0.1170542 -10.02 0.0009186607    1.520    0.342
        14 -10.8699    243.2182    245.2919   4.1321370450e+01  -5.1219469788e+00    0.4946457    0.2017961 -18.23  0.002848193    2.602    0.616
        15 -10.1618    248.5832    249.8197   4.1139771702e+01  -6.0812634708e+00    0.2920157    0.1485998  10.42  0.001977624    1.609    0.379
        16 -11.0393    248.9846    240.8751   3.9818811030e+01  -5.2844694275e+00    0.4839511    0.1891005 -29.76   0.00297857    2.429    0.588
        17  -9.6937    233.7315    250.5701   4.3526844994e+01  -4.6553773677e+00    0.1918156   0.07382999  26.04   0.00113164    2.084    0.520
        18 -10.9353    233.8833    244.7810   4.2700710422e+01  -4.1056090272e+00    0.4530965    0.2242461  -3.73  0.002762158    2.142    0.533
        19  -9.5634    213.2178    250.5315   4.6846849287e+01  -2.4512032452e+00    0.2524768   0.07911013  29.62  0.001286725    2.547    0.607
        20 -10.1148    201.9612    248.9451   4.8544850095e+01  -1.0079840040e+00     0.434399    0.1761154  15.32  0.001971301    3.365    0.703
        21  -9.4208    184.8582    250.1894   5.1718170177e+01   8.6510723799e-01     0.237086     0.113839  36.29  0.001407673    1.821    0.451
        22 -10.7712     65.0671    249.1127   7.5264846755e+01   1.5887214488e+01    0.4117152     0.145732  36.12  0.002118421    1.929    0.482
        23 -10.1817     50.8020    249.7565   7.8215966222e+01   1.7380965773e+01    0.2790777    0.1136546  26.12  0.001420106    2.288    0.563
        24 -10.6745     21.3555    248.4579   8.4068120613e+01   2.0626663640e+01    0.4204829    0.1470692  40.84  0.002285211    1.813    0.448
        25 -10.2649    127.5736    248.8728   6.2481591854e+01   8.2171899082e+00    0.3422216    0.1260653  25.80  0.001529055    2.644    0.622
        26  -9.5625     27.2127    250.3793   8.2977755091e+01   1.9731300346e+01    0.2368158   0.09925523  39.49  0.001314062    1.595    0.373
        27  -9.7555     83.2877    246.5633   7.1321459779e+01   1.4143394508e+01    0.2343395   0.07921493  35.53  0.001130126    2.060    0.515
        28  -9.8270    119.3784    244.5581   6.3690583645e+01   9.9009384935e+00    0.1820894    0.1103662 -81.69 0.0009504789    3.349    0.701
        29 -11.2865      3.9669    241.8866   8.7314210645e+01   2.3355730653e+01    0.4450209    0.1653337  60.06  0.001997026    2.059    0.514
        30  -9.2207    201.7286    242.1153   4.7664293501e+01  -2.2139127792e-01    0.2156045     0.115373 -25.65  0.001350804    1.967    0.492
        31 -10.2851    178.8061    242.2547   5.1795308813e+01   2.5546687680e+00    0.3226915    0.1460766  25.91  0.001783038    1.804    0.446
        32  -9.9710     45.1319    244.5332   7.9099202251e+01   1.8877113168e+01    0.3128576    0.1165347  36.43  0.001667819    1.843    0.457
        33  -9.8768     62.1824    241.4575   7.5366082506e+01   1.7500527226e+01     0.300628    0.1147568  46.66  0.001537219    2.015    0.504
        34 -10.4346     29.3355    241.5721   8.2207277161e+01   2.1033307522e+01    0.3882213    0.1107949  37.66  0.001939981    2.180    0.541
        35 -10.1406     72.0705    239.3118   7.3123875957e+01   1.6701390186e+01    0.2712421    0.1695815  62.19   0.00140276    1.652    0.395
        36  -9.9373     38.0162    241.0014   8.0393587786e+01   2.0244080735e+01    0.2836064   0.07273344  45.91  0.001312513    2.524    0.604
        37 -10.4006     18.8096    238.6182   8.4248522708e+01   2.2582579768e+01    0.3414432    0.1468155  60.23  0.001838823    1.920    0.479
        38 -10.5685     14.6829    238.4009   8.5081094580e+01   2.3008244848e+01    0.3586883    0.1053514  40.15  0.001871111    2.077    0.519
        39  -9.3908    159.5448    239.5111   5.5089096961e+01   5.3688786634e+00    0.1570489    0.1163243 -60.02 0.0008920706    2.219    0.549
        40  -9.9434     53.4086    239.2369   7.7076488197e+01   1.8883520127e+01    0.3049889    0.1213281  49.68  0.001587731    2.010    0.502
        41  -9.1581    195.3421    237.6688   4.8176375232e+01   1.0612702208e+00     0.388997    0.1897431  -0.46  0.001796862    3.363    0.703
        42  -9.8725     97.1829    243.3662   6.8161332168e+01   1.2929920524e+01    0.2752064   0.07914522  34.79  0.001204153    2.441    0.590
        43 -10.2295     34.6970    247.9262   8.1385633305e+01   1.9393695103e+01    0.3374516    0.1175942  40.49  0.001834138    1.855    0.461
        44 -10.4445    124.5226    239.1037   6.2058109483e+01   1.0046006866e+01    0.3992797    0.1025046  36.76  0.001633796    2.812    0.644
        45 -10.0081     83.1124    238.8201   7.0735950341e+01   1.5436039583e+01    0.3611553    0.1229389  34.45   0.00169868    2.121    0.528
        46 -10.3524    230.9819    236.1556   4.1932709060e+01  -2.9185250679e+00    0.2968372    0.1796721 -29.98  0.001973061    1.780    0.438
        47 -10.8537    236.1425    229.3235   4.0108659252e+01  -2.7734338171e+00    0.5308042     0.199536 -20.04  0.002582213    3.279    0.695
        48  -9.4876     44.8039    236.5778   7.8744907825e+01   2.0302022119e+01    0.2516503     0.115729  50.29  0.001358606    1.697    0.411
        49 -10.7851      6.7987    235.0487   8.6585514040e+01   2.4322957056e+01    0.2444112     0.115004  47.87  0.001407937    1.462    0.316
        50 -10.3695    214.2448    232.2989   4.4128214486e+01  -5.9353921056e-01    0.3302807    0.2713975 -72.63  0.001935568    3.908    0.744
        51  -9.6339    175.5472    232.6187   5.1116857876e+01   4.1933726543e+00    0.3317501    0.1892301 -55.97   0.00173318    3.401    0.706
        52  -9.7179     94.9044    234.7562   6.7857201077e+01   1.4622362407e+01    0.2516389     0.115168  35.66  0.001320176    1.634    0.388
        53  -9.7248    193.5417    243.7865   4.9329695422e+01   5.6404753130e-01    0.2862991    0.1188839  18.96  0.001392174    2.645    0.622
        54 -10.6224     32.6955    231.8198   8.1078484800e+01   2.2440612412e+01    0.3677295    0.1537787  61.57  0.001927507    2.227    0.551
        55  -9.4745     11.5774    232.0919   8.5525768262e+01   2.4432834175e+01    0.2353783    0.1126395  50.52  0.001193169    1.489    0.328
        56  -8.9526    185.8313    229.9327   4.8819907544e+01   3.2050790405e+00    0.1492869    0.1387587  80.90  0.001070842    1.991    0.498
        57 -10.0934     62.0273    228.5292   7.4510382512e+01   1.9798859835e+01    0.4241244   0.08306355  44.90  0.001563843    3.561    0.719
        58  -9.0353     47.8465    228.8059   7.7644264504e+01   2.1375871833e+01    0.1729407     0.104989  52.78 0.0006907671    1.337    0.252
        59  -9.0153     40.2265    229.3783   7.9336550688e+01   2.2100957672e+01    0.1781545   0.07479239  39.79 0.0007443429    1.694    0.410
        60 -10.7264      6.0666    226.7798   8.6520813039e+01   2.5906452951e+01    0.3024906    0.1975175  57.19  0.002076246    1.146    0.128
        61  -9.3404    229.7611    227.5515   4.0861533458e+01  -1.8691006420e+00    0.2183674    0.1027948 -19.76  0.001273596    2.129    0.530
        62  -9.7504    148.4037    225.1954   5.5466779383e+01   8.8957300770e+00    0.3698331    0.3278965  66.36  0.002558252    1.600    0.375
        63 -10.5819     20.8986    228.2050   8.3438593025e+01   2.4281134042e+01    0.3436378    0.1197376  31.53  0.001595921    2.182    0.542
        64  -9.6582    223.7237    225.2668   4.1502665488e+01  -9.1983741473e-01    0.2633499    0.1241893 -10.60  0.001348282    2.724    0.633
        65  -9.5905    227.0184    218.4894   3.9925376439e+01  -5.4453252531e-01    0.1944949    0.1059214   4.83  0.001144398    1.868    0.465
        66  -8.4105    127.3005    226.6406   6.0053019136e+01   1.1602441713e+01    0.1212992   0.08411118  54.94 0.0007036495    1.715    0.417
        67  -9.5298     11.6060    225.8684   8.5329975644e+01   2.5585352878e+01    0.2449492   0.08618797  43.70  0.001237688    1.884    0.469
        68  -9.4075    202.9702    234.2049   4.6343361106e+01   5.3822748565e-01     0.206066     0.143916 -35.61  0.001061975    1.792    0.442
        69  -9.1242     72.3587    225.3024   7.1968295064e+01   1.9134737196e+01    0.1152111   0.08983964  -0.61 0.0007038102    1.718    0.418
        70  -9.2802    216.4655    222.5728   4.2307367064e+01   2.5447719040e-01    0.2015018   0.09814439 -32.47 0.0008830649    2.092    0.522
        71  -8.3870    180.2839    223.6974   4.8967446895e+01   4.7462335312e+00    0.1033469   0.08642287  41.97  0.000243609    1.555    0.357
        72 -10.3193     19.2271    221.3153   8.3533388094e+01   2.5745353161e+01    0.4028419   0.07804076  43.95  0.001733009    2.814    0.645
        73 -10.0373      2.0489    220.1060   8.7196804915e+01   2.7514675996e+01     0.290782    0.1256099  75.03  0.001620109    2.100    0.524
        74 -10.6936    239.3765    219.9379   3.8176090391e+01  -2.1361442107e+00    0.3031136    0.1631589 -10.57  0.001913325    1.741    0.425
        75  -9.1077    192.0952    220.7153   4.6325922455e+01   3.5703700308e+00    0.1776948    0.1452666 -27.45 0.0006869744    1.448    0.309
        76  -9.2684     55.5992    221.1866   7.5422896873e+01   2.1918758985e+01    0.1494564     0.108914 -60.11  0.000948635    1.707    0.414
        77  -9.8006     43.6496    220.6295   7.8082283619e+01   2.3377549682e+01    0.2654923    0.1300708  45.55  0.001126254    1.547    0.354
        78 -10.7598    248.0305    213.8985   3.5903802158e+01  -2.4577543040e+00    0.4129468    0.2153023 -18.87  0.002667788    1.662    0.398
        79  -9.6611     56.0207    216.8787   7.5017680948e+01   2.2694720038e+01    0.1772808    0.1520876  70.16 0.0006773323    1.188    0.159
        80  -9.6051     33.8622    215.2441   7.9989719574e+01   2.5473292861e+01     0.289521    0.1297976  60.47  0.001482307    2.049    0.512
        81 -10.1885     11.8505    215.9938   8.4956089715e+01   2.7460305513e+01    0.3140118     0.118367  33.89  0.001642727    1.989    0.497
        82  -9.6641    232.1660    213.5553   3.8318733927e+01  -5.9553244296e-01    0.2466581    0.1340558 -20.14  0.001470825    1.674    0.402
        83  -9.3802    213.3569    211.5328   4.1123827349e+01   1.9657134470e+00    0.2023563    0.1205679 -25.66 0.0005462527    1.612    0.380
        84  -8.9080     45.6613    212.3379   7.7098083785e+01   2.4775094910e+01    0.1374307   0.06828667  54.92 0.0007050965    1.758    0.431
        85 -10.0297      3.0515    211.8751   8.6767712904e+01   2.9036325822e+01     0.297149    0.1211596  40.94  0.001647676    1.744    0.427
        86  -9.0234    204.1702    210.2430   4.2526794010e+01   3.3254043754e+00    0.1420979    0.1266803  -5.16 0.0005913629    1.347    0.258
        87  -8.9067    174.6833    209.1747   4.7883932457e+01   7.5466996582e+00    0.1584337    0.1570833  -3.20 0.0006706609    1.457    0.314
        88  -9.8931    246.8634    206.4751   3.4893493969e+01  -1.5203761938e+00    0.2693106     0.128619 -25.32  0.001222305    1.830    0.454
        89  -9.9590    250.3562    201.2110   3.3510341394e+01  -1.3403757712e+00    0.3415228    0.1235163 -30.53  0.001810029    2.441    0.590
        90 -10.1153    236.5461    206.6349   3.6512492307e+01  -3.2805659805e-01    0.3788217    0.1654449 -28.23  0.001979388    2.099    0.523
        91  -9.6773    123.9936    205.9947   5.8159104633e+01   1.5545019028e+01    0.1868957    0.1540264  33.90  -0.01509786    1.042    0.040
        92  -8.9957     79.6512    206.2950   6.8549361805e+01   2.1800204865e+01    0.1386301   0.07996044  53.89 0.0005924737    1.676    0.403
        93 -10.6921     13.1945    204.3954   8.4234252490e+01   2.9669926754e+01    0.4650794     0.191171  53.10  0.002424431    1.879    0.468
        94  -9.3114      2.3922    205.6682   8.6744406900e+01   3.0337219568e+01    0.1935247   0.09013435  55.59  0.001091816    1.631    0.387
        95  -9.3673    228.0190    201.9720   3.7114638356e+01   1.2682056763e+00    0.2960252    0.1169724 -17.31  0.001140399    4.324    0.769
        96  -9.1098    194.6111    203.2347   4.3134972908e+01   5.5606320872e+00    0.1590941    0.1022887 -21.57 0.0006559478    1.549    0.354
        97  -8.3389    183.4506    203.4696   4.5279846577e+01   7.1129219403e+00    0.1227621    0.1014541  14.83 0.0001926083    1.074    0.069
        98  -8.7804    162.9612    202.5167   4.9211500935e+01   1.0269214854e+01    0.1837501    0.1075829  34.02 0.0004401687    1.465    0.318
        99  -9.8341    243.4359    199.9975   3.4353104866e+01  -3.9183108797e-01    0.3021376    0.1069504 -29.40  0.001524951    2.568    0.611
       100  -8.5786    210.7075    201.3526   3.9931779656e+01   3.6010887408e+00   0.09749351    0.0966479  -3.99 0.0007029907    1.679    0.405
       101  -9.0464     29.7221    200.6978   8.0156906118e+01   2.8861152409e+01    0.2720787    0.0790653  45.18  0.001167445    2.466    0.595
       102  -9.5290    237.1890    197.8996   3.4970415363e+01   6.1006557555e-01    0.2749559    0.1220901 -35.34  0.001516846    2.227    0.551
       103  -8.5443    139.3946    199.4390   5.3780776879e+01   1.4362032578e+01    0.1294694    0.1103677  35.03 0.0001416103    1.118    0.105
       104  -8.8955    133.1078    199.1027   5.5135754458e+01   1.5387212851e+01    0.1705276    0.1327032  42.68 -0.0006383859    1.231    0.187
       105  -9.3806     21.4925    199.2946   8.2059294882e+01   2.9965520654e+01    0.2356284   0.09660464  46.24  0.001171808    1.846    0.458
       106  -8.9783    192.4455    196.9958   4.2508900581e+01   6.7407428592e+00    0.1712017    0.1133046 -32.80 0.0005526665    1.567    0.362
       107  -8.4171    148.7274    197.3999   5.1424128694e+01   1.3270212593e+01    0.1227587    0.1005319  68.19 0.0006661435    1.747    0.428
       108  -8.1637    112.3046    197.6340   5.9735607043e+01   1.8828980385e+01    0.1365189    0.0940718  60.93 0.0007036098    1.742    0.426
       109 -10.1451      5.3298    194.6764   8.5728597385e+01   3.2378710074e+01    0.4371765    0.1276187  43.20  0.002038383    2.311    0.567
       110 -10.1163    245.9607    192.5233   3.2715534465e+01   1.6553843043e-01    0.3010309    0.1695741 -19.09  0.001234738    1.516    0.340
       111  -9.0279    224.4568    193.4645   3.6267586389e+01   2.7771670526e+00    0.1871389   0.09971955 -41.16  0.001024901    2.266    0.559
       112 -10.0733     17.5169    192.2111   8.2684237799e+01   3.1848510151e+01     0.375973    0.1459856  57.04  0.001771618    2.195    0.544
       113  -8.6953     39.6953    192.3761   7.7171767767e+01   2.9587465952e+01    0.1424766   0.07388736  58.52 0.0007028737    1.769    0.435
       114  -9.7202     11.0939    188.6800   8.4108473184e+01   3.3184385521e+01    0.2865253    0.1319041  71.18  0.001449969    1.996    0.499
       115  -9.2531     90.2187    188.5554   6.3949466725e+01   2.3920771376e+01     0.298294    0.1400776  55.57  0.001202162    2.613    0.617
       116  -9.0430    237.4754    187.5183   3.3154275457e+01   1.8200893245e+00    0.2080418   0.08956589 -22.33  0.001032114    2.370    0.578
       117  -8.9164    216.4772    187.4746   3.6568655056e+01   4.6347066806e+00    0.1886895    0.1047842 -42.32 0.0008327874    2.176    0.541
       118  -9.1862     50.2108    188.0171   7.4149373415e+01   2.9345220000e+01    0.2110604    0.1101811  48.88 0.0009024101    1.640    0.390
       119  -9.5341    249.5134    184.9328   3.0883726063e+01   6.1744044180e-01    0.2351473    0.1277073 -31.57 0.0009567875    1.671    0.402
       120  -8.6080    230.4617    186.5040   3.4085287550e+01   2.8600956008e+00     0.117696   0.09142062  -2.58 0.0001031625    1.018    0.018
       121  -9.5592     27.5066    186.6644   7.9884115259e+01   3.2111094149e+01     0.431224          nan  33.69  0.001084238    6.943    0.856
       122  -8.5161    210.0000    183.9609   3.7067023297e+01   6.0292462055e+00    0.1820368   0.06346438 -36.20 0.0004978883    2.803    0.643
       123  -8.6962    224.3338    183.1573   3.4489927214e+01   4.1161477336e+00    0.1602165    0.0970878 -36.83 0.0008283359    1.736    0.424
       124  -9.7881      4.1072    187.8251   8.5791766683e+01   3.3949618205e+01    0.2040064    0.1240885  56.35  0.001120036    1.299    0.230
       125  -9.2492     16.1755    181.3722   8.2493598847e+01   3.4357878679e+01    0.1876362   0.08615272  39.28  0.000946985    1.755    0.430
       126  -9.4244     22.9917    179.4952   8.0620505025e+01   3.4156499095e+01    0.1950335   0.06214894  46.73 0.0007996781    2.449    0.592
       127  -8.8232    191.1937    178.1214   3.9445586075e+01   9.7082422572e+00    0.1556283    0.1501596 -16.83  0.000480033    1.345    0.256
       128  -9.3958    249.1656    176.9481   2.9531948691e+01   1.6090491166e+00      0.16591    0.1324719 -20.25 0.0007513655    1.261    0.207
       129  -8.7272    231.0000    176.1158   3.2146901955e+01   4.1147871688e+00    0.1855959   0.05858094 -34.08 0.0007937931    2.883    0.653
       130  -8.2273    217.3105    176.6786   3.4492996801e+01   5.9734850819e+00    0.1045324   0.09888043 -53.78  0.000336369    1.648    0.393
       131  -9.3850     76.4803    172.9907   6.5569988884e+01   2.9285961456e+01    0.4249831    0.1888172 -81.27  0.001468381    3.847    0.740
       132  -9.0901    250.5935    172.6693   2.8559766167e+01   1.9429235331e+00    0.1469687   0.09019428 -31.96 0.0005190365    1.505    0.335
       133  -8.4041    175.6659    172.3084   4.1426806680e+01   1.3139862863e+01    0.1234107     0.107546  69.66 0.0007041918    1.673    0.402
       134  -8.8453    121.0057    170.1764   5.3457939637e+01   2.2870081969e+01    0.1917233    0.1515768 -79.89 0.0007192593    1.647    0.393
       135  -9.1029     39.8429    170.5846   7.5421967628e+01   3.4494341547e+01    0.1939227    0.1004564  41.78 0.0006267226    1.642    0.391
       136  -9.4654     19.1890    170.2702   8.1087779061e+01   3.6631223683e+01    0.2875034   0.09381763  27.11  0.001187791    2.732    0.634
       137  -8.6616    237.4032    169.2069   2.9884628957e+01   4.1257440092e+00    0.1606777   0.09614383 -36.84 0.0007522001    1.689    0.408
       138  -8.6246    166.4835    167.9899   4.2523680072e+01   1.5426104242e+01    0.1620154    0.1237494 -73.29 0.0004900007    2.194    0.544
       139  -8.4588    212.7338    163.3267   3.2763675194e+01   8.5398561545e+00    0.1113203   0.09791233 -49.87 0.0004896762    1.570    0.363
       140  -8.8085     93.2034    160.8197   5.9228613930e+01   2.9513331852e+01     0.254338    0.1402505  66.41 0.0009475115    2.852    0.649
       141  -8.4891    177.4647    160.4734   3.8786911363e+01   1.4815333034e+01    0.1334264    0.1235265   9.49 0.0001029052    1.097    0.089
       142 -10.2188    249.9750    157.2617   2.5814426915e+01   3.9249726041e+00    0.2862932    0.2153036 -40.98  0.001646086    1.611    0.379
       143  -8.7792    227.4907    158.9775   2.9494241768e+01   6.9050170487e+00    0.1638286   0.09683882 -49.92  0.000810302    2.552    0.608
       144  -8.5826    237.2723    158.6609   2.7925280581e+01   5.5177242416e+00    0.1087178   0.08777743 -43.72 0.0003108392    1.607    0.378
       145  -8.6991    105.2792    157.6108   5.5387106271e+01   2.8234782773e+01    0.1505293    0.1098807  72.63 0.0007000373    1.737    0.424
       146  -8.4177    167.2947    156.6863   4.0144439431e+01   1.7274780349e+01    0.1286686    0.1132018  83.90 0.0005084297    1.598    0.374
       147  -8.9984     36.0102    156.0000   7.5211002142e+01   3.8410035853e+01    0.2184589   0.07295865  25.57 0.0008035898    2.950    0.661
       148  -8.7466    132.1828    152.4059   4.7398792737e+01   2.4552928412e+01    0.2093955    0.1276875  49.28  0.000781203    1.709    0.415
       149 -10.1315      9.5037    152.6631   8.2805313848e+01   4.1638565474e+01    0.2135914    0.1144778  22.95  0.001079659    1.938    0.484
       150  -9.5314    249.0479    149.1575   2.4403317158e+01   5.0811868183e+00    0.2501767    0.1341671 -31.54 0.0007864962    1.560    0.359
       151  -9.5858    243.4162    149.3254   2.5227870656e+01   5.8613179281e+00    0.2302885   0.09792908 -28.37   0.00107357    2.063    0.515
       152  -8.3853    189.2978    149.6753   3.4266767911e+01   1.4540016033e+01    0.1244989    0.1097953 -74.10 0.0006876087    1.628    0.386
       153  -8.7726    233.5994    147.2677   2.6260515709e+01   7.5896375378e+00    0.1761771    0.1000414 -22.91 0.0009514085    1.604    0.377
       154  -9.5169      7.5984    146.3595   8.3018733389e+01   4.3323103224e+01      0.25989   0.08909281  78.78 0.0009573015    3.177    0.685
       155  -8.5089    223.4435    146.5218   2.7675111013e+01   9.2723150040e+00    0.1264425    0.1055362 -12.39 1.921532e-05    1.014    0.014
       156  -9.7882    148.3992    144.7659   4.1901085291e+01   2.3033369303e+01    0.3682042    0.2653834 -86.77  0.001509033    2.473    0.596
       157  -9.3620     33.7290    145.3181   7.4871703813e+01   4.1303199248e+01    0.3612058     0.120538  58.40    0.0011405    3.978    0.749
       158  -8.4398    240.6605    145.3058   2.4836533770e+01   6.7950011415e+00    0.1101461   0.09126332 -52.24 0.0007041317    1.679    0.404
       159  -8.7823     88.4730    144.9811   5.7918281114e+01   3.3976568899e+01    0.2130443    0.1290116  87.79 0.0008100009    2.638    0.621
       160  -8.9550    247.4469    143.8934   2.3604461447e+01   5.9882088791e+00    0.1798582    0.0965552 -30.83 0.0005847877    1.547    0.353
       161  -8.5023    138.7198    144.3870   4.4142883960e+01   2.4969929138e+01    0.1470263    0.1180295  87.56 0.0005433087    1.733    0.423
       162  -9.1817    105.3795    143.4147   5.2743079226e+01   3.1425777067e+01    0.3191568    0.2086361  79.54  0.001274833    2.464    0.594
       163  -8.2146    165.3596    143.6936   3.7856990638e+01   1.9987025979e+01    0.1395991    0.1158307  81.89  0.000625994    1.730    0.422
       164  -9.0377    124.4542    142.1737   4.7299541312e+01   2.8166671599e+01     0.206582    0.1463328 -66.79  0.000939297    1.770    0.435
       165  -9.4137     19.9855    140.2439   7.8754578340e+01   4.3877131739e+01    0.3061001    0.1270136  69.29  0.001190868    2.736    0.635
       166  -8.7391    250.5214    140.5006   2.2522501044e+01   5.9842175982e+00     0.119484   0.09425011 -17.26 -5.732436e-06    1.013    0.013
       167  -8.2271    207.3422    137.6546   2.8477285654e+01   1.3278412423e+01    0.1277734    0.1044417 -66.34 0.0007046431    1.789    0.441
       168  -8.2779    197.6084    137.2870   3.0100987881e+01   1.5070037481e+01    0.1282186    0.1091181 -83.48 0.0007004964    1.763    0.433
       169 -10.0945    248.7155    134.7740   2.1633416217e+01   6.9917483420e+00    0.2398589    0.1296004 -35.46  0.001237004    1.590    0.371
       170  -9.5518     83.4093    133.3605   5.7321977082e+01   3.7629491092e+01    0.3661481    0.2375145 -89.38  0.001468932    2.123    0.529
       171  -8.3828    142.7106    131.3342   4.0298340120e+01   2.6851949030e+01    0.1473903    0.1208226  89.55 0.0003440834    1.631    0.387
       172  -9.0775    131.8634    131.0242   4.2942524217e+01   2.9109639794e+01    0.2443562    0.1776056 -78.75 0.0007746125    2.020    0.505
       173  -9.2535     31.8098    130.9816   7.3966690402e+01   4.5158433446e+01    0.2501431    0.1338388  67.33   0.00108437    2.052    0.513
       174  -8.4794    168.2805    129.5670   3.4088860086e+01   2.2015810493e+01    0.1473143    0.1137231 -72.18 0.0003138731    1.861    0.463
       175  -8.8481    152.6451    128.8248   3.7365444848e+01   2.5329481990e+01    0.2121978    0.1364639 -52.33 0.0008398924    1.753    0.430
       176  -9.0651    117.2049    124.7628   4.5433046645e+01   3.3427483508e+01    0.2467665    0.1640713  81.27 0.0007592211    2.617    0.618
       177  -9.9577      5.5872    124.1005   8.2288750963e+01   4.9056746251e+01    0.3487225    0.1513441  48.75  0.001567338    2.163    0.538
       178  -8.6690    179.0517    124.5147   3.0723702259e+01   2.0763854747e+01    0.1783422    0.1291372  78.00 0.0005527846    2.232    0.552
       179  -9.3093     98.8835    127.5581   5.1385503818e+01   3.6315823373e+01    0.3029472    0.2062735 -81.10  0.001093372    2.010    0.502
       180  -9.2775    141.3181    118.3549   3.7551335489e+01   2.9801172482e+01    0.3200924    0.2182361 -76.01  0.001127741    2.404    0.584
       181  -8.8460    130.4885    118.0104   4.0214769950e+01   3.2173653486e+01    0.2151468    0.1371997 -70.84 0.0008094244    2.485    0.598
       182  -9.0912     44.0259    123.2535   6.8731918991e+01   4.5847250709e+01    0.2716972    0.1212992  67.09 0.0008762905    3.586    0.721
       183 -10.1558     10.0292    111.9825   7.9756870610e+01   5.1905782279e+01    0.5563327    0.2187853  74.31  0.002068623    3.031    0.670
       184  -9.0457    109.0101    113.7230   4.5140229981e+01   3.7594251437e+01    0.2800074    0.1997638 -67.18  0.001035798    1.665    0.399
       185  -9.4048     92.7618    112.6754   4.9909045929e+01   4.1030612642e+01    0.2963737    0.2024518 -86.25  0.001207611    2.104    0.525
       186  -8.6070    121.9744    112.4828   4.1117134341e+01   3.5177183552e+01    0.2089934    0.1343102  67.40 0.0004845853    2.222    0.550
       187  -8.2665    179.3304    133.6821   3.2761914638e+01   1.9100485293e+01    0.1362233    0.1145438 -80.84 0.0007047286    1.686    0.407
       188 -12.4112    248.9066    104.3002   1.5351756274e+01   1.0980221482e+01     1.168767    0.2109462 -30.94   0.00346026    5.292    0.811
       189  -8.4160    159.2754    111.6431   3.1699563560e+01   2.7253549949e+01     0.150216    0.1179636 -71.95 0.0006591942    1.652    0.395
       190  -9.2116    133.4864    109.5071   3.7277282553e+01   3.3331681894e+01    0.2756635    0.1456374 -55.06  0.001022375    2.281    0.562
       191  -8.4220    189.2876    107.6849   2.4791424062e+01   2.1565157036e+01    0.1388957    0.1085208 -64.25 0.0003522662    1.587    0.370
       192 -10.2186     22.2852    103.3159   7.4068655198e+01   5.3283164234e+01    0.3474015    0.2377267 -89.86  0.000935483    1.419    0.295
       193  -8.3554    166.6527    104.2891   2.8256776236e+01   2.7005683203e+01    0.1486117    0.1181087 -81.07 0.0003871025    1.659    0.397
       194  -9.5505    150.4521    102.7922   3.1374758923e+01   3.0907880249e+01    0.3690284    0.2243117 -62.74  0.001092014    2.388    0.581
       195  -9.0874    139.6798    104.3512   3.4352488140e+01   3.3023536800e+01    0.2361384    0.1847679 -87.14 0.0006812474    1.705    0.414
       196  -8.9159    128.4332    101.9178   3.6574071133e+01   3.6048237922e+01    0.2154824    0.1358026 -67.89 0.0008042859    2.376    0.579
       197  -9.1243     44.9805    101.4776   6.4690311683e+01   5.1447707370e+01    0.3181032    0.1573577  70.49  0.001039506    3.561    0.719
       198  -9.7159    108.2551     98.3684   4.1326596750e+01   4.1255706081e+01    0.3282087    0.2415195  80.41  0.000731508    1.868    0.465
       199  -8.8451     63.8258     95.9744   5.6068774275e+01   5.0235084111e+01    0.2599558    0.1715093  80.14  0.001063654    2.152    0.535
       200  -9.9433      2.5424     94.3069   8.1100626015e+01   5.6937941386e+01    0.4090273     0.175485  75.35  0.001671999    2.563    0.610
       201  -9.1445    138.9512     91.9830   3.1105465851e+01   3.5671332382e+01    0.2489621    0.1907222 -79.70 0.0007612261    1.707    0.414
       202  -9.4633    124.5999     90.7574   3.4442624014e+01   3.9259477595e+01    0.2992742    0.2301393 -76.16 0.0007634136    1.654    0.396
       203  -8.4168    174.5522    111.5077   2.8489958226e+01   2.3995351147e+01    0.1439604    0.1377044 -33.78 0.0002217943    1.053    0.050
       204  -9.0803    104.9505     83.0692   3.7833274045e+01   4.5368542128e+01    0.2522866    0.1935909 -88.16 0.0007101726    1.733    0.423
       205  -8.6458    140.8223     82.6106   2.7912853700e+01   3.7041176384e+01    0.2148085    0.1476929  65.86 0.0005537046    1.639    0.390
       206  -8.8101     24.9834     80.9834   6.9335687286e+01   5.8931252205e+01    0.2935202    0.1231073  59.90  0.000943233    4.004    0.750
       207  -9.1971     86.4658     86.4961   4.5048285640e+01   4.8509270613e+01    0.3408445    0.2307275  80.17  0.001067254    2.360    0.576
       208  -8.4161    150.3163     80.6630   2.5188507968e+01   3.5108099407e+01    0.1604055    0.1188028 -72.61 0.0007048068    1.698    0.411
       209 -10.2951      4.4515     74.7435   7.8120096752e+01   6.1927222489e+01    0.5463215    0.2027759 -89.72  0.002020486    3.063    0.674
       210  -8.9926    127.9997     75.0295   2.8722560226e+01   4.1599483591e+01    0.2530946     0.188549 -74.52 0.0006532788    1.717    0.418
       211  -9.2095     63.0365     73.8024   5.0251172579e+01   5.5853413604e+01    0.2697711    0.1884758 -70.39 0.0007254574    1.689    0.408
       212  -8.5787    163.4915     73.0081   2.0276409877e+01   3.3240404171e+01    0.2183107    0.1140012 -55.34 0.0008082889    2.399    0.583
       213  -8.7480     82.3682     72.2745   4.2038367113e+01   5.2590601592e+01    0.2152095    0.1450206 -59.26 0.0007234372    1.662    0.398
       214  -8.8694    147.1672     68.1253   2.2058702329e+01   3.8100622026e+01    0.2192011    0.1746909 -63.52 0.0005659224    1.356    0.263
       215 -10.5820    250.1761     64.8340   6.7168084112e+00   1.5840592254e+01    0.2841542    0.1351958 -21.25  0.001340996    2.334    0.572
       216  -8.6144    138.6825     66.3038   2.3336445367e+01   4.0548162699e+01    0.1590817    0.1192704 -74.77 0.0002753124    1.625    0.385
       217 -10.4692      3.3113     62.5172   7.6973611146e+01   6.5108116036e+01    0.5645328    0.2047197 -87.51  0.002065738    3.227    0.690
       218  -8.3570    110.2968     63.6651   2.9744437477e+01   4.8092045146e+01    0.1599579    0.1230865 -77.44 0.0007030254    1.648    0.393
       219  -8.9981     73.4779     59.5689   4.0977909205e+01   5.7163540793e+01    0.2641244    0.1441054 -58.16 0.0009021311    2.292    0.564
       220  -9.1425     23.6182     56.4750   6.4408108442e+01   6.5284086661e+01    0.3374737    0.1796074  75.10  0.001222345    3.600    0.722
       221  -8.4297    119.3285     55.6874   2.4404530245e+01   4.7304133281e+01      0.16079    0.1205153 -76.69 0.0007042914    1.669    0.401
       222 -10.6993      3.5132     51.8649   7.5036026877e+01   6.7773762095e+01    0.5097131    0.1298907 -52.09  0.001915056    2.888    0.654
       223  -8.9266     92.4917     50.5016   3.0354901346e+01   5.4821134100e+01    0.2684122    0.1384878 -49.78  0.001017994    2.228    0.551
       224  -8.8488    172.2075     50.0022   1.2004973180e+01   3.4641951762e+01    0.1935078    0.1756621 -53.28  0.001081407    1.043    0.042
       225 -10.7155     12.6748     41.3306   6.6718506092e+01   6.9827289438e+01    0.5217635    0.1261773 -44.56   0.00174079    3.683    0.728
       226 -10.4743      1.4933     38.4813   7.3502871396e+01   7.1121914252e+01    0.4212664    0.1133346 -72.30  0.001514366    3.356    0.702
       227  -9.2254     26.0058     35.3537   5.5752410521e+01   6.9989629397e+01    0.2266195    0.1884091  87.36 0.0008532813    1.597    0.374
       228  -8.4765     48.6574     33.3053   4.1244217261e+01   6.7152063598e+01    0.1360584    0.1138505  78.68 0.0004845694    1.686    0.407
       229 -11.3493    143.6129    248.0585   5.9217961000e+01   6.2746459118e+00     0.426508    0.1686949  26.39  0.002080518    2.228    0.551
       230 -10.0846    218.9635    245.7505   4.5243326113e+01  -2.5904933039e+00    0.2881597     0.143117 -21.27  0.001828213    2.037    0.509
       231  -8.5839     81.6620     27.3520   2.3827235427e+01   6.1237207350e+01    0.1513333    0.1142154 -72.91 0.0007044302    1.796    0.443
       232  -8.4797     63.7721     21.0179   2.7424081335e+01   6.6264570112e+01    0.1779707    0.1159015 -31.50  0.000378372    1.592    0.372
       233  -8.4379     48.5189     21.5221   3.5046859199e+01   6.9287611087e+01    0.1364246    0.1270027   9.58 0.0001418143    1.048    0.046
       234 -11.1742     16.0547     19.9686   5.5867606913e+01   7.4315974310e+01    0.3141077    0.2625714  39.64  0.001950541    1.430    0.301
       235  -8.8198     74.3113     19.6307   2.2513931629e+01   6.4068389810e+01    0.1456418    0.1106387 -67.84 0.0007035901    1.769    0.435
       236 -10.8484    223.9085    242.5554   4.3987997642e+01  -2.8046970759e+00     0.469777    0.1991207 -32.36  0.002834286    2.454    0.593
       237 -10.1079     90.0689    247.3337   6.9979681198e+01   1.3189509156e+01    0.3312791    0.1182675  47.50  0.001551878    2.552    0.608
       238 -10.0921     76.2118    247.6107   7.2865994052e+01   1.4826701738e+01    0.3225875   0.09506056  34.93  0.001381877    2.304    0.566
       239  -9.1911     13.6292     31.3075   6.2688848731e+01   7.2078235427e+01    0.1291543   0.09644368  56.98  0.000703396    1.762    0.433
       240 -10.4300    210.9772    245.8264   4.6586592567e+01  -1.7025317805e+00     0.299809    0.1442458 -35.67  0.001870024    2.385    0.581
       241  -9.9244    214.3605    240.8745   4.5332190596e+01  -1.5543950647e+00     0.296846    0.1293909 -14.66  0.001444432    3.322    0.699
       242  -9.1056    175.3712    247.2191   5.3068180608e+01   2.3733010507e+00    0.1247864    0.1066543 -42.93 0.0005584878    1.744    0.427
