#   1 NUMBER                 Running object number                                     
#   2 MAG_AUTO               Kron-like elliptical aperture magnitude                    [mag]
#   3 X_IMAGE                Object position along x                                    [pixel]
#   4 Y_IMAGE                Object position along y                                    [pixel]
#   5 X_WORLD                Barycenter position along world x axis                     [deg]
#   6 Y_WORLD                Barycenter position along world y axis                     [deg]
#   7 A_WORLD                Profile RMS along major axis (world units)                 [deg]
#   8 B_WORLD                Profile RMS along minor axis (world units)                 [deg]
#   9 THETA_WORLD            Position angle (CCW/world-x)                               [deg]
#  10 FWHM_WORLD             FWHM assuming a gaussian core                              [deg]
#  11 ELONGATION             A_IMAGE/B_IMAGE                                           
#  12 ELLIPTICITY            1 - B_IMAGE/A_IMAGE                                       
         1 -15.2648      3.0475     34.3514   1.1715255059e+02   6.8290985485e+01     5.537783     1.595862 -59.69   0.02658409    2.249    0.555
         2 -12.7865    185.4629     47.9161   6.5553961759e+01   3.2806982022e+01     2.899989    0.6734993 -41.68  0.007674468    4.409    0.773
         3 -13.7254    205.9328     15.1636   5.2456213563e+01   3.1456291361e+01     1.619281     1.297319  40.22  0.008583484    1.355    0.262
         4 -13.9034    193.8484     29.8496   5.8534057855e+01   3.2980582595e+01     1.663392      1.07812 -19.13  0.006659231    1.600    0.375
         5 -13.7648      4.9587    119.6614   1.2882066272e+02   4.9584062816e+01     1.921769     0.864456 -69.61  0.007818498    1.748    0.428
         6 -11.7085    193.4670    237.5825   1.0505632785e+02   3.0683057710e+00    0.3413957    0.1904319 -50.83  0.002111705    2.835    0.647
         7 -11.4207    141.0435    249.7249   1.1465390323e+02   9.4597926648e+00    0.3917978    0.1194884  41.72  0.001966793    2.502    0.600
         8 -11.2796     70.5033    248.8388   1.2550995947e+02   1.9015119478e+01    0.3364573    0.1924943  46.56  0.001378305    1.378    0.274
         9  -9.8533     62.4966    250.1814   1.2679666464e+02   1.9782203034e+01    0.2055382   0.07675263  53.04 0.0009510257    1.856    0.461
        10 -14.4526      3.9049    189.8089   1.3317793969e+02   3.5731704909e+01     1.394554    0.5584199 -84.33  0.008463511    2.040    0.510
        11 -14.2915     12.0183    206.4925   1.3252266630e+02   3.2072258440e+01     1.121849    0.6110108  34.61   0.00797636    2.140    0.533
        12 -14.8955     37.6461    240.7206   1.3003810932e+02   2.3970161889e+01    0.9374585    0.8025067  66.34  0.001947705    1.449    0.310
        13 -14.1817     36.2537    226.7158   1.2957030587e+02   2.6287794660e+01     1.152788    0.4825052  64.29  0.007084081    1.906    0.475
        14 -16.1503      7.1507    243.4091   1.3460029392e+02   2.6626238769e+01     1.817429     1.290634  80.57   0.01028041    1.281    0.219
        15 -13.0597     27.7367    248.7213   1.3184115286e+02   2.3826312891e+01    0.3228197     0.229235  63.25  0.001221015    1.158    0.136
        16  -9.4620     87.3396    240.5912   1.2234394689e+02   1.8077705081e+01    0.1591223   0.09983107  79.56 0.0007399907    1.604    0.376
        17  -9.6149    148.3193    238.3171   1.1234536356e+02   9.8057554414e+00    0.1019961   0.07402471  24.82 0.0007040816    1.658    0.397
        18  -8.4937     82.6681    230.2655   1.2232156486e+02   2.0211450206e+01    0.1090387   0.05780674  61.79 0.0004843395    1.579    0.367
        19  -9.8141    143.6748    228.3159   1.1202102635e+02   1.1804503302e+01    0.1115745   0.07172283  64.11 0.0006331325    1.669    0.401
        20  -9.0458     76.6078    223.8016   1.2282978614e+02   2.1994586577e+01    0.1333574   0.08273315  84.56 0.0006552066    1.593    0.372
        21 -10.5910     53.0174    221.8195   1.2659535129e+02   2.5200443759e+01    0.3007354    0.1798703  76.75  0.001830655    1.412    0.292
        22 -10.5030     69.1657    217.6292   1.2361488500e+02   2.3928655451e+01    0.3053376    0.1911538  66.50 0.0006041964    1.277    0.217
        23 -11.0694     71.9655    212.3660   1.2273040816e+02   2.4440531021e+01    0.5121207    0.2403601  50.63  0.001731964    1.649    0.394
        24 -12.3165     49.0807    213.7550   1.2674018230e+02   2.6983174508e+01    0.4362344     0.280664 -55.86 0.0008924584    2.251    0.556
        25 -12.9685     58.7043    204.3450   1.2442954503e+02   2.7453777815e+01     1.205521    0.6935332  61.73   0.00813729    1.379    0.275
        26  -9.4486     46.2198    148.5091   1.2195377497e+02   3.9657038526e+01    0.7286316     0.528143 -84.92  0.004092734    1.153    0.133
        27 -12.1948     53.5029    178.8916   1.2334045288e+02   3.2718723603e+01    0.9689482    0.5417614  69.25  0.005646216    1.610    0.379
        28  99.0000     56.6911    166.8624   1.2158689897e+02   3.4682394798e+01     3.864234     0.278228  43.34   0.01251417    5.648    0.823
        29 -11.6327     72.6796    183.6889   1.2005967699e+02   2.9406757753e+01    0.4342256    0.3327115  58.18  0.001742893    1.137    0.120
        30 -12.8273     87.2750    161.7115   1.1458424215e+02   3.1619908773e+01     1.003704    0.7732304  54.79  0.004660241    1.190    0.160
        31 -13.9778     74.1977    160.7776   1.1725126595e+02   3.3653094693e+01     1.550283    0.7010231 -57.44  0.007809352    2.268    0.559
        32 -13.8795     66.0736    147.9847   1.1745420788e+02   3.7367294444e+01     1.468691     1.309736 -18.17   0.00812143    1.715    0.417
        33 -12.2552     97.5369    209.1023   1.1795182886e+02   2.1526981250e+01    0.5746417    0.3889585  38.06  0.002720955    1.552    0.356
        34 -13.5604     85.8324    204.4323   1.1959765652e+02   2.3938604275e+01     1.770481    0.9675339 -75.05   0.01060274    1.993    0.498
        35 -12.3172     77.2147    177.3838   1.1851866917e+02   2.9986856118e+01    0.5545742    0.4805677  82.88   0.00098218    1.145    0.126
        36 -12.8455     84.5794    168.0311   1.1594929275e+02   3.0763465200e+01    0.9283857    0.6206521  81.07  0.001556257    1.499    0.333
        37 -10.2147     41.9811    212.8231   1.2787509578e+02   2.7939709511e+01    0.2901006    0.1367154  34.46  0.001745777    2.475    0.596
        38 -14.1194    105.7987    189.7176   1.1434165529e+02   2.3595774362e+01     1.397438      1.16196  42.92  0.007292256    1.286    0.223
        39 -12.5841    117.0783    194.3554   1.1276825606e+02   2.1059466984e+01    0.9965644    0.6586044 -23.12  0.004798354    3.673    0.728
        40 -12.0718     89.0261    144.4873   1.1176178333e+02   3.4873550881e+01    0.8059665     0.631107  47.64  0.004926159    1.290    0.225
        41 -11.1135    199.1639    198.4984   9.8597774808e+01   6.6855317695e+00    0.2731339    0.2308717  28.62  0.001834084    1.047    0.045
        42 -10.2066     63.7506    183.5249   1.2176933299e+02   3.0588568718e+01    0.4554664    0.1524525 -66.19  0.002198459    2.878    0.653
        43  -9.7202    208.7533    186.4287   9.4981633029e+01   6.5541023987e+00    0.1796361   0.09733187  34.87 0.0006882035    1.661    0.398
        44 -12.1660     39.4458    167.7471   1.2517982944e+02   3.6480379835e+01      1.16325    0.4139878 -73.68  0.005849419    2.506    0.601
        45 -12.3443     33.5462    168.9169   1.2645351212e+02   3.6872283872e+01    0.6914745    0.4699116  72.79   0.00483546    1.155    0.134
        46 -10.4873      1.7393    168.5388   1.3260159840e+02   3.9865795958e+01    0.4536548    0.1042123 -76.47  0.002131414    3.333    0.700
        47 -12.2389    110.2531    154.9716   1.0868382239e+02   2.9366677404e+01    0.8657458    0.8100411  70.42   0.00474499    1.116    0.104
        48 -11.2415    107.3906    142.8473   1.0732596834e+02   3.2279595543e+01    0.7075435    0.4980241 -47.99   0.00388525    1.575    0.365
        49 -10.1474      1.2580    150.5239   1.3175048917e+02   4.3437573165e+01    0.5391296   0.06725582 -78.24  0.001777528    6.042    0.834
        50 -13.8521    118.8612    127.2655   1.0177485707e+02   3.3471741802e+01     1.281685    0.9754726 -51.07  0.006976909    1.336    0.251
        51 -13.0746    133.0502    138.4486   1.0078413129e+02   2.8572409082e+01     1.567486     1.186831  18.83  0.008060986    1.821    0.451
        52 -13.6555    133.0463    123.1868   9.7628745811e+01   3.1602584238e+01     1.350932    0.8464773 -26.15  0.005752794    2.466    0.595
        53 -12.0363     26.6432    136.4969   1.2517906289e+02   4.4207611156e+01    0.8280904    0.4878332 -70.00  0.005007945    1.458    0.314
        54 -14.5176     50.0057    123.4644   1.1803836532e+02   4.4630928028e+01     1.944072     1.399479  37.69  0.009793172    1.595    0.373
        55  -9.8611    120.6776    249.0323   1.1777388134e+02   1.2425523795e+01    0.1848893    0.1090464  36.62  0.001239075    1.654    0.395
        56 -13.5346      4.8845    100.0793   1.2705513976e+02   5.3841899941e+01     1.218381    0.5424603 -80.30  0.006752933    1.761    0.432
        57  -9.6230    106.0075    131.0325   1.0553220572e+02   3.4964268702e+01    0.2180529    0.1907802  85.01  0.001301182    1.075    0.070
        58  -9.8620    100.3045    129.1484   1.0653779391e+02   3.6322329950e+01    0.2247459    0.2033479 -13.38 0.0008197249    1.481    0.325
        59 -11.1411     95.6650    120.7906   1.0608521861e+02   3.8880769482e+01    0.6059396    0.4368488 -38.62  0.003198978    1.702    0.412
        60 -11.1427     72.8967    124.3100   1.1241254178e+02   4.1552126840e+01    0.3907121     0.248278 -67.13    0.0014025    1.432    0.302
        61 -12.4186     80.8150    121.0623   1.0986216897e+02   4.1133553056e+01    0.8798065    0.7700326  -5.19  0.004642561    1.630    0.387
        62 -10.1243    109.0714    120.4369   1.0271215139e+02   3.6669522043e+01    0.2847818    0.2376573 -39.72 0.0005403477    1.360    0.265
        63 -10.9174    109.3113    115.9917   1.0171655307e+02   3.7571522128e+01    0.3319022    0.2475456  68.78  0.001325369    1.468    0.319
        64  -9.7480    167.6144    112.3608   8.7501386450e+01   2.6403583752e+01    0.2970466    0.2314407 -79.08 0.0007430565    1.687    0.407
        65 -12.0662    118.5402    110.3088   9.8171970342e+01   3.7064696425e+01    0.5170755    0.3825766  76.64  0.002571249    1.631    0.387
        66 -10.0925     36.4812    106.7843   1.1923095596e+02   4.9790733033e+01    0.3510602    0.1653906 -55.80  0.001809269    1.935    0.483
        67 -13.7136    139.6967     93.4964   8.8799531754e+01   3.6160026013e+01      1.56732     1.024007 -18.44  0.006506154    2.253    0.556
        68 -10.4081     46.5605     97.7043   1.1495514679e+02   5.0794122767e+01     0.355513     0.282759  84.38  0.002266335    1.216    0.178
        69 -11.2423     74.5777     90.8302   1.0540797774e+02   4.8776932596e+01    0.4870323    0.4310423  87.76  0.002986052    1.139    0.122
        70 -11.2371     81.4848     88.6210   1.0287875201e+02   4.8225782543e+01    0.8267621    0.5713154 -83.02  0.004123337    1.796    0.443
        71 -10.8425     81.9831    102.5735   1.0593392710e+02   4.5053966117e+01    0.4411814    0.3314008 -67.10   0.00246749    1.229    0.186
        72  -9.7782     52.1421     89.8525   1.1183724614e+02   5.1940698536e+01    0.2026496    0.1606233 -89.66  0.001240493    1.249    0.200
        73 -11.3033    116.1166    101.4068   9.6646768913e+01   3.9399271155e+01    0.3242093      0.25577  10.32  0.001610592    1.790    0.441
        74 -11.4353     20.7864     65.4983   1.1711891312e+02   6.0430428071e+01     0.729836    0.2243479 -61.55   0.00327999    2.315    0.568
        75 -11.5980    109.3383     67.0104   8.8746874037e+01   4.7817242719e+01    0.4210739    0.2038411 -37.25  0.001677872    2.090    0.521
        76 -10.4716    132.2972    246.9546   1.1576341185e+02   1.1054134569e+01    0.1427332    0.1110637  52.18 0.0005202387    1.079    0.073
        77 -11.7417    165.5293    243.7725   1.1019119714e+02   6.5826796975e+00    0.3477885    0.1356487  32.13  0.001573541    3.441    0.709
        78 -11.4624    186.3056     36.1130   6.1640878372e+01   3.4188541518e+01    0.4439152    0.4113705  67.32  0.001143516    1.095    0.087
        79 -11.3520    171.0854    241.6550   1.0907528241e+02   5.9953652612e+00    0.1618842    0.1442811  68.17  0.001338247    1.372    0.271
