#   1 NUMBER                 Running object number                                     
#   2 MAG_AUTO               Kron-like elliptical aperture magnitude                    [mag]
#   3 X_IMAGE                Object position along x                                    [pixel]
#   4 Y_IMAGE                Object position along y                                    [pixel]
#   5 X_WORLD                Barycenter position along world x axis                     [deg]
#   6 Y_WORLD                Barycenter position along world y axis                     [deg]
#   7 A_WORLD                Profile RMS along major axis (world units)                 [deg]
#   8 B_WORLD                Profile RMS along minor axis (world units)                 [deg]
#   9 THETA_WORLD            Position angle (CCW/world-x)                               [deg]
#  10 FWHM_WORLD             FWHM assuming a gaussian core                              [deg]
#  11 ELONGATION             A_IMAGE/B_IMAGE                                           
#  12 ELLIPTICITY            1 - B_IMAGE/A_IMAGE                                       
         1 -13.1363     65.6978    141.7513   1.2543643715e+02   3.8774377160e+01     2.543595     1.232756 -85.58  0.005990266    5.081    0.803
         2 -13.4654    194.3146     32.1585   6.6422077872e+01   3.2916220203e+01     1.939572      1.36616  37.74   0.01024089    1.857    0.462
         3 -12.9306    204.1913     18.1293   6.1878940345e+01   3.2258152018e+01     1.034159    0.4469358 -42.07  0.004391117    2.263    0.558
         4 -13.3720    210.7628     12.2437   5.9851446594e+01   3.1392388365e+01    0.9122153    0.7622619   3.74  0.001550279    1.833    0.454
         5 -11.7168      2.4667     15.1991   1.1491468254e+02   7.0346898958e+01    0.4631759    0.2067714 -51.69  0.002384849    2.660    0.624
         6 -10.6159      2.1865      3.1722   1.1010043710e+02   7.2000779302e+01    0.2706095    0.1177568 -37.04  0.001710273    1.881    0.468
         7 -10.8767      7.8542      6.1270   1.0858962362e+02   7.1173797587e+01    0.1525274    0.1212713 -12.82  0.001244034    1.247    0.198
         8 -11.6862     54.9086    230.0062   1.3946002393e+02   1.9808586300e+01    0.4205233    0.2361606  71.67  0.002299024    1.700    0.412
         9  -9.9037    190.2498    250.2325   1.1531427280e+02  -5.7870540605e+00    0.2035838   0.08608948  47.25 0.0008094282    2.420    0.587
        10 -10.3380    162.9767    248.8863   1.2043394225e+02  -1.0218438855e+00    0.3667173    0.2249071 -79.48  0.001563178    3.605    0.723
        11 -12.0388    139.0561    248.7114   1.2512323256e+02   3.0629997728e+00    0.4205128    0.3501478  62.34  0.002671516    1.160    0.138
        12 -12.8829    130.2912    244.9046   1.2635390542e+02   5.2233374256e+00    0.7789431    0.3513241  40.22  0.003599692    1.941    0.485
        13 -13.4607    101.3318    248.5443   1.3245563575e+02   9.2928817929e+00     1.113657    0.6813934  39.77  0.006222323    1.547    0.353
        14 -10.4511     93.5815    250.2264   1.3411389065e+02   1.0187055111e+01    0.3543859    0.2097213 -48.94  0.001671604    2.285    0.562
        15 -13.0756     88.7837    244.3761   1.3440908352e+02   1.2041380962e+01    0.8108925    0.5566031  60.12  0.002426539    1.222    0.181
        16 -14.6415     28.4724    244.8810   1.4540244000e+02   2.0116917777e+01     11.40115     3.070305  30.83   0.02865684   12.519    0.920
        17 -15.6580      9.1378    208.3053   1.4630149063e+02   2.9688712450e+01     10.77751     1.398129 -73.35    0.0234851    5.792    0.827
        18 -11.1902     22.1652    236.7458   1.4593510765e+02   2.2443877815e+01    0.2450653    0.2034173 -64.85  0.001052852    1.604    0.377
        19 -10.2802    249.5176    230.4999   1.0089035061e+02  -1.2095628546e+01    0.2016514    0.1080549 -44.70   0.00103602    2.310    0.567
        20 -10.1998    228.3769    205.1816   1.0008204097e+02  -4.9491773773e+00    0.2721446    0.2196024 -54.57 0.0009436361    1.595    0.373
        21 -10.0361     26.2943    203.7662   1.4266296327e+02   2.8914653749e+01     0.228825    0.1377897  68.45 0.0008926188    1.484    0.326
        22  -9.7696    192.0202    193.0239   1.0492511194e+02   3.7983113764e+00    0.4404028    0.2320303 -66.70  0.001256908    5.503    0.818
        23 -11.6139     63.8802    193.5107   1.3369759533e+02   2.6614706265e+01    0.3862478    0.2585091 -43.65  0.001803429    1.977    0.494
        24 -11.7265     69.2802    186.3280   1.3154681189e+02   2.7530779806e+01    0.2959743    0.2494276 -49.51 0.0006434515    1.398    0.284
        25 -11.8343     20.0591    229.9539   1.4584136677e+02   2.4045513814e+01    0.4646822    0.2003487  37.60  0.002372226    2.427    0.588
        26  -8.5582    181.4883    192.4441   1.0702857930e+02   5.9497164130e+00    0.1447772    0.1365914  22.56 0.0001041316    1.021    0.020
        27 -11.0615     78.8752    174.4200   1.2755513988e+02   2.8949731821e+01    0.2561425    0.2328148 -89.78 0.0003502083    1.045    0.043
        28 -13.2634     66.0842    171.8494   1.3025683004e+02   3.1424746269e+01    0.5282391    0.2824593 -45.43  0.001678319    2.244    0.554
        29 -10.3033    105.9995    173.4851   1.2080005595e+02   2.4712359228e+01    0.3584704    0.1258477  45.36  0.001228134    2.826    0.646
        30  -9.9392    231.5137    169.4839   9.2333365419e+01   7.3375265014e-01    0.1402013    0.1277924 -20.02 6.393775e-05    1.002    0.002
        31 -12.1692     85.8379    165.5029   1.2438545150e+02   3.0020067478e+01    0.9206684    0.6064687  62.28  0.004388167    1.680    0.405
        32 -10.5260    248.1790    249.3541   1.0439834150e+02  -1.4427536873e+01    0.2992508    0.1264011  29.94  0.001498421    2.208    0.547
        33  -9.8909     98.9801    150.0048   1.1813642217e+02   3.1595216438e+01    0.2911017    0.2559982 -49.93 0.0006649793    1.151    0.131
        34  -9.0943    101.9389    145.7806   1.1649623168e+02   3.2096117809e+01    0.3991837    0.1977802 -40.95  0.001500131    2.385    0.581
        35 -12.0515     87.5199    149.0560   1.2096443311e+02   3.3748045322e+01    0.2995373    0.2575718 -41.69 0.0006652368    1.254    0.202
        36 -10.6761     39.2695    146.9226   1.3328749107e+02   4.0720593798e+01    0.2464261      0.19948  79.29 0.0009788303    1.238    0.192
        37 -11.7027     62.8008    217.5287   1.3668123183e+02   2.1380628047e+01    0.5199894    0.2196138  47.71  0.001059684    2.111    0.526
        38  -9.6143    110.1532    135.7116   1.1212698776e+02   3.3005072053e+01    0.3853129    0.2549587 -21.60  0.001197317    2.369    0.578
        39 -10.5654     97.4300    132.7091   1.1490341513e+02   3.6028863759e+01    0.2777888     0.236266 -23.02 0.0007220822    1.368    0.269
        40  -9.1801    107.0223    122.9473   1.0999892441e+02   3.6591202377e+01    0.2131862    0.2070495 -56.89 0.0003039656    1.014    0.014
        41 -14.6693     53.2198    208.7272   1.3770963935e+02   2.4599869346e+01      4.69163    0.9714091  51.08   0.01386005    5.610    0.822
        42 -10.9889    168.0031    112.9774   9.2110502489e+01   2.5670466125e+01    0.3724179     0.313131 -84.19 0.0008324279    1.344    0.256
        43  -9.8115     68.2327    227.4037   1.3662674803e+02   1.8514234498e+01    0.1774884   0.09715448  52.77 0.0004458999    1.594    0.373
        44  -9.4649    204.1503    110.9312   8.4237875946e+01   1.7672996824e+01    0.2994269    0.1998357  27.20  0.001252506    2.199    0.545
        45  -9.8022     33.4795    165.9892   1.3724961272e+02   3.6794991351e+01    0.1992127    0.1068158 -71.23 0.0006941254    1.561    0.359
        46  -9.8231    243.0142     94.7631   7.4182479866e+01   1.2071902998e+01    0.2680847    0.1263042 -64.14 0.0009042847    3.633    0.725
        47 -11.0475      1.5390     90.0381   1.3501589387e+02   5.6693605514e+01    0.4473666     0.158531 -71.42   0.00196894    2.792    0.642
        48 -11.5488      1.8661     81.0915   1.3329236722e+02   5.8558242427e+01    0.6090365    0.1068647 -63.94  0.002131263    4.234    0.764
        49  -9.5479    157.4993     77.5038   8.4948423784e+01   3.5038657888e+01    0.1497735     0.143923  74.76 -6.560523e-05    1.008    0.008
        50 -14.0441     44.7524    217.2297   1.4024094678e+02   2.3823996803e+01     1.113475    0.7148924  67.38  0.005636388    1.353    0.261
        51 -11.5051    151.0036    228.6143   1.1982399062e+02   4.6380024406e+00    0.4660569    0.2440719  35.40  0.002128795    1.860    0.462
        52 -12.4802     99.8649    237.9454   1.3153221629e+02   1.1564929927e+01    0.6039442    0.3675869  53.57    0.0022082    1.418    0.295
        53 -12.6316      4.9078    246.0905   1.4935511734e+02   2.2471060631e+01     1.260759     0.609318  84.16  0.007884628    1.674    0.403
        54 -12.7090     37.6567    226.3075   1.4238461554e+02   2.2772134806e+01    0.3362871    0.2565123 -69.33 0.0007739865    1.418    0.295
        55 -11.1830    189.6479     15.6144   6.2989239332e+01   3.5974779596e+01    0.2513747    0.1994077 -83.57 0.0007012771    1.146    0.127
        56 -11.8407     51.5387    235.9950   1.4062619939e+02   1.9025695614e+01    0.4618648    0.2834872 -88.83  0.001973101    1.481    0.325
