#   1 NUMBER                 Running object number                                     
#   2 MAG_AUTO               Kron-like elliptical aperture magnitude                    [mag]
#   3 X_IMAGE                Object position along x                                    [pixel]
#   4 Y_IMAGE                Object position along y                                    [pixel]
#   5 X_WORLD                Barycenter position along world x axis                     [deg]
#   6 Y_WORLD                Barycenter position along world y axis                     [deg]
#   7 A_WORLD                Profile RMS along major axis (world units)                 [deg]
#   8 B_WORLD                Profile RMS along minor axis (world units)                 [deg]
#   9 THETA_WORLD            Position angle (CCW/world-x)                               [deg]
#  10 FWHM_WORLD             FWHM assuming a gaussian core                              [deg]
#  11 ELONGATION             A_IMAGE/B_IMAGE                                           
#  12 ELLIPTICITY            1 - B_IMAGE/A_IMAGE                                       
         1 -13.2088     80.5698     57.5582   3.9210314005e+01   5.6208875032e+01     1.893968     1.100673 -20.59  0.006804443    2.847    0.649
         2 -14.0942     56.3452     64.3938   5.1976625474e+01   5.9380818484e+01     1.920579     1.129791 -28.39  0.007617806    2.309    0.567
         3 -14.9963      6.5326     71.3655   7.9408825586e+01   6.3059591711e+01     1.326656    0.8357847 -62.52  0.005795978    1.374    0.272
         4 -13.4455    135.8312     51.4770   2.1354652996e+01   4.3965747591e+01     1.922714    0.4673938 -35.15  0.005635848    3.715    0.731
         5 -14.3804    100.7102     49.6003   2.9288065400e+01   5.3065187655e+01      1.58898    0.9590607 -30.27  0.004235294    1.796    0.443
         6 -13.3039    120.4625     26.0839   1.5003716608e+01   5.1502077248e+01     1.623917    0.7892122  44.49  0.006433019    2.314    0.568
         7 -14.1782    122.3551     36.8028   1.8812944357e+01   4.9598509551e+01     1.230432    0.6084287  36.55  0.003914792    2.914    0.657
         8 -13.2953    131.5443     33.3357   1.5712533765e+01   4.7681144406e+01    0.6759681     0.456093 -16.24  0.002088135    1.747    0.428
         9 -15.2729    218.0745     16.5472   1.2380694950e+00   2.8933053026e+01     2.076139    0.9740944 -28.26   0.01063865    1.891    0.471
        10 -14.6548    189.9271     24.6406   5.4174242189e+00   3.4215183061e+01     1.572775    0.8577651 -48.94  0.007671691    1.611    0.379
        11 -14.0599     41.7940      4.6250   2.8243775007e+01   7.3303367425e+01     1.083114     0.704883  18.17  0.005208484    1.756    0.430
        12 -13.0083      6.5815      3.2023   5.5264591383e+01   7.9227124045e+01     0.709485    0.4450898  14.14   0.00400894    1.599    0.375
        13 -15.9570     11.3652     23.0108   6.2684245283e+01   7.4732608818e+01      2.33778     1.201474 -32.97   0.01102433    1.981    0.495
        14 -13.1743     46.0270     33.1899   4.3878811528e+01   6.7911310879e+01    0.9718548     0.723098  39.86   0.00511032    1.359    0.264
        15 -13.4833    242.2642     35.6702   4.1367374960e+00   2.2167843911e+01    0.7548867    0.4367901 -70.81  0.003354362    1.907    0.476
        16 -14.5905    166.7328     29.2171   9.1374387970e+00   3.9223594123e+01     1.031927    0.9164364  82.25  0.003844079    1.129    0.114
        17 -13.4980     58.2915     26.6800   3.4142140109e+01   6.6689037290e+01     1.204348    0.3949537  45.30  0.003182357    2.934    0.659
        18 -14.6907    147.7326     29.5278   1.1727956421e+01   4.3972608222e+01     1.419332    0.8233536  71.32  0.005132819    1.705    0.414
        19 -15.4937     99.3414     11.5800   1.2978581231e+01   5.8680279121e+01     1.760085     1.029197  58.42  0.004000482    1.548    0.354
        20 -12.6426     85.4769     13.7538   1.7338690482e+01   6.2037492395e+01    0.4725025    0.4039495  -1.59  0.001832763    1.277    0.217
        21 -11.8569     71.1095     16.2043   2.3066369502e+01   6.5303160485e+01    0.4674315    0.2778645 -17.44  0.001882529    1.937    0.484
        22 -12.1038     74.7681     10.4515   1.8628844713e+01   6.5081989113e+01    0.4051174    0.2956901 -17.89  0.001655149    1.476    0.323
        23 -12.4336     60.1739     15.3165   2.6728689144e+01   6.7962106077e+01    0.6011319    0.3381821  33.26   0.00237807    1.993    0.498
        24 -12.2458    232.4916      2.3053   3.5717302907e+02   2.7432051824e+01    0.4070402    0.2717167  54.85  0.002405181    1.993    0.498
        25 -12.2144     46.7875     12.9746   3.1496762429e+01   7.1171384125e+01    0.3439413    0.2968127  58.13  0.001418958    1.301    0.231
        26 -12.3016    123.2432     10.6477   8.3665832890e+00   5.2447083282e+01    0.3356834     0.233262 -66.89 0.0009518582    1.499    0.333
        27 -12.0314    152.8338      8.5286   4.0097536123e+00   4.4915411684e+01    0.2673251    0.2454131  30.29  0.001132114    1.293    0.227
        28 -10.8949     80.3456      6.9668   1.5107125030e+01   6.4040256188e+01    0.2219902    0.1654369 -45.53  0.001117858    1.479    0.324
        29 -12.5806    120.7725      3.2440   5.7311265953e+00   5.3761109475e+01    0.7150896     0.294549 -82.61   0.00244463    3.402    0.706
        30 -13.8936     26.2337     13.4390   4.4853689603e+01   7.4825092196e+01    0.7905557    0.4648525  16.57  0.003598396    2.095    0.523
        31 -11.3915     67.9283      2.6774   1.6159130162e+01   6.7541833087e+01    0.3371582    0.2053834  40.68  0.001658441    1.583    0.368
        32 -12.2837     79.8252      1.7730   1.2376699750e+01   6.4640041567e+01    0.7521059    0.1247097  63.42   0.00221254    4.104    0.756
        33 -13.3473    187.9144     11.7113   1.9945434036e+00   3.6036139939e+01    0.7074069     0.484722 -37.88  0.003126708    1.302    0.232
        34 -11.4985     61.3324      1.5021   1.7557512564e+01   6.9248586665e+01    0.4548072    0.1187266  61.98  0.001516338    3.389    0.705
        35 -11.8166     27.8444    158.8371   8.0609209679e+01   3.8231278874e+01    0.2872923    0.1602203  38.94  0.001112262    1.602    0.376
        36 -12.8039    108.1299    245.8314   6.8657793182e+01   1.1129682372e+01    0.5388768    0.4706052  77.25  0.004031717    1.529    0.346
        37 -14.0149     97.3915    239.2291   7.0288481494e+01   1.3445582869e+01    0.7024252    0.6471745  87.57  0.005313295    1.380    0.275
        38 -13.9385     90.9477    231.5549   7.0965352963e+01   1.5502065412e+01    0.5632147    0.4145712  77.60  0.003587704    1.778    0.438
        39 -12.4055     51.4684    248.3210   8.0715252645e+01   1.7029220267e+01    0.3889384    0.3345751  22.65  0.002988646    1.261    0.207
        40 -12.6356     57.3109    246.7841   7.9401141141e+01   1.6683108101e+01    0.5111757    0.2005176  25.42  0.002561944    2.213    0.548
        41 -11.7009     41.0720    248.4063   8.2882997436e+01   1.8058807489e+01    0.4076619     0.187252 -89.88  0.002267767    2.771    0.639
        42 -13.2128     28.1298    246.4847   8.5476799915e+01   1.9628786945e+01    0.4727261    0.3712137  53.53  0.002920786    1.116    0.104
        43 -12.2107      2.8698    249.6344   9.0668360460e+01   2.1290294273e+01    0.3776507    0.1735941  37.54  0.001913889    1.496    0.331
        44 -13.9457      9.5498    245.6073   8.9244269693e+01   2.1432961193e+01    0.9128131    0.3196313  44.13  0.004034565    1.853    0.460
        45 -11.9404     24.0157    158.8404   8.1758240397e+01   3.8582121239e+01    0.2774186    0.1857339  84.59   0.00138211    1.424    0.298
        46 -12.5389     76.8909    156.8692   6.5659287854e+01   3.2847849463e+01    0.5132324    0.4208978   1.36  0.001557682    1.444    0.307
        47 -13.6228     74.0020    153.4860   6.6000972507e+01   3.4080695549e+01    0.7979926    0.5552666  28.88  0.002471638    1.417    0.294
        48 -13.1522    208.5103    154.0585   3.4422497989e+01   1.1749290858e+01    0.5996372    0.4055526  28.57  0.003523719    1.526    0.345
        49 -11.5083     55.4820    155.9800   7.1934468206e+01   3.5936630422e+01    0.3722408     0.192944   2.42  0.001279288    3.740    0.733
        50 -12.3841    122.1820    164.3979   5.4562107001e+01   2.4059765804e+01    0.5732439    0.2869565  28.79   0.00239593    2.059    0.514
        51 -12.0208     85.7751    152.6785   6.2396277462e+01   3.2531439758e+01    0.5334688    0.2768683 -44.38  0.002196917    2.200    0.545
        52 -12.8477      8.8039    149.6159   8.5774628411e+01   4.2126718369e+01    0.7514966    0.3674556  55.66  0.003559664    1.862    0.463
        53 -11.8702    103.5208    149.7221   5.6809501349e+01   3.0374423217e+01     0.383795    0.2851523 -19.04  0.001555494    1.710    0.415
        54 -12.2370     59.7801    148.4086   6.9605747449e+01   3.7286394977e+01    0.2433149    0.2273259 -59.87  0.001059392    1.137    0.121
        55 -12.0870     62.8178    145.8428   6.8281515131e+01   3.7531633491e+01    0.3100687    0.2101347  65.59  0.001461651    1.630    0.387
        56 -12.3675    111.5441    155.5800   5.5711445920e+01   2.7715575182e+01    0.5285507    0.3420894  79.04  0.002093865    2.842    0.648
        57 -10.5764     38.2394    145.6024   7.6108663464e+01   4.0553113775e+01    0.1818575    0.1354558   8.23 0.0004551781    1.594    0.373
        58 -10.6711     63.3264    138.6637   6.7012177415e+01   3.9288486991e+01    0.1598421    0.1048982  63.67 0.0007051612    1.722    0.419
        59 -12.9125    246.6849    132.8505   2.4535265063e+01   9.1310443512e+00    0.4450975    0.3024119 -33.33  0.002903377    1.242    0.195
        60 -14.6697    232.5178    127.5673   2.5349720306e+01   1.1924748652e+01     1.223231     0.622335 -41.31  0.006417389    1.834    0.455
        61 -12.7749     43.8528    132.8838   7.2667757108e+01   4.3255887249e+01    0.3010541    0.2844673   4.70 0.0008576237    1.190    0.160
        62 -10.6792     10.7244    133.9696   8.4154467544e+01   4.6016384451e+01    0.1860521    0.1544727  78.36 0.0002451255    1.064    0.060
        63 -12.6281    136.6865    131.8994   4.4307166511e+01   2.8294009212e+01    0.6614377    0.2415086  42.97  0.002295744    2.743    0.635
        64 -14.7378    104.4951    121.3157   5.0565040218e+01   3.6824323039e+01     1.772631     1.189872  40.32  0.008028858    1.472    0.321
        65 -13.5752    113.4900    116.4100   4.6762303554e+01   3.6218268559e+01    0.7738843      0.46242  29.93  0.003170538    1.919    0.479
        66 -14.9985    105.6110    104.8557   4.6095363705e+01   4.0444592247e+01     1.462925     1.245463  44.02  0.006382846    1.178    0.151
        67 -11.9925     42.6183     90.3126   6.5647374002e+01   5.4800086561e+01    0.4025002    0.2649644 -66.60 0.0004793258    1.461    0.316
        68 -12.6001     36.8549     92.8205   6.8704994344e+01   5.4805916145e+01    0.5204296     0.384155 -16.22  0.001536564    1.647    0.393
        69 -13.1443     20.5807     86.1533   7.4829103350e+01   5.8166884870e+01    0.7642952    0.5616242   2.58  0.003971818    1.567    0.362
        70 -13.7142      2.2839     96.9767   8.4417629026e+01   5.6389927530e+01     1.089178    0.4170776 -82.43  0.003904923    2.355    0.575
        71 -14.3066     18.5596    111.2469   7.9215900999e+01   5.1511714476e+01     1.034937    0.7341353 -43.66  0.003398138    1.515    0.340
        72 -14.1731     10.9274    103.0144   8.1379403978e+01   5.4279751042e+01    0.9039676    0.7490479  23.77  0.005212468    1.322    0.243
        73 -14.4602     23.2203     95.1245   7.5102680736e+01   5.5518036714e+01     1.540035    0.7150492  14.63  0.006251742    2.499    0.600
        74 -12.4661     78.8506    110.6862   5.6280025429e+01   4.4065843456e+01    0.4311472     0.368807  63.07  0.002176665    1.233    0.189
        75 -13.1023     85.0257    114.8595   5.5165600691e+01   4.1947862714e+01     1.044492    0.5557646  23.74  0.003582797    2.446    0.591
        76 -12.1307     88.1555    108.8275   5.2672858062e+01   4.2877247799e+01    0.6087376     0.388495 -67.10  0.002548038    1.832    0.454
        77 -13.0609      5.3217    118.2940   8.4927047462e+01   5.0508318812e+01    0.9739754    0.5420585 -48.55  0.004667616    1.916    0.478
        78 -12.7537    121.3401    111.8230   4.3412551718e+01   3.5658749725e+01      0.38058     0.293998  65.87  0.001215025    1.552    0.356
        79 -12.2217     63.0316    110.4750   6.1891713151e+01   4.6662407620e+01    0.5761631    0.3595974 -68.85  0.002510987    1.672    0.402
        80 -11.3710     64.6779    101.6818   5.9287725698e+01   4.8701088849e+01    0.2812645    0.2257402   0.21 0.0006573073    1.521    0.343
        81 -12.2676     61.5695     98.0487   5.9613904639e+01   5.0126242657e+01    0.5478237    0.3849077  75.88  0.002013461    1.837    0.456
        82 -12.1677    177.2440    110.1808   3.0272693602e+01   2.4417961436e+01    0.3656602    0.2649963 -16.43  0.001839517    1.525    0.344
        83 -11.3816     45.9506    110.1307   6.8294571600e+01   4.9082013190e+01    0.3374196    0.2007628 -59.01  0.001469552    1.585    0.369
        84 -12.9630    223.7395    128.5563   2.6798065458e+01   1.3149945587e+01    0.6617777    0.4117495 -52.12  0.003492554    2.112    0.527
        85 -12.6128     29.6004     89.1926   7.1219857123e+01   5.6542405366e+01    0.6340538    0.3625575  77.58  0.001837602    2.280    0.561
        86 -12.7180    136.0469    102.8613   3.7215834503e+01   3.4451873024e+01    0.6362799    0.3541676  43.61  0.002008759    1.845    0.458
        87 -13.3375    137.3571     95.1467   3.4757642627e+01   3.5720230638e+01    0.5424902    0.4586489 -88.25  0.001521979    1.419    0.295
        88 -13.6941    120.1667    102.2886   4.1192938561e+01   3.7988336179e+01    0.7170174    0.3646253  42.25  0.002780874    2.004    0.501
        89 -12.6181     50.1661     98.6155   6.4308378860e+01   5.1620370526e+01    0.8232694    0.5505557   1.54   0.00311162    2.024    0.506
        90 -12.1561     49.1944     93.4444   6.3544254098e+01   5.3120904251e+01     0.438077    0.3225446  74.61  0.002063302    1.608    0.378
        91 -13.2659    248.3460     94.7914   1.6524368764e+01   1.3888988907e+01    0.8212315    0.2622786 -41.57  0.003586058    2.630    0.620
        92  -9.9909     75.2720    100.6516   5.5086793141e+01   4.7214577786e+01    0.1576104      0.12045  80.79 0.0006430599    1.626    0.385
        93 -12.2076    163.3182     97.8073   2.9795313776e+01   2.9506978360e+01     0.351634    0.3041371  79.49 0.0006082625    1.362    0.266
        94 -13.2022     32.3978    111.8855   7.3868343260e+01   5.0115125429e+01    0.6831176    0.3880897 -62.11  0.003107783    1.624    0.384
        95 -12.0735    129.3091     96.2011   3.7057854522e+01   3.7292183288e+01     0.319466     0.219321  58.94  0.001414302    1.635    0.388
        96 -12.9781     28.3748    121.9509   7.6754342349e+01   4.7783143354e+01    0.5456884    0.3601193 -56.42  0.002455248    1.496    0.332
        97 -10.4256     58.7593    124.9922   6.6253306104e+01   4.3463226557e+01    0.1929211    0.1229023 -65.61 0.0004843907    1.546    0.353
        98 -10.3695     78.6325     86.8741   5.0042905065e+01   5.0011542017e+01    0.2137176    0.1461009 -64.21 0.0004074548    1.626    0.385
        99 -11.2464     35.0801     86.4352   6.8160287826e+01   5.6713446802e+01    0.2886686     0.182071 -49.39 0.0008290539    1.525    0.344
       100 -13.6566    214.2531     76.6677   1.6324114662e+01   2.2331055523e+01    0.9511744    0.8208143 -67.38  0.006043297    1.262    0.207
       101 -13.8286    188.6691     82.8222   2.1375666879e+01   2.6603971902e+01     1.313539     0.961675 -77.27  0.006714855    1.788    0.441
       102 -14.0067    199.2212     69.7392   1.6490090294e+01   2.6347402698e+01     1.010847    0.8315495   1.11  0.004198194    1.467    0.318
       103 -14.2741    164.2857     71.4869   2.2280227108e+01   3.3828022721e+01     1.404018     1.023332  63.54  0.007057546    1.471    0.320
       104 -13.8736    160.7115     80.7800   2.5613275565e+01   3.3094574744e+01    0.9691668    0.6082953  26.30   0.00297389    2.385    0.581
       105 -14.4195    169.4477     76.8178   2.2897761008e+01   3.1772628204e+01    0.9025639    0.6248075  44.96  0.003023902    1.594    0.373
       106 -13.4696    239.5320     81.3000   1.4543651991e+01   1.7095754778e+01     0.668605    0.4223606 -74.58  0.003594929    2.454    0.592
       107 -12.8577    179.5097    120.4178   3.2310019049e+01   2.2191382578e+01    0.5281389    0.2189144  38.59  0.002026262    2.814    0.645
       108 -12.1808     40.3322     67.6954   6.0821474789e+01   6.0966971696e+01     1.007957     0.386841  27.34  0.003640229    2.778    0.640
       109 -14.5987    170.3208    242.3241   5.5935923674e+01   4.2644378879e+00     1.011107    0.5991288  16.58  0.006504543    1.392    0.282
       110 -12.9437    237.2768    230.6664   4.2889868530e+01  -1.6508623445e+00     0.376115    0.2634482   9.97  0.002982297    1.179    0.152
       111 -13.8862     74.1701     73.7371   4.7595332040e+01   5.3973957706e+01     1.637464    0.8046421  22.15  0.004872661    4.027    0.752
       112 -13.3951     87.4230     65.1659   3.9610344517e+01   5.3147041818e+01    0.6507087    0.5152391 -10.06  0.001878524    1.583    0.368
       113 -13.5256     91.1116     57.3244   3.5370659598e+01   5.3909474009e+01    0.6442406    0.5619998 -86.93  0.003275836    1.318    0.241
       114 -12.9212     55.1535     81.2253   5.7847513471e+01   5.5437590734e+01    0.7152778     0.441568 -42.45  0.002955388    1.677    0.404
       115 -13.8782     61.1928     75.8140   5.3616900815e+01   5.5819138414e+01    0.8851667    0.5567884 -40.57  0.002057791    1.664    0.399
       116 -11.9656    114.0940     79.6890   3.6173568739e+01   4.4128607845e+01    0.5250795    0.3692637 -49.44  0.002038849    1.440    0.305
       117 -13.0498    135.2285     79.0719   3.0514682707e+01   3.9329371264e+01    0.8243863    0.4279383  55.30  0.003212895    2.022    0.505
       118 -11.6776     42.6714     79.3208   6.2953560505e+01   5.7686181434e+01    0.3470827    0.2850096 -56.44  0.001696622    1.149    0.130
       119 -11.1522     41.7679     75.9802   6.2488946709e+01   5.8667731454e+01    0.2772408    0.2149564 -50.81   0.00063771    1.220    0.180
       120 -13.2672    148.4722    239.7813   5.9810765603e+01   7.1901733074e+00     0.567763    0.3273874  56.96  0.002642949    3.935    0.746
       121 -14.1708      5.1746     63.4019   7.8873029866e+01   6.5229558250e+01     0.699166     0.653805  71.43   0.00355432    1.153    0.133
       122 -11.5517     27.1978     75.1819   6.9441780968e+01   6.0519276599e+01    0.6080063    0.2838349 -79.97  0.002274578    2.629    0.620
       123 -12.3449    241.9858     71.1676   1.2059347751e+01   1.7978253040e+01    0.4020936    0.2136502 -53.10   0.00214531    1.962    0.490
       124 -13.1730    133.8084     66.0261   2.6689085448e+01   4.2049487705e+01    0.9238232    0.7195289  13.00  0.003344063    1.693    0.409
       125 -10.8793    118.2414     71.5985   3.2381092886e+01   4.4775472478e+01    0.2227025    0.1431416  41.20 0.0009452556    1.664    0.399
       126 -11.9000     99.8868     64.9192   3.5372198948e+01   5.0394779246e+01    0.5458516    0.3787437  76.46  0.002289086    1.998    0.499
       127 -13.8551    177.9845     56.5146   1.5788899030e+01   3.2934983411e+01    0.9667849    0.5649698 -45.24  0.003241428    1.573    0.364
       128 -11.4256     34.4679     60.5317   6.1672209325e+01   6.3498566960e+01    0.3891383    0.2169391 -49.75  0.001742325    1.652    0.395
       129 -11.8067     38.7798     59.7777   5.9109277863e+01   6.3137259117e+01     0.465434    0.2828272  64.56  0.001869897    2.628    0.619
       130 -12.1934     36.1650     54.3094   5.8646835237e+01   6.4806055786e+01    0.7163616    0.3178315 -32.55  0.002401479    3.419    0.708
       131 -12.0068     24.7916     58.9756   6.6601061946e+01   6.4951789597e+01    0.4989421    0.2769932 -50.61  0.002082526    1.620    0.383
       132 -13.3702     57.5997    201.6183   7.6071614151e+01   2.5190426294e+01      1.23543    0.4858003 -73.50  0.005361854    2.969    0.663
       133 -14.0204     66.2480    223.0455   7.5776548450e+01   1.9938980679e+01    0.8600009    0.6342056  43.05  0.005579334    1.109    0.099
       134 -14.7181    119.3239     54.1346   2.5999003986e+01   4.7685432234e+01     1.119529    0.8367792  52.79  0.002324838    1.329    0.248
       135 -13.3591     59.2661    212.8499   7.6594397905e+01   2.2705443122e+01    0.5842742    0.3420602  -7.34  0.001488246    3.185    0.686
       136 -12.4708    110.0361     42.0066   2.3695826355e+01   5.1994610748e+01    0.4642825    0.2415745  59.87 0.0009289394    1.895    0.472
       137 -12.9891    113.6616     37.8963   2.1170134584e+01   5.1687342874e+01    0.4653115    0.4070193  71.28   0.00143387    1.122    0.109
       138 -10.5057      5.4956    219.4866   8.9412508897e+01   2.6618558472e+01     0.116362   0.08777287  51.33 3.940423e-05    1.000    0.000
       139 -12.0668     85.5577    215.5384   7.0627328842e+01   1.9047807721e+01    0.2603682    0.1750486  50.75  0.001518758    1.437    0.304
       140 -12.9938    248.3082     52.1319   7.3311930680e+00   1.9206106281e+01    0.6703596    0.3044325 -30.43  0.003556217    1.765    0.433
       141 -13.4539     66.4502     48.7623   4.1267090307e+01   6.0949009036e+01    0.8365077     0.692147 -56.39  0.003979099    1.314    0.239
       142 -11.2257     17.7960     55.2263   6.9670909842e+01   6.6531312436e+01    0.3501752    0.1905037 -73.43  0.001572631    1.890    0.471
       143 -11.6989    230.7810     54.9672   9.4276376325e+00   2.2032456217e+01    0.3297323    0.1957966  74.61  0.001853226    2.064    0.516
       144 -10.5974     23.5508     49.9804   6.4576657425e+01   6.7315165640e+01    0.2045595    0.1273999 -59.33  0.000431751    1.486    0.327
       145 -13.3905    157.3180     43.3610   1.4857274408e+01   3.9753390004e+01    0.8903199    0.6100315  30.74  0.004168546    1.956    0.489
       146 -11.4019     38.8584     46.1330   5.3976069784e+01   6.6342475430e+01    0.2100518    0.2002414  85.96 0.0008199661    1.212    0.175
       147 -11.8564    181.5101    215.4996   5.0101019661e+01   6.5059045226e+00    0.1197149   0.09330235   7.18 9.997964e-05    1.000    0.000
       148 -14.6071    212.8374     40.8715   7.6417000447e+00   2.7309280200e+01     2.019615    0.6880378  77.56  0.007509958    4.135    0.758
       149 -12.3230     27.8210    235.6516   8.5102612187e+01   2.1587039259e+01    0.9275422    0.5145033   2.10  0.004730097    3.008    0.668
       150 -13.2213      6.2434     42.9736   7.3872078201e+01   7.0400085078e+01    0.9923014    0.4294151  13.39  0.004344271    2.493    0.599
       151 -11.8494    136.7853    211.0758   5.8501162729e+01   1.3092280923e+01    0.1838135    0.1615184  37.97  0.001041426    1.245    0.197
       152 -12.8607     24.4682    216.7328   8.5021799279e+01   2.5516459275e+01     1.223649    0.1811867  38.95  0.004797153    3.199    0.687
       153 -14.0113     26.5685    225.9912   8.4960551281e+01   2.3511192139e+01    0.8398178    0.4103484 -50.86  0.004383317    2.934    0.659
       154 -11.0739     25.6629     44.0120   6.1133313001e+01   6.8525573957e+01    0.2063466    0.1734761 -49.92  0.001170336    1.115    0.103
       155 -13.7016     64.5400    214.2699   7.5456723023e+01   2.1820829739e+01     0.478843    0.2815264  38.30  0.002570187    1.368    0.269
       156 -12.0993     40.3176     40.2593   5.0572864933e+01   6.7417093403e+01    0.5780782    0.3520791  36.55  0.002745843    1.675    0.403
       157 -12.7427     33.0362     40.3874   5.4997697743e+01   6.8446854531e+01    0.5017572    0.3239962 -33.71 0.0005624894    1.589    0.371
       158 -12.6221     75.9978     37.0168   3.2044381399e+01   6.1079828279e+01    0.5554163    0.3685689  43.13  0.001345299    1.483    0.326
       159 -11.8818     70.9518     36.2205   3.3623169364e+01   6.2349751230e+01    0.3323948    0.2905965 -87.34  0.001080185    1.392    0.281
       160 -13.4217     95.2061    218.2682   6.8681550565e+01   1.7330822120e+01    0.5862871    0.2193882  28.70  0.002565093    2.294    0.564
       161 -12.1862    245.6319     29.9754   2.6647656681e+00   2.2178985463e+01    0.3945162    0.1695745 -35.82  0.002130436    1.704    0.413
       162 -11.2998    151.4995    206.1699   5.4661202284e+01   1.1882499898e+01    0.2444576    0.1333599  11.90  0.001149489    2.273    0.560
       163 -13.4128     15.7910    198.3590   8.6270027565e+01   3.0110492942e+01    0.8935195    0.2504213 -60.97  0.003522359    3.996    0.750
       164 -13.8562     20.7739    224.1713   8.6174023585e+01   2.4393868281e+01    0.7513801    0.5411255 -64.11  0.005076215    1.714    0.417
       165 -11.3841     97.7765     26.5505   2.0267584554e+01   5.7346918942e+01    0.3758208     0.277493 -58.92  0.001843051    1.537    0.349
       166 -12.0272     30.7525     25.3336   4.9016012805e+01   7.1933017065e+01    0.4031696    0.2499727  20.27  0.001790927    1.778    0.438
       167 -12.4502     36.5920     22.3435   4.3419972495e+01   7.1572475522e+01    0.3579401    0.2564577 -15.14 0.0004314501    1.551    0.355
       168 -13.3768     39.2506    194.8572   8.0176900145e+01   2.8648836759e+01    0.6729604    0.3376401  46.50  0.003241859    1.670    0.401
       169 -13.0431     22.3893    166.2846   8.2766464473e+01   3.6896710617e+01    0.4554319    0.2454519  19.12  0.002059208    1.988    0.497
       170 -11.4588     51.7068     20.4329   3.3707369439e+01   6.9054534882e+01    0.3957492    0.2044599  47.91  0.001757905    1.882    0.469
       171 -12.1204     46.2434     20.0347   3.6315254432e+01   7.0211012651e+01    0.4439645    0.2620312  36.23  0.002114398    1.689    0.408
       172 -10.8376    248.8266     18.1987   3.5993255106e+02   2.2832878791e+01    0.1419594    0.1247198 -23.70 0.0007719113    1.326    0.246
       173 -14.3467     30.0133    169.1769   8.0786341846e+01   3.5489668893e+01     1.528242    0.8872429 -38.00  0.007194042    2.401    0.583
       174 -13.8814     22.3872    181.0247   8.3695560223e+01   3.3401731591e+01     0.899601    0.4503144 -55.01  0.004032537    2.337    0.572
       175 -15.2779      8.5369    183.2533   8.7469999334e+01   3.4057664247e+01     1.281179     1.129098  78.63  0.008778765    1.142    0.124
       176 -15.3009     15.5948    175.1252   8.5205821279e+01   3.5366982712e+01     2.375926    0.8071328  53.27  0.009844304    2.592    0.614
       177 -11.5417    175.9846     13.9036   3.5660082166e+00   3.8638945451e+01    0.1979443    0.1664843 -60.78  0.000292478    1.034    0.033
       178 -13.6348    164.2856    194.2359   5.0140206496e+01   1.2017942145e+01    0.5522932    0.3676138 -61.84  0.002828652    2.573    0.611
       179 -11.6566    179.3242    195.3385   4.7328616797e+01   9.7272504983e+00    0.1316589   0.08369382  -2.56 0.0007051168    1.722    0.419
       180 -13.0199    140.3956     21.3263   9.9183825113e+00   4.6826846016e+01    0.8202264    0.3372123  67.95  0.001323898    2.278    0.561
       181 -12.4968    201.2063    191.2271   4.2575884465e+01   7.3562430134e+00    0.3068166    0.2087181   2.09   0.00142502    1.362    0.266
       182 -12.2203     48.6859    181.3070   7.6597470992e+01   3.0671124675e+01    0.4461015    0.2817138 -52.76  0.002327188    1.817    0.450
       183 -13.6821    197.4305    179.5527   4.1197897354e+01   9.5618573263e+00    0.5843435    0.4158213 -63.99  0.002948972    3.041    0.671
       184 -11.4132    121.9789    180.6097   5.7356765072e+01   2.0795205015e+01     0.433358    0.2567865  72.10  0.001503596    4.441    0.775
       185 -12.8886     84.8882    179.5504   6.6634704887e+01   2.6489002593e+01    0.3480738    0.2365426  83.48  0.001717074    1.931    0.482
       186 -12.9684    124.6068    167.7851   5.4559827680e+01   2.2964250776e+01     0.383003    0.3054761 -77.73  0.002026351    1.673    0.402
       187 -11.7241     90.1838    169.6238   6.3820106934e+01   2.7939510754e+01    0.2072754    0.1293619  21.16  0.000956345    1.728    0.421
