#   1 NUMBER                 Running object number                                     
#   2 MAG_AUTO               Kron-like elliptical aperture magnitude                    [mag]
#   3 X_IMAGE                Object position along x                                    [pixel]
#   4 Y_IMAGE                Object position along y                                    [pixel]
#   5 X_WORLD                Barycenter position along world x axis                     [deg]
#   6 Y_WORLD                Barycenter position along world y axis                     [deg]
#   7 A_WORLD                Profile RMS along major axis (world units)                 [deg]
#   8 B_WORLD                Profile RMS along minor axis (world units)                 [deg]
#   9 THETA_WORLD            Position angle (CCW/world-x)                               [deg]
#  10 FWHM_WORLD             FWHM assuming a gaussian core                              [deg]
#  11 ELONGATION             A_IMAGE/B_IMAGE                                           
#  12 ELLIPTICITY            1 - B_IMAGE/A_IMAGE                                       
         1 -11.8777     20.3680     17.6172   9.5218410435e+01   7.0071409539e+01    0.6474659    0.5644659 -77.85  0.003836186    1.944    0.486
         2 -11.9180     60.3957     23.4242   7.9746576500e+01   6.4293919883e+01    0.7408902     0.320289 -42.67  0.003322806    2.491    0.599
         3 -12.3046     84.7656     19.8664   6.9427113847e+01   6.0515545301e+01    0.7131796      0.40758 -35.63 0.0009166743    1.821    0.451
         4 -10.7982     65.6874     13.6830   7.3218483229e+01   6.4773881617e+01    0.4674193    0.2418352  26.76  0.002247141    2.122    0.529
         5 -12.2411     74.5895      7.7168   6.7220996337e+01   6.3887949711e+01    0.4405141    0.3536651 -61.74  0.001289581    2.011    0.503
         6 -12.0570     81.0458      6.6785   6.4639700492e+01   6.2762465077e+01    0.4953679    0.3355741  22.58  0.002814512    1.392    0.282
         7 -11.3052     75.5137     16.2062   7.0869347279e+01   6.2723197519e+01    0.4727898     0.324332  17.17  0.002647316    1.448    0.309
         8 -11.0912     70.6709     14.0602   7.1576328806e+01   6.3862448719e+01    0.3964378    0.2091518 -18.80  0.001899699    1.967    0.491
         9 -11.3838    129.9719     20.5487   5.7720934619e+01   5.0426016700e+01    0.6369475    0.4148055  37.52    0.0030757    1.529    0.346
        10 -11.7206    112.3907     24.5486   6.3408047497e+01   5.4093083257e+01    0.4434368    0.2917271  -2.19 -4.490852e-05    1.797    0.444
        11 -11.6427      4.7227     18.6178   1.0366997467e+02   7.1041293863e+01    0.4005778     0.280257  28.43  0.002552335    1.855    0.461
        12 -10.6887    169.0249     13.2428   4.8296014820e+01   4.1313415815e+01    0.2790618    0.1959146  46.30 0.0005842861    1.434    0.303
        13 -10.5823     30.8274     13.3380   8.8081814112e+01   6.9723482353e+01    0.2769601    0.1527898 -29.77 0.0008963601    1.530    0.346
        14 -11.1374     26.6512     14.0161   9.0456930037e+01   7.0060810492e+01     0.192277    0.1396064 -11.10 0.0005015251    1.182    0.154
        15  -9.8654     50.4596     11.5238   7.8235283812e+01   6.7462015312e+01     0.306245    0.1653541  -1.85   0.00136011    2.598    0.615
        16 -10.4119    100.1799     12.6021   6.1732523523e+01   5.8183801768e+01    0.2756181    0.2028086  -9.35 0.0007075681    1.381    0.276
        17 -10.2963     55.1508     13.1845   7.7094626153e+01   6.6539168015e+01    0.2593882    0.1744817 -40.78  0.001091574    1.731    0.422
        18  -9.7736     58.7749     10.4242   7.4296104348e+01   6.6325616816e+01    0.3629287    0.1796922  36.43  0.001300235    1.950    0.487
        19 -10.0618    157.5975     12.6176   4.9820841007e+01   4.4325358829e+01    0.3417181    0.1697247 -62.35  0.001265106    3.109    0.678
        20 -10.4789    138.3197     11.7902   5.2845723895e+01   4.9298337827e+01    0.2882856    0.2282558 -46.69 0.0009382587    1.417    0.294
        21 -10.3667    133.0590     10.9038   5.3523908322e+01   5.0689986783e+01    0.3032985    0.1735567   2.71  0.001328832    2.340    0.573
        22 -11.6007    116.2309      8.4257   5.6075715560e+01   5.4977290562e+01    0.5667162    0.4155724 -38.85  0.002584749    1.551    0.355
        23 -10.0733      5.5045     11.4716   1.0041859537e+02   7.2234823747e+01    0.1754748   0.08250987 -46.33 -1.639715e-06    1.625    0.385
        24 -10.3361      6.4505      8.0681   9.8418014961e+01   7.2737335281e+01    0.1847891    0.1441504 -40.89 0.0004135748    1.278    0.218
        25 -10.9446    235.2674     10.5937   4.0242294387e+01   2.5024251241e+01    0.2062109    0.1659319   9.94  0.001196559    1.772    0.436
        26 -10.6793    184.6788     10.6532   4.5425433763e+01   3.7536884680e+01    0.3983719    0.2021724  89.88  0.001629115    2.380    0.580
        27  -9.6728     39.7955     11.0160   8.2700334343e+01   6.8995779217e+01    0.1551471    0.1291827 -28.27 0.0004350839    1.316    0.240
        28  -9.4695     37.7031      8.6738   8.2503153718e+01   6.9588630623e+01    0.1480992     0.105625  34.22  0.000415451    1.604    0.376
        29 -11.8169     22.5496      7.3122   8.9329199636e+01   7.1498670519e+01    0.5116137    0.3312546 -51.59   0.00257614    2.114    0.527
        30 -11.0255     16.8842      3.5589   9.0466100152e+01   7.2598922282e+01    0.3214089    0.1908177 -46.81  0.001143642    1.869    0.465
        31 -11.4536     11.6639      2.6274   9.2895956627e+01   7.3196395829e+01    0.3001238    0.1735763 -18.43  0.001330243    1.531    0.347
        32 -10.6146     27.2124      3.3763   8.4905006022e+01   7.1568816753e+01    0.1867327    0.1526178  -8.55 0.0008432837    1.155    0.134
        33  -9.8852    107.8111      9.2933   5.8390619639e+01   5.6831416379e+01    0.2177113    0.1714996 -26.06  0.001056983    1.360    0.265
        34 -12.9572     31.9639      2.1009   8.1841246094e+01   7.1183958293e+01     0.284681    0.1917918  17.41 0.0005918163    1.389    0.280
        35 -10.0308    127.0360      8.4893   5.3812934136e+01   5.2394814616e+01    0.2035084    0.1247583  61.37 0.0003809108    1.499    0.333
        36 -10.8274     92.2325      6.1085   6.1078821462e+01   6.0545621779e+01    0.4391417    0.2423148  12.42  0.001406531    2.248    0.555
        37  -9.3544     43.4042      7.9026   7.9497545276e+01   6.8941501159e+01    0.1516334   0.09530158 -49.21 0.0008022877    2.494    0.599
        38 -10.8307    150.5396      6.1117   4.8768543304e+01   4.6757954568e+01    0.3059652    0.2132688  58.54 0.0003628419    1.272    0.214
        39 -10.5958    145.8513      5.1518   4.9193406906e+01   4.8033522114e+01    0.4135219    0.1798303 -44.49  0.001668111    2.716    0.632
        40 -10.5788    164.2836      5.4368   4.6512848191e+01   4.3301783950e+01    0.2961246     0.212024 -70.04  0.001307247    1.544    0.352
        41 -11.1139    167.9007      2.2915   4.5042594738e+01   4.2658567276e+01    0.2605089    0.2231454 -74.53 0.0002519876    1.180    0.153
        42  -9.1681    140.3232      6.3264   5.0535381717e+01   4.9317645798e+01    0.1485697   0.09152383  36.22 0.0007048525    1.689    0.408
        43  -9.8033     60.0109      5.9163   7.1575882346e+01   6.6663469512e+01    0.2139423    0.1631568  38.88  0.001359758    1.371    0.271
        44 -10.0684    244.2726      4.8553   3.8204426557e+01   2.3582199309e+01    0.2374282   0.09115993 -60.54 0.0009584241    2.830    0.647
        45 -10.7258    228.5001      4.9513   3.9465963836e+01   2.7226189884e+01    0.2855763    0.1686562  73.16 0.0008916869    1.589    0.371
        46 -10.6162    232.2852      4.7016   3.9096799531e+01   2.6360189081e+01    0.2064978    0.1317087 -49.89 0.0002063942    1.406    0.289
        47  -9.6844    131.5671      5.1847   5.1698878039e+01   5.1592194644e+01    0.2494434    0.1679717  80.83  0.001255271    1.670    0.401
        48 -10.4031    236.6648      2.5749   3.8256600582e+01   2.5564348639e+01    0.2496183   0.07413704  59.17 0.0009586984    3.315    0.698
        49 -10.1408     72.7766      2.1786   6.5150541011e+01   6.4803416236e+01    0.2253707    0.1515681  38.00 0.0006167897    1.324    0.245
        50  -9.6102    155.6934      1.3851   4.6420107119e+01   4.5864312794e+01    0.1924996    0.1088335  58.20 0.0003214285    1.536    0.349
        51  -8.7771    107.6376      1.2952   5.5110895291e+01   5.7604078370e+01    0.1276457    0.1010436 -70.75 0.0007031327    1.709    0.415
        52  -9.1707     76.4841    212.4677   1.1708427610e+02   2.1361112236e+01    0.1220313   0.09878307  67.63 0.0007485729    1.027    0.026
        53 -10.0624    247.1361    250.0971   9.0396694486e+01  -1.1001003531e+01    0.2204421    0.1350838  13.26  0.001457816    1.421    0.296
        54 -10.6259    250.3499    245.8428   8.9208016180e+01  -1.1005373307e+01     0.346702    0.1675128 -23.91    0.0020444    2.201    0.546
        55 -12.1928    232.2636    246.9614   9.2399973785e+01  -8.5913648542e+00     0.445021    0.2702932 -18.65  0.002856151    1.797    0.443
        56 -10.1795      5.7709    235.3526   1.3116164743e+02   2.5354575442e+01    0.1815576    0.1249155  57.05 0.0008442401    1.247    0.198
        57 -11.8861     18.0690    238.2602   1.2933624210e+02   2.3612239774e+01    0.5715581    0.2316263  38.16  0.003428256    2.371    0.578
        58 -13.1903     19.1945    247.8527   1.2959985984e+02   2.1836159889e+01     1.100673    0.3476747  44.57  0.006410625    2.294    0.564
        59  -9.5201      2.2852    212.3427   1.3073823907e+02   2.9900520851e+01    0.1365792    0.0944164  44.17 0.0005403115    1.546    0.353
        60 -11.8489      4.8011    207.2867   1.3006624589e+02   3.0642632099e+01    0.5020899    0.2087012  82.69  0.002862353    2.056    0.514
        61  -9.3446    188.4491    209.4986   9.4337364275e+01   3.3279240110e+00    0.1307843    0.1120786  29.45  6.52634e-05    1.012    0.012
        62  -9.9466     10.8558    208.1792   1.2904923981e+02   2.9907205220e+01    0.1372338    0.1087324 -80.65 0.0004886271    1.365    0.267
        63  -9.2331    218.3257    207.3289   8.8340421457e+01  -1.5057343755e+00     0.134092   0.08764242   9.78 0.0005626297    1.701    0.412
        64 -11.2400     19.0871    202.9709   1.2727108455e+02   3.0132571315e+01    0.3391517     0.234785  84.48  0.001526864    1.114    0.102
        65  -9.2079     67.9486    203.7568   1.1791777405e+02   2.4263523542e+01    0.1470986   0.09216405  43.33 0.0003971725    1.502    0.334
        66  -9.4264    223.6029    201.8002   8.6384129746e+01  -1.6180410050e+00    0.1609176    0.1177864 -42.63 0.0005952334    1.679    0.404
        67 -10.3868    175.3672    202.6855   9.5760580712e+01   6.7571006677e+00    0.2326963    0.1861476  45.55 0.0005614787    1.163    0.140
        68  -9.9669    174.2564    219.4587   9.8671854031e+01   4.2565900383e+00    0.2624188     0.107823  38.30  0.001156242    2.115    0.527
        69  -9.6743     34.5401    201.3281   1.2426238051e+02   2.8845185854e+01    0.1415487    0.1382096  19.08 0.0006866955    1.587    0.370
        70  -9.4346    227.1499    196.8552   8.4829336783e+01  -1.5192970839e+00    0.1848148    0.1333312   8.74 0.0008148004    1.360    0.265
        71  -9.3590      7.0000    195.9853   1.2908729856e+02   3.2672843844e+01    0.1744612   0.04913618 -78.63 0.0006507582    2.926    0.658
        72 -10.2275    215.6343    194.6857   8.6537576377e+01   7.8636423765e-01    0.2235585    0.1501213 -19.26  0.000588367    1.604    0.377
        73  -9.8402    187.0000    190.9631   9.1377880223e+01   6.5820556687e+00    0.2102934    0.0782987 -42.12 0.0008031763    2.948    0.661
        74 -10.1386      2.1538    189.0197   1.2960550708e+02   3.4502574145e+01    0.3154294    0.1135704  74.84  0.001528296    2.726    0.633
        75  -9.6948    211.1547    188.7212   8.6254115418e+01   2.4951913200e+00    0.2586578    0.1639584  -6.01  0.001225327    2.098    0.523
        76  -9.8462    218.0000    186.9338   8.4625053692e+01   1.5371610197e+00    0.2086709   0.07373862 -37.24 0.0008019977    2.939    0.660
        77  -9.4674     61.7798    185.0563   1.1727841209e+02   2.8990271964e+01    0.1652604   0.09210057 -73.24  0.000874144    1.684    0.406
        78  -9.9764    167.0161    183.5162   9.4108392641e+01   1.1678672047e+01    0.2185254    0.1281645  41.42 0.0006980785    1.559    0.359
        79 -11.5220     15.9067    182.8050   1.2657970407e+02   3.4570255599e+01    0.4108458    0.1884793  83.84   0.00222097    1.982    0.496
        80 -10.1364      2.4532    180.6826   1.2908318729e+02   3.6191294351e+01    0.2894925    0.1115135  61.85  0.001526856    2.335    0.572
        81 -10.1313    244.1518    178.5327   7.8276498310e+01  -1.7957665180e+00    0.2625738    0.1512767 -15.46  0.001027185    1.930    0.482
        82 -10.1250     46.5630    177.3289   1.1975617383e+02   3.2550027427e+01    0.2431627    0.1630791  58.05  0.001148891    1.349    0.259
        83  -9.1878     36.4507    178.4491   1.2202542214e+02   3.3441705291e+01    0.1205874   0.09513973  83.07 0.0001825944    1.015    0.015
        84 -10.0732    200.2868    176.5752   8.5986234677e+01   6.4936308269e+00    0.2314742    0.1643857 -10.32 0.0007421137    1.678    0.404
        85  -9.6467     70.2014    177.5999   1.1458694434e+02   2.9489132290e+01    0.1583801    0.1230243  28.50 0.0005597478    1.616    0.381
        86 -10.9674    224.1321    178.5040   8.1832997926e+01   1.7247271455e+00    0.2469993    0.2317874  22.62 0.0004142302    1.190    0.160
        87 -10.9928     18.1541    173.1433   1.2542875852e+02   3.6422265937e+01    0.3661544    0.1616572  67.10  0.001872528    2.242    0.554
        88  -9.3002     75.2103    170.8335   1.1259418382e+02   3.0292863798e+01    0.1725224    0.1535427 -46.62  0.001063455    1.402    0.287
        89 -10.9468     12.7859    170.3776   1.2634120132e+02   3.7499936526e+01    0.3170241    0.1287092 -87.48  0.001583286    2.205    0.546
        90  -9.3348      4.7596    168.2526   1.2785506489e+02   3.8627917464e+01    0.1833278   0.06045809 -67.59  0.000897026    2.435    0.589
        91 -11.2128     50.5240    165.3541   1.1759997224e+02   3.4751942618e+01    0.3732026    0.2081593 -53.17  0.001944202    1.969    0.492
        92 -11.0993     44.5631    162.7481   1.1867845792e+02   3.6032407269e+01    0.3603418    0.1893565 -74.21  0.001889753    1.671    0.402
        93 -10.0282     48.4645    159.4814   1.1740103561e+02   3.6329998125e+01    0.2980144    0.1799866  37.56  0.001639946    1.777    0.437
        94 -12.2009     37.0257    158.9488   1.2000791714e+02   3.7715703371e+01    0.6018453    0.1891821 -69.70 0.0005967151    2.668    0.625
        95  -9.5452    209.9837    165.7975   8.1892155282e+01   6.4368029118e+00    0.1921454    0.1066721  42.88 0.0007386332    1.748    0.428
        96  -9.5080     67.1823    165.1604   1.1371203829e+02   3.2685374885e+01    0.1899238    0.1349811  71.63 0.0009761923    1.354    0.261
        97  -9.4707    200.3173    162.9064   8.3174528648e+01   8.8464372634e+00      0.19327    0.1772794 -14.51 0.0005184005    1.079    0.073
        98 -11.3528     22.5035    156.6600   1.2310979117e+02   3.9657344726e+01    0.4527758    0.3515195  64.66  0.003110975    1.221    0.181
        99  -9.9959    247.4516    158.4662   7.3583533811e+01   5.7667415356e-01    0.1329989    0.1170102 -10.18 9.084002e-05    1.058    0.054
       100  -9.0841    147.6635    156.3390   9.3112630809e+01   2.0867660980e+01    0.1548264    0.1163107  81.67 0.0007051205    1.756    0.430
       101 -10.2559     11.6479    153.5469   1.2528959510e+02   4.1287902678e+01    0.2366653    0.1504663  16.07  0.001440991    2.339    0.572
       102  -9.8569    205.4170    151.7714   7.9759174770e+01   9.7790171048e+00    0.2090164     0.135096 -25.09 0.0009551026    1.681    0.405
       103 -10.3456    178.0375    151.4585   8.5306871839e+01   1.5559932225e+01    0.2713065    0.2491054 -72.75 0.0009054804    1.244    0.196
       104  -9.1943     27.2759    147.3243   1.2108066067e+02   4.1337197895e+01    0.1183067   0.08027621 -53.61 0.0002812086    1.583    0.368
       105 -10.0687    207.0350    146.3220   7.8226153491e+01   1.0412252391e+01    0.2064174     0.183705  38.52 0.0007783654    1.135    0.119
       106 -11.0992     11.6497    145.8789   1.2463735955e+02   4.3004938490e+01     0.273991    0.1898112  72.23  0.001806954    1.300    0.231
       107  -9.6933     30.8190    144.7724   1.1994652884e+02   4.1589659509e+01    0.1729181    0.1193121  81.25 0.0004883159    1.320    0.242
       108 -11.9158     18.7879    141.1931   1.2249846722e+02   4.3491375970e+01    0.5432529    0.2397289  48.46  0.001959696    2.329    0.571
       109 -11.0467     55.0798    134.6325   1.1240902623e+02   4.1358858944e+01    0.5660371    0.3276119 -85.42  0.002719058    1.906    0.475
       110 -11.2014      9.1313    136.7636   1.2441412123e+02   4.5256587755e+01    0.2140598    0.1628171 -76.44 0.0002651751    1.098    0.089
       111 -11.2650      2.7772    137.4109   1.2599653126e+02   4.5558561274e+01    0.3839197    0.1320717 -70.64 0.0009762428    2.143    0.533
       112 -10.2557      5.5597    133.5255   1.2498682752e+02   4.6243934753e+01    0.2161275    0.1389126 -86.00 0.0007913089    1.225    0.184
       113  -9.0880    143.6986    137.3268   8.9956409060e+01   2.5749703510e+01    0.1552191    0.1209296  88.38 0.0006891604    1.640    0.390
       114 -10.2675     21.4305    135.9600   1.2129924713e+02   4.4472539714e+01    0.2296228    0.1736028  71.91  0.001008766    1.260    0.206
       115  -9.5453    137.8571    135.3896   9.0936558423e+01   2.7387767972e+01    0.2205953    0.1433753  33.18 0.0009469106    1.726    0.421
       116  -9.1207    122.7060    135.3390   9.4707306695e+01   3.0441911025e+01    0.1545162    0.1169852  86.59 0.0003698607    1.652    0.395
       117  -9.1789    250.3084    134.3074   6.7854511346e+01   3.7616225397e+00    0.1388838   0.09966673   3.83 0.0004837664    1.613    0.380
       118 -10.0853    106.9831    133.0728   9.8281161111e+01   3.3913409893e+01    0.2254304    0.2195773 -78.84  0.001279711    1.059    0.055
       119  -9.2513    227.2563    131.9768   7.1183685447e+01   8.7023038522e+00    0.1833174    0.1170501 -34.53  0.000435418    1.474    0.322
       120 -11.4652     37.5272    130.5492   1.1648031101e+02   4.4256488299e+01    0.4086269    0.2431796 -65.02  0.001633465    1.407    0.289
       121 -10.2010     74.0779    129.4599   1.0640852291e+02   4.0096727702e+01     0.264763    0.2160136 -62.02 0.0007356781    1.129    0.114
       122 -11.2704      2.1962    124.5807   1.2499745169e+02   4.8491116547e+01    0.4535113    0.1259493 -67.46  0.001271834    2.492    0.599
       123 -11.4157     10.6033    122.5770   1.2262426507e+02   4.8391747750e+01    0.3981617    0.2292624  65.44  0.002286113    1.859    0.462
       124  -9.0828      6.6667    126.2887   1.2402562531e+02   4.7812281581e+01    0.1190707   0.07289106  70.29 0.0007018039    1.627    0.386
       125  -9.8411     82.0912    125.2141   1.0338700425e+02   3.9923631645e+01    0.2033338    0.1816607 -48.30 0.0006724264    1.162    0.140
       126  -9.9052    226.0175    124.2094   6.9579147462e+01   1.0279809723e+01    0.1909969     0.116994  48.85 0.0008692339    1.724    0.420
       127 -10.0621    219.9626    124.3209   7.0677415904e+01   1.1551890064e+01    0.2000975    0.1902226  20.31 0.0005354481    1.075    0.070
       128  -9.7390    244.3017    123.6444   6.6394252800e+01   6.6166816258e+00    0.1413768    0.1049831 -59.31 0.0006586729    1.708    0.415
       129 -10.8669     33.4474    126.1116   1.1696740610e+02   4.5698483112e+01      0.29551    0.1796142  69.02  0.001143755    1.844    0.458
       130  -9.4611     20.7979    121.4214   1.1977371083e+02   4.7897820965e+01    0.1475835     0.117287 -12.61 0.0009461409    1.759    0.432
       131  -9.5625     32.7439    118.9913   1.1615949188e+02   4.7442231077e+01    0.1819046    0.1339007 -69.64 0.0004392973    1.116    0.104
       132 -11.3275     17.3823    115.2477   1.1993466094e+02   4.9596519876e+01    0.3091724    0.2468567 -45.03  0.001477018    1.391    0.281
       133  -9.5428    220.2902    116.9878   6.8850933452e+01   1.2755039206e+01    0.2126314    0.1760941 -34.75 0.0004253562    1.142    0.125
       134 -10.4134     86.0109    116.7370   1.0051239089e+02   4.1322825690e+01    0.2446172    0.1903537 -57.46 0.0005135475    1.190    0.160
       135 -10.6582     51.0921    116.5344   1.1054257257e+02   4.6137880902e+01    0.3045638    0.1561828 -59.71  0.001465613    1.650    0.394
       136  -9.0910    179.4911    116.5359   7.6694168188e+01   2.2114710427e+01    0.1542783    0.1512694  -2.03 0.0001056109    1.014    0.013
       137  -9.6026    166.1545    115.6391   7.9401589747e+01   2.5380612344e+01     0.218671    0.1953857 -58.39 0.0005631119    1.170    0.145
       138  -9.2726    214.1896    115.5759   6.9597563482e+01   1.4350473404e+01    0.2034771    0.1377283  37.40 0.0006310194    1.603    0.376
       139 -11.9573     35.5708    108.5049   1.1371874087e+02   4.9652838398e+01    0.4181954    0.2553827  85.65  0.001346896    1.935    0.483
       140 -10.8751    249.0351    112.1594   6.3001490339e+01   7.5043125191e+00    0.2540763    0.1856731 -33.49 0.0007074117    1.220    0.180
       141  -9.5538     35.2195    114.0294   1.1470970812e+02   4.8382534992e+01    0.2014485     0.153433 -89.47 0.0007457568    1.261    0.207
       142 -12.5611     54.8407    109.9505   1.0823165348e+02   4.7268776597e+01    0.2954513    0.2525668 -64.01  0.000473707    1.022    0.021
       143  -9.2224    201.4041    117.4998   7.2472846449e+01   1.6885293120e+01    0.1509485    0.1433926 -27.42 8.289653e-05    1.022    0.022
       144 -12.6507      2.7161     99.6463   1.2216882028e+02   5.4128028615e+01     0.712329    0.2841105 -82.48  0.001547191    2.392    0.582
       145 -12.5121     15.6627    109.1903   1.1963529155e+02   5.1126043674e+01    0.5533735     0.417385  82.31  0.000814488    1.299    0.230
       146 -11.1100     22.9564    106.9677   1.1720812911e+02   5.1098128290e+01    0.2933996    0.2280219  49.25  0.001189006    1.478    0.323
       147 -11.7360      2.4865    106.0032   1.2298959985e+02   5.2696087111e+01    0.2724132    0.1830297 -75.55 0.0003654288    1.135    0.119
       148 -10.5357      6.2821    105.6610   1.2187120048e+02   5.2552721443e+01    0.1837868    0.1204199 -69.92 0.0005564632    1.166    0.143
       149  -9.1537     29.4836    109.4745   1.1566994837e+02   4.9973226349e+01    0.1275747    0.1032632 -67.79 0.0001505206    1.033    0.032
       150 -10.9678     62.9483    106.8109   1.0516311466e+02   4.7008367320e+01    0.2882891    0.2533236  53.34 0.0009458766    1.253    0.202
       151 -10.8193    243.6190    104.6480   6.2054615654e+01   9.8148654628e+00    0.2264597    0.1894905  10.11 0.0005781233    1.351    0.260
       152 -10.8666    247.6447    102.1412   6.0862158432e+01   9.3780417474e+00    0.2479485    0.2053492  55.43  0.001015005    1.356    0.262
       153  -9.7894    223.2988    104.0113   6.5140082085e+01   1.4322060203e+01    0.2120174    0.1776781 -35.47 0.0004383162    1.117    0.105
       154 -10.1686     93.0978    104.0649   9.5495864128e+01   4.3114726884e+01    0.2212673    0.2049162 -49.36 0.0005582207    1.034    0.033
       155  -9.9487     89.2997    103.3041   9.6429239703e+01   4.3932130722e+01    0.2141774    0.1163444 -33.89 0.0002297663    2.422    0.587
       156 -10.7639     92.8836     96.5933   9.3643169419e+01   4.4860007266e+01    0.3850192     0.198047 -44.62  0.001600851    1.863    0.463
       157 -10.8063     94.2350     91.2918   9.1803711372e+01   4.5814037804e+01    0.4778002    0.3342044   1.66  0.001433635    2.184    0.542
       158 -10.4031     36.0948    101.5368   1.1236157894e+02   5.1241862888e+01    0.3267533    0.2005277  50.25  0.001209637    1.932    0.482
       159  -9.7369    145.4957    100.4996   8.0245569883e+01   3.3265898472e+01    0.1555463    0.1541144 -41.31 -0.000267259    1.001    0.001
       160 -10.9278     66.8484     98.3341   1.0209148524e+02   4.8483146146e+01    0.2715851    0.1785093 -56.77 0.0003389067    1.354    0.261
       161 -11.0813     62.3076     98.4888   1.0355103497e+02   4.9048439508e+01    0.3242973    0.2984716  10.63 0.0008764914    1.257    0.205
       162 -10.9018    161.8365     98.7430   7.5867213179e+01   2.9803196049e+01    0.3184837    0.1908177 -24.92  0.001220946    2.111    0.526
       163  -9.5699     85.1847     98.9336   9.6574076487e+01   4.5615556607e+01    0.2424569    0.1491826 -34.39  0.001068569    1.888    0.470
       164 -11.2818     20.2178     97.2491   1.1654882228e+02   5.3562183092e+01    0.4102086    0.2531089 -78.22  0.001821313    1.456    0.313
       165 -10.0008     40.6474     97.2017   1.1012871723e+02   5.1818268084e+01     0.247201    0.1399702 -55.23  0.001101757    1.467    0.318
       166  -9.4269    119.5190    101.5071   8.7302364971e+01   3.8706246476e+01    0.1534436    0.1470041 -23.87 0.0001708803    1.070    0.066
       167 -10.1994     57.2279     96.3794   1.0468408649e+02   5.0178900709e+01    0.2891032    0.1625545 -54.24 0.0005152055    1.525    0.344
       168 -10.5189     13.9641     96.7745   1.1840341631e+02   5.4106654261e+01    0.2178442    0.1435899 -69.19 0.0007300373    1.187    0.157
       169  -9.8032    249.9515     95.5126   5.8966104938e+01   9.9440345983e+00    0.1878227    0.1398125  55.78 0.0004084639    1.506    0.336
       170 -10.3046    162.4173     92.7579   7.4056809750e+01   3.0843413643e+01    0.2201667    0.1520097 -25.53 0.0005135532    1.639    0.390
       171  -9.0190     67.2978     93.3091   1.0075431048e+02   4.9586416365e+01    0.1401853    0.0999691 -30.00 0.0005054689    1.595    0.373
       172 -10.1470     31.4819     92.4766   1.1215704518e+02   5.3767410031e+01    0.2747422    0.1036398 -63.66    0.0012026    2.142    0.533
       173 -11.1680    158.1222     90.6191   7.4429125921e+01   3.2295157557e+01     0.372902    0.2611563 -31.33  0.001479374    1.496    0.332
       174 -11.1255     25.5241     91.5800   1.1391619772e+02   5.4467134584e+01    0.2531344    0.2180828 -35.97 0.0009402357    1.265    0.209
       175 -10.4931     22.8004     87.1558   1.1400575696e+02   5.5691510803e+01    0.2769307    0.1660675 -63.40 0.0005353498    1.322    0.244
       176 -11.5150     10.3055     90.8970   1.1866429825e+02   5.5681392976e+01    0.2397123     0.219117  29.06 0.0007320547    1.391    0.281
       177  -9.1803    134.3105     91.2851   8.0468989311e+01   3.7713782896e+01    0.1548512    0.1237417   6.60 0.0006988125    1.573    0.364
       178  -9.3045    104.5935     91.7184   8.8830382950e+01   4.3816001891e+01    0.1548593     0.117379  -0.69 0.0006983094    1.788    0.441
       179  -9.2682     21.3074     91.3282   1.1522953830e+02   5.4846332722e+01    0.1295171   0.07460575 -44.62 0.0003461951    1.657    0.396
       180  -9.4524    139.1381     87.7873   7.8204604446e+01   3.7332260824e+01    0.2058074    0.1818777  10.08 0.0006275767    1.257    0.205
       181 -10.9896     46.2674     84.3555   1.0554520268e+02   5.4206581572e+01    0.5609418    0.4347803  75.61  0.003227261    1.639    0.390
       182 -10.6722      4.6752     86.0568   1.1973391155e+02   5.7096293888e+01    0.3169704    0.1786629 -69.17    0.0018914    1.352    0.261
       183 -10.8684    167.6780     84.0184   7.0382900035e+01   3.1225795067e+01    0.4198251    0.3226551  83.71  0.001898231    1.629    0.386
       184 -10.7094     67.1693     84.7559   9.8628315257e+01   5.1552000494e+01    0.2788324    0.1922281 -33.18     0.001167    1.530    0.347
       185 -10.1852     87.9544     83.3688   9.1511646983e+01   4.8649615171e+01    0.2306694    0.1835563 -55.51 0.0002824118    1.245    0.197
       186  -9.8391     29.9008     82.5887   1.1073308033e+02   5.6169287493e+01    0.3358938    0.1383332 -56.71  0.001588278    1.864    0.464
       187 -12.1133     18.0906     65.9564   1.1138941112e+02   6.0764212264e+01    0.8826175     0.488949 -47.35  0.001402535    1.460    0.315
       188 -12.2841     21.0909     77.7888   1.1279871300e+02   5.7938522143e+01    0.5362641    0.2735582 -57.04 0.0002722469    1.503    0.335
       189 -10.7118      3.3899     78.3168   1.1896992729e+02   5.8894043131e+01    0.2900374    0.2016983 -73.42   0.00116906    1.185    0.156
       190 -11.5814      7.5982     73.7896   1.1676164948e+02   5.9679128217e+01    0.4342898    0.2712838  17.76  0.002645032    2.029    0.507
       191 -10.8846     14.6802     83.3836   1.1602850128e+02   5.7113463976e+01    0.3980162     0.172218 -55.52  0.001035762    1.747    0.428
       192 -11.9027     13.2146     78.0052   1.1556990073e+02   5.8415469426e+01    0.4311122    0.2100862 -47.91  0.002278744    1.727    0.421
       193  -9.6818    117.9041     83.3530   8.2554060570e+01   4.2927249157e+01     0.211199    0.2011267  12.32  0.001029625    1.075    0.069
       194  -9.0829    146.5028     81.4917   7.4495565416e+01   3.6851062603e+01    0.1554377     0.152455 -69.18  5.21615e-05    1.045    0.043
       195  -9.0313     95.7126     80.6810   8.8296465097e+01   4.7860121835e+01    0.1478399    0.1123214 -14.23 0.0003100527    1.595    0.373
       196 -10.1135     71.0267     79.3803   9.5879119146e+01   5.2199105243e+01    0.2405464    0.1901769 -80.46 0.0009131858    1.600    0.375
       197  -9.4416    150.4215     77.7366   7.2419363380e+01   3.6624477021e+01    0.2256005    0.1516148 -24.84 0.0009553878    1.689    0.408
       198 -10.1479     92.8858     77.6359   8.8256578963e+01   4.9016792064e+01    0.2280648    0.1839126  12.11 0.0006711334    1.429    0.300
       199 -11.5509     59.2148     76.0251   9.8975189369e+01   5.4553440485e+01    0.4433427    0.3174349  84.88  0.002190367    2.189    0.543
       200 -11.3228     62.5595     71.4899   9.6520292209e+01   5.5099782267e+01    0.4467101    0.2412124 -34.87  0.001925132    1.975    0.494
       201 -10.1094    108.3898     76.4585   8.3169635465e+01   4.6303281921e+01    0.2988653    0.2133403  21.16 0.0007546882    1.719    0.418
       202 -11.0557     77.3788     71.8479   9.1525697022e+01   5.2855298818e+01    0.5718405    0.2824382  38.80  0.001838408    2.193    0.544
       203  -9.5934    121.9934     76.4490   7.9287831755e+01   4.3447800888e+01    0.2291321    0.1501953  47.32  0.001016242    1.558    0.358
       204 -12.1405     44.5969     75.1893   1.0389895692e+02   5.6444928428e+01    0.2531958    0.2149016  30.72 0.0002639583    1.377    0.274
       205  -9.5688     33.0963     75.6862   1.0811358758e+02   5.7449025451e+01    0.1657069    0.1445743 -37.29 0.0004847574    1.141    0.124
       206  -9.7402    145.5010     73.9454   7.2427379718e+01   3.8518736034e+01    0.2408501    0.1527954 -37.01  0.001028019    1.575    0.365
       207 -12.1387    102.7232     72.5811   8.3635714959e+01   4.8213461914e+01    0.4437723    0.2817162 -36.40 0.0006205893    1.549    0.354
       208  -9.1985    194.5776     72.5585   6.1808860639e+01   2.6526757953e+01    0.1510867     0.144461 -60.64 8.866119e-05    1.021    0.021
       209 -10.4459    150.4468     72.1711   7.0702901128e+01   3.7645845914e+01    0.2777902    0.2146769  54.12 0.0002266458    1.299    0.230
       210 -10.2401    128.9521     71.7969   7.5931618725e+01   4.2798988792e+01    0.2384363     0.211033 -37.64 0.0002206562    1.120    0.107
       211 -10.6586     31.1109     66.1317   1.0653872755e+02   5.9725852023e+01    0.4774898    0.3470231  29.52  0.002965878    1.643    0.391
       212 -10.2809     38.3078     71.7052   1.0528109000e+02   5.7850147185e+01    0.2900707    0.2014592  54.27  0.001032395    1.936    0.484
       213 -10.4263     36.0278     68.6999   1.0535654755e+02   5.8725205580e+01    0.3816481    0.2028259  45.71  0.001249255    2.540    0.606
       214 -10.3523     75.0348     76.3342   9.3661101191e+01   5.2263880796e+01    0.2581524    0.2155228  73.81  0.001407936    1.561    0.359
       215 -11.4590     50.6193     68.3978   9.9907365649e+01   5.7261943815e+01    0.4582833    0.2694816 -38.44  0.001803256    1.593    0.372
       216 -10.0175     51.3675     62.8353   9.8006989492e+01   5.8354859216e+01    0.2951464    0.1883435 -28.96  0.001547485    1.636    0.389
       217  -9.2791    250.7102     70.6264   5.2960454633e+01   1.3589717102e+01    0.1360996    0.1058025   5.85 0.0007021643    1.724    0.420
       218  -9.2973    167.8887     70.0038   6.6194123831e+01   3.3693424452e+01    0.1862614    0.1698779  57.76 0.0005341026    1.093    0.085
       219 -12.2603     94.2331     68.4275   8.4924412688e+01   5.0663300530e+01     0.406178    0.2518597 -38.23 0.0003519966    1.543    0.352
       220  -9.7296    146.0131     68.8964   7.0721341793e+01   3.9316971409e+01    0.2452825    0.1856904  14.45 0.0005778208    1.669    0.401
       221 -11.1251    140.2057     68.7404   7.2077611321e+01   4.0742715157e+01    0.3324644    0.2802155 -61.92 0.0002928554    1.332    0.249
       222 -10.9389     68.7304     67.2500   9.3073218950e+01   5.5132193005e+01    0.3216928    0.1942605 -42.25 0.0009810871    1.488    0.328
       223 -12.7718      4.4442     65.3331   1.1633918166e+02   6.1695943390e+01    0.3875086    0.2721345  79.23  0.001407043    1.768    0.434
       224 -11.7333      5.2978     51.7574   1.1316540976e+02   6.4547123688e+01    0.5682439    0.2280532 -64.83   0.00236765    2.022    0.505
       225 -10.9211     11.0143     62.5612   1.1331800705e+02   6.1943612540e+01    0.2066268    0.1795392 -69.44 0.0003574885    1.188    0.158
       226 -10.8371      5.5381     58.6449   1.1458730843e+02   6.3080608968e+01    0.3760453    0.1630896 -66.31  0.001738219    1.861    0.463
       227 -11.0823     11.3028     44.4367   1.0880446565e+02   6.5723413272e+01    0.5008003    0.2040623 -38.60  0.002282577    2.140    0.533
       228 -11.0658      7.0511     40.8878   1.0968665989e+02   6.6681369288e+01    0.2856773    0.1173511 -56.32 0.0004521235    1.789    0.441
       229 -11.3995     64.6018     59.9871   9.2226639002e+01   5.7215159173e+01    0.5950071    0.2189252  37.41  0.002366294    2.966    0.663
       230 -10.3351     61.0795     53.9637   9.1507555349e+01   5.8904907104e+01     0.373031    0.2750488  -7.52  0.002071084    1.509    0.337
       231 -11.5063     56.9442     64.5223   9.6456578571e+01   5.7313842590e+01    0.5677373     0.176808 -41.00  0.001971949    3.312    0.698
       232 -10.4692     56.3082     59.0218   9.4973634282e+01   5.8531557882e+01     0.340865    0.2631875 -13.70  0.001042693    1.367    0.268
       233  -9.2966    155.9926     66.0204   6.7524744073e+01   3.7367098996e+01    0.1809559    0.1778637  50.37 0.0009650372    1.009    0.009
       234  -9.9606     27.9936     68.2229   1.0821769684e+02   5.9532016612e+01    0.3194897    0.1274532 -55.82 0.0009711726    1.917    0.478
       235 -10.1660     99.7733     64.8513   8.2005780431e+01   5.0313925521e+01    0.2286487    0.1895472 -12.33 0.0008719215    1.266    0.210
       236 -11.0179     77.1951     63.3219   8.8871423190e+01   5.4637280656e+01    0.4650002    0.2495016 -46.66  0.002120947    1.743    0.426
       237  -9.2746    216.8290     64.6405   5.6042648418e+01   2.2295419734e+01    0.2069796    0.1373529  78.70 0.0006056575    1.758    0.431
       238  -9.0498    150.4861     64.5211   6.8290662545e+01   3.8992840743e+01    0.1522399    0.1503732  32.51 -1.348319e-05    1.001    0.001
       239  -9.2772     41.5054     64.4062   1.0216446861e+02   5.9115447085e+01    0.1265325    0.1090151 -45.24 0.0001966331    1.048    0.046
       240 -11.9052     85.3593     59.4171   8.4785964791e+01   5.4030235432e+01    0.7493029    0.4415641 -18.59  0.003119027    2.405    0.584
       241 -11.5912     87.1537     52.1897   8.1629084841e+01   5.5058230939e+01    0.3467589    0.2929754 -77.99 0.0002583647    1.677    0.404
       242 -11.5582     78.8006     48.2009   8.3006312944e+01   5.7246640970e+01    0.4534859    0.3354621 -25.81  0.001898476    1.280    0.218
       243 -10.3597    201.2942     62.0092   5.7728662386e+01   2.6543957576e+01    0.2425332    0.2089858  63.82 0.0004207128    1.171    0.146
       244  -9.4134    186.1389     61.1520   6.0051288843e+01   3.0520800856e+01    0.2044268    0.1717161 -71.59 0.0002746429    1.275    0.215
       245 -10.8445     45.1065     49.5844   9.6219976411e+01   6.1775747602e+01     0.492711    0.2030739 -48.52   0.00224505    2.054    0.513
       246 -10.1171     47.4476     58.2115   9.8079879561e+01   5.9771838157e+01    0.2958262    0.1939895 -67.19  0.001197134    1.904    0.475
       247 -10.1886     43.9759     57.0265   9.9056681545e+01   6.0402453637e+01     0.208511    0.1780262  -0.70 0.0003598807    1.251    0.200
       248 -11.3258     29.5308     60.8652   1.0578082570e+02   6.0992873841e+01     0.561264    0.2476315  12.66  0.002526588    3.254    0.693
       249 -12.8617     37.4889     51.0017   9.9756908423e+01   6.2306033838e+01    0.7725522    0.5437408 -33.73   0.00307139    1.241    0.194
       250 -10.2868    100.2345     55.6249   7.8675907294e+01   5.1945386953e+01    0.3130023    0.1928519  43.69  0.001216847    1.658    0.397
       251  -9.9717    147.0194     57.0434   6.6670268083e+01   4.1112006781e+01    0.2283757    0.2196562 -75.08 0.0003978871    1.097    0.089
       252 -11.3134     75.2854     56.0567   8.7070933802e+01   5.6371192145e+01     0.228597    0.2093154 -23.29 0.0002719663    1.051    0.048
       253 -10.6979    129.9742     55.8093   7.0371569781e+01   4.5430555105e+01    0.5207561      0.30995  27.96  0.001624362    2.220    0.550
       254 -12.5376    128.7135     50.3339   6.8801737447e+01   4.6628515105e+01    0.4955797    0.3827984   9.36 0.0009742227    1.515    0.340
       255  -9.6979    123.0150     56.2788   7.2351151531e+01   4.6957670508e+01    0.1991963    0.1960082   0.03 0.0003937401    1.050    0.048
       256  -9.1153    114.3712     57.3107   7.5089270132e+01   4.8699182290e+01    0.1578232    0.1126891  13.19 0.0007034279    1.773    0.436
       257 -10.9312     12.4061     51.4470   1.1018244167e+02   6.4217960378e+01    0.2321089    0.1941191 -74.54 0.0006143317    1.329    0.247
       258  -9.4257    116.3321     52.7133   7.2924514932e+01   4.9063827097e+01    0.1434345     0.118634 -80.16 0.0007013942    1.621    0.383
       259 -10.1442    109.2155     52.1202   7.4733466483e+01   5.0709245526e+01    0.2208584    0.1865777  -2.61 0.0004450038    1.222    0.182
       260 -11.0566     70.0717     50.2620   8.6876503040e+01   5.8291663286e+01    0.4176826    0.3340238  81.64  0.001940148    2.094    0.522
       261 -11.1248    104.0831     48.9111   7.5080391954e+01   5.2331992854e+01    0.4543741    0.2988594 -35.24  0.002202101    1.490    0.329
       262 -10.1416    186.7681     50.1242   5.6719510100e+01   3.2049585977e+01    0.2196106    0.1913122 -65.47 0.0003516909    1.164    0.141
       263 -10.8420    103.4100     58.2348   7.8624812402e+01   5.0834353364e+01     0.452134    0.2347262 -33.09  0.001394904    1.971    0.493
       264  -9.3631    166.7546     49.3492   6.0061995368e+01   3.7326736973e+01    0.2105132    0.1317242  51.21 0.0004524939    1.552    0.356
       265 -11.0521    151.6014     47.9552   6.2672042080e+01   4.1402132085e+01    0.4274861    0.2974776  10.24  0.001243598    1.958    0.489
       266  -9.9635    155.8225     47.3072   6.1577667957e+01   4.0430328195e+01    0.3437859    0.2379584  11.54  0.001251905    1.987    0.497
       267 -10.8988     95.2748     48.5115   7.7641979223e+01   5.4174951967e+01    0.3329618    0.2482607 -33.17  0.001172825    1.291    0.225
       268 -10.7426    120.0941     47.3834   6.9996860803e+01   4.9095242739e+01    0.2451006    0.2038938 -34.60 0.0005343161    1.220    0.180
       269  -9.6113    115.7678     48.3778   7.1528979792e+01   4.9907839092e+01    0.2022397    0.1293448  39.08 0.0002544715    1.576    0.366
       270 -10.1830     26.2750     48.5534   1.0362341177e+02   6.3823671525e+01    0.2070609   0.09020086  40.17 0.0009599295    3.169    0.684
       271  -9.5609    194.4346     47.4992   5.4725898646e+01   3.0462914168e+01    0.1447991    0.1408153 -84.44   0.00036132    1.038    0.036
       272 -10.6622     86.1053     46.1046   7.9722715685e+01   5.6323672249e+01    0.2611372    0.1654819 -22.23 0.0009336107    1.697    0.411
       273 -10.1135    142.6330     45.7129   6.3880812668e+01   4.3982385011e+01    0.2975965    0.2364204 -66.41 0.0007242202    1.518    0.341
       274  -8.8690     18.3288     46.2933   1.0631351426e+02   6.4888979495e+01    0.1251999   0.07034457 -33.77 0.0003589165    1.627    0.385
       275  -9.6777     51.1355     44.9026   9.2169450139e+01   6.1956800229e+01    0.1796507    0.1596327 -35.65 0.0003637089    1.152    0.132
       276  -9.9154     91.6446     43.3225   7.6842995441e+01   5.5752189877e+01    0.2560296    0.1303473 -45.08  0.001088937    2.155    0.536
       277 -10.3964     89.2558     39.4123   7.6098506732e+01   5.6844791439e+01    0.2463602    0.2018542 -62.59 0.0003163108    1.675    0.403
       278 -10.5107    123.7883     42.0649   6.7111000169e+01   4.9067226148e+01    0.4835983    0.2951349  43.51  0.002208185    1.595    0.373
       279 -11.1493    110.8713     42.0587   7.0567196695e+01   5.1989754118e+01    0.2747912    0.2320323  43.59 0.0002917597    1.172    0.147
       280 -10.3663    165.0327     42.2604   5.8148548980e+01   3.8802587742e+01     0.217229    0.1821804  63.84 0.0004590181    1.155    0.134
       281 -11.5921     97.2881     41.1786   7.4236498027e+01   5.4986399149e+01    0.7093895    0.3880335 -39.99  0.003221752    1.856    0.461
       282 -10.3943    101.5856     36.7946   7.1233021777e+01   5.4778448836e+01    0.2227994    0.1827877  20.26   0.00054965    1.190    0.160
       283 -10.4150    104.8780     34.1553   6.9240464731e+01   5.4466883177e+01    0.2601005    0.2169888  19.75 0.0002836741    1.158    0.136
       284 -11.1447     98.1636     31.7717   7.0262776698e+01   5.6223474617e+01    0.4615252     0.277581  20.41   0.00190219    2.101    0.524
       285 -11.2670    101.1418     28.4804   6.8057864155e+01   5.6055284938e+01    0.2701129    0.2488827 -36.82 0.0003298932    1.231    0.188
       286 -11.9472     81.4937     35.5647   7.7155780298e+01   5.8898736540e+01    0.5154894    0.3979605 -44.43  0.002889556    1.460    0.315
       287 -11.2133     79.4396     30.7440   7.5876629329e+01   6.0009917761e+01    0.5407575     0.321082   1.12  0.002005904    2.439    0.590
       288 -10.9692     66.4970     41.3245   8.4847971595e+01   6.0458191115e+01    0.3203953    0.2214733  -1.23  0.001690515    1.676    0.403
       289 -10.8183     69.8688     37.2203   8.1968398633e+01   6.0626124715e+01    0.3765197    0.1898402 -28.46  0.001258766    2.056    0.514
       290 -10.3103     34.4303     34.2312   9.5261327770e+01   6.5836729193e+01     0.388944    0.1579234  37.14   0.00181889    3.018    0.669
       291 -10.4408     23.4282     41.1994   1.0255927212e+02   6.5519885712e+01    0.1941401     0.178795 -89.29 0.0008677142    1.488    0.328
       292 -12.7826     25.7721     36.3656   9.9901518604e+01   6.6255785848e+01    0.4642352     0.393569  63.46  0.003109614    1.830    0.454
       293 -11.0756     20.3445     37.9377   1.0286874236e+02   6.6396121485e+01    0.2456763    0.1884325 -37.47 0.0006571513    1.015    0.015
       294 -10.1686     51.6912     40.5396   9.0331402481e+01   6.2692870183e+01    0.2318307    0.1870057 -65.87 0.0007775285    1.741    0.426
       295 -10.3191     42.2008     37.0235   9.2941400614e+01   6.4486755514e+01     0.418527    0.2972806  70.65  0.002022968    3.333    0.700
       296  -9.7713    226.4255     40.4691   4.8482991596e+01   2.3462985392e+01    0.1392886     0.125099 -63.06 0.0001473481    1.009    0.009
       297  -9.0223     71.6400     40.7469   8.2716663135e+01   5.9743984906e+01    0.1356061   0.09563251   3.62 0.0006959231    1.615    0.381
       298  -9.9960     56.1245     40.1090   8.8388482236e+01   6.2181119359e+01    0.2836508     0.171884 -35.87  0.001477278    1.455    0.313
       299  -9.3175     60.4464     33.5105   8.4051659856e+01   6.2701940576e+01    0.1720743    0.1172292  21.00 4.359444e-05    1.531    0.347
       300  -9.7827     57.3581     35.2734   8.5992110219e+01   6.2853352245e+01    0.2617753    0.1515071 -28.52 0.0008544802    1.645    0.392
       301 -10.3569     56.0642     31.2617   8.4866259852e+01   6.3709089524e+01    0.3089516    0.1600405 -31.73  0.001027997    1.791    0.442
       302 -10.3073      2.4413     37.5050   1.1081955450e+02   6.7592089903e+01    0.3066869    0.1178865 -37.21  0.001586735    2.246    0.555
       303 -10.2642    182.9267     38.0603   5.3773907828e+01   3.4744115731e+01    0.2226659    0.2036016 -75.47 0.0004005735    1.079    0.073
       304  -9.9664     61.9136     37.8926   8.5249888572e+01   6.1744920952e+01    0.1902026    0.1614966 -18.02 0.0003232491    1.015    0.015
       305 -10.5028    166.5329     36.8214   5.6146827982e+01   3.9163283824e+01    0.2626101    0.1990652  63.25 0.0003588552    1.263    0.208
       306 -12.2138    225.8741    246.1940   9.3371672219e+01  -7.5793159568e+00    0.5048359     0.290511   1.23  0.002841064    2.213    0.548
       307 -10.5099     29.0885     21.2535   9.2498042620e+01   6.8643299793e+01    0.2804952    0.1387795 -32.40 0.0008841295    1.756    0.430
       308 -10.0259     20.6816     28.2219   9.9315740889e+01   6.8193043065e+01    0.3156215   0.09448553 -46.06  0.001141737    2.466    0.594
       309 -10.8363      9.7795     34.6122   1.0662337277e+02   6.7761990849e+01    0.3481983    0.2634474  23.47  0.002466066    1.643    0.391
       310 -10.6558      7.1156     30.3917   1.0654598827e+02   6.8729579801e+01    0.3291828    0.1745702 -48.08  0.001129324    1.386    0.278
       311 -10.5850     17.6149     31.3009   1.0187769262e+02   6.7864625745e+01    0.3839346    0.2805153  -2.80  0.002625398    1.433    0.302
       312 -10.2611     13.0518     28.4702   1.0305713603e+02   6.8718210400e+01    0.3485094    0.1965094  -1.68   0.00206595    2.069    0.517
       313 -10.6642     10.1921     25.2919   1.0332969702e+02   6.9495340714e+01    0.2708424    0.2023447 -20.63  0.001099654    1.214    0.176
       314  -9.7434    155.0326     36.0080   5.8019718554e+01   4.2234039823e+01    0.2402392    0.1668987  29.72 0.0006407933    1.675    0.403
       315  -9.6404    127.3037     36.3039   6.4140211288e+01   4.9073146351e+01    0.2220395    0.1465573 -25.41 0.0003670109    1.579    0.367
       316 -10.3654    125.5402     33.0599   6.3375444060e+01   4.9937658324e+01    0.2637124    0.2277833  57.76 0.0005231186    1.171    0.146
       317 -10.3667    151.0058     34.5461   5.8320553204e+01   4.3455985423e+01    0.2511145     0.215109  -5.42 0.0004186438    1.278    0.218
       318 -10.1958    110.4825     34.2628   6.7710581008e+01   5.3229484918e+01    0.3200625    0.1129689 -40.12  0.001128257    3.038    0.671
       319  -9.2895    206.0174     33.9767   4.9294458449e+01   2.9359435684e+01    0.1675649    0.1533688 -59.54            0    1.055    0.052
       320 -10.0379    192.7642     32.9612   5.0805367290e+01   3.2871469996e+01    0.3277194    0.1438864  43.51  0.001187101    2.859    0.650
       321  -9.6649    233.8483     32.3791   4.5632162811e+01   2.2756407808e+01    0.1836381    0.1158512  57.56  0.000539782    1.681    0.405
       322 -11.4065    177.5496     30.5555   5.2357506690e+01   3.7116195016e+01    0.5014073    0.2751251 -39.22  0.002214787    1.829    0.453
       323  -9.5302    129.5279     32.5075   6.2225974415e+01   4.9058221540e+01    0.1454676    0.1338064  30.63 9.422962e-05    1.030    0.029
       324 -10.5263     49.2267     30.4702   8.7356954549e+01   6.4772749596e+01    0.4298567    0.2217669 -27.99  0.002125301    1.936    0.483
       325  -9.5038     43.2017     31.7856   9.0464515146e+01   6.5300800469e+01    0.1722844    0.1222495 -15.51 0.0005423836    1.331    0.249
       326  -8.9642    156.2670     31.3244   5.6233470159e+01   4.2529857493e+01    0.1467379    0.1081452  26.52 0.0006966407    1.567    0.362
       327 -10.4401    139.5200     30.6607   5.9337550632e+01   4.6852435464e+01      0.25289     0.212915  14.96 0.0003417887    1.270    0.213
       328 -10.4297    223.1827     30.1345   4.6221346807e+01   2.5593997408e+01    0.2470351    0.1873554 -81.04 0.0006935231    1.295    0.228
       329  -9.6721    168.7417     30.0710   5.3629488306e+01   3.9465071265e+01    0.1916562    0.1869501 -35.01 0.0003378204    1.088    0.081
       330  -9.8857    153.5288     28.9906   5.5967242802e+01   4.3525266249e+01    0.2113174    0.1437482 -28.19 0.0004181697    1.548    0.354
       331 -11.8398     74.5212    238.8260   1.1981144657e+02   1.6761622898e+01    0.4589588    0.3216421 -81.93  0.003193216    1.458    0.314
       332 -10.8323     73.9913    233.0095   1.1942507847e+02   1.7862145728e+01    0.2377404    0.1350028  51.35 0.0008839755    1.390    0.280
       333 -11.0402    178.8402    243.6494   1.0131556745e+02  -7.9281519256e-03    0.2562006    0.1250458  55.80  0.001162843    2.899    0.655
       334  -9.2265    115.5171    244.5264   1.1297338420e+02   9.8840470657e+00    0.1182469   0.09289322  51.58 0.0001810615    1.042    0.040
       335 -10.1847    109.6988    243.2604   1.1389852903e+02   1.0968491463e+01    0.2539607    0.1504248  64.87   0.00102958    1.716    0.417
       336 -11.0222     37.4889    242.5158   1.2640359118e+02   2.0746566133e+01    0.2340898    0.1251293  51.83   0.00157931    1.420    0.296
       337 -10.9125     35.4115    239.7791   1.2659050812e+02   2.1462662912e+01    0.3019674    0.1823013 -56.47  0.001982786    2.403    0.584
       338 -11.0523    214.6601     27.1207   4.6403294532e+01   2.8061762028e+01    0.3218542    0.2613807 -42.71  0.001039051    1.202    0.168
       339 -11.0246    135.2796     22.5000   5.7311071380e+01   4.8900479322e+01    0.5956674    0.2658065  35.60  0.002180301    2.848    0.649
       340  -9.9984     88.5350    241.4404   1.1753783955e+02   1.4368036634e+01    0.1782952    0.0977771 -53.47  0.001026366    2.416    0.586
       341 -11.5907     70.5759     25.7706   7.6907204398e+01   6.2298144758e+01    0.3223187    0.2399514  25.87 0.0003402711    1.293    0.227
       342 -11.3220    237.4008     25.4349   4.3587051490e+01   2.2793482885e+01    0.2492552      0.21682 -65.02  0.000270698    1.011    0.011
       343 -10.4027    156.4356    241.2730   1.0509814251e+02   3.9350406500e+00    0.1414199    0.1172835 -76.04 0.0009490527    1.596    0.373
       344  -9.7319    108.2808     17.6173   6.1689082106e+01   5.5843413660e+01    0.4352357    0.1727451  44.22  0.001379175    2.332    0.571
       345 -10.8382    108.2592     24.6695   6.4541957147e+01   5.5005343228e+01    0.2646587    0.1911846 -44.51 0.0004942096    1.615    0.381
       346 -10.4862    107.0396     21.3247   6.3519848527e+01   5.5687559706e+01     0.217099    0.2132487  73.89 0.0003586323    1.203    0.169
       347 -11.2034     96.5363     23.6092   6.7402537530e+01   5.7665893751e+01    0.3461288    0.2308396  47.20 0.0002968442    1.445    0.308
       348 -10.6886    197.2472     24.9530   4.7926969985e+01   3.2715403264e+01    0.2301299    0.1891371  77.71 0.0003119642    1.147    0.128
       349 -11.6280    120.2737     21.3150   6.0199080958e+01   5.2660399894e+01    0.2742018    0.2334032   2.14 0.0002895679    1.198    0.165
       350  -9.2964     34.9185     22.8432   9.0439791154e+01   6.7764395978e+01    0.2864457    0.1304757  14.27  0.001249358    3.308    0.698
       351  -9.9635    184.7515     21.4225   4.8567090907e+01   3.6346320685e+01    0.2763408    0.1344807  74.26  0.001130391    2.102    0.524
       352 -10.4956     66.3918     21.0766   7.6378206994e+01   6.3671190106e+01    0.2902245    0.1850141  42.40  0.001439214    1.653    0.395
       353 -10.5049     44.8569     20.3466   8.4841455633e+01   6.6969101034e+01    0.2890753    0.2019676  42.02  0.001744244    1.827    0.453
       354  -9.3273     50.3318    240.3068   1.2412162214e+02   1.9613840294e+01   0.08758029   0.08648873 -75.06 0.0003994523    1.664    0.399
       355  -9.3247    151.2509     18.6295   5.2888221234e+01   4.5318591860e+01     0.196825     0.117579  53.98 0.0003659756    1.516    0.340
       356 -10.1964    215.8506     16.7749   4.3581869071e+01   2.8992483259e+01    0.5011274    0.1078667  61.42  0.001644282    3.732    0.732
       357 -10.2644    168.6891     17.2936   4.9614185337e+01   4.0971184572e+01    0.2141852    0.1421086 -31.21 0.0003719136    1.586    0.369
       358 -10.2779    195.5878    238.5767   9.7564269831e+01  -2.0113397517e+00    0.2583091    0.1656775  23.81  0.001524453    1.471    0.320
       359 -10.8794    244.0486     15.5021   4.0650842629e+01   2.2444735274e+01    0.2551069    0.1465017 -51.71 0.0009629419    1.539    0.350
       360 -10.2990     35.1148     15.2784   8.6941120189e+01   6.8942998195e+01    0.2653292    0.1588522  -0.17  0.000744503    1.896    0.473
       361  -9.8948     72.6060    250.0981   1.2102215602e+02   1.5098285143e+01    0.1630544      0.14449  34.44  0.001257155    1.589    0.371
       362  -9.3663    135.3616    237.3075   1.0851799469e+02   7.9383104379e+00    0.1175313   0.08900142  17.60 0.0007039772    1.738    0.425
       363 -10.7208    249.0303     15.0189   4.0132282265e+01   2.1377074994e+01    0.1947592    0.1645859 -64.96 0.0003346031    1.020    0.019
       364  -9.7507     50.2231     15.4305   8.0227695671e+01   6.6961177214e+01    0.2277847    0.1090176  33.01  0.001148131    2.128    0.530
       365 -11.6067     29.7804    233.5293   1.2717559640e+02   2.3204985528e+01      0.40409    0.2150627  85.93  0.002604938    1.622    0.383
       366  -9.8976     24.1069    232.3164   1.2805519837e+02   2.4037838511e+01    0.1655951     0.131966  77.30 0.0005602937    1.218    0.179
       367 -10.0588    159.8915    235.8975   1.0375479062e+02   4.1692263031e+00    0.1887739    0.1474698  25.67 0.0006246573    1.288    0.224
       368 -12.7121      6.2781    244.4738   1.3144684610e+02   2.3721011727e+01    0.6612046    0.4248466  80.28  0.003731002    1.172    0.147
       369 -10.7678     10.1917     15.5983   9.9617291322e+01   7.1216492318e+01    0.2065512    0.1329908 -30.32 0.0006243593    1.204    0.170
       370 -10.0791    177.5246    234.9370   1.0034144009e+02   1.4110208797e+00    0.2334403    0.1462154  27.98 0.0009675579    1.527    0.345
       371  -9.2368     90.2516     12.9985   6.4706540901e+01   6.0237234227e+01    0.1752951    0.1498276  10.90 0.0002609772    1.050    0.048
       372 -10.7769    153.6915    233.8711   1.0464816572e+02   5.4960384938e+00    0.2225994    0.1803033 -11.37 0.0008481008    1.668    0.400
       373 -10.0833    167.1921    233.7951   1.0210417393e+02   3.2789535706e+00    0.1647924    0.1301672  20.89 0.0006894828    1.309    0.236
       374 -10.0582     85.9835    232.9622   1.1723440051e+02   1.6202992172e+01    0.1939839    0.1105266  64.94 0.0006482549    1.644    0.392
       375  -9.8253     80.0256    231.7677   1.1821911868e+02   1.7254774549e+01    0.1875871    0.1198222  61.63  0.000718387    1.288    0.224
       376  -9.4405    127.6632    231.3391   1.0925489169e+02   1.0144878805e+01    0.1292124   0.08178528  65.76 0.0007051123    1.757    0.431
       377 -10.5665      4.8100    226.1706   1.3093033802e+02   2.7092995647e+01     0.416898    0.1441916  71.21  0.002219521    2.569    0.611
       378 -10.1218    190.5939    226.9977   9.6738377171e+01   3.7432190276e-01    0.2933718    0.1214867 -45.03  0.001352574    3.006    0.667
       379  -9.8560    248.8771    227.6354   8.6496274869e+01  -8.8373092289e+00    0.1991735     0.133075  -3.67 0.0008041604    1.396    0.283
       380  -9.7656    129.8975    226.7274   1.0826660459e+02   1.0559229766e+01    0.2902726    0.1220249  57.34  0.001168224    3.073    0.675
       381 -10.9028    120.1965    226.6529   1.1012534695e+02   1.2136585382e+01    0.1985424    0.1274557  55.10 0.0006473804    1.358    0.264
       382 -10.1226     88.0106    226.9926   1.1629368835e+02   1.6983814963e+01    0.1896087    0.1477069  63.27    0.0012248    1.017    0.017
       383 -10.3263     66.5677    226.1890   1.2020784050e+02   2.0100297942e+01    0.2805845    0.1306011  45.80  0.001026209    1.755    0.430
       384 -10.0528     25.8165    225.5269   1.2739794490e+02   2.5097421933e+01     0.203377    0.1451955 -57.63  0.001448197    1.975    0.494
       385  -9.2875     80.7598    223.7084   1.1734542405e+02   1.8621956289e+01    0.1736337   0.08896996 -83.86 0.0008847594    2.347    0.574
       386 -10.4753    122.6882    221.6378   1.0903605312e+02   1.2612244186e+01    0.3552841    0.2035258  67.06  0.001758973    2.192    0.544
       387 -10.5327     13.4598    222.0489   1.2930992674e+02   2.7015655785e+01    0.1726172    0.1412033 -82.91 0.0009071651    1.414    0.293
       388 -10.6281    141.4312    221.2902   1.0532175783e+02   9.5707446852e+00    0.2867233    0.1965732  21.33  0.001555665    1.877    0.467
       389 -10.2585     22.0044    220.4825   1.2777056362e+02   2.6441950087e+01    0.1634536    0.1109703  81.94 0.0004631004    1.138    0.122
       390  -9.1729     37.6936    224.7140   1.2529103194e+02   2.3935313849e+01   0.09014705   0.08307313 -72.38 0.0003772379    1.567    0.362
       391  -9.4322    250.4911    219.4465   8.4827142414e+01  -8.1280325386e+00    0.1208166   0.09154461  10.99 0.0001177837    1.032    0.031
       392 -11.5544    236.3775    214.9636   8.6461465207e+01  -5.4467679747e+00    0.5269108    0.3157654   3.72  0.002840878    1.939    0.484
       393 -10.7580      9.5482    216.9315   1.2972002050e+02   2.8355475166e+01    0.2828675    0.1455532  60.36  0.001148425    1.480    0.324
       394  -9.7187     37.9590    217.4942   1.2476713984e+02   2.5271958722e+01    0.1573188   0.09511761  43.93 0.0006311468    1.555    0.357
       395 -10.1217     24.1857    216.6859   1.2717329130e+02   2.6934243725e+01    0.2223622   0.08843109  52.80  0.001259482    1.971    0.493
       396  -9.7331    194.5133    215.4779   9.4170669568e+01   1.3732367537e+00    0.1937319    0.1062333  32.08 -7.178148e-05    1.671    0.402
       397  -9.1848     41.7410    220.9813   1.2432398568e+02   2.4170534536e+01    0.1342028   0.08172546 -82.41 0.0008285304    1.492    0.330
       398 -10.4694     31.0495    215.8705   1.2590388289e+02   2.6355455692e+01    0.2390433    0.1409491  44.84  0.001576245    1.565    0.361
       399  -9.2484    201.6623    215.6803   9.2860669230e+01   1.2554164728e-01    0.1326432   0.08823293  12.42 0.0007049724    1.709    0.415
       400  -9.5671    170.3109    213.3109   9.8485916072e+01   5.9146820820e+00    0.1287589   0.09529743  12.30 0.0003941768    1.626    0.385
       401 -10.7762     21.2797    212.2942   1.2743062149e+02   2.8080252778e+01    0.3170084     0.129269  57.47  0.001791689    1.987    0.497
       402 -10.1825    208.9849    212.0812   9.0889597222e+01  -6.0085365063e-01    0.1944155    0.1591253  20.67 0.0004703002    1.031    0.030
