#   1 NUMBER                 Running object number                                     
#   2 MAG_AUTO               Kron-like elliptical aperture magnitude                    [mag]
#   3 X_IMAGE                Object position along x                                    [pixel]
#   4 Y_IMAGE                Object position along y                                    [pixel]
#   5 X_WORLD                Barycenter position along world x axis                     [deg]
#   6 Y_WORLD                Barycenter position along world y axis                     [deg]
#   7 A_WORLD                Profile RMS along major axis (world units)                 [deg]
#   8 B_WORLD                Profile RMS along minor axis (world units)                 [deg]
#   9 THETA_WORLD            Position angle (CCW/world-x)                               [deg]
#  10 FWHM_WORLD             FWHM assuming a gaussian core                              [deg]
#  11 ELONGATION             A_IMAGE/B_IMAGE                                           
#  12 ELLIPTICITY            1 - B_IMAGE/A_IMAGE                                       
         1 -11.2423    200.2415     42.1385   7.6787878958e+01   2.9528257422e+01     3.925648     1.327533 -39.13   0.01326699    2.825    0.646
         2 -12.9956    223.2249     29.3625   6.9983690399e+01   2.5198175501e+01    0.8320509    0.6295533 -80.10  0.004258082    1.527    0.345
         3 -14.5227    213.0970     31.6392   7.1866135325e+01   2.7503525938e+01     4.667665     2.442257 -45.87  0.006472133    1.998    0.499
         4 -14.9839    173.1323      2.9609   6.7630180156e+01   4.1063169512e+01     12.74843          nan  61.30   0.01235539   11.722    0.915
         5 -15.8785    249.2207     37.0587   6.9304522898e+01   1.8087965156e+01     11.99806     2.859073 -16.33   0.02444628    9.290    0.892
         6 -14.5779    230.2236      3.8800   6.1945113240e+01   2.6009384372e+01     1.386191    0.8553998 -39.33  0.002891154    1.498    0.333
         7 -13.6224    182.9444     81.7277   9.1335606464e+01   2.8147213015e+01     3.511392    0.5474914 -40.56  0.008111976    6.262    0.840
         8 -14.2397    134.5325     37.6201   8.7254823989e+01   4.6799564247e+01     3.631292     1.293637  63.71   0.01106042    3.923    0.745
         9 -15.0417    247.4824      4.0997   6.0631529483e+01   2.1787426533e+01     1.834141     1.289725   3.75  0.009170032    1.632    0.387
        10 -13.3286    191.0241     11.2255   6.8196499055e+01   3.5481603755e+01     2.175685    0.9774099  87.69  0.007391899    3.271    0.694
        11 -14.0540    166.0628     56.1751   8.6985447091e+01   3.6244779705e+01     1.182776    0.7692142 -65.49   0.00328777    2.174    0.540
        12 -11.1028    213.1139      9.9746   6.5326442432e+01   2.9792871221e+01    0.4692533    0.2936557  43.21  0.001506851    1.726    0.421
        13  -9.8803    209.1809      1.5386   6.3143573405e+01   3.1600424648e+01     0.209153    0.1642463 -77.95 0.0003434285    1.334    0.250
        14 -10.1881    105.8219      1.8040   7.9060284272e+01   5.8231323918e+01    0.1890042    0.1612964 -46.99  0.001071357    1.330    0.248
        15 -13.7299    235.9309     46.9076   7.3448209563e+01   2.0097941066e+01     1.741904    0.9476053 -61.38  0.006992155    2.674    0.626
        16 -12.7299    184.8615    135.0228   1.0385306955e+02   1.9339548833e+01     0.760803    0.6578096  54.56   0.00299101    1.176    0.150
        17 -14.9529    208.3551    129.6345   9.8524425244e+01   1.5346316038e+01     3.792443     2.463092  87.07   0.01473683    3.848    0.740
        18 -13.6025    205.0780    110.5159   9.4740634319e+01   1.8746575485e+01    0.6777048    0.6243031  42.89  0.003082845    1.108    0.097
        19 -12.9763    168.1583     73.1582   9.1745535588e+01   3.3037479461e+01    0.7272078    0.5401341  10.23  0.002284013    1.702    0.412
        20 -11.2875      2.6414    236.4841   1.4720034298e+02   2.9077123880e+01    0.4555326    0.1509851  89.04  0.003049947    2.734    0.634
        21 -10.9167    160.5073    128.4893   1.0716630762e+02   2.5307920414e+01    0.3586347    0.2678046 -42.86  0.001963915    1.424    0.298
        22 -11.3156    167.5362    113.4627   1.0243531209e+02   2.6402751446e+01    0.4260348      0.25453  63.99  0.001872152    2.086    0.521
        23 -11.6103    134.8043    107.4765   1.0798758609e+02   3.4252158686e+01    0.9600008    0.2196883 -43.41  0.002786115    4.574    0.781
        24 -10.1742    119.3345    110.6804   1.1224779861e+02   3.6601595200e+01    0.1414596    0.1037754  85.25 0.0007049251    1.700    0.412
        25 -12.3747    201.8354    100.0338   9.2745634369e+01   2.0992932517e+01    0.6257972    0.3162966  68.16  0.002272745    3.186    0.686
        26 -10.0701    140.3494    101.3672   1.0529285501e+02   3.4278535299e+01    0.2073578    0.1680789  10.17 0.0006980569    1.597    0.374
        27 -11.2480    124.2520     99.6334   1.0857172772e+02   3.7839886930e+01    0.2779164    0.2530183  65.55  0.001302048    1.094    0.086
        28 -10.8885    145.5141     95.8551   1.0276945580e+02   3.4216102967e+01     0.323148    0.2634874 -20.76 0.0007957815    1.405    0.288
        29 -11.4331    226.3566     94.6537   8.7383922438e+01   1.6287074305e+01      0.32001    0.2519186 -89.26   0.00165702    1.809    0.447
        30 -12.1737    193.6726     92.6606   9.2306053412e+01   2.3951312454e+01    0.3608165    0.3056886 -82.24  0.001866855    1.485    0.326
        31 -10.4523    132.4281     93.3467   1.0509536952e+02   3.7422814363e+01    0.2716628    0.2316139 -84.27 0.0005622049    1.311    0.237
        32 -12.4442    154.1530     87.5183   9.8694241291e+01   3.3832912893e+01     0.630524    0.4619206  -4.68  0.002939106    1.860    0.462
        33 -11.4926    138.3648     84.8540   1.0147440970e+02   3.7778202609e+01      0.44343    0.3644856  28.15  0.001657841    1.374    0.272
        34 -11.2161    222.2664     88.9026   8.6564119792e+01   1.7963247491e+01    0.3708496    0.2132463 -53.83  0.001544361    2.472    0.595
        35 -12.5595    151.6355     75.2908   9.5799859212e+01   3.6551960801e+01    0.3710721    0.2717929 -31.90 0.0007644075    1.379    0.275
        36  -9.9470    201.5204     88.4865   8.9838141639e+01   2.2765118706e+01    0.1460046    0.1353152  10.90 8.601112e-05    1.041    0.039
        37 -14.1938     24.4472    216.6245   1.4328619345e+02   2.9986562504e+01    0.7005156     0.461439  64.79  0.003918137    1.029    0.028
        38  -9.5261    143.4015     63.1841   9.3950100696e+01   4.0548384787e+01      0.20979     0.133476 -45.91 0.0004591252    1.598    0.374
        39 -12.2303    182.5208     58.4987   8.4661303013e+01   3.1792456467e+01    0.4219674    0.3247655  36.09 0.0006775016    1.362    0.266
        40 -12.3723    186.8277     54.4723   8.2686437037e+01   3.1290210746e+01    0.4894224    0.3401882  14.02   0.00154067    1.799    0.444
        41 -10.6115    135.6807    128.0194   1.1220744524e+02   3.0236603516e+01     0.551018     0.120838 -50.06  0.001585523    5.250    0.810
        42 -14.1574     61.4157    179.6134   1.3463819104e+02   3.2081465055e+01    0.9501908    0.7805997  40.29  0.002576164    1.485    0.327
        43  -9.2116    189.9756     36.2522   7.6475226412e+01   3.2922426020e+01    0.1955052    0.1900906  54.53  0.000513772    1.051    0.049
        44  -9.9116    155.4199     34.0151   8.1603465204e+01   4.2161776703e+01    0.2857327    0.2164098 -85.63  0.001344781    1.661    0.398
        45 -10.4064    191.3204    192.2399   1.1290718571e+02   1.0297894371e+01    0.3571898    0.2182304 -70.83  0.001472683    5.236    0.809
        46 -11.3136    139.4986     30.3461   8.3467310664e+01   4.6656775304e+01    0.2674465    0.2307583  39.27 0.0005939183    1.167    0.143
        47 -11.0740    194.4036     26.8345   7.2825269605e+01   3.2900882931e+01    0.3766665    0.2132329 -46.84  0.001025342    1.876    0.467
        48 -12.6938    174.6989     66.9101   8.8631288339e+01   3.2454543930e+01    0.7412146    0.4230563 -47.35 0.0007042122    1.925    0.480
        49 -14.7191     53.4079    188.9992   1.3685322691e+02   3.1397206585e+01     1.385957     1.208303 -27.92  0.001657541    2.091    0.522
        50 -10.1961    163.2014     19.3171   7.4950981896e+01   4.2005724021e+01    0.2691442    0.1978879 -34.44 0.0006575921    1.345    0.257
        51 -15.1864    220.7089    128.5524   9.6220551628e+01   1.2989216342e+01     4.185538     2.472598  63.40  0.001323223    2.303    0.566
        52 -11.8795     67.8027    144.4771   1.2972095316e+02   3.7861446322e+01    0.5385299    0.2854724  62.99  0.002329623    1.951    0.487
        53 -11.3043    210.2895    145.2248   1.0145274105e+02   1.2851541013e+01    0.2531343    0.2068456  43.96  0.001378336    1.177    0.150
