#   1 NUMBER                 Running object number                                     
#   2 MAG_AUTO               Kron-like elliptical aperture magnitude                    [mag]
#   3 X_IMAGE                Object position along x                                    [pixel]
#   4 Y_IMAGE                Object position along y                                    [pixel]
#   5 X_WORLD                Barycenter position along world x axis                     [deg]
#   6 Y_WORLD                Barycenter position along world y axis                     [deg]
#   7 A_WORLD                Profile RMS along major axis (world units)                 [deg]
#   8 B_WORLD                Profile RMS along minor axis (world units)                 [deg]
#   9 THETA_WORLD            Position angle (CCW/world-x)                               [deg]
#  10 FWHM_WORLD             FWHM assuming a gaussian core                              [deg]
#  11 ELONGATION             A_IMAGE/B_IMAGE                                           
#  12 ELLIPTICITY            1 - B_IMAGE/A_IMAGE                                       
         1 -13.7977    219.6609     28.9498   2.0702054113e+01   2.7508951400e+01     3.561452     2.208709  -4.90   0.01765841    2.549    0.608
         2 -14.6552    234.4553     38.1031   2.1876586205e+01   2.3504184944e+01     3.936752     1.787628 -18.64   0.01713636    2.955    0.662
         3 -13.3795    244.8445     17.2374   1.6533467223e+01   2.3906911551e+01     2.006794    0.3704293 -51.05  0.007590052    3.766    0.734
         4 -14.7420    234.5511    103.2505   3.6526788466e+01   1.4889952236e+01     4.489043     1.077483 -42.61  0.003153213    3.693    0.729
         5 -14.5767    187.1839    143.7005   5.2144648750e+01   1.6569708151e+01     13.23136     4.944305 -51.49   0.04376354    4.378    0.772
         6 -15.3445    243.1080     83.5058   3.1351884541e+01   1.6176935770e+01     6.201582     1.904654  48.31   0.02555607    4.427    0.774
         7 -14.0827    249.2534     68.8224   2.7613549021e+01   1.7060244125e+01      2.03736    0.5272129 -34.09   0.00847541    2.703    0.630
         8 -10.9585    187.5341     45.4727   2.7895207001e+01   3.2411910616e+01     1.343074     0.610706 -19.34  0.004957675    3.183    0.686
         9 -13.0373    249.7057     32.4745   1.9650618982e+01   2.1356338662e+01     1.756863    0.5159068 -24.06  0.004765716    4.230    0.764
        10  -9.4208    134.4583     15.7179   2.4660515090e+01   4.9543349694e+01    0.3011438     0.149175 -11.47  0.001139612    2.899    0.655
        11 -10.2179    120.1524      9.4457   2.4094061837e+01   5.4054873548e+01    0.3643554    0.2998148 -41.62 0.0009839133    1.211    0.174
        12  -9.4556    209.1189      2.7014   1.4694599858e+01   3.2572605267e+01    0.3693765    0.2601936  64.96  0.002250702    1.716    0.417
        13 -10.1461    183.3131      4.5383   1.6532463709e+01   3.8261913396e+01    0.6805912    0.4237638 -74.34  0.003685985    1.454    0.312
        14  -8.9745    138.2740      6.6313   2.0784018689e+01   4.9470622989e+01    0.2693966    0.1453925 -39.42  0.001060261    1.691    0.409
        15  -9.2370     93.5450      5.2116   2.6503537258e+01   6.1633563773e+01    0.2596382    0.2080947  53.92 0.0005188872    1.240    0.193
        16 -10.5222    204.3739      7.3229   1.6122744256e+01   3.3148363061e+01    0.2770393    0.2159082  -5.28 0.0007822504    1.698    0.411
        17  -8.3804    171.9230      2.3457   1.6580791499e+01   4.1233191752e+01    0.1927739    0.1519079 -74.32 0.0008438923    1.110    0.099
        18  -9.1307    234.5134    202.0523   5.4878577093e+01   1.8279943185e+00    0.1811606    0.1655256  39.03  0.001450847    1.857    0.462
        19 -10.4270    193.3380    195.2699   6.0414464914e+01   7.6418866979e+00    0.7159986    0.4486528 -61.40   0.00342317    3.737    0.732
        20  -9.9834    206.8202    179.4887   5.5487776847e+01   8.0884409260e+00    0.2462993    0.2193651  69.20 0.0008492097    1.881    0.468
        21 -11.6346    212.6914    179.4444   5.4523937141e+01   7.3161154528e+00     1.160309    0.3238443 -34.96  0.004752654    3.400    0.706
        22 -13.8012    228.7191    174.5805   5.1208014038e+01   5.9076355689e+00     4.504772     1.613357 -28.87   0.01802683    2.754    0.637
        23 -13.0345    159.2844     97.0481   4.6583806815e+01   3.0362392503e+01     1.946092      1.42968  12.23  0.004991086    2.046    0.511
        24  -9.3024    134.1485    248.2685   7.8579623749e+01   7.4834049639e+00    0.3528795    0.1785037  56.37  0.001586325    4.215    0.763
        25 -10.0051    104.7708    243.9613   8.4003241584e+01   1.1564334073e+01    0.1910258    0.1757848 -15.65 0.0005796612    1.325    0.245
        26  -8.2277     84.9257    170.0960   8.0474624523e+01   2.8367559855e+01    0.1666232    0.1585983   5.58            0    1.198    0.165
        27  -8.6175    166.0657    168.2865   6.0921433912e+01   1.5816686471e+01    0.2098552    0.1844119 -72.57 0.0007139831    1.531    0.347
        28  -7.9953    143.0162    168.9717   6.5912163176e+01   1.9398465746e+01    0.1569479     0.146575  14.26 0.0003026231    1.007    0.007
        29  -9.2606    238.7213    242.4417   6.0101936968e+01  -2.9294234751e+00    0.1662795   0.07556964  30.60  0.001128187    2.073    0.518
        30 -10.0840    249.4917    159.4934   4.5656957862e+01   5.2533535697e+00    0.4133228    0.1466127 -34.08  0.002108968    2.256    0.557
        31  -9.2719    223.1759    162.8618   4.9949359397e+01   8.2033464439e+00    0.1949393    0.1758274  12.70 0.0005027351    1.267    0.211
        32  -8.6320    173.0219    162.7236   5.8523524404e+01   1.5668492307e+01     0.175299    0.1576897  10.43 0.0003105113    1.055    0.052
        33 -10.0810    203.3431    152.2353   5.1070955525e+01   1.2608196575e+01    0.3123283    0.2161785 -45.26   0.00106211    1.541    0.351
        34  -9.3024    167.4705    153.7911   5.7906559031e+01   1.8144938472e+01    0.2590606    0.2188277  86.01  0.000724484    1.691    0.409
        35 -12.2365      3.3995    145.6769   1.0267279035e+02   4.3833489918e+01    0.9931368    0.4263854 -86.18  0.004110224    2.107    0.525
        36 -12.3392     15.2233    142.3155   9.8651139376e+01   4.3802971294e+01     1.611473    0.6718815  75.81  0.006419985    2.420    0.587
        37 -10.2503    133.9969    145.8969   6.3664393220e+01   2.5566736623e+01     1.116584    0.3033507 -55.08  0.002883728    5.668    0.824
        38  -8.9301    129.0656    232.4221   7.7875968618e+01   1.0404956666e+01    0.1791777    0.1445378 -12.50 0.0002818018    1.380    0.275
        39 -10.6944     67.5803    143.8887   8.1752383157e+01   3.7303580982e+01     3.270164     1.535249 -83.98   0.01131249    3.119    0.679
        40 -12.4479     48.9112    134.3264   8.6468166654e+01   4.2384248015e+01     1.517714    0.8063763 -51.64   0.00205717    2.072    0.517
        41 -12.9443     41.1135    134.1956   8.9121802888e+01   4.3377237124e+01     1.502733     1.241948  41.00  0.003725296    1.191    0.160
        42 -12.5014     33.2401    136.9321   9.2133255127e+01   4.3524848139e+01     1.061276    0.6973466  10.95  0.001472903    1.904    0.475
        43  -9.8736    144.5782    146.4116   6.1307091898e+01   2.3547994381e+01    0.4499729    0.2628201 -72.51  0.001600738    3.666    0.727
        44  -8.6990     55.7983    232.7701   9.3597069578e+01   1.9109867038e+01    0.1626866     0.138134  32.06 0.0005757631    1.189    0.159
        45  -9.2797    228.6772    140.0023   4.4825581820e+01   1.0617612529e+01    0.2643006    0.2052837 -25.13  0.001779115    1.046    0.044
        46 -10.0301    210.9733    136.6445   4.6749211600e+01   1.3803335788e+01    0.3919366    0.1968664 -32.54  0.001757394    1.763    0.433
        47  -8.6444    215.1562    135.8803   4.5958972017e+01   1.3258477768e+01    0.1810605    0.1580744 -38.45  0.001017247    1.203    0.169
        48 -10.6348    154.4131    135.2907   5.6799408564e+01   2.3939569854e+01    0.3947204    0.3423446 -41.43  0.001933638    1.125    0.111
        49  -8.4774     82.9354    134.8925   7.5464225970e+01   3.7190219444e+01    0.2212701    0.2038868 -28.73  0.000549162    1.273    0.214
        50  -9.7549    198.4994    130.5137   4.7450544966e+01   1.6822835493e+01    0.3141521     0.247006 -84.54 0.0009512797    2.001    0.500
        51 -10.0702    160.0175    128.8028   5.4181806404e+01   2.4132903082e+01    0.4571867    0.3430167 -19.35  0.002099536    1.538    0.350
        52 -13.0104    177.0125     89.6303   4.1402211676e+01   2.7864708969e+01     1.832608     1.124544 -16.29  0.007676846    2.392    0.582
        53  -8.2610     80.7339    127.9819   7.4848473480e+01   3.9314871933e+01    0.2178155    0.1941193 -74.86 0.0005241153    1.107    0.097
        54  -9.1644    202.1375    126.1710   4.5934973377e+01   1.6897390796e+01     0.171667    0.1441281 -52.95 0.0004032513    1.321    0.243
        55  -8.9418    147.3995    176.7041   6.6281575350e+01   1.7257698156e+01    0.3550424    0.1596108 -52.67  0.001525624    2.609    0.617
        56  -9.6111    151.0042    123.6271   5.4920151753e+01   2.6904109211e+01    0.3293197    0.2074671 -47.76 0.0005191035    1.558    0.358
        57  -8.9442    240.6815    228.6942   5.7933486582e+01  -1.7307174082e+00    0.1974754    0.1075671  19.23 0.0008498416    1.580    0.367
        58  -8.3015    205.6991    121.9721   4.4472969399e+01   1.6950898588e+01    0.1836092    0.1431982 -34.59 0.0003966559    1.112    0.100
        59  -8.3673     91.8820    121.8916   7.0085860078e+01   3.8894082467e+01    0.2268761    0.2124813 -26.47 0.0005722524    1.230    0.187
        60  -9.9791    216.5342    109.0076   4.0065079231e+01   1.7077196292e+01    0.7271714     0.212567 -36.26  0.002788896    2.806    0.644
        61 -10.7384    225.8739    114.8175   4.0070660872e+01   1.4653752511e+01    0.6598874    0.4180535 -65.81  0.003301718    2.676    0.626
        62  -9.0489    220.3929    114.8007   4.0799757697e+01   1.5557418946e+01    0.2542175    0.1730149  -7.91   0.00139832    1.792    0.442
        63  -9.5088     74.1037    125.7022   7.6563126586e+01   4.1002324197e+01    0.3872162    0.2214779  22.32  0.001523117    2.245    0.555
        64  -9.8180    148.1401    115.5162   5.3621932765e+01   2.9113871741e+01     0.342837    0.2094094 -52.51 0.0009605316    1.689    0.408
        65 -10.3159     59.8254    115.4540   7.9562826693e+01   4.5958339421e+01    0.2654363    0.2410559 -70.75  0.000248432    1.104    0.094
        66  -8.3884    213.9387    115.5245   4.1854418948e+01   1.6536592242e+01     0.160987    0.1290606  49.52 0.0003543001    1.484    0.326
        67  -9.0414    248.6376    221.9101   5.5837981389e+01  -1.7918584264e+00    0.1659294    0.1202627  34.86  0.001309179    1.982    0.495
        68  -9.9526    112.1464    104.7809   5.9921378743e+01   3.9019369464e+01    0.5941275    0.3015265 -68.38  0.001830444    3.518    0.716
        69 -10.7041    157.9244     88.1668   4.4458183429e+01   3.2324760804e+01    0.5110848     0.313971 -27.14  0.002199005    1.910    0.476
        70  -8.7387    138.9906     91.8607   4.9489888924e+01   3.5903536807e+01    0.2622997    0.2038902 -49.79 0.0003878168    1.229    0.186
        71  -8.0999     58.0000     91.9659   7.5185633413e+01   5.2564858980e+01    0.2502242   0.08505065 -61.31 0.0005479552    2.834    0.647
        72  -8.8100    106.0214     88.6224   5.7181756775e+01   4.4062132656e+01    0.2531942    0.2045325 -63.03  0.001205449    1.236    0.191
        73  -8.9323    142.8379     86.6515   4.7145388490e+01   3.6059547200e+01    0.2628703     0.203036 -42.36 0.0004911154    1.246    0.197
        74  -9.2879    153.6453     83.7424   4.4061432917e+01   3.4120849047e+01    0.3594082    0.2016947 -42.67   0.00118547    1.653    0.395
        75 -10.1896    153.1481     78.2580   4.2582911408e+01   3.5246789951e+01     0.497479     0.229869 -38.51  0.001174367    2.039    0.510
        76 -10.0676    166.0059     86.8144   4.2572718582e+01   3.0761529138e+01    0.3829391    0.1895221 -41.21 0.0007276364    1.832    0.454
        77  -8.5334    198.3781     80.2053   3.5765108097e+01   2.4925760434e+01     0.199096    0.1772825 -37.46 0.0004375268    1.074    0.069
        78  -9.8233    194.9775     78.2377   3.5730629629e+01   2.5933120196e+01    0.2737956    0.1958138 -51.66 0.0007467078    1.290    0.225
        79  -9.1408    140.8810     73.8429   4.3757815030e+01   3.8981578728e+01    0.2380665    0.2107854 -54.15 0.0004793845    1.060    0.057
        80  -9.4731    126.6806     76.3157   4.7773959664e+01   4.1919247494e+01    0.5121241    0.1751162 -41.51  0.001633997    2.825    0.646
        81  -8.1588    204.4243     77.4440   3.4286475900e+01   2.4120948578e+01      0.13468    0.1141955 -40.45 3.186541e-05    1.033    0.032
        82  -8.2870    130.4953     77.4442   4.7208157568e+01   4.0781304920e+01    0.1535547    0.1482008 -68.93 9.995868e-05    1.060    0.057
        83 -10.3354    208.3991     70.9969   3.2206768824e+01   2.4274857496e+01    0.5943569    0.3831273 -79.13   0.00280591    2.035    0.509
        84  -9.7351    199.2538     74.3706   3.4178480056e+01   2.5639765695e+01     0.441137    0.2745549 -35.77  0.002210771    1.388    0.280
        85 -11.2306    203.6029     48.0280   2.6890357631e+01   2.8494685922e+01    0.4935035    0.3119886 -31.21  0.001184681    1.442    0.307
        86 -11.3391    199.5280     62.1488   3.1008850332e+01   2.7395737772e+01    0.9101609    0.3766891 -31.59  0.002866913    2.186    0.543
        87  -9.4943    170.8710     74.5447   3.8357109438e+01   3.1794947527e+01    0.2914647    0.2208884 -59.56 0.0004589081    1.297    0.229
        88  -9.2113    169.4813     69.4853   3.7156382355e+01   3.2957907907e+01    0.3752364    0.1394903 -32.77  0.001315691    2.687    0.628
        89  -8.1839    158.6160     73.1939   4.0080284148e+01   3.4866802340e+01    0.2036769    0.1382425 -28.27  0.000581064    1.598    0.374
        90 -10.5913    195.7911     56.1495   2.9868377908e+01   2.9064386629e+01    0.4638279    0.3992019  58.77  0.001604718    1.366    0.268
        91  -9.7204    152.7166     69.0604   3.9935701025e+01   3.6995141989e+01     0.431328    0.2494528 -28.71  0.001149522    1.939    0.484
        92  -9.2091    152.8431     63.8655   3.8326258050e+01   3.7861791025e+01    0.3057405    0.2158732 -29.53 0.0003864703    1.504    0.335
        93  -8.8226    152.6989     59.9812   3.7146385080e+01   3.8550874035e+01    0.2976649    0.2069252 -37.93 0.0003897416    1.370    0.270
        94  -8.1662    136.5099     70.0081   4.3500987032e+01   4.0760263489e+01    0.2297337    0.1469781 -40.18 0.0004280555    1.510    0.338
        95  -9.5627    139.4274     78.9188   4.5618699420e+01   3.8363532384e+01    0.4228417    0.3123485  15.82  0.001832935    2.110    0.526
        96  -9.6961    102.6760     65.7276   5.0720096484e+01   4.9839324480e+01    0.5080049    0.3159641  71.54  0.002014088    2.053    0.513
        97  -9.5213    206.0969     64.6551   3.0889427313e+01   2.5659124768e+01    0.2486726     0.154433 -44.73  0.001310462    1.343    0.255
        98  -9.4044    216.5800     62.2690   2.9164312406e+01   2.3877111505e+01    0.2441006    0.2045976 -33.48  0.001541226    1.141    0.124
        99 -10.2513    198.4735     49.6142   2.7834454065e+01   2.9391546456e+01    0.4658533     0.245131 -34.91   0.00224267    1.618    0.382
       100  -9.4727    144.4650     59.5604   3.8522431816e+01   4.0662221364e+01    0.2690925    0.2335344 -55.68 0.0005582656    1.064    0.060
       101  -7.8828     72.5272     58.4876   5.8531855303e+01   5.8206684675e+01    0.1528673    0.1477737 -79.26 -1.449014e-05    1.014    0.014
       102  -9.0246    208.7403     54.7924   2.8110152916e+01   2.6492910374e+01    0.2656799    0.1659933 -28.06  0.000824751    1.527    0.345
       103  -9.4594    141.6124    180.9291   6.8237200113e+01   1.7381465655e+01    0.2180802    0.1719922  36.30 0.0003885649    1.190    0.160
       104  -9.7646    178.4488     52.4236   3.0962213476e+01   3.3530317697e+01     0.458243    0.2778863  31.22  0.001904037    2.830    0.647
       105  -9.4333    226.1678    219.4626   5.8758078626e+01   7.2165808928e-01    0.3835635    0.2274605  52.13  0.001780285    5.641    0.823
       106  -9.4472    193.2379     39.7899   2.5718783033e+01   3.1874648871e+01    0.5240806    0.2599535  73.58  0.002424507    2.203    0.546
       107  -9.3588    199.5281     38.1349   2.4668086600e+01   3.0681024485e+01    0.3213322    0.2161179 -44.79 0.0008506019    1.216    0.178
       108 -11.1332    196.6010     31.9476   2.3260724520e+01   3.2113286835e+01    0.5820638    0.3391194 -11.43  0.001626816    2.465    0.594
       109 -10.5898    199.8592     33.1332   2.3298818466e+01   3.1237624187e+01    0.3688066     0.287562   0.33  0.000386885    1.776    0.437
       110  -8.3558    130.6698     50.2989   3.8125254306e+01   4.5722803009e+01    0.1620888    0.1107694 -70.52 0.0005645623    1.642    0.391
       111  -9.6679    125.2433     46.0952   3.7740945166e+01   4.7817604883e+01    0.3155367      0.23004 -37.13 0.0006888309    1.371    0.270
       112 -10.5298     91.1664     44.0971   4.5797620618e+01   5.6846990774e+01    0.5307758    0.2482896 -36.84  0.001445578    2.209    0.547
       113 -11.3023    133.1004     39.9751   3.3939818747e+01   4.6727405574e+01    0.5922456    0.3105609 -34.81  0.002469134    1.849    0.459
       114  -8.2988    172.7860     35.3338   2.6613238092e+01   3.7273413320e+01    0.1947622    0.1205407  62.46 0.0009424211    1.722    0.419
       115  -8.4447    183.0358     36.3098   2.5780565719e+01   3.4687206491e+01    0.1890206     0.157374 -66.48 0.0003690293    1.080    0.074
       116  -9.2762    166.9951     33.0519   2.6583238684e+01   3.8998679067e+01    0.3341588    0.1453499 -22.19 0.0009645495    2.797    0.642
       117  -9.1478    182.6521    177.3871   5.9347187164e+01   1.1787995766e+01    0.3144843    0.1477641  44.30   0.00149468    2.401    0.584
       118  -8.2835     87.3927     39.6972   4.5065487190e+01   5.8556621504e+01    0.1922468    0.1471926 -28.47 0.0004400016    1.446    0.309
       119  -9.7836    178.5376     23.8459   2.2572444173e+01   3.7316237188e+01    0.4679492    0.3205454 -49.55  0.001956198    1.234    0.189
       120  -9.7345    183.1425     23.7895   2.2143012139e+01   3.6219157677e+01    0.2719651    0.2274921 -65.69 0.0003727744    1.054    0.051
       121  -8.1419    162.8519     23.4146   2.3993924228e+01   4.1246784454e+01    0.1801758    0.1240584  62.82  0.000336325    1.544    0.352
       122  -7.4510    149.2729    216.2753   7.1824925524e+01   1.0317659296e+01    0.1138359    0.0811874   0.72 0.0006888527    1.488    0.328
       123  -8.2011    186.1095     19.5684   2.0676139654e+01   3.6005342780e+01    0.1685002    0.1165984  61.84 0.0004746152    1.647    0.393
       124  -9.2320    191.2896    212.0649   6.3358787813e+01   5.5909353006e+00    0.1889203    0.1398709  26.74 0.0003559839    1.279    0.218
       125  -8.4846    153.9766     15.0000   2.2142575432e+01   4.4484293691e+01    0.2287059   0.07579614  75.40 0.0008032417    2.948    0.661
       126  -9.8294    249.6066    210.8312   5.4070761649e+01  -7.2453122288e-01    0.2184891    0.1521272  25.51   0.00124536    1.551    0.355
       127  -8.5383    233.6959    209.3420   5.6121640254e+01   1.0745489518e+00     0.147768   0.09250418  27.50 0.0006748502    1.572    0.364
       128  -9.5898    229.4713    207.6577   5.6494563890e+01   1.7238790646e+00    0.2098114    0.1546028  34.91 0.0007391779    1.719    0.418
       129 -10.1543    207.7801    206.6768   5.9754128066e+01   4.3112904988e+00    0.3590935    0.2328355  54.10  0.001961058    3.290    0.696
       130  -7.5476     56.6288    208.6954   9.1763609420e+01   2.3668464944e+01    0.1200159   0.09520432 -12.50  0.000703269    1.756    0.430
       131 -13.6986    198.7041     94.9809   3.9350113699e+01   2.2534827613e+01     2.481925    0.8456768  44.61  0.008940756    3.852    0.740
       132  -9.4718    247.8696    202.8698   5.3097563987e+01   3.1659407352e-01    0.2445503    0.1616538  42.10  0.001725392    2.306    0.566
