#   1 NUMBER                 Running object number                                     
#   2 MAG_AUTO               Kron-like elliptical aperture magnitude                    [mag]
#   3 X_IMAGE                Object position along x                                    [pixel]
#   4 Y_IMAGE                Object position along y                                    [pixel]
#   5 X_WORLD                Barycenter position along world x axis                     [deg]
#   6 Y_WORLD                Barycenter position along world y axis                     [deg]
#   7 A_WORLD                Profile RMS along major axis (world units)                 [deg]
#   8 B_WORLD                Profile RMS along minor axis (world units)                 [deg]
#   9 THETA_WORLD            Position angle (CCW/world-x)                               [deg]
#  10 FWHM_WORLD             FWHM assuming a gaussian core                              [deg]
#  11 ELONGATION             A_IMAGE/B_IMAGE                                           
#  12 ELLIPTICITY            1 - B_IMAGE/A_IMAGE                                       
         1 -14.5352    123.5220     86.5363   4.4142039452e+01   4.0751226197e+01     3.133444     2.254972  81.89   0.01353384    2.151    0.535
         2 -13.7065     91.7536     65.2878   4.6564738186e+01   5.1207401865e+01     2.243474      1.46908 -63.61  0.009796687    2.463    0.594
         3 -11.5229     30.3351     23.0432   5.3448918110e+01   6.7489522891e+01    0.9136109    0.3757335 -32.99  0.004548895    2.218    0.549
         4  99.0000     41.1265     21.7351   4.8178479727e+01   6.6308449779e+01     1.194895    0.6977122 -19.02  0.006821645    1.655    0.396
         5 -12.7686     57.3932      4.4534   3.3983954502e+01   6.5792260718e+01    0.7827879    0.4662591  48.79  0.004599127    1.691    0.409
         6 -12.8211    139.6781     56.9642   3.1159067544e+01   4.2227692798e+01      1.90328     1.072531 -61.00   0.00727262    2.850    0.649
         7 -13.1513     64.6017     34.6461   4.4470935261e+01   6.0971032040e+01     1.125669    0.6761357 -13.80  0.005746854    1.883    0.469
         8 -13.1766     55.0883     19.8266   4.1776842076e+01   6.4493522198e+01     1.282582    0.7154462 -22.83  0.007047805    1.752    0.429
         9 -13.0294     65.1148     17.1944   3.7027998706e+01   6.3129198342e+01     1.093922    0.6547419  10.77  0.005794899    1.899    0.473
        10 -12.5542     72.3804     24.5815   3.7703593304e+01   6.0965102442e+01    0.5592775     0.412989 -39.89  0.000596974    1.621    0.383
        11 -11.8497     79.3690     22.0753   3.4452163684e+01   5.9962449378e+01    0.6375435    0.5983697 -88.21  0.004192007    1.489    0.328
        12 -13.8335    117.2319     61.4395   3.8007956602e+01   4.6644812342e+01     0.968872     0.847039  83.04  0.001865722    1.397    0.284
        13 -10.9362     38.7416     42.1123   5.7423998751e+01   6.3481471549e+01    0.7058728    0.6412395  35.48  0.004843344    1.460    0.315
        14 -14.1268     10.8426     69.8596   7.7117348020e+01   6.0654799163e+01     1.507938     1.022662 -32.98  0.007921246    1.342    0.255
        15 -13.9260     12.1249     35.9598   6.6902260453e+01   6.7165574302e+01     1.394928    0.7369145 -25.89  0.005474339    1.770    0.435
        16 -14.1458     43.6477     74.9943   6.6103394903e+01   5.6646132726e+01     2.466682     1.013802 -32.20  0.009154596    3.355    0.702
        17 -13.6861    193.4369     81.9768   2.7773737638e+01   2.5334800800e+01     3.470728    0.9489605 -42.11   0.01084695    3.411    0.707
        18 -11.5149    218.7378     28.8903   1.1223807556e+01   2.7120632833e+01     1.024776    0.4773952 -89.62   0.00426697    2.848    0.649
        19 -13.8306    189.0723     57.7856   2.2179480764e+01   3.0194782821e+01     1.456653    0.9994808 -35.71  0.007371277    1.471    0.320
        20 -13.2872    233.0302     48.1834   1.4085092249e+01   2.1472444381e+01     1.507752     1.061079 -39.75  0.003108359    1.343    0.255
        21 -11.4502    232.8757      2.4021   4.2237028276e+00   2.6964154405e+01    0.3446744    0.1835897 -84.87  0.001897256    1.791    0.442
        22 -13.5260    203.2844     41.3236   1.5959074386e+01   2.9111214579e+01     2.535962     1.333609 -64.02   0.01100539    2.349    0.574
        23 -13.4271    227.0951     19.9521   8.4178354613e+00   2.6314060547e+01     1.007191     0.575193 -13.84  0.004738603    2.918    0.657
        24 -13.9543    244.3595      8.7073   4.6825751176e+00   2.3887928288e+01      1.20443    0.5189623 -80.91  0.005569395    2.734    0.634
        25  99.0000    237.4572     36.5679   1.1072973137e+01   2.2053044587e+01     1.082363    0.8270385 -73.51  0.003832654    1.177    0.150
        26 -13.2056    161.8681     84.6974   3.4523974260e+01   3.2323575735e+01     1.512993    0.7984364  30.00   0.00515224    3.196    0.687
        27 -12.4570      3.3687     28.5495   6.8457448436e+01   6.9085228407e+01    0.8482607    0.4102704 -25.57  0.004826766    1.936    0.483
        28 -12.1447    221.9423      9.3780   6.5514764100e+00   2.8612944134e+01    0.7363123    0.2847771 -46.73  0.003486004    2.299    0.565
        29 -11.9920    160.6171     38.3386   2.1426961220e+01   3.9779432299e+01     1.214455    0.3434567 -28.08  0.003897944    4.086    0.755
        30 -10.9606    148.5199     40.0056   2.4098264752e+01   4.2503408889e+01       0.7705    0.3597003 -36.77  0.003289588    2.201    0.546
        31 -11.9600    242.3033     22.5681   7.6679489509e+00   2.2746800439e+01     0.411987    0.3233381  65.89  0.001380337    1.403    0.287
        32 -11.2218    150.3452     23.3739   1.8702962274e+01   4.4031388283e+01    0.4996048    0.3282846 -11.58  0.001634206    1.911    0.477
        33 -11.6665    190.8795     22.7870   1.2831862273e+01   3.4303703666e+01     0.416534     0.313967  58.99  0.002241883    1.310    0.237
        34 -11.3759    201.6263     20.6580   1.1083623765e+01   3.2008886128e+01     0.496451    0.2715906 -67.63  0.002386437    2.050    0.512
        35  -9.6770    201.4707     16.1609   1.0014132017e+01   3.2538186822e+01    0.5635685    0.2389996  88.11  0.002208867    3.102    0.678
        36 -11.4223    212.6002     19.7920   9.7446544641e+00   2.9574884327e+01    0.4411994    0.2287918 -27.33  0.001867784    2.199    0.545
        37 -11.0306    170.5881     19.2983   1.4487496561e+01   3.9559536495e+01     0.426202    0.2796965   3.48  0.002109554    2.282    0.562
        38 -10.3751    153.9094     15.9553   1.5918136798e+01   4.3936277471e+01    0.2550265    0.2070635  40.33 0.0009425952    1.286    0.223
        39 -10.7117    103.8798     13.4359   2.4478758838e+01   5.5818998476e+01    0.3483028    0.1941802  -8.82  0.001454824    2.180    0.541
        40 -11.1055    150.0616     12.8663   1.5580569744e+01   4.5162089958e+01    0.2328359    0.1961649 -88.61 0.0006269071    1.197    0.165
        41 -12.4539     75.1969      5.5684   2.8799455743e+01   6.2444089470e+01    0.8113206    0.5330523  70.10  0.002092698    2.176    0.540
        42  -9.9565    131.2465     10.5849   1.7937987148e+01   4.9850816658e+01    0.4900338    0.3136762 -44.96  0.002628395    1.815    0.449
        43 -12.1854    116.0075      9.8436   2.0551704583e+01   5.3441393103e+01     0.439228      0.27427   6.82  0.001472557    2.002    0.500
        44 -10.1081    124.3025     10.3202   1.9107969676e+01   5.1495178355e+01    0.4011155    0.2263301  26.68  0.001692023    2.170    0.539
        45  -9.6000     93.8117     11.7483   2.6274926864e+01   5.8133496515e+01    0.2034314    0.1224926  39.14 0.0003738943    1.468    0.319
        46 -10.1664     88.5483     11.5566   2.7563926993e+01   5.9242927970e+01    0.2168258    0.1201341 -21.79  0.001063099    1.921    0.479
        47 -12.5520    172.9975      6.7332   1.0769769242e+01   4.0219537133e+01    0.4418897    0.2824282  -3.90  0.001810782    2.237    0.553
        48 -10.3118    109.8056      9.7092   2.1788049545e+01   5.4849873289e+01    0.2551913    0.1787449  -5.69 0.0009208209    1.611    0.379
        49  -9.4007    156.4510      8.5633   1.3388512021e+01   4.4023903468e+01    0.2820355    0.1346655 -19.13   0.00128996    2.585    0.613
        50 -13.5673     48.8693     51.2696   5.6662627975e+01   6.0619972471e+01     1.458736    0.8882515 -10.79  0.004147843    2.032    0.508
        51 -11.1654     26.9680      9.6505   4.8892424360e+01   6.9712263722e+01    0.2320214    0.1552313   2.97 0.0006374358    1.305    0.234
        52 -11.3506    193.7132      7.5205   8.7127412746e+00   3.5236864651e+01    0.2646571    0.2178711  58.37  0.001022216    1.278    0.218
        53 -10.1269    146.2014      5.8187   1.4034504129e+01   4.6720931281e+01    0.1945988    0.1592656  56.86 0.0006383301    1.098    0.089
        54 -10.1076    142.7298      2.6333   1.3574950608e+01   4.7812049784e+01      0.24313    0.2053849  88.33    0.0010686    1.181    0.154
        55  -9.3674     91.3086      6.6959   2.4912745643e+01   5.9109840097e+01     0.113745   0.09745629 -72.07 0.0003132287    1.607    0.378
        56 -10.0600     13.5233      6.0605   5.3750012343e+01   7.1670050429e+01    0.1631404   0.07121829 -20.44 0.0004770799    2.589    0.614
        57 -11.0856      2.7576      5.9345   5.9434602138e+01   7.2670955649e+01    0.2246872    0.1454361  10.70  0.001164302    1.445    0.308
        58 -10.5259    112.1371      3.9641   1.9238969707e+01   5.4808581693e+01    0.2548333    0.1852334  52.34  0.001134616    1.163    0.140
        59  -9.3199    102.0259      4.3975   2.1509733208e+01   5.7013502257e+01    0.2436064    0.1553181 -42.51  0.001337296    1.957    0.489
        60  -9.2500     97.5604      5.4640   2.2925172588e+01   5.7891418543e+01    0.1235084    0.1088875  42.06 0.0008055261    1.068    0.064
        61  -9.8644    182.7843      2.9968   8.7094400076e+00   3.8234487161e+01    0.3809627    0.1930415 -72.04  0.001601939    2.376    0.579
        62 -11.1068    187.0808      1.4129   7.8736803631e+00   3.7366655078e+01    0.2639343    0.1070527  65.00 0.0005026137    2.077    0.519
        63  -9.5119     19.4733      4.0055   4.9714693553e+01   7.1291998890e+01    0.1279236   0.09240118 -48.39 0.0008057951    2.345    0.574
        64 -10.8772    217.3007      2.4027   5.4058799147e+00   3.0354457390e+01     0.264148    0.1841851  60.98  0.001370438    1.502    0.334
        65  -9.9902    207.4035      1.9535   6.1257472225e+00   3.2620642971e+01     0.170332    0.1162166 -31.50  0.001020933    1.624    0.384
        66 -12.3479     86.6247      1.3728   2.3944046470e+01   6.0516282558e+01    0.4308124    0.1027207  57.76  0.001212977    3.533    0.717
        67 -11.4028     49.9861      1.4106   3.5201602196e+01   6.7318817534e+01    0.1887981    0.1210175  41.98 0.0003443726    1.467    0.318
        68 -10.4993     46.1487      1.3714   3.6631418070e+01   6.7938912178e+01    0.2355277     0.114983  44.31  0.001301448    1.932    0.482
        69 -10.6452    250.0738      1.4344   2.8698534336e+00   2.3494750221e+01    0.1542222   0.09575378  86.57 0.0002877464    1.444    0.308
        70 -13.5040     56.3284     94.8670   6.6927624525e+01   5.0804848124e+01     1.211798    0.3789092  31.78  0.004369428    3.506    0.715
        71 -13.2351     60.6277     88.7491   6.3907325561e+01   5.1588198203e+01    0.8070784    0.5317652 -79.11  0.003615221    2.472    0.595
        72 -13.0274     85.5500     73.6753   5.1235261497e+01   5.0784739240e+01     1.513635    0.6564147  41.00  0.006089908    2.376    0.579
        73 -12.1485     10.3662     82.5731   8.0030798384e+01   5.7951302775e+01    0.5115285    0.1951917 -61.15 0.0009488885    2.031    0.508
        74  -9.4977    242.4697    112.0732   2.7204157140e+01   9.6992497279e+00    0.1987676    0.1197604 -37.72 0.0003278672    1.456    0.313
        75 -13.8378     66.9416     82.6915   6.0096365735e+01   5.1990492236e+01     1.588579     0.884962 -49.92  0.004417937    1.690    0.408
        76 -11.9060     25.4011     43.8656   6.3706224374e+01   6.4608878776e+01    0.8374207    0.5402464 -34.96   0.00515026    1.273    0.214
        77 -11.8395     26.3075     36.0736   6.0505517230e+01   6.5876221151e+01    0.4269721    0.2627673  -8.25  0.002082327    1.716    0.417
        78 -12.4171     55.0790     72.0379   6.1094684742e+01   5.5847007350e+01    0.6910082    0.3061019 -54.02 0.0007831312    2.355    0.575
        79 -12.6188     14.4828     45.6388   6.9047943052e+01   6.5227280527e+01    0.6431354    0.4322384 -57.33  0.001817919    1.550    0.355
        80 -10.3006    211.6641    112.0033   3.2072255237e+01   1.6000564601e+01    0.2384168    0.2033151  63.04 0.0002741427    1.287    0.223
        81 -12.8716     39.4574     56.2677   6.2050895640e+01   6.0853154272e+01    0.7215454    0.3836789 -41.69  0.003765545    1.615    0.381
        82 -12.2257     34.7234     52.6840   6.2774994848e+01   6.2048464994e+01    0.4575616    0.2807383 -24.29 0.0004159854    1.607    0.378
        83 -12.3521     60.3421     64.8845   5.6964755109e+01   5.6529292188e+01    0.7849191    0.4349397 -16.13  0.003223552    2.830    0.647
        84 -12.6189     57.3708     59.4291   5.6248655422e+01   5.7979954467e+01    0.7894632    0.3672089 -51.94  0.003412646    2.450    0.592
        85 -10.3384    206.6183     94.8056   2.8769036831e+01   2.0129630827e+01    0.2184198    0.1225067 -47.29 0.0009457318    1.741    0.425
        86 -10.1245    250.1213     93.9183   2.2165691230e+01   1.1149992481e+01    0.2121947    0.1629216 -54.83  0.001233621    1.224    0.183
        87 -10.3668    123.5162    112.4601   5.1369253357e+01   3.5389587504e+01    0.1519901    0.1490818 -31.55  8.03015e-05    1.003    0.003
        88 -11.0628    173.4922     92.1580   3.4166672302e+01   2.8232237445e+01    0.4107994    0.2924604  88.23  0.001267653    1.955    0.489
        89 -10.4386    168.0208     89.5501   3.4577192839e+01   2.9993620118e+01    0.3472849    0.2501263  59.79  0.001057534    1.447    0.309
        90 -11.5810     96.6087     90.7687   5.2980139356e+01   4.5335892709e+01    0.5451886    0.4138955  59.25  0.002183217    1.606    0.377
        91  -9.2550     79.3599     91.2678   5.8456208852e+01   4.8241316729e+01    0.1449908    0.1080155  -8.28  0.000699242    1.642    0.391
        92 -13.9204     28.9891     67.4168   6.9507922877e+01   5.9729363165e+01     1.496972    0.8864636 -57.13  0.008208375    1.584    0.369
        93 -11.3584     96.7180    110.2989   5.8260399699e+01   4.1064455432e+01    0.3750489    0.1965777 -38.30  0.001493698    2.055    0.513
        94 -14.2726    200.7981     69.1067   2.3285812534e+01   2.5700830560e+01     4.130002     1.193558  61.53   0.01311418    3.782    0.736
        95 -11.4476     62.8493    110.3120   6.8504425424e+01   4.6411279736e+01    0.2174808    0.1774047  57.38  0.001036481    1.429    0.300
        96 -10.7587     38.4632    110.0171   7.6087063443e+01   4.9373707066e+01    0.2118919    0.1146016 -61.56 0.0007890563    1.598    0.374
        97 -12.9333    242.3862     61.6196   1.6028359450e+01   1.7602646029e+01    0.9754886    0.6853071  83.48  0.005547637    1.542    0.351
        98 -10.8944    196.4827    108.0555   3.3822771785e+01   2.0037099959e+01    0.4469223    0.3334044 -73.89  0.002107557    1.724    0.420
        99 -12.9466    222.2267     38.7497   1.3120611092e+01   2.5103169714e+01    0.8221574    0.5307739  86.54  0.001115936    1.592    0.372
       100 -10.9181    191.6541    102.9948   3.3457287958e+01   2.2050684659e+01    0.4730781    0.1775978 -44.13   0.00164155    2.599    0.615
       101 -13.8302    216.7227     61.5102   1.9136585110e+01   2.3192790543e+01     1.366779    0.6809044  60.07  0.004962465    2.034    0.508
       102 -13.4909    207.2044     59.2084   1.9868695228e+01   2.5709320545e+01     1.138402    0.4733163  56.47  0.004683892    2.377    0.579
       103 -13.2009    197.5856     49.4676   1.8764321044e+01   2.9355728034e+01     1.343562    0.4971763 -52.20  0.004386173    3.416    0.707
       104 -10.1866     50.4836    109.5847   7.2216641362e+01   4.8149473618e+01     0.135087    0.1202756 -52.07 1.986477e-05    1.015    0.015
       105 -11.0535    153.0091    108.0520   4.2863056930e+01   2.9905411272e+01    0.2393168    0.1908925 -81.67  0.000514826    1.601    0.376
       106 -12.0861    161.2751    105.8699   4.0408396341e+01   2.8463022544e+01    0.4310934    0.2807853 -61.79   0.00154118    1.967    0.492
       107 -11.9162      6.7725     88.7894   8.2459239781e+01   5.6801864060e+01     0.385785    0.1962345 -81.25 0.0008710141    2.340    0.573
       108 -12.1892     52.4744     86.0363   6.5965585985e+01   5.3241082724e+01    0.5264183     0.293176 -18.26  0.002170319    2.850    0.649
       109 -10.8440     55.0412     81.9609   6.3972978340e+01   5.3791784440e+01    0.2125907    0.1911504   5.47 0.0003116383    1.166    0.143
       110 -11.2777    237.5917     86.5102   2.2169861984e+01   1.4827119777e+01    0.5188909    0.3174487  81.40 0.0007621674    2.276    0.561
       111 -10.7247    233.6676     84.7095   2.2289819015e+01   1.5927821366e+01    0.3013566    0.2559755   1.08 0.0008786178    1.507    0.336
       112 -12.0060     48.5187     85.4915   6.7194012008e+01   5.3840578481e+01    0.4279265    0.1904723  29.50  0.001890342    2.494    0.599
       113 -10.0787    209.9465    105.6906   3.0855407289e+01   1.7492369251e+01    0.2661703      0.19071 -60.15 0.0009945459    1.564    0.360
       114 -11.0005    144.6063    103.0514   4.3506291010e+01   3.2807436394e+01    0.3754813    0.3091045  -5.45  0.001570499    1.452    0.311
       115 -11.5293    167.1534     76.8271   3.1247478441e+01   3.2442867375e+01    0.2921903    0.2664486  28.35 0.0003136748    1.184    0.156
       116 -10.9645    175.3922     86.0303   3.2146367135e+01   2.8884391094e+01    0.4552534    0.2386547  41.06  0.001116374    2.205    0.546
       117 -13.1232    177.9708     73.9011   2.8379481889e+01   3.0342311713e+01     1.638193    0.4897372 -46.74  0.002631675    3.919    0.745
       118 -11.5658    166.8361     65.0555   2.8001614399e+01   3.4452337406e+01    0.7302043    0.6200354  34.15  0.003904131    1.286    0.222
       119 -10.0615    161.4662     66.5593   2.9469855726e+01   3.5509503702e+01    0.2693956    0.1396724 -38.05 1.875684e-05    1.930    0.482
       120 -11.6473    147.5568     83.4421   3.7314294687e+01   3.5914148578e+01    0.6402262    0.4307417 -49.26  0.001903664    1.569    0.363
       121 -12.6124    116.2424     93.3434   4.8085944883e+01   4.0935967115e+01    0.4918047    0.4169046 -73.19 0.0004842531    1.417    0.294
       122 -11.3291    249.7243     83.6395   1.9979508436e+01   1.2827712559e+01    0.3908434    0.2993532 -46.23  0.001524428    1.121    0.108
       123 -12.9198    214.9776     83.1474   2.4597944627e+01   2.0220072072e+01    0.4394709    0.4364521  82.60  0.002683514    1.111    0.100
       124 -11.6658     83.3620     83.8360   5.5044056491e+01   4.9138611798e+01    0.2529845     0.236232  17.85 0.0004420685    1.101    0.091
       125 -12.3718    222.5119     79.7050   2.2673873379e+01   1.9111743071e+01    0.4203962    0.2747604  65.76  0.001470664    1.659    0.397
       126 -10.2221    232.0198     78.2563   2.1034197530e+01   1.7290150058e+01    0.2523801    0.1851137 -88.59  0.001351799    1.577    0.366
       127 -12.3609    249.5175     75.2340   1.8179781828e+01   1.4145321492e+01    0.3047882    0.2669291  75.00 0.0008930843    1.251    0.201
       128 -10.8765    155.2512     76.6276   3.3646500200e+01   3.5316814540e+01    0.4058172    0.2751546  64.12  0.001359477    1.601    0.376
       129 -12.1561    218.1551     75.3132   2.2247569987e+01   2.0767178617e+01     0.341192    0.2868308 -28.58  0.001557952    1.262    0.208
       130 -12.8323    221.7517     69.9609   2.0475647917e+01   2.0798473462e+01    0.5760291    0.3441546  62.22   0.00284226    1.750    0.429
       131  -9.7036    151.0436     73.0389   3.3513677377e+01   3.6932239545e+01    0.1813228    0.1592279 -35.81 0.0004270819    1.157    0.136
       132 -12.2080    211.0183     47.4285   1.6479780157e+01   2.6496515117e+01    0.4998531    0.3318403 -75.07  0.002561412    1.653    0.395
       133 -11.8135    215.3364     42.4427   1.4761397615e+01   2.6176736459e+01    0.3565116     0.257588 -43.06   0.00121718    1.318    0.241
       134 -11.2850    181.5873     61.8834   2.4487596678e+01   3.1379361964e+01    0.3166351    0.2457396 -60.13 0.0006229499    1.340    0.254
       135 -11.6343    126.9870     59.0869   3.4778057872e+01   4.4843853352e+01    0.5866955     0.284022  35.84  0.002166964    2.551    0.608
       136  -9.8242    162.4517     59.5201   2.7252687614e+01   3.6372848464e+01     0.237521    0.1407905  61.57  0.000590818    1.680    0.405
       137 -11.9995    161.2455     54.9266   2.6151083911e+01   3.7353220733e+01    0.5384437    0.4182479 -87.69  0.001380785    1.484    0.326
       138 -10.8848    100.2707     53.9813   4.0175343643e+01   5.1445309626e+01    0.5293959    0.3516495  38.80  0.002147448    1.461    0.316
       139  -9.7009    105.5234     43.4193   3.5009191074e+01   5.1935825137e+01    0.1855239    0.1324132 -14.43 -8.879009e-05    1.534    0.348
       140 -11.0705     98.9818     48.0435   3.8469415053e+01   5.2628305823e+01    0.3562953    0.2562856  10.89 0.0008173622    1.603    0.376
       141 -10.2793    102.3131     46.6948   3.7048189675e+01   5.2140635813e+01    0.2052762    0.1482624  22.98 0.0004325019    1.470    0.320
       142 -10.7184    247.9583     56.3096   1.4271750610e+01   1.7207900301e+01    0.2971467    0.2650028  57.03  0.001952113    1.346    0.257
       143 -12.0724    178.2968     52.0301   2.2352779124e+01   3.3627068524e+01     0.766161    0.4637173  59.68  0.001793509    1.582    0.368
       144 -11.1428    174.2770     54.6924   2.3756265598e+01   3.4219716229e+01    0.3872886    0.2924469 -52.09  0.001022465    1.358    0.264
       145 -10.5707    170.3377     56.0739   2.4825459398e+01   3.4974505926e+01    0.2525988    0.1975917  66.68 0.0009865938    1.251    0.201
       146 -10.4967     69.5730     55.0655   5.0362056804e+01   5.6912775874e+01    0.2770781    0.2469725 -88.24  0.001627996    1.661    0.398
       147 -11.5756    168.7760     80.5688   3.1962390761e+01   3.1412001852e+01    0.4015231    0.2800487  73.25 0.0008503216    1.697    0.411
       148 -11.1579    245.1917     49.9729   1.3197940238e+01   1.8653239068e+01    0.3523401    0.2006544  70.57 0.0002902849    1.848    0.459
       149 -10.2845    247.9591     47.0000   1.2287577399e+01   1.8484970528e+01    0.3322659    0.1527773  77.97   0.00129968    2.621    0.618
       150 -12.4464    246.8525     42.3502   1.1410443813e+01   1.9330647626e+01    0.4767697     0.247328 -54.32  0.001041423    1.756    0.430
       151 -13.4450    106.6074     95.4225   5.1382516547e+01   4.2449743984e+01     1.149782    0.5268136 -40.35  0.002437596    2.190    0.543
       152 -11.1170    177.9758     37.7170   1.8490862287e+01   3.5629860248e+01    0.3811645    0.2678117  12.17  0.001086066    2.125    0.529
       153 -12.4377    173.0016     44.6996   2.1187302264e+01   3.5928671338e+01    0.7107376     0.493308  27.87  0.002794794    1.912    0.477
       154  -9.3431    167.5008     42.4700   2.1460519924e+01   3.7566240404e+01    0.2436652    0.2048069 -76.57  0.001244691    1.241    0.194
       155 -10.9666    167.6350     32.5374   1.8618438216e+01   3.8785221134e+01    0.5545071    0.5301927 -17.31  0.003448229    1.179    0.152
       156 -11.0437     90.4272     51.0251   4.2071448218e+01   5.3869945313e+01    0.2250645    0.1973628  27.95 0.0004608376    1.095    0.086
       157 -10.6183    164.8761     38.8518   2.0860979439e+01   3.8675769003e+01    0.3236148    0.2488555  81.43 0.0006861649    1.329    0.247
       158  -9.9182    240.8732     47.4542   1.3095458628e+01   1.9897323178e+01    0.2044026    0.1448467 -55.37 0.0004314642    1.234    0.190
       159 -10.8544    132.2544     39.9258   2.7357270622e+01   4.6393536998e+01    0.4337771    0.3157102  72.87  0.002158957    1.531    0.347
       160  -9.8141    142.2169     46.1394   2.7241554795e+01   4.3198843737e+01    0.5692843    0.3805611  60.48  0.001336577    1.446    0.308
       161 -10.8037     36.3372    248.4895   9.2535903835e+01   1.8764111371e+01    0.1874814   0.09054898 -76.59  0.001101169    2.012    0.503
       162  -9.4928     93.6187     47.8561   3.9973807855e+01   5.3737236542e+01    0.1793433    0.1251448 -41.76 0.0007818465    1.557    0.358
       163 -10.9082    187.0727     44.8529   1.9067370557e+01   3.2497960870e+01    0.2860183    0.1990729 -28.90 0.0008839238    1.564    0.361
       164  -9.7569    182.7780     45.5960   1.9903522566e+01   3.3434129570e+01      0.19782    0.1282846  77.74  0.000950895    1.630    0.386
       165 -10.9782     99.5531     41.3449   3.5910173686e+01   5.3482811076e+01    0.3299271    0.2989733 -28.51  0.001829049    1.186    0.157
       166 -10.5303     93.7542     42.4132   3.7963944143e+01   5.4514784257e+01    0.3250176    0.2030239 -17.72  0.001586354    1.799    0.444
       167 -10.3728    249.7573     38.0430   1.0239013673e+01   1.9293766738e+01    0.2088387    0.1601549 -84.64 0.0007553118    1.227    0.185
       168  99.0000    112.8663     32.6024   2.9301096784e+01   5.1760089096e+01    0.6273585    0.4614262  80.61  0.003250152    1.813    0.448
       169  99.0000    108.0500     32.7909   3.0559350945e+01   5.2798563880e+01    0.5803323    0.4128155 -77.28   0.00279197    2.340    0.573
       170  -9.7071    152.2866     33.7724   2.1514686495e+01   4.2371648628e+01    0.1718711    0.1458952  37.01 0.0003588985    1.230    0.187
       171 -10.3449    131.6494     33.4907   2.5382217811e+01   4.7345808067e+01    0.2656092    0.1901637 -69.93 0.0005321456    1.880    0.468
       172 -10.2453    122.5120     33.2314   2.7270319734e+01   4.9501560171e+01    0.2373273    0.1267381 -35.64 0.0006541856    1.988    0.497
       173 -11.1764     92.8561     32.8128   3.4656949881e+01   5.5999787092e+01    0.3865094    0.2723385   5.30  0.001944437    1.584    0.369
       174 -10.4054     74.9701     33.6185   4.0488003272e+01   5.9325389742e+01    0.2600851    0.1802249  46.39  0.001043016    1.508    0.337
       175 -10.1746    206.4616     31.5917   1.3192966019e+01   2.9602583864e+01    0.3283489    0.1566824 -31.40   0.00151129    2.184    0.542
       176 -10.5283    182.0175     31.8619   1.6333746140e+01   3.5374354219e+01    0.3840776     0.248404 -38.53  0.002004212    1.574    0.365
       177  -9.9264    128.5257     27.2708   2.3972632957e+01   4.8805905564e+01    0.3698103    0.1304491 -28.48  0.001423008    3.008    0.668
       178 -11.6661     86.0741     28.4041   3.4945054399e+01   5.7908568283e+01     0.335444    0.2193139  38.90  0.000571941    1.390    0.281
       179  -9.2321     90.4910     26.5746   3.2948265736e+01   5.7248593909e+01     0.130122    0.1153507  26.13 0.0001440567    1.042    0.040
       180  -9.2130    140.6304     28.5416   2.2014066549e+01   4.5796427155e+01    0.1308935     0.124441  67.96 0.0001618472    1.054    0.051
       181 -10.5312    123.3604     26.5429   2.4808911219e+01   5.0088035647e+01    0.4019169    0.2124399 -31.18  0.001903813    2.014    0.504
       182  -9.8579    114.4881     28.0627   2.7314426999e+01   5.1937050305e+01    0.1728544    0.1313238 -10.70 0.0003560995    1.439    0.305
       183 -10.1541    234.0411     24.6733   8.8219888190e+00   2.4252687143e+01     0.339978    0.3032197  80.48  0.002329549    1.208    0.172
       184 -11.1405    246.6493     22.7076   7.3422224304e+00   2.1826456603e+01    0.2223865    0.1941787 -88.80 0.0008722528    1.177    0.150
       185 -12.7318    136.8070     82.2781   3.9514245281e+01   3.8605715947e+01    0.7929818    0.5861984 -47.26  0.001942477    1.399    0.285
       186 -10.3891    168.3198     26.2656   1.6746541759e+01   3.9349523516e+01    0.2697165    0.2014639 -72.27  0.001476902    1.442    0.306
       187 -11.3326    113.3638    246.3481   7.7982347190e+01   8.7111703777e+00    0.2832989    0.1884729 -43.12  0.001285323    1.963    0.491
       188 -10.6761    176.0235     24.5273   1.5180264525e+01   3.7676265526e+01     0.342517    0.1884439 -29.59  0.001172841    1.967    0.492
       189 -10.0240    135.3642     25.5239   2.2044227661e+01   4.7389210626e+01    0.3039592    0.1968416  38.67  0.001484649    1.579    0.367
       190 -10.0888    192.6461     16.8863   1.1140607080e+01   3.4530198388e+01    0.3355291    0.1686851 -73.04  0.001375288    2.568    0.611
       191  -9.4495    196.0000     14.9352   1.0291467298e+01   3.3947167209e+01    0.2694595    0.1690542 -18.93   0.00108924    2.037    0.509
       192 -10.1669    180.4935    243.4948   6.4517452857e+01  -1.3631331902e+00    0.1250109    0.1038356  25.83  3.36421e-06    1.014    0.013
       193 -10.7191    185.9461     23.0021   1.3487272475e+01   3.5457237341e+01    0.3177379    0.2019826 -76.71  0.001615328    1.736    0.424
       194  -9.0871    236.6764    145.7423   3.5478709103e+01   5.1244531652e+00     0.132969    0.1004338   3.95 0.0002456301    1.550    0.355
       195  -9.5222    152.9670    124.0392   4.6991667220e+01   2.6610973278e+01    0.1816353    0.1755608 -39.14            0    1.020    0.020
       196 -11.5186    209.2045     21.5666   1.0501626698e+01   3.0151208029e+01    0.2397564     0.190045 -71.03 0.0003039911    1.137    0.120
       197 -12.8386    152.7001     62.6642   3.0105825530e+01   3.8239202492e+01     1.330161     1.256446  77.59   0.00754516    1.066    0.062
       198 -11.8086     98.8831     22.0158   2.8928724512e+01   5.6025444701e+01    0.4968798    0.2420871  57.43  0.002174536    2.022    0.505
       199 -10.5844    104.3880     20.1018   2.6836316397e+01   5.5045779183e+01    0.3565056    0.2302355  63.00  0.001880953    1.615    0.381
       200  -9.8827    163.1409     21.1621   1.6059352570e+01   4.1166993322e+01    0.2188468    0.1695919  27.83 0.0008204474    1.545    0.353
       201  -9.4076    220.4871    121.4323   3.2775062314e+01   1.2477344089e+01    0.1417471    0.1310309 -31.33 5.768691e-05    1.018    0.018
       202  -9.6137    180.1494     19.8739   1.3392538798e+01   3.7191289394e+01     0.176463    0.1326837  55.84 0.0004187146    1.309    0.236
       203 -11.1289    130.0909     19.4330   2.1060703517e+01   4.9277927127e+01    0.2778527    0.2201651  69.29 0.0004493256    1.230    0.187
       204  -9.9673     19.7842     19.2512   5.6723295414e+01   6.9198443416e+01    0.1777829    0.1518125   1.03  0.001101313    1.266    0.210
       205  -9.9282     14.2891     19.3927   5.9467842456e+01   6.9707691717e+01    0.1835236    0.1317061 -52.87  0.001192665    1.921    0.480
       206  -9.3791    158.2013     19.6132   1.6345242955e+01   4.2527428937e+01    0.1949265    0.1051892  55.59 0.0004376105    1.654    0.395
       207 -10.6794     57.5028    120.2445   7.2271810190e+01   4.4770719337e+01    0.2406535     0.209193 -28.93 0.0004581156    1.239    0.193
       208  -9.7773    121.2890     17.0242   2.1982520955e+01   5.1565390550e+01    0.2033857    0.1539123  57.32 0.0005608361    1.184    0.156
       209  -9.6837    124.8189     15.9744   2.0921934300e+01   5.0851553380e+01    0.1685515     0.147082 -48.06 0.0003602863    1.315    0.239
       210  -9.4775    139.4952     16.4536   1.8392207752e+01   4.7348478325e+01    0.1319888    0.1180282  66.41 2.273779e-05    1.041    0.039
       211 -10.9211     94.2247     16.0212   2.7835184624e+01   5.7633495803e+01    0.2221912    0.1583277  44.18  0.001023023    1.223    0.182
       212 -12.1311     52.7776     34.1259   4.8676519868e+01   6.2891322175e+01     1.107367    0.5307848  28.09  0.003411897    2.231    0.552
       213  -9.3515     72.9732    119.0074   6.7372284291e+01   4.2938783300e+01    0.1687137    0.1570149 -53.93 0.0003465175    1.010    0.010
       214 -10.6435    181.2079    116.6943   3.8944963611e+01   2.1824223903e+01    0.3885114     0.188904 -51.99  0.001416512    2.413    0.585
       215 -10.1861    187.1091     13.0382   1.0790159981e+01   3.6242826748e+01    0.2043683    0.1307621 -69.36 0.0005071939    1.633    0.388
       216 -13.3907     81.1649     41.9474   4.1667975611e+01   5.7009973701e+01     1.125304     0.594263  46.85   0.00535337    1.925    0.481
       217 -10.4193    203.2609    115.8303   3.4476263851e+01   1.7119408867e+01     0.432137    0.2377426  73.57  0.001460629    3.655    0.726
       218 -11.7573     88.8893    114.9042   6.1698653124e+01   4.1378229384e+01    0.4069934     0.285074  51.68  0.001949006    1.614    0.380
       219 -12.3027    112.6554     67.7496   4.1279468075e+01   4.6561640245e+01    0.4452582    0.3609716  38.31 0.0006691756    1.210    0.174
       220 -10.0904    245.9716    113.7191   2.7059389138e+01   8.7575365920e+00    0.1756422    0.1614857 -43.64 0.0002583956    1.066    0.062
       221 -12.9038     80.0300     59.1867   4.8246507229e+01   5.4427630831e+01    0.6923471    0.4968197  20.73  0.003501056    1.472    0.321
       222 -13.2548     80.0252     50.3163   4.5121662288e+01   5.5922533058e+01    0.8151529    0.4695777  26.01  0.003803507    1.982    0.495
       223 -12.1791    134.8543     71.1337   3.6643720749e+01   4.1046401538e+01     1.349568    0.6422527  56.51  0.004682315    2.253    0.556
       224  -9.5353    144.9255     10.4770   1.5644649359e+01   4.6615303510e+01    0.1827293     0.103839 -83.50 0.0008064119    2.433    0.589
       225 -11.8383     75.6604    103.6175   6.2904071910e+01   4.6097878365e+01    0.2794074    0.2287158 -73.21 0.0007720211    1.391    0.281
       226 -10.3005    165.1596    102.3797   3.8632596279e+01   2.8252278439e+01    0.2660315    0.1804802 -44.63  0.001079687    1.458    0.314
       227 -10.9511    182.6492    102.4184   3.5036937311e+01   2.4213644310e+01    0.5577252    0.3888536 -81.58  0.002371605    2.136    0.532
       228  -9.6919    242.7137    101.0671   2.4730208130e+01   1.1455764466e+01    0.1965784    0.1694453 -17.73 0.0003944722    1.262    0.207
       229  -9.8115    244.5194     97.5114   2.3694501528e+01   1.1673883525e+01    0.2356234    0.1182838 -37.51 0.0009026944    1.748    0.428
       230 -13.1048     86.1449     98.5658   5.8337474081e+01   4.5526623734e+01    0.7645614     0.413036  29.59  0.002937418    2.161    0.537
       231 -10.9884     89.1637     93.9841   5.6151746582e+01   4.6000417219e+01    0.2383331    0.2194403  -2.99 0.0002452635    1.102    0.092
       232 -11.1968     33.9763    100.0947   7.5537369217e+01   5.2121302291e+01    0.2726384    0.1583872 -59.97 0.0008226153    1.471    0.320
       233 -10.6728    170.3844     97.7991   3.6307155769e+01   2.7914469137e+01    0.3665529    0.2779246 -45.26  0.001770131    1.302    0.232
       234 -11.1373    158.9328     99.0827   3.9113173266e+01   3.0326117455e+01    0.2237678    0.2189534 -57.51 0.0003287259    1.023    0.022
       235 -12.0401    152.9095     96.7745   3.9840564444e+01   3.2161353144e+01     0.602096    0.5205396  86.70  0.002221993    1.334    0.250
       236 -11.2101    226.7922     97.6305   2.6250064838e+01   1.5267419518e+01    0.3843319    0.2375509  45.44   0.00185929    1.842    0.457
       237 -10.9068    222.2465     95.3718   2.6409972408e+01   1.6609643130e+01    0.2309227    0.1320178  56.30 0.0005013288    1.892    0.471
       238 -11.5125    199.7096     96.1808   3.0289641239e+01   2.1445229855e+01    0.3861668    0.2954001 -67.09 0.0007312575    1.487    0.327
       239 -12.0259     73.4289     96.8448   6.1861443122e+01   4.7958542930e+01    0.3457416    0.3057855 -38.49  0.001978493    1.039    0.038
       240 -11.6979     11.8739     97.6217   8.2320519644e+01   5.4490005382e+01    0.3270538    0.1991242 -57.67  0.001204217    1.291    0.225
       241 -11.1070     13.4910     93.5618   8.1062001681e+01   5.5298391062e+01    0.1919511    0.1572524  23.29 9.291953e-05    1.479    0.324
       242 -13.3094      5.1198     54.5209   7.5625894437e+01   6.4152088962e+01    0.8630037    0.5193773 -50.95  0.002476191    1.292    0.226
       243 -11.3446    138.5243    112.4702   4.7516411184e+01   3.2203636112e+01    0.3997526    0.2576355  19.25  0.001522876    2.359    0.576
