#   1 NUMBER                 Running object number                                     
#   2 MAG_AUTO               Kron-like elliptical aperture magnitude                    [mag]
#   3 X_IMAGE                Object position along x                                    [pixel]
#   4 Y_IMAGE                Object position along y                                    [pixel]
#   5 X_WORLD                Barycenter position along world x axis                     [deg]
#   6 Y_WORLD                Barycenter position along world y axis                     [deg]
#   7 A_WORLD                Profile RMS along major axis (world units)                 [deg]
#   8 B_WORLD                Profile RMS along minor axis (world units)                 [deg]
#   9 THETA_WORLD            Position angle (CCW/world-x)                               [deg]
#  10 FWHM_WORLD             FWHM assuming a gaussian core                              [deg]
#  11 ELONGATION             A_IMAGE/B_IMAGE                                           
#  12 ELLIPTICITY            1 - B_IMAGE/A_IMAGE                                       
         1 -13.0813    175.2238     42.9885   5.5638176067e+01   3.5895852853e+01     1.194784    0.9855966   1.59  0.003939526    1.439    0.305
         2 -13.6320     94.4752     11.9002   6.1844417163e+01   5.9459680902e+01     6.342482     2.685948  61.50   0.02550342    2.810    0.644
         3 -12.4167    191.6600     15.5927   4.5098275668e+01   3.4990024374e+01    0.9809613    0.5712267  76.68   0.00464336    1.651    0.394
         4 -12.8988    194.5216      8.6056   4.2808708343e+01   3.4985678379e+01    0.9362116    0.5923044  80.56  0.003502975    1.486    0.327
         5 -12.4111    224.8285      4.1435   3.8765378368e+01   2.7918379668e+01    0.6768219    0.4439556 -88.29  0.003739207    1.418    0.295
         6  -9.8500     29.3047    209.4486   1.2558235442e+02   2.7801962715e+01    0.1179299    0.1043592  38.56 0.0008803466    1.558    0.358
         7  -8.7890    159.6697    249.8094   1.0523735917e+02   2.0147114478e+00    0.1332525    0.1116176 -67.88 0.0004709286    1.611    0.379
         8  99.0000      8.3809     89.0345   1.1858390496e+02   5.6423066902e+01     8.830098     4.437081 -87.06   0.04450488    2.195    0.544
         9 -12.0552    139.9307    198.5781   1.0192981657e+02   1.3762884622e+01     0.405211    0.3152094 -32.12  0.001275344    1.622    0.384
        10 -11.4405    153.3596    185.9016   9.6955412383e+01   1.3691224493e+01    0.3543158     0.277041 -79.64  0.001164254    1.652    0.395
        11 -10.2137     44.0213    187.1103   1.2094749600e+02   3.0760800420e+01    0.1681442    0.1375847  74.63 0.0003456569    1.072    0.067
        12  -9.7798    219.4966    186.4571   8.3700210243e+01   1.1101549998e+00    0.1353644      0.11675  12.15 8.052775e-05    1.006    0.006
        13 -11.0919    139.9777    183.1882   9.9392233926e+01   1.6744225425e+01     0.252757      0.20988 -66.69 0.0003467671    1.328    0.247
        14 -12.7196    141.3911    176.9554   9.7981819433e+01   1.7733528423e+01      1.25438    0.7733034 -84.80  0.004805734    3.147    0.682
        15 -11.4051    188.2825    179.8004   8.8479514498e+01   8.0616158763e+00    0.7406343    0.3853891 -36.46  0.003187997    2.085    0.520
        16  -9.2466    246.2953    181.3373   7.7880115101e+01  -2.8048241495e+00    0.1357743   0.08860811   3.38 0.0007029469    1.650    0.394
        17 -10.4672    164.8971    205.8482   9.7936228133e+01   7.9426450369e+00    0.2899961    0.2022046 -66.05  0.001509211    2.014    0.503
        18  -9.9725     73.0545    179.3395   1.1382537875e+02   2.8723330967e+01    0.3173899    0.1631207 -59.45 0.0009603857    1.924    0.480
        19  -8.7999     28.0346    180.7513   1.2372234142e+02   3.3879351027e+01    0.1257378   0.08975897  49.97 0.0002827095    1.379    0.275
        20 -11.9979    125.7240    173.7363   1.0095656901e+02   2.1338045419e+01    0.6952677    0.3865425  56.94  0.002965262    1.991    0.498
        21  -9.8265    195.6382    174.4039   8.5913423570e+01   7.5659098174e+00    0.2763599    0.2709236 -19.58  0.001316586    1.158    0.136
        22 -12.3302    150.0861    195.7877   9.9341276688e+01   1.2439050309e+01    0.5725222    0.3897715  62.14  0.002897826    1.683    0.406
        23 -10.9197    112.6219    170.3395   1.0340758705e+02   2.4430031039e+01    0.4843253    0.2771353  58.72  0.002144675    1.941    0.485
        24  -8.9253     36.4875    171.1071   1.2105978154e+02   3.5108385974e+01    0.3505754    0.2475882 -77.79  0.002220546    1.216    0.178
        25  -9.7797     44.2945    169.6170   1.1917114560e+02   3.4575673477e+01    0.3833141    0.1583642 -66.92 0.0007096874    2.104    0.525
        26  -9.3133    185.5111    170.4788   8.7179728230e+01   1.0272059730e+01     0.242134    0.1369249 -52.26  0.000990634    2.197    0.545
        27 -10.4624     81.8621    170.2948   1.1060791154e+02   2.9462278799e+01    0.3295903    0.2080778  73.41 0.0009685192    1.774    0.436
        28  -8.9830     11.1363    169.8376   1.2640587795e+02   3.7835773004e+01    0.2402996    0.1527094 -24.78  0.001301093    3.279    0.695
        29 -10.7613     48.8372    198.4618   1.2098090012e+02   2.7792351947e+01    0.2509073     0.183392  41.68 0.0005838252    1.462    0.316
        30 -10.9797     58.1800    166.5006   1.1563733355e+02   3.3605626320e+01    0.2756496    0.1834803 -73.26 0.0003474564    1.350    0.259
        31 -14.0561     75.5272    247.0963   1.2005208109e+02   1.5132636601e+01    0.3327457    0.2220786 -70.89  0.001447086    1.678    0.404
        32  -9.9362     26.3339    166.5103   1.2287027168e+02   3.7175272831e+01    0.3695001    0.1567725  23.85  0.001703133    3.448    0.710
        33  -8.7991    207.8608    166.1725   8.1785492858e+01   6.5774754721e+00    0.1884615    0.1517428   7.78 -0.000430966    1.268    0.211
        34 -10.1214    161.0064    206.9432   9.8900337899e+01   8.4568277761e+00     0.206896    0.1821986  41.70 0.0006471917    1.027    0.026
        35 -10.0612    218.0537    195.8002   8.5765267590e+01  -3.5767763894e-02    0.1858128     0.168167  28.92 0.0003747844    1.202    0.168
        36 -10.7771    100.0913    157.2037   1.0416499061e+02   2.9542942177e+01      0.26005    0.2458242 -70.96 0.0003260615    1.113    0.102
        37 -11.5139    104.3612    151.0392   1.0199616927e+02   3.0227728592e+01    0.6126144    0.4441575 -34.57  0.002980349    1.752    0.429
        38  -9.3365    120.1346    156.9533   9.9222433220e+01   2.6032429248e+01    0.2319431     0.186416  80.70  0.001162413    1.369    0.270
        39  -9.9233    188.1393    155.8826   8.3537459011e+01   1.2428612865e+01    0.5720098     0.204207  40.79  0.001934833    2.843    0.648
        40 -10.8966    133.6703    146.2439   9.3766484119e+01   2.5793913760e+01     1.233684    0.2978115 -54.59  0.002823741    6.335    0.842
        41 -12.5707     89.7886    150.9236   1.0564376687e+02   3.2693549402e+01    0.3570909    0.3011993 -38.56 0.0007849709    1.412    0.292
        42  -9.9542    112.3059    151.4341   1.0008816077e+02   2.8720935231e+01    0.2454886    0.1758698 -82.95 0.0008561675    1.671    0.402
        43 -10.0841    159.3521    195.8633   9.7413008799e+01   1.0712909278e+01    0.2312288    0.1726416  51.11 0.0005582327    1.278    0.217
        44 -10.6553    112.8167    137.4514   9.7136362825e+01   3.1844072982e+01    0.4469198    0.2962056 -36.10  0.001996026    1.812    0.448
        45 -11.4967    102.4767    136.8519   9.9712072504e+01   3.3863373399e+01    0.2832897    0.2618178  60.84  0.000310713    1.086    0.079
        46 -10.2966    135.0000    125.0164   8.8587747020e+01   3.0242953474e+01    0.4577078    0.1454098 -48.22  0.001386657    3.181    0.686
        47  -9.4942    160.4525    128.8864   8.3358041594e+01   2.3836160463e+01    0.3350165    0.2590371 -68.84  0.001221807    1.583    0.368
        48  -9.4335    118.3042    129.1060   9.3864838513e+01   3.2721440830e+01     0.246791    0.2146124  22.90 0.0007416487    1.307    0.235
        49 -10.2198    106.5869    124.6633   9.5977697000e+01   3.5979189213e+01    0.2683063    0.2397455 -21.32 0.0005474465    1.291    0.225
        50  -8.8978    112.8744    118.7041   9.2866202176e+01   3.6174293602e+01    0.2042551    0.1908548  59.34 0.0004979592    1.093    0.085
        51 -10.0334    167.8898    113.8512   7.7827453145e+01   2.5231795258e+01    0.4065792    0.3114689 -82.59  0.001624143    1.783    0.439
        52  -8.5792    152.9981    115.5124   8.1730921317e+01   2.8337881102e+01    0.2237896    0.1559648  47.68 0.0003191745    1.440    0.306
        53  -9.4953    209.3367    111.8955   6.8834659368e+01   1.5902671617e+01    0.2234377    0.2055364  69.16 0.0002968231    1.200    0.166
        54 -18.6597     47.8913    236.6983   1.2408111376e+02   2.0508893485e+01     5.013102      3.28477  36.49   0.02239301    1.748    0.428
        55  -9.7837    230.2576    201.1878   8.4543216850e+01  -2.8902887164e+00     0.213411    0.1695015  63.27  0.001217929    2.017    0.504
        56  -9.6588     86.7070    108.9467   9.7948015074e+01   4.3142295377e+01    0.2893299    0.2157049  57.18  0.000568788    1.519    0.342
        57 -10.6282    249.3522    193.4670   7.9735959306e+01  -4.9629087971e+00      0.23062    0.1921147   2.21 0.0002094987    1.062    0.058
        58  -9.6760    116.8107    110.7243   8.9793308404e+01   3.7222142110e+01     0.245714    0.2004288  18.46 0.0008654709    1.461    0.316
        59  -9.4291    103.8727     73.8820   8.2874686623e+01   4.7791796457e+01    0.2036487    0.1845727  89.17    0.0010789    1.332    0.249
        60 -10.5470    113.3191     71.1788   7.9196278491e+01   4.6378881666e+01    0.2580933    0.2460017  22.52 0.0003121958    1.055    0.052
        61 -12.9345    161.6609     57.8468   6.2851034023e+01   3.7189014174e+01     1.182981    0.9524309   7.99  0.001006918    1.490    0.329
        62  -8.8703    167.6757    246.7228   1.0338675137e+02   1.1638522538e+00    0.1313627    0.1129329 -60.92 0.0005061029    1.561    0.360
        63 -11.7388    179.8064     36.1725   5.2799764024e+01   3.5620106847e+01    0.4649318    0.3862894  15.01 0.0008174787    1.439    0.305
        64  99.0000     12.1896    243.0782   1.3029894088e+02   2.3354248871e+01    0.3595698    0.1949917  71.43  0.002600254    1.339    0.253
        65  -8.8318     44.9297    193.7265   1.2135312890e+02   2.9248775528e+01    0.1575459    0.1445763  33.45 0.0008186626    1.498    0.332
        66 -10.2657    218.9802    190.9916   8.4677050756e+01   5.1658218290e-01    0.1997945    0.1728057  13.71  0.001229931    1.026    0.025
