#   1 NUMBER                 Running object number                                     
#   2 MAG_AUTO               Kron-like elliptical aperture magnitude                    [mag]
#   3 X_IMAGE                Object position along x                                    [pixel]
#   4 Y_IMAGE                Object position along y                                    [pixel]
#   5 X_WORLD                Barycenter position along world x axis                     [deg]
#   6 Y_WORLD                Barycenter position along world y axis                     [deg]
#   7 A_WORLD                Profile RMS along major axis (world units)                 [deg]
#   8 B_WORLD                Profile RMS along minor axis (world units)                 [deg]
#   9 THETA_WORLD            Position angle (CCW/world-x)                               [deg]
#  10 FWHM_WORLD             FWHM assuming a gaussian core                              [deg]
#  11 ELONGATION             A_IMAGE/B_IMAGE                                           
#  12 ELLIPTICITY            1 - B_IMAGE/A_IMAGE                                       
         1 -15.1372    138.9446    111.2560   1.0793222644e+02   3.2715845289e+01     4.154531     2.805796 -77.31   0.01905399    2.175    0.540
         2 -14.5015    139.1891     70.4131   9.7136048310e+01   4.0236969251e+01     2.285287     1.628636  27.09   0.01071286    1.734    0.423
         3 -14.2167     23.4206     77.0409   1.3163193096e+02   5.6910132104e+01     2.684215     1.027733 -65.43   0.01344538    1.997    0.499
         4 -13.7121     61.5115     44.4723   1.1088695888e+02   5.9711745070e+01     1.780348     1.291878  -0.93  0.009704003    1.969    0.492
         5 -13.4905     80.6780     47.9134   1.0568162626e+02   5.6085821699e+01     1.815487     1.335097 -31.02  0.009947764    1.379    0.275
         6 -11.3007      7.6966    187.9196   1.4474596521e+02   3.6197798612e+01     0.419259    0.2558466  33.39  0.003214315    2.001    0.500
         7  -9.8021    122.1921    186.9986   1.2420023395e+02   2.2388441087e+01    0.1841535    0.1195108  81.58  0.001078325    1.979    0.495
         8 -10.8358    149.1376    184.7076   1.1905004292e+02   1.8404626154e+01    0.2640632     0.128909  46.80  0.001408167    1.705    0.413
         9 -10.5958    143.2013    190.7954   1.2092858669e+02   1.8485350455e+01    0.6869169    0.1728229  49.51  0.002559971    3.754    0.734
        10 -10.1481    130.7384    183.8071   1.2224364819e+02   2.1543131614e+01    0.2906568    0.1685841  44.91  0.001713013    1.463    0.316
        11 -10.1985    121.4101    182.0738   1.2372830118e+02   2.3292212838e+01    0.2433206    0.1474703  52.04  0.001469811    1.394    0.283
        12 -11.0130     19.0607    178.7290   1.4232404144e+02   3.6764422497e+01    0.3709365    0.1250836 -80.45  0.002067904    2.633    0.620
        13  -9.2650    160.6382    174.7062   1.1550989933e+02   1.7918619184e+01    0.1223257   0.08824155  21.78 0.0007030204    1.705    0.413
        14 -11.1064    101.7634    165.5408   1.2535664560e+02   2.9116476163e+01    0.4002008    0.3462169 -25.92  0.002695001    1.736    0.424
        15 -10.6302    101.7448    172.9968   1.2629709348e+02   2.7810116467e+01    0.2202603    0.1932401  52.61  0.001591287    1.196    0.164
        16 -10.3404    141.6560    170.6903   1.1838811064e+02   2.1808447052e+01    0.2676623    0.2058361 -29.98  0.001661535    1.748    0.428
        17 -12.7729     94.4627    191.2187   1.2968562477e+02   2.5794053081e+01     1.076085    0.7145911  71.17  0.007284192    1.417    0.294
        18 -10.2823     26.1306    169.1869   1.4045819523e+02   3.7806413893e+01    0.2706871    0.1268168  35.51  0.001682389    2.280    0.561
        19 -10.4735     49.5767    166.4113   1.3575051634e+02   3.5857244746e+01    0.2925983    0.1705908 -69.36  0.001923845    1.658    0.397
        20 -10.9090     60.5363    161.9772   1.3317114676e+02   3.5398072305e+01    0.3463076      0.26748  46.06   0.00248787    1.363    0.266
        21 -11.3410    199.0532    160.9153   1.0638101272e+02   1.2905357484e+01    0.3499245     0.226811   1.77  0.001805294    2.173    0.540
        22 -11.0637    153.4042    159.8047   1.1444471663e+02   2.1485918175e+01    0.5534843    0.3601337  31.61  0.003010699    1.712    0.416
        23 -10.6824     33.9907    159.1628   1.3822419349e+02   3.8891292409e+01    0.2236351    0.1896468 -35.82  0.001688221    1.940    0.485
        24 -10.1381     95.1878    159.3797   1.2587117430e+02   3.1212442108e+01    0.1775947   0.09348759  52.39 0.0009547403    1.715    0.417
        25 -10.3016     49.6462    157.2593   1.3491350929e+02   3.7571190768e+01    0.3297843    0.1449225 -54.38  0.001728925    2.784    0.641
        26 -11.6119     19.7280    153.9701   1.4068867423e+02   4.1249340761e+01    0.6022376    0.4657634 -60.98  0.004687552    1.616    0.381
        27 -10.5519      3.3729    152.7805   1.4385495494e+02   4.2860565468e+01    0.2396974    0.1498376 -70.56  0.001786654    1.570    0.363
        28 -11.4435    115.4805    147.8469   1.2002744725e+02   3.0154127341e+01    0.6074151    0.3975188 -72.81  0.003348389    1.766    0.434
        29 -11.3669    121.0278    143.3670   1.1813464528e+02   3.0042942855e+01    0.4250579    0.3490629 -21.85  0.002526018    1.721    0.419
        30 -11.6658      9.3724    146.2141   1.4227460166e+02   4.3631300898e+01    0.3491895    0.1795965  41.40  0.002355556    1.899    0.473
        31 -11.4088    191.8443    143.2362   1.0426100326e+02   1.6730326223e+01    0.4442951    0.2278502 -41.20  0.002109173    2.159    0.537
        32 -11.3806    105.5821    143.3610   1.2140472079e+02   3.2608366554e+01     0.394736    0.3194746  63.59  0.002508763    1.121    0.108
        33 -11.2899     12.4630    228.8617   1.4556374394e+02   2.9289575630e+01    0.2647775    0.1354985  51.04  0.002176022    1.399    0.285
        34 -13.7848    186.3492    111.4554   9.8328716424e+01   2.2677489015e+01     1.284649     1.102334  11.81  0.007223187    1.223    0.182
        35 -11.6537    148.9431    209.2768   1.2226091225e+02   1.5011169069e+01    0.7197722    0.3072603  48.32  0.003947078    1.874    0.466
        36 -10.2373     72.9954    111.0849   1.2361586913e+02   4.4026882245e+01    0.4175883    0.1907516  34.00  0.001910864    2.660    0.624
        37 -10.8174    123.8208    206.4341   1.2615841883e+02   1.9219289305e+01    0.2039143    0.1599565 -50.07    0.0015134    1.670    0.401
        38 -13.4367     45.4912     81.8523   1.2579120915e+02   5.3750585038e+01     1.478154     0.923729 -76.74  0.008419549    1.514    0.340
        39 -12.1173    167.0427     94.8780   9.7962122818e+01   2.9666351444e+01    0.5135846    0.3733185 -50.21  0.002541213    1.484    0.326
        40 -11.6184    208.8931     96.6758   9.0696701946e+01   1.9895799781e+01    0.4501975    0.3139914   3.39  0.002163822    1.721    0.419
        41 -12.0344    152.0766     88.4310   9.9387613945e+01   3.4132981556e+01    0.5419118    0.4769062 -47.52  0.002967931    1.146    0.127
        42 -13.1477    101.4256     70.6604   1.0674322604e+02   4.7943407745e+01     1.566535     1.015241 -53.50   0.00775239    1.503    0.335
        43 -10.8501     76.7250     87.0661   1.1785774863e+02   4.8620721680e+01    0.5659452    0.3745084  43.93  0.003098784    1.638    0.389
        44 -11.0690     91.4332     84.3054   1.1314793680e+02   4.6899960766e+01    0.6138655    0.3565671  67.16  0.002639763    2.612    0.617
        45 -11.2844    193.9004     82.7887   8.9640752617e+01   2.5394085827e+01    0.3910921    0.3251416  -4.56  0.002054356    1.263    0.208
        46 -10.4122     85.1431    108.7104   1.2012909229e+02   4.2769987080e+01    0.3643443    0.2643265  77.50  0.002048138    1.512    0.339
        47 -13.5418     41.6416    105.9009   1.3084874532e+02   4.8936574074e+01     1.717055     1.458319 -41.95   0.01196411    1.502    0.334
        48 -10.1413     53.9373    135.7296   1.3172876279e+02   4.1320637866e+01    0.4219293    0.1916292  84.41  0.001810744    3.286    0.696
        49 -14.5260     72.1290    193.3617   1.3387569041e+02   2.8404702358e+01     2.264819     1.239403  58.51   0.01483976    1.499    0.333
        50 -11.9741      4.0096     50.2935   1.3359084878e+02   6.4055650309e+01    0.5654877    0.1596212 -58.04  0.002710868    2.399    0.583
        51 -10.3096     71.4413    134.4293   1.2760618772e+02   3.9394952558e+01    0.2919181    0.1816192  56.52  0.001706421    1.532    0.347
        52 -10.7089     99.4099    116.3571   1.1810792276e+02   3.8937249646e+01    0.3395933     0.307822 -68.09  0.002154091    1.102    0.093
        53 -10.8416    124.6404     41.2049   9.0893373465e+01   4.8541196998e+01    0.4500737    0.2572418  59.22  0.001951456    1.943    0.485
