#   1 NUMBER                 Running object number                                     
#   2 MAG_AUTO               Kron-like elliptical aperture magnitude                    [mag]
#   3 X_IMAGE                Object position along x                                    [pixel]
#   4 Y_IMAGE                Object position along y                                    [pixel]
#   5 X_WORLD                Barycenter position along world x axis                     [deg]
#   6 Y_WORLD                Barycenter position along world y axis                     [deg]
#   7 A_WORLD                Profile RMS along major axis (world units)                 [deg]
#   8 B_WORLD                Profile RMS along minor axis (world units)                 [deg]
#   9 THETA_WORLD            Position angle (CCW/world-x)                               [deg]
#  10 FWHM_WORLD             FWHM assuming a gaussian core                              [deg]
#  11 ELONGATION             A_IMAGE/B_IMAGE                                           
#  12 ELLIPTICITY            1 - B_IMAGE/A_IMAGE                                       
         1 -11.8747    191.9480     44.8005   3.4598579087e+01   3.2144408827e+01     1.082402    0.8564315  47.04  0.005327701    1.495    0.331
         2 -10.0739    219.3661     17.6628   2.5952483501e+01   2.9654396993e+01    0.4034087    0.2271402 -62.86   0.00196366    1.596    0.373
         3 -10.6326    214.8980     16.0648   2.6017842869e+01   3.0734257587e+01    0.5962799    0.2255448 -46.39  0.003044614    2.318    0.569
         4 -10.7194    220.6014     12.7248   2.4897354083e+01   2.9946522485e+01    0.6850951      0.36037 -68.75  0.003989993    1.784    0.439
         5  -9.6309    119.7813      9.4741   3.6359090482e+01   5.2403208201e+01    0.3771674     0.297527  44.96    0.0023049    1.188    0.158
         6  -8.0782    234.0519      2.9617   2.2125900412e+01   2.8351641638e+01    0.1351467    0.1190084  65.72  0.001069373    1.528    0.346
         7  -7.6252    143.4373      1.5236   3.0328074002e+01   4.7714895199e+01    0.1209379   0.09841485  70.56 9.558273e-05    1.024    0.023
         8  -9.0613    159.7202    242.0125   8.3228549851e+01   6.9524543052e-01    0.2339848    0.1895366  25.73 0.0003539686    1.117    0.105
         9  -9.7952    248.4319    249.1315   6.6703247414e+01  -1.1768880194e+01    0.3474481    0.2266524 -37.41  0.002257856    1.639    0.390
        10  -8.9844    133.3867    249.6197   9.0166438459e+01   3.1357967533e+00     0.259526    0.1983059 -17.73 0.0009927963    1.503    0.335
        11  -9.3476    124.9934    247.8668   9.1800451949e+01   4.6838542503e+00    0.3904732    0.1836914 -53.20  0.001424583    2.399    0.583
        12  -9.4569    102.2812    248.5939   9.6973342592e+01   7.7988841106e+00    0.4082999    0.2912353 -81.82  0.002261022    1.794    0.443
        13  -8.8001     67.0722    250.0688   1.0486559886e+02   1.2243456974e+01      0.23536    0.2048839 -46.46 0.0009525453    1.402    0.287
        14  -7.8766     68.5036    246.5004   1.0421690911e+02   1.2792721013e+01    0.2326296    0.1590215  41.74 0.0007085266    1.270    0.213
        15  -9.4520     74.5577    249.5088   1.0319261316e+02   1.1391529477e+01    0.3912054    0.3086002  12.58  0.001984743    1.520    0.342
        16  -8.9127     75.8928    243.8877   1.0232998620e+02   1.2371596632e+01     0.307412    0.2370003  32.39  0.001430503    1.236    0.191
        17 -14.9850     59.5755    186.9182   9.9612873265e+01   2.7704947704e+01     8.177291     4.888341  63.86   0.03650481    2.015    0.504
        18  -9.8705    103.8380    240.2424   9.5601196101e+01   9.2583709632e+00    0.4676663    0.2900654 -80.34  0.002181498    2.301    0.565
        19  -9.2603     71.8838    240.3206   1.0285508546e+02   1.3647665851e+01    0.3304186    0.2021514 -59.53  0.001674011    1.760    0.432
        20  -7.7007    230.6238    240.8391   6.8549481302e+01  -8.5916402290e+00    0.1590617    0.1041243 -41.71 0.0009417941    1.726    0.421
        21  -7.1866    201.4782    202.4604   6.7414239568e+01   1.7645197077e+00    0.1414436    0.1164307 -10.24 0.0002811904    1.076    0.071
        22  -8.2413    129.4945    200.5114   8.3496939693e+01   1.3903158032e+01    0.1469598    0.1399541  28.87 -5.952086e-05    1.051    0.049
        23  -8.1528     84.0468    239.9968   1.0008194169e+02   1.2088811024e+01     0.269364    0.1695557  36.55  0.001152396    1.410    0.291
        24  -8.7113    160.9765    237.4653   8.2242072116e+01   1.3408116914e+00    0.2312056    0.1897382 -34.95  9.06214e-05    1.291    0.225
        25  -8.4519    128.6187    195.8025   8.2888250779e+01   1.5120079705e+01    0.2035047    0.1448976 -65.19  0.000806601    1.664    0.399
        26 -13.6624     53.3713    230.0948   1.0600358685e+02   1.8203418358e+01    0.6623307    0.5724117  65.29 0.0006592153    1.020    0.020
        27  -9.1794    131.1349    237.6560   8.8994300573e+01   5.7597598540e+00    0.2553661    0.1968245 -35.74  0.001264502    1.421    0.296
        28  -9.2444    102.9345    194.3505   8.9230202735e+01   1.9659118448e+01    0.3694193    0.2749927  -6.77   0.00173911    1.734    0.423
        29  -9.4904     94.1478    191.7602   9.1117735950e+01   2.1652857778e+01    0.4596784    0.2995772  63.27   0.00114261    1.946    0.486
        30  -8.2665     97.3108    190.6423   9.0101321645e+01   2.1437445013e+01    0.3421689    0.1893606 -71.00  0.001359228    2.282    0.562
        31  -9.5401    116.7989    187.8639   8.4499344862e+01   1.8957387011e+01    0.5200543    0.2290846 -60.86  0.001833475    2.726    0.633
        32  -9.1734    121.9147    187.7446   8.3149245833e+01   1.8124754936e+01    0.3677499    0.2041726  31.87  0.001207405    1.793    0.442
        33  -9.0913     91.3424    186.8141   9.1068631239e+01   2.3296795460e+01    0.2561034    0.2065827 -79.43 0.0006386072    1.356    0.262
        34 -10.1633    142.7187    229.2348   8.5067434921e+01   5.6720852541e+00    0.4435149    0.2755588  49.12  0.002116795    1.857    0.462
        35  -8.9308    149.2163    227.1012   8.3235836787e+01   5.0951608385e+00    0.2655115    0.1694322  53.96 0.0009475571    2.092    0.522
        36  -8.9970    112.2621    183.1638   8.4846993186e+01   2.0844244342e+01    0.3149376    0.2433133  28.69  0.000392649    1.295    0.228
        37  -9.7514    100.9561    176.0460   8.6609083296e+01   2.4455822608e+01    0.2324609    0.2149496  -7.52            0    1.137    0.121
        38  -9.6568    104.3724    173.6719   8.5235846064e+01   2.4484914175e+01    0.6104105    0.2594941 -57.60     0.002177    2.438    0.590
        39  -8.4955    180.0338    175.3096   6.6630371608e+01   1.0652656892e+01    0.2030435      0.18936   3.03 0.0005985931    1.063    0.059
        40  -8.2081    185.2686    223.5378   7.4632958606e+01   3.0276783828e-01    0.3522228    0.1915533 -54.03   0.00157352    2.466    0.594
        41  -8.2725    133.4810    172.4377   7.7212200739e+01   1.9716910117e+01     0.323642    0.1518097 -51.06  0.001204182    2.146    0.534
        42 -10.0586     89.8941    169.0218   8.8422174346e+01   2.7982907648e+01    0.4826262    0.3259792  81.23  0.001053221    2.150    0.535
        43  -7.4259    205.0147    170.2104   6.0372839182e+01   7.3679152384e+00    0.1768762    0.1134888  36.60 0.0008597547    1.683    0.406
        44  -8.7682    191.7237    167.9492   6.2600846541e+01   1.0105270141e+01    0.3835472    0.2273677 -44.17  0.001754841    1.591    0.371
        45  -7.7683    156.3319    225.6819   8.1381388255e+01   4.2767303582e+00    0.1350296    0.1081842  60.78 0.0007047873    1.690    0.408
        46  -9.7265    161.0762    164.2293   6.8640312495e+01   1.6493301414e+01     0.265867    0.2531922 -17.55 0.0002707032    1.023    0.023
        47  -9.4077      3.4800    161.7242   1.1180701931e+02   3.9500881908e+01    0.3742993     0.278235   3.25  0.001781184    1.712    0.416
        48  -8.3715     10.4862    162.4774   1.0999769530e+02   3.8823403737e+01    0.3875553    0.1710819  36.56  0.001801709    2.355    0.575
        49  -9.2353     15.2174    160.0479   1.0845021836e+02   3.9079578326e+01     0.444399    0.2882612 -24.52  0.002308149    1.982    0.495
        50  -8.5454    166.5915    161.6830   6.6801626431e+01   1.6017081461e+01    0.3270476     0.237472  21.13  0.001170498    1.541    0.351
        51 -10.0479     47.8997    157.2676   9.8680957596e+01   3.6703354795e+01    0.6732895    0.3069007  38.77  0.002190962    2.265    0.558
        52  -9.4036     53.2788    157.4366   9.7110820536e+01   3.6036356883e+01    0.2775223    0.2169663  65.24 0.0008051225    1.423    0.297
        53  -8.9397    104.6646    157.6170   8.2023313976e+01   2.8437911571e+01    0.2949404    0.2822406  -1.35  0.001084939    1.053    0.050
        54  -8.9607     89.4753    155.6526   8.6027509520e+01   3.1448896526e+01    0.2742407    0.2570275 -49.80 0.0005499767    1.039    0.037
        55  -9.4210      3.7425    136.9442   1.0920415578e+02   4.5678418508e+01    0.4338233    0.2488054 -80.01  0.002241022    1.584    0.369
        56 -10.9632      3.0129    128.2636   1.0840672711e+02   4.7882521341e+01     1.074261    0.2227429 -66.68  0.003759223    3.242    0.692
        57  -9.3104     10.1173    155.9306   1.0943051136e+02   4.0496700034e+01    0.9468429    0.1756341  36.26   0.00316238    4.589    0.782
        58 -10.5771     10.1611    142.3538   1.0791170027e+02   4.3919296131e+01     0.532344    0.3625818 -11.78  0.001627675    1.829    0.453
        59 -10.0039     10.3354    151.3530   1.0888000114e+02   4.1635752241e+01    0.4759214    0.2362805  17.78  0.002280438    2.391    0.582
        60  -9.4944      4.5268    151.4826   1.1053525491e+02   4.1990318902e+01    0.3142484    0.2349824  20.66  0.001454094    1.586    0.369
        61  -9.8754      6.0416    147.0060   1.0963902706e+02   4.3016610168e+01    0.3413913    0.2775393  78.05 0.0004961644    1.244    0.196
        62  -9.1792      1.9962    147.4563   1.1084131183e+02   4.3153777044e+01    0.2664125    0.1899089 -73.45 0.0006738772    1.163    0.140
        63  -8.5112    136.1460    154.6474   7.2767899324e+01   2.3417169658e+01    0.3063803    0.2536075 -85.47  0.001105898    1.554    0.356
        64  -9.4061    134.3488    147.9337   7.1743785232e+01   2.5339765299e+01    0.9709319    0.2727539 -54.17  0.002421577    4.780    0.791
        65 -10.2818     96.0297    149.9196   8.2937588044e+01   3.1832817868e+01    0.7174998    0.6497338  55.11  0.003173505    1.184    0.155
        66 -18.0037     14.0713    237.1298   1.1496202792e+02   2.0940901533e+01     2.800888     2.310434  86.40   0.01118021    1.121    0.108
        67 -11.2504     74.7136    126.6617   8.4527449078e+01   4.1065527635e+01     1.555186    0.5365812  49.16  0.003918511    5.706    0.825
        68 -10.8513     55.4889    122.1114   8.9952019600e+01   4.4831930064e+01    0.6592606    0.3226244 -54.13  0.002761193    1.827    0.453
        69 -12.6902     68.6314    142.7053   8.9825128437e+01   3.7876380511e+01     1.584829     1.218393 -73.36  0.002985376    1.394    0.283
        70 -11.5065     57.9157    130.6067   9.0881968202e+01   4.2387946565e+01    0.7752526    0.5963452 -63.97  0.003361176    1.278    0.217
        71  -9.4253    109.9002    148.1247   7.8521274682e+01   2.9873800531e+01    0.4371352    0.2456573 -55.09  0.001746877    1.816    0.449
        72 -10.9981     78.3397    149.8552   8.8221524545e+01   3.4645421996e+01    0.4346394    0.3147981 -40.08 0.0009283026    1.403    0.287
        73  -7.5394    192.4316    143.9379   5.7318880358e+01   1.4851401966e+01    0.2005424    0.1224342 -63.36 0.0008041016    2.368    0.578
        74  -8.4413    147.4126    143.6656   6.7407221352e+01   2.3758932874e+01    0.3026743    0.2179451 -82.70 0.0009003403    2.199    0.545
        75  -9.2311    139.6876    145.8847   6.9882936707e+01   2.4777182964e+01    0.3868376    0.2635568  86.30  0.001421696    2.795    0.642
        76  -7.4830    153.0176    144.0000   6.6098200017e+01   2.2567640860e+01     0.261399   0.08889419  41.28 8.076442e-05    3.013    0.668
        77  -8.0211    119.4508    151.2374   7.6512552721e+01   2.7371703665e+01    0.2265769    0.1535143 -64.12 0.0009529048    1.728    0.421
        78  -9.5195     95.2683    135.7823   8.0097560911e+01   3.5495323969e+01    0.3176173    0.2437402 -33.87 0.0003799384    1.342    0.255
        79  -8.8199     25.2038    138.2271   1.0277551290e+02   4.3843498235e+01    0.3028743    0.1691839  30.92  0.001393952    1.955    0.488
        80 -10.0223     20.2432    137.5583   1.0423027697e+02   4.4411281444e+01    0.5404924    0.1420153  35.58  0.001904759    3.820    0.738
        81  -9.0872    106.3119    136.9312   7.7052155284e+01   3.3266198042e+01    0.3275833    0.2542795   6.28   0.00106098    1.521    0.343
        82  -8.5624    245.3095    133.9059   4.6102625720e+01   7.4256288715e+00    0.1824798    0.1706699 -72.33 0.0002975656    1.236    0.191
        83 -10.1641     49.3545    132.8337   9.4123439973e+01   4.2848976977e+01    0.3938014     0.314346 -55.20  0.002107628    1.137    0.121
        84  -8.5150    157.4270    218.6265   7.9948895143e+01   5.5007327596e+00    0.5024346    0.1262122  36.12  0.001576643    3.633    0.725
        85  -8.4574    111.9189    132.5503   7.4386699184e+01   3.3289754991e+01    0.2320722    0.2086259 -44.95 0.0003854311    1.098    0.089
        86 -10.2750      8.7888    130.1188   1.0682538387e+02   4.7083753249e+01    0.3751504    0.2196065 -79.88  0.001907721    1.629    0.386
        87 -11.7604     46.7415    115.6686   9.1620259956e+01   4.7463625403e+01     1.405822    0.3616548 -45.43  0.004296321    3.679    0.728
        88 -11.0212     42.0904    126.2067   9.5301525412e+01   4.5329126137e+01    0.5443786    0.3768838  30.93  0.002785169    1.568    0.362
        89  -9.5403     27.4955    127.4645   1.0039147109e+02   4.6388528912e+01    0.2748757     0.248954  25.59 0.0005808006    1.249    0.199
        90  -8.6811    101.9275    124.0919   7.5313234042e+01   3.7158996945e+01    0.2756316    0.2195607 -27.80 0.0007859075    1.315    0.240
        91  -8.1691    114.7564    128.2296   7.2525453104e+01   3.3776429390e+01    0.2199685     0.183344 -10.10  0.000996622    1.339    0.253
        92  -8.3476     21.8769    126.9566   1.0216332515e+02   4.6971171096e+01    0.2184914    0.1599332 -44.04 0.0006789883    1.259    0.206
        93 -10.0516     31.1329    128.1310   9.9298067530e+01   4.5903190839e+01    0.3220778      0.25557  35.47 0.0005036501    1.413    0.293
        94  -7.6256     87.2471    121.7860   7.9335849229e+01   4.0278660086e+01    0.2482643    0.1659369  74.94 0.0007762019    2.670    0.626
        95  -8.9576    170.0971    118.4108   5.6105401848e+01   2.4528993551e+01    0.3931156    0.2598064 -29.02  0.001060293    1.714    0.417
        96  -7.7475    191.5226    153.4243   5.9566452080e+01   1.3097380967e+01    0.1467747    0.1332272 -21.12 0.0001757402    1.042    0.040
        97 -10.5300     34.8541    117.3420   9.6115568612e+01   4.8273199552e+01    0.6663371    0.2643678 -38.40  0.002477144    2.790    0.642
        98  -8.0601     62.0637    119.4851   8.7143859340e+01   4.4638087510e+01    0.2140515    0.1455327  27.57 0.0005711296    1.544    0.352
        99  -7.7155     90.1803    114.6590   7.6633939225e+01   4.1479165470e+01    0.2767858    0.1923688  21.94  0.001144928    1.569    0.363
       100  -9.9036      2.8263    112.1318   1.0634866114e+02   5.1860651108e+01     0.395199    0.2012552 -85.79  0.001817069    2.264    0.558
       101  -7.3308    109.9311    117.9947   7.1384725890e+01   3.7085871761e+01    0.1836009    0.1709471  24.57 0.0003288543    1.071    0.067
       102  -9.0495    118.1242    110.1551   6.6964708874e+01   3.7229321207e+01     0.486193    0.3331753  80.91  0.001852884    2.678    0.627
       103  -8.5111     59.5309    111.4894   8.6197274158e+01   4.6928224871e+01    0.1464929    0.1346109 -33.63 1.172797e-05    1.018    0.017
       104 -10.2350     75.1331    105.5738   7.9306919420e+01   4.6081204837e+01    0.2838505    0.2637177 -34.64 0.0003179384    1.061    0.057
       105  -9.8915    151.5924    216.9240   8.1005065174e+01   6.7684084327e+00    0.6807455    0.4171636  -7.24 0.0006651483    2.455    0.593
       106  -7.8919     86.6924    106.0473   7.5539837148e+01   4.4073953968e+01     0.207853     0.186698 -29.89 0.0002830464    1.066    0.062
       107  -7.8260     66.3422    105.6859   8.2393938254e+01   4.7373579544e+01    0.1456635    0.1167504  68.93 0.0004810864    1.706    0.414
       108  -9.0219      8.8333    104.2332   1.0303152597e+02   5.3448774265e+01    0.2898864    0.1706317  12.91 0.0009928037    1.945    0.486
       109  -8.7256    182.8654    208.1401   7.2396115980e+01   3.5584218593e+00    0.4160164    0.1707636 -45.13  0.001663386    2.422    0.587
       110  -6.9508    111.6680     91.3225   6.3650421794e+01   4.2508891537e+01    0.1505956    0.1224452  86.22 0.0007049955    1.701    0.412
       111 -10.6474     43.6142    130.2340   9.5533987339e+01   4.4145873439e+01    0.3673043    0.2930048 -23.02  0.001565907    1.332    0.250
       112  -7.7289    125.0718     88.2806   5.9040683950e+01   4.0283702123e+01     0.201893    0.1848738  48.53 0.0002216276    1.090    0.082
       113  -8.2671     57.3292     78.9894   7.8448926011e+01   5.4563939400e+01    0.2409799   0.08485181 -33.71 0.0007047199    4.285    0.767
       114  -7.5207    111.0992     63.8467   5.5587222989e+01   4.7643206358e+01    0.1955436    0.1548801  23.31            0    1.319    0.242
       115  -7.1073    149.7142     63.7179   4.6326329652e+01   3.9010521973e+01     0.135151    0.1071157  25.80 0.0002205132    1.521    0.343
       116  -8.9636    143.3117     60.6571   4.6808850475e+01   4.0948498423e+01    0.2869399    0.2336592  22.54 0.0008314741    1.456    0.313
       117 -10.6044    176.3869     57.7192   3.9924810919e+01   3.3818078535e+01    0.4773068    0.3754369 -69.23  0.001575678    1.290    0.225
       118  -8.0054    216.2014     56.1585   3.4085859041e+01   2.5444471012e+01    0.1666158    0.1524386 -68.86 0.0003800846    1.141    0.124
       119 -10.3442    191.7637    247.4923   7.7273139083e+01  -4.7335425584e+00    0.2304914    0.1928228  -8.21 0.0002725662    1.107    0.096
       120 -10.7733    197.4125     39.2395   3.2663525551e+01   3.1676476008e+01    0.5073875    0.4287195  50.22  0.001855163    1.418    0.295
       121  -7.3282    228.7112     52.2588   3.1895314511e+01   2.3484865309e+01    0.1202834   0.07773268 -70.36 0.0002547059    1.488    0.328
       122  -8.7456    112.0075     51.8416   5.1557874852e+01   4.9297738713e+01     0.205703    0.1943454 -19.37 0.0002898513    1.145    0.126
       123  -7.7375    221.7946     39.8863   3.0129188319e+01   2.6504702066e+01    0.1727968    0.1143956 -64.34 0.0008129848    1.346    0.257
       124  -7.4942     82.5066    247.4939   1.0124329299e+02   1.0747127312e+01    0.1300706    0.1115077  49.31 0.0005343551    1.024    0.024
       125  -8.1229    158.3246     23.9594   3.4153383955e+01   4.2217960572e+01    0.1618064    0.1516948  87.46 0.0003514962    1.117    0.105
       126 -10.2131    101.5551    203.6475   9.1060460178e+01   1.7666085737e+01    0.4443474    0.2654535 -45.92  0.001670051    1.781    0.439
       127  -9.6371    120.6864    244.9832   9.2384505866e+01   5.8666543991e+00    0.3163989    0.1929355 -57.08  0.001502699    1.896    0.473
       128  -7.4353     87.7018    249.3173   1.0029191589e+02   9.6754537851e+00    0.1709332    0.1082563 -62.72 0.0006060101    1.765    0.433
       129  -8.8591     90.5299    246.6363   9.9368901767e+01   9.8291710211e+00    0.4448881    0.2271191  58.56  0.001962145    2.478    0.596
       130  -9.1677    157.9509    246.3176   8.4272240636e+01   1.7832238602e-01    0.2813444    0.2187027  44.00 0.0004091187    1.431    0.301
