#   1 NUMBER                 Running object number                                     
#   2 MAG_AUTO               Kron-like elliptical aperture magnitude                    [mag]
#   3 X_IMAGE                Object position along x                                    [pixel]
#   4 Y_IMAGE                Object position along y                                    [pixel]
#   5 X_WORLD                Barycenter position along world x axis                     [deg]
#   6 Y_WORLD                Barycenter position along world y axis                     [deg]
#   7 A_WORLD                Profile RMS along major axis (world units)                 [deg]
#   8 B_WORLD                Profile RMS along minor axis (world units)                 [deg]
#   9 THETA_WORLD            Position angle (CCW/world-x)                               [deg]
#  10 FWHM_WORLD             FWHM assuming a gaussian core                              [deg]
#  11 ELONGATION             A_IMAGE/B_IMAGE                                           
#  12 ELLIPTICITY            1 - B_IMAGE/A_IMAGE                                       
         1 -10.9386    243.6305     14.7345   5.1037590808e+01   2.2150560509e+01    0.2859543    0.1376086 -34.56  0.001350607    1.842    0.457
         2 -10.6732    232.0030     10.7653   5.1059969001e+01   2.5317383339e+01    0.2853241    0.1571304 -27.35  0.001389269    1.796    0.443
         3  -9.5119    157.4226      9.5352   5.9488565093e+01   4.4464515465e+01    0.2469885    0.2062221 -11.86 0.0006513607    1.285    0.222
         4  -9.8685    160.5654      6.1241   5.7850404627e+01   4.3974304268e+01    0.3281124    0.2195349  52.63 0.0009148501    1.381    0.276
         5 -10.9040    249.2589      4.4875   4.8132532049e+01   2.1936151096e+01    0.3122591     0.189615   3.53   0.00147627    2.670    0.625
         6 -14.4368     29.9613    187.8642   1.3280111473e+02   3.2801343724e+01     1.321541    0.5443317  62.51  0.007000331    2.311    0.567
         7 -11.4073     70.2375    186.9006   1.2481105784e+02   2.8255241531e+01    0.2025718    0.1655524   0.55  0.001253814    2.112    0.527
         8 -12.3026     86.8853    173.8520   1.1979723329e+02   2.8555898926e+01    0.2799895    0.2598502   3.27  0.001841978    1.494    0.331
         9 -13.1006    188.0838    172.5081   9.8425865793e+01   1.0855276694e+01    0.4351768     0.415156  19.42  0.002729005    1.086    0.080
        10  -9.9307    201.3238    174.3284   9.6249963483e+01   8.0374541399e+00    0.1406461   0.09755277  11.82 0.0007049503    1.696    0.410
        11 -14.1661    143.9277    168.8681   1.0673964275e+02   1.9943185918e+01    0.9319683    0.6280412 -75.57  0.004478889    2.111    0.526
        12 -12.4844     98.3572    168.2041   1.1651832212e+02   2.7968797238e+01    0.3141621    0.2838205 -58.07   0.00200651    1.250    0.200
        13 -12.0953     47.7096    167.5475   1.2746705133e+02   3.4999984206e+01    0.2936025    0.2071904  13.65  0.001719537    2.351    0.575
        14 -12.2927    185.3425    183.5820   1.0101605426e+02   9.6019566794e+00    0.3375437    0.2935094  88.09   0.00201511    1.551    0.355
        15 -12.8064     80.2631    162.3082   1.1969842828e+02   3.1923657190e+01    0.3823136    0.2988581  25.87  0.002270305    1.644    0.392
        16 -11.3640     37.1334    166.0973   1.2957052348e+02   3.6465808323e+01     0.173566    0.1455793 -72.16  0.001245729    1.277    0.217
        17 -11.8456    200.9702    187.0208   9.8696322642e+01   6.1969461076e+00    0.4449944    0.1468236  39.48  0.001699226    2.809    0.644
        18 -12.9517    161.8480    154.4129   1.0017795855e+02   1.9191461455e+01    0.6485332    0.4204193 -65.56  0.002904439    2.198    0.545
        19 -12.4417    113.1678    153.1577   1.1075336765e+02   2.8650542620e+01    0.3823679    0.2346758 -56.85  0.001889276    1.660    0.398
        20 -12.1580    169.1307    151.1372   9.7967368083e+01   1.8324226794e+01     0.462438    0.2751317 -17.69  0.001804841    2.859    0.650
        21 -11.3772     15.2984    148.6098   1.3272192200e+02   4.2233043770e+01    0.2518409    0.1207366 -50.35  0.001345885    2.572    0.611
        22 -12.5556    107.3058    164.7621   1.1401687465e+02   2.7233056257e+01      0.43021    0.2512551  61.73  0.002054187    1.928    0.481
        23 -13.3900    124.3637    141.7733   1.0600622879e+02   2.9026181703e+01      0.65695    0.4481799  85.02   0.00296679    2.121    0.529
        24 -13.0016     96.9663    137.1127   1.1171290460e+02   3.4838860168e+01    0.5507739    0.3621978  71.51   0.00264613    1.894    0.472
        25 -11.8282    119.5998    153.7737   1.0938934972e+02   2.7390736474e+01    0.2821517    0.1744483 -51.08  0.001380578    1.675    0.403
        26 -11.5337    104.8916    125.5019   1.0743492444e+02   3.6061005721e+01    0.2393643    0.2008126 -35.33  0.001305537    1.343    0.255
        27 -12.0583     61.2837    124.8994   1.1865737644e+02   4.2754210357e+01    0.3242779    0.2351576  35.11  0.001878795    1.569    0.363
        28 -11.6763     95.0231    123.7830   1.0961427941e+02   3.8114676217e+01    0.2664239    0.1975856 -58.49  0.001414047    1.281    0.219
        29 -10.7058     53.5820    156.7980   1.2500056889e+02   3.6602083185e+01    0.2162836   0.09847022  31.71  0.001034105    2.602    0.616
        30 -12.1129     98.5429    113.8026   1.0655152662e+02   3.9748798562e+01      0.35848    0.2834892 -31.90  0.001889766    1.460    0.315
        31 -12.3899    104.4696    111.3556   1.0441163125e+02   3.9254370812e+01    0.6071301     0.290152  55.10  0.002300708    2.717    0.632
        32 -11.0769    236.1011     61.9157   6.3784017141e+01   1.8047625517e+01    0.5534279    0.1605659 -25.13  0.001609484    4.252    0.765
        33  -9.4528     79.6828     22.9018   8.3201848365e+01   6.0757934260e+01    0.1830721    0.1557329 -20.29 0.0004808162    1.118    0.105
        34 -10.4186    246.5895     19.7383   5.2002241448e+01   2.0916241040e+01    0.1958374    0.1391074 -61.00  0.000893847    1.340    0.254
        35 -10.6113    234.6227     18.1170   5.2686321805e+01   2.3898866861e+01    0.3900601    0.1335334 -44.70   0.00150156    2.674    0.626
        36 -10.3576     74.9674     17.4786   8.2365184950e+01   6.2361917105e+01    0.2353345    0.1732955 -26.03 0.0003736117    1.269    0.212
        37 -10.8144    189.5135    242.0950   1.0937380745e+02   8.0597751215e-01    0.2576206    0.1901643  19.07 0.0008188001    1.351    0.260
        38  -9.8879    103.8357    225.3935   1.2242248561e+02   1.6518377165e+01    0.1615008   0.09550736  36.60 0.0009500138    1.703    0.413
        39 -11.0818    235.8217    209.7281   9.6582356773e+01  -2.7370775363e+00    0.4621834    0.1425136  46.30  0.001863389    3.361    0.702
        40 -10.5722    124.0112    205.9924   1.1643835764e+02   1.6676269501e+01     0.176663    0.1475463  55.68   0.00116914    1.003    0.003
