#   1 NUMBER                 Running object number                                     
#   2 MAG_AUTO               Kron-like elliptical aperture magnitude                    [mag]
#   3 X_IMAGE                Object position along x                                    [pixel]
#   4 Y_IMAGE                Object position along y                                    [pixel]
#   5 X_WORLD                Barycenter position along world x axis                     [deg]
#   6 Y_WORLD                Barycenter position along world y axis                     [deg]
#   7 A_WORLD                Profile RMS along major axis (world units)                 [deg]
#   8 B_WORLD                Profile RMS along minor axis (world units)                 [deg]
#   9 THETA_WORLD            Position angle (CCW/world-x)                               [deg]
#  10 FWHM_WORLD             FWHM assuming a gaussian core                              [deg]
#  11 ELONGATION             A_IMAGE/B_IMAGE                                           
#  12 ELLIPTICITY            1 - B_IMAGE/A_IMAGE                                       
         1 -15.6209    156.4400     27.4948   7.8186532585e+01   4.2662131680e+01     1.574747     1.242995  -7.22  0.006311596    1.451    0.311
         2 -12.6004    189.3133     14.5799   6.9530482346e+01   3.5086626548e+01    0.3496746    0.2595555 -55.42  0.001712535    1.300    0.231
         3 -13.5813    179.9902      6.3706   6.7868868949e+01   3.8396842630e+01    0.9406301    0.3704981 -63.08  0.003095349    3.424    0.708
         4 -15.2804    140.6943     68.2649   9.5580670915e+01   4.0679901291e+01     1.721621     1.350532 -34.24  0.008242599    1.320    0.243
         5 -15.0900    149.5228     53.4509   8.8623836195e+01   4.0892565818e+01     1.307335     1.195458   3.12  0.004060148    1.196    0.164
         6 -10.4532    146.1716    243.3734   1.2834207857e+02   9.4896181359e+00    0.1619282    0.1029489  38.41  0.001110972    1.128    0.113
         7 -15.5174    246.6401    233.5650   1.1013335119e+02  -3.0069240876e+00     2.403529    0.7639433 -28.53   0.01307243    3.430    0.708
         8 -12.8051    236.0437    236.6695   1.1218931037e+02  -1.9609705727e+00    0.2099902    0.1511613  -6.93 0.0006040402    1.374    0.272
         9 -13.4213    247.6448    201.2377   1.0507243788e+02  -2.1282062831e-01    0.5199227    0.2482366 -32.87  0.003072948    2.375    0.579
        10 -20.7850     96.1857    184.1146   1.3201281830e+02   2.6046901974e+01     11.82396     7.039265 -65.51    0.0648231    1.978    0.495
        11 -13.3094     11.1208    206.1062   1.5238730726e+02   3.1977257075e+01    0.4956393    0.2719537  23.65  0.002609937    2.088    0.521
        12 -12.6301    173.1218    139.3969   1.0690171961e+02   2.0415306983e+01    0.2580177    0.2129907 -44.06  0.000693178    1.368    0.269
        13 -10.5895    174.5789    222.2491   1.2062381095e+02   8.0125144153e+00    0.1562395    0.1150173 -40.77 0.0006153107    1.811    0.448
        14 -14.1258    160.2669    128.2166   1.0723632793e+02   2.5013323429e+01     0.655389    0.5123715  29.20  0.002668638    1.276    0.216
        15 -12.6522    153.6616    125.4520   1.0811149509e+02   2.6917422106e+01     0.337328    0.2278763  55.23  0.001083621    1.544    0.352
        16 -11.6832     24.6308    203.2352   1.4950589535e+02   3.1245966139e+01    0.2766886    0.2017133 -73.12  0.001182093    1.626    0.385
        17 -11.4052     27.9517    195.6754   1.4846884601e+02   3.2332210537e+01    0.1964166    0.1446303 -84.69 0.0003612322    1.424    0.298
        18 -12.2766    204.9398    199.6246   1.1183802008e+02   6.1512797973e+00     0.422533     0.249934  46.98  0.001843451    1.867    0.464
        19 -12.1637     35.3961    117.1535   1.4069575250e+02   4.8669642744e+01    0.3463221    0.2455305 -41.67  0.001440141    1.744    0.427
        20 -11.0762     32.0469    196.3905   1.4761348893e+02   3.1784308875e+01    0.2316942    0.1265369  81.21 0.0009160764    1.739    0.425
        21 -11.8271     41.9434    114.7402   1.3825864040e+02   4.8578936059e+01    0.2191954    0.1769926 -84.12 0.0004650759    1.132    0.116
        22 -11.5311    231.2354    113.7038   9.0681503845e+01   1.2592478290e+01    0.2533306    0.2286042  19.45  0.000780068    1.105    0.095
        23 -11.6445    167.7921    112.9054   1.0196880349e+02   2.6113568245e+01    0.3869919    0.2688738 -76.33  0.001557119    2.460    0.594
        24 -12.5887     11.7216    112.7381   1.4798007689e+02   5.1683166114e+01     0.407682    0.1968173 -33.37  0.001808665    3.347    0.701
        25 -13.2956      3.1870    111.9237   1.5067763598e+02   5.2403009797e+01    0.5476788    0.3121875  85.08  0.003137381    1.485    0.327
        26 -11.2631    205.3675    110.1209   9.4012123395e+01   1.8331145789e+01    0.2996275    0.2009927  42.56 0.0009187324    1.467    0.319
        27 -12.4852    203.4076    174.1378   1.0779808833e+02   9.5925992976e+00    0.5350174    0.2819075 -52.06  0.002286585    3.736    0.732
        28 -12.2001      2.3623    101.8312   1.5036281974e+02   5.4831294040e+01     0.325574    0.1438674 -72.08  0.001208186    1.918    0.479
        29 -11.3254    207.8038    217.4321   1.1405143832e+02   3.7051781375e+00     0.211184    0.1476606 -23.42 0.0008079132    1.623    0.384
        30 -10.5405    207.9846    213.0686   1.1337692847e+02   4.1562464823e+00    0.1685606    0.1289773  16.43 0.0004643813    1.067    0.063
        31 -11.2026     37.9424    248.7840   1.4871411618e+02   2.2273742906e+01     0.180169     0.101163  63.74 0.0006913394    1.455    0.313
        32 -11.5093    115.0180     84.0525   1.0746027129e+02   4.3724077831e+01    0.2309083    0.2210498  54.61 0.0003416879    1.015    0.015
        33 -13.6953    152.3768     45.4886   8.5294266320e+01   4.1345973646e+01    0.5449064    0.5044714  37.29 0.0008561922    1.116    0.104
        34 -12.4497     26.9608    223.0345   1.4980292827e+02   2.7517658909e+01    0.2097727     0.164419  74.80 0.0006247142    1.263    0.208
        35 -10.3478     27.0378    209.9736   1.4928259225e+02   2.9786293964e+01    0.1323516    0.1231538 -63.00 0.0004060189    1.564    0.361
        36 -10.5451    176.8725    154.9273   1.0929187191e+02   1.7149495944e+01    0.1970854    0.1671136  80.73  0.001101902    1.688    0.407
        37 -12.1092     13.3696     59.6944   1.4153160389e+02   6.4459732855e+01    0.2426615    0.2077698  89.51 0.0004758156    1.118    0.105
        38 -10.7449     30.9015    246.7074   1.4990020480e+02   2.3310103697e+01    0.1395322   0.08412674  49.60 0.0003409328    1.087    0.080
        39 -12.8271    174.1249    148.5824   1.0859628568e+02   1.8698290960e+01    0.3995714    0.3281498 -59.15  0.001042244    1.589    0.371
        40 -10.5609    197.5536    208.0280   1.1444739525e+02   6.2818327886e+00    0.1489298      0.11082 -24.15 0.0004261302    1.538    0.350
