#   1 NUMBER                 Running object number                                     
#   2 MAG_AUTO               Kron-like elliptical aperture magnitude                    [mag]
#   3 X_IMAGE                Object position along x                                    [pixel]
#   4 Y_IMAGE                Object position along y                                    [pixel]
#   5 X_WORLD                Barycenter position along world x axis                     [deg]
#   6 Y_WORLD                Barycenter position along world y axis                     [deg]
#   7 A_WORLD                Profile RMS along major axis (world units)                 [deg]
#   8 B_WORLD                Profile RMS along minor axis (world units)                 [deg]
#   9 THETA_WORLD            Position angle (CCW/world-x)                               [deg]
#  10 FWHM_WORLD             FWHM assuming a gaussian core                              [deg]
#  11 ELONGATION             A_IMAGE/B_IMAGE                                           
#  12 ELLIPTICITY            1 - B_IMAGE/A_IMAGE                                       
         1 -12.9126      3.3420      8.1508   1.1411424346e+02   7.1375682524e+01    0.9929941    0.4473743 -29.72  0.006255238    1.771    0.435
         2 -14.0851    202.5874     17.9395   6.4242337781e+01   3.2730895071e+01      2.29882     1.411501  27.01   0.01043152    2.948    0.661
         3 -11.1963    189.8041     15.9583   6.5295608534e+01   3.6048098586e+01    0.2405053    0.2161214 -59.80 0.0009110671    1.180    0.152
         4 -11.4131     65.2026    195.4038   1.3579458034e+02   2.6444535492e+01    0.3788288    0.2467028 -47.46  0.001761883    1.977    0.494
         5 -12.5562    138.9603    249.6117   1.2775456146e+02   3.7037558933e+00    0.8040765    0.1993873  44.33  0.002912777    3.254    0.693
         6 -12.8785    100.6033    247.5388   1.3469868030e+02   1.0380019794e+01    0.6849983    0.3816321  52.05  0.003822761    1.469    0.319
         7 -12.4205     82.8222    247.3045   1.3792347448e+02   1.3153577019e+01    0.5032583    0.3955445  58.82  0.003422393    1.127    0.113
         8 -10.8799     66.2359    249.9259   1.4110211999e+02   1.5058817911e+01    0.2663566    0.1385791  49.27 0.0007965661    1.580    0.367
         9 -10.7910     52.3678    249.4529   1.4344724142e+02   1.7027391316e+01     0.245167    0.1828314 -54.38  0.001647337    1.972    0.493
        10 -10.9287     46.2101    248.7772   1.4443570508e+02   1.7952530113e+01    0.3615413    0.1778485  69.43  0.001151568    1.816    0.449
        11 -11.0120     41.4954    206.8000   1.4181865226e+02   2.7016873369e+01    0.2752824    0.1879372  87.21  0.001543888    1.202    0.168
        12 -13.1705     32.9425    247.5628   1.4655065424e+02   1.9822894148e+01    0.9748141    0.7772735  27.11  0.006916988    2.095    0.523
        13 -14.5100      8.0578    241.0866   1.5015619983e+02   2.3825927492e+01     6.125717     4.173651 -87.12   0.04666332    1.238    0.192
        14 -15.7454      8.0124    202.9507   1.4780495765e+02   3.1442095356e+01     9.528236     1.272133 -73.39   0.03126213    5.462    0.817
        15  -9.9607    192.3144    193.6468   1.0800896786e+02   3.9781339479e+00     0.456085    0.2238636 -63.09  0.001342321    5.184    0.807
        16  -8.8506    113.7623    193.3654   1.2491746155e+02   1.9169653590e+01    0.1940662    0.1305356  33.57 0.0005918501    1.693    0.409
        17  -8.9952     47.7578    193.0414   1.3918774894e+02   2.9268593479e+01    0.1717064    0.1320588 -85.58 0.0001946496    1.081    0.075
        18 -10.0211     52.1644    197.9109   1.3879993511e+02   2.7629078531e+01    0.2500121    0.1519889  57.71 0.0009061545    1.520    0.342
        19 -11.5290     70.5304    187.8001   1.3369358560e+02   2.7412586807e+01     0.331297    0.2475502 -75.05 0.0008293418    1.208    0.172
        20  -9.1068    125.6602    185.5491   1.2095005723e+02   1.8728866303e+01    0.2816671    0.1367589  28.17   0.00094507    3.449    0.710
        21 -10.7899     79.9792    175.8040   1.2987646623e+02   2.8792454064e+01    0.2553632    0.2215571 -64.53  0.000406849    1.190    0.160
        22 -13.0601     67.1765    173.3943   1.3249291518e+02   3.1223036387e+01    0.5049949    0.2779191 -45.54   0.00159724    2.270    0.559
        23 -11.8238     87.3048    166.9288   1.2674298173e+02   2.9741749587e+01    0.6819928    0.5131487  55.89  0.003659029    1.320    0.242
        24 -14.8781     55.6124    210.8446   1.3945133025e+02   2.4359730737e+01     8.136493    0.8343303  48.64   0.02055906    8.000    0.875
        25 -12.6177     67.4380    144.1796   1.2782951394e+02   3.8127657408e+01    0.8960459    0.5682246 -89.65   0.00328122    1.930    0.482
        26 -12.0626     58.7720    134.8380   1.2846315423e+02   4.1494855937e+01     0.992102    0.3678957 -73.60  0.002853132    5.053    0.802
        27 -11.8918     88.1908    150.0801   1.2355634493e+02   3.3615154858e+01    0.2910078    0.2538285 -44.67 0.0005663357    1.254    0.203
        28  -8.8825    134.3600    148.2256   1.1157555835e+02   2.5525597090e+01    0.2221387    0.1423202 -60.61 0.0009430014    1.670    0.401
        29  -8.9053    102.1748    146.8720   1.1935705509e+02   3.2019002398e+01    0.2006975    0.1709035 -34.25 0.0004677082    1.358    0.264
        30  -8.7083    192.1714    144.1840   9.7523267963e+01   1.3804759632e+01    0.2061758    0.1785931 -77.76 0.0003755169    1.304    0.233
        31 -14.2619     46.3110    219.5965   1.4206152356e+02   2.3714666116e+01     1.408751    0.7699751  61.68  0.006693868    1.602    0.376
        32  -9.7173    110.6668    136.3548   1.1493470552e+02   3.2961816927e+01    0.3105295    0.2465341 -18.51  0.000800594    1.671    0.402
        33 -10.3698     97.9907    133.5533   1.1766297400e+02   3.5912384774e+01    0.2773049    0.2241174 -32.34 0.0007601304    1.421    0.296
        34 -10.8955     50.2648    130.0277   1.2990602723e+02   4.3659559442e+01    0.2306555    0.1876919  55.05 0.0006610611    1.363    0.266
        35  -9.2968    107.3785    123.2243   1.1279487009e+02   3.6636477084e+01    0.2001193    0.1725196 -59.50 0.0004089056    1.116    0.104
        36  -9.7082     99.4686    150.9890   1.2086287610e+02   3.1512327403e+01     0.278167    0.2245097  44.90  0.000800842    1.291    0.226
        37 -10.5200    168.0820    113.1730   9.5144135521e+01   2.5778797795e+01    0.3683144    0.2904057 -83.65 0.0008821184    1.540    0.351
        38 -11.2756    149.7333    229.6268   1.2290130040e+02   5.3324787541e+00    0.4604317     0.110207  43.11  0.001500415    3.577    0.720
        39 -10.0553     70.6001    244.2170   1.3983089468e+02   1.5518518614e+01    0.1532464    0.1019071 -64.55 0.0009518717    1.669    0.401
        40 -10.6983    244.8037    249.6732   1.0812895290e+02  -1.3566356071e+01    0.3028944   0.08819968  35.53  0.001262399    3.102    0.678
        41 -12.4870     39.3985    228.7738   1.4408863786e+02   2.2696484151e+01    0.3126053    0.2450561 -83.78 0.0007271502    1.246    0.197
