#   1 NUMBER                 Running object number                                     
#   2 MAG_AUTO               Kron-like elliptical aperture magnitude                    [mag]
#   3 X_IMAGE                Object position along x                                    [pixel]
#   4 Y_IMAGE                Object position along y                                    [pixel]
#   5 X_WORLD                Barycenter position along world x axis                     [deg]
#   6 Y_WORLD                Barycenter position along world y axis                     [deg]
#   7 A_WORLD                Profile RMS along major axis (world units)                 [deg]
#   8 B_WORLD                Profile RMS along minor axis (world units)                 [deg]
#   9 THETA_WORLD            Position angle (CCW/world-x)                               [deg]
#  10 FWHM_WORLD             FWHM assuming a gaussian core                              [deg]
#  11 ELONGATION             A_IMAGE/B_IMAGE                                           
#  12 ELLIPTICITY            1 - B_IMAGE/A_IMAGE                                       
         1 -13.0641    221.2125     14.6960   4.8437193093e+01   2.7449288367e+01      2.41955     1.271444  39.68   0.01018894    2.404    0.584
         2 -15.4001    245.8797     90.7725   6.5587655459e+01   1.1994159691e+01     6.539177     2.264116 -25.51   0.02318959    2.966    0.663
         3 -15.3159    230.9989     37.8442   5.3770306522e+01   2.2369176038e+01      2.41128     1.502257 -16.62  0.008167963    1.730    0.422
         4 -16.5309    245.2861     47.3701   5.4659874489e+01   1.7796560203e+01     6.479976     2.115667  50.54   0.01120843    3.262    0.693
         5 -15.7015    247.6514     28.0729   4.9436166064e+01   1.9523988114e+01     2.802283    0.9519158 -50.37  0.007232932    3.418    0.707
         6 -10.9090    137.0061     41.9836   7.0909386270e+01   4.6102384314e+01     0.380263    0.2218293 -34.40  0.001182047    1.698    0.411
         7  -9.7377    198.2619     23.9454   5.3787187243e+01   3.2408982545e+01    0.5178249      0.24244 -13.66  0.001908914    2.708    0.631
         8 -11.1038    208.1825     15.9197   5.0171140527e+01   3.0682488156e+01    0.5861989    0.3380129 -57.90  0.001884855    1.913    0.477
         9 -10.2280    156.0129     12.0845   5.6041948837e+01   4.5061225926e+01    0.5397062     0.296273  -2.03  0.001541994    2.397    0.583
        10  -9.5202    127.2085     10.5740   6.0902581988e+01   5.2701884098e+01    0.2671203    0.1915605 -18.29 0.0009148416    1.429    0.300
        11  -8.5257    191.9838      9.2314   5.0006604245e+01   3.5666461029e+01    0.1910972    0.1779528  84.57 0.0002052524    1.027    0.026
        12  -9.7951    249.8356      4.1256   4.3196228666e+01   2.1536355756e+01    0.1988922    0.1741917 -88.25 0.0005749932    1.142    0.125
        13 -10.3489    208.7817      3.2826   4.6404595153e+01   3.1796071213e+01    0.2918938    0.2171767  10.60 0.0007971922    1.646    0.393
        14  -8.9419    216.4652      1.4759   4.5173564503e+01   2.9977254399e+01    0.2369578    0.1490981  51.65 0.0007623296    1.672    0.402
        15  -8.8073    213.0310      1.5563   4.5506670005e+01   3.0854303991e+01    0.2834226    0.1321027  73.66 -2.948111e-05    2.070    0.517
        16  -8.6940     46.3996      3.3075   8.3480064861e+01   6.9974922500e+01    0.1574594    0.1028338 -36.92 0.0004506666    1.443    0.307
        17  -8.8432    241.2249      1.8640   4.3258386667e+01   2.3788743591e+01     0.156773     0.146755  51.40 0.0009862327    1.213    0.176
        18  -9.9405    205.3895    163.7172   8.8803414310e+01   9.9019438080e+00    0.2249775    0.1961802  28.61 0.0004392267    1.040    0.038
        19  -9.8045    229.5776    250.5280   9.8625582179e+01  -4.0243171870e+00     0.213777   0.07550316  40.19 0.0007543717    2.055    0.513
        20  -9.9242     73.4885    249.0161   1.2361994896e+02   1.8260462928e+01    0.1317583   0.08909367 -83.84 0.0008912154    1.622    0.383
        21  -9.8306      2.5998    246.8071   1.3429671248e+02   2.6181084545e+01    0.1280507   0.05731911  76.97 0.0009595006    1.720    0.418
        22 -14.1945    247.0204     68.5614   5.9884683340e+01   1.4704944699e+01     1.561858    0.8111321  65.99  0.005845794    2.268    0.559
        23  -9.8005    177.3752    140.3316   8.9464439454e+01   1.9204030710e+01    0.3144445    0.2532827  82.78 0.0008394489    1.664    0.399
        24 -10.6551    247.6877    241.6387   9.4652417972e+01  -5.7845135115e+00    0.1910681    0.1393958  29.24 0.0007140939    1.181    0.153
        25 -10.5686    188.9699    138.6716   8.6780947619e+01   1.7061335672e+01    0.4738816    0.2686661  43.00  0.001256236    1.646    0.392
        26 -10.0973    236.3566    175.9256   8.5732701316e+01   2.6470023421e+00    0.2524384    0.1509138  41.69 0.0009437327    1.525    0.344
        27  -9.6933    209.0323    126.1435   8.0148733251e+01   1.4808342789e+01    0.3740821    0.2479498  15.90  0.001323445    1.883    0.469
        28 -10.4536    161.8247    119.3495   8.8047966113e+01   2.6295904755e+01    0.3903284    0.2873345 -74.56  0.001241506    1.902    0.474
        29 -10.5207    186.0803    119.9709   8.3093805931e+01   2.0830005926e+01    0.4796915    0.3068341  68.27  0.002036956    2.184    0.542
        30 -10.3589    215.4290    115.7992   7.6563522427e+01   1.5015161530e+01    0.4197158    0.2501666 -14.03  0.001814496    2.077    0.519
        31 -11.9967    207.4853    111.6755   7.6985461850e+01   1.7410289029e+01    0.7663561      0.61417  72.00  0.003181827    1.553    0.356
        32 -10.2345    168.0638    114.0571   8.5412062561e+01   2.5898583930e+01    0.3559825      0.27639 -38.75  0.001282668    1.330    0.248
        33  -9.9054    141.7364    228.4135   1.1037030378e+02   1.1688779833e+01    0.1850262    0.1478879  43.43 0.0002534022    1.092    0.084
        34 -11.0882      4.4978    108.7513   1.2729863296e+02   5.1821513097e+01    0.3493749    0.1653273 -50.31  0.001945445    2.328    0.570
        35  -8.4757     91.0608    153.0117   1.1096277079e+02   3.2743285134e+01    0.1468456    0.1276414  72.13 0.0009249019    1.007    0.007
        36  -9.4480    188.3350    105.2941   7.9017148147e+01   2.2823648200e+01     0.155436    0.1136465  18.60 0.0003420425    1.643    0.391
        37  -8.8758    145.7880    103.8468   8.7896849267e+01   3.2788722299e+01    0.2254468    0.2033208   8.56  0.000559014    1.236    0.191
        38 -11.3356    200.8564    100.6054   7.5418472351e+01   2.0691291693e+01     0.431334    0.3872767  52.90 0.0009294268    1.150    0.131
        39  -8.7808    191.7447    144.0356   8.7389167152e+01   1.5611467766e+01    0.1848611    0.1716442   1.97 0.0003900454    1.080    0.074
        40  -9.3347    225.6620    214.9195   9.4163109958e+01  -8.0114439476e-03     0.197978     0.134216  39.47 0.0004257295    1.282    0.220
        41 -10.7410    187.7533     97.5864   7.7128559214e+01   2.4267178144e+01    0.3473018    0.2467167 -12.45 0.0008461926    1.686    0.407
        42  -9.6671    167.2674     98.5524   8.1621280763e+01   2.8920987214e+01    0.3063726    0.2519283  -1.41 0.0005863478    1.424    0.298
        43 -11.2179    168.8405     92.2495   7.9576527479e+01   2.9692156984e+01    0.5500363    0.3931899  33.46   0.00119901    1.524    0.344
        44  -9.4666    154.7430     99.1245   8.4571537368e+01   3.1701965488e+01    0.3467565    0.2107201  42.97  0.001496442    1.651    0.394
        45  -8.6696    210.7886     95.5934   7.2340837135e+01   1.9172301482e+01    0.1939701     0.144236  65.92 0.0005066514    1.553    0.356
        46  -9.2626    138.8709     94.0943   8.7001042761e+01   3.6235719136e+01    0.2882641     0.208059  65.26 0.0009618198    1.605    0.377
        47  -9.6771    134.6849    107.6344   9.1535213740e+01   3.4407526415e+01    0.8958865    0.1301285 -47.21  0.001881874    7.586    0.868
        48 -10.3148    152.1835     90.4298   8.2799047572e+01   3.3940571193e+01    0.3039346    0.2419468 -41.77 0.0002462198    1.268    0.211
        49 -10.3829    193.5314     90.3335   7.4076124451e+01   2.4097239683e+01    0.3041572     0.254595   4.64  0.001538915    1.306    0.234
        50 -10.1091    175.2972     88.6790   7.7227362182e+01   2.8777890879e+01    0.2837348    0.2464024  16.15 0.0002527949    1.240    0.193
        51 -11.4423     49.4087    153.5191   1.2056838065e+02   3.8158842319e+01    0.3703615    0.3301667 -19.73  0.001609994    1.701    0.412
        52 -11.8947    165.4821     79.9781   7.6823598573e+01   3.2687906227e+01     0.508136    0.3862512  14.52  0.001245302    1.637    0.389
        53  -8.5321    110.8402     78.9002   9.0134514410e+01   4.5211432033e+01    0.1922412    0.1685096 -79.72  0.001018902    1.274    0.215
        54 -12.1343     57.3414    148.9947   1.1825922563e+02   3.8184987194e+01    0.6047931    0.5292107  82.06  0.003039803    1.097    0.089
        55 -10.7711    124.4545     57.9264   7.9708327522e+01   4.6395748173e+01    0.4456084    0.2505887 -45.87 0.0009054413    1.842    0.457
        56  -9.9629    153.4227     56.3126   7.2112017395e+01   3.9726334169e+01    0.2611107    0.1958527  86.63 0.0006942567    1.726    0.421
        57 -10.6930    177.0669     50.2008   6.5361989964e+01   3.4590340779e+01    0.4281914    0.2159951 -27.59  0.001663647    2.036    0.509
        58 -12.7270     65.4903    144.8441   1.1583787064e+02   3.8055970706e+01     0.926899    0.7127608  56.70  0.003394756    1.213    0.175
        59 -11.6413    192.0259     46.3697   6.1592315499e+01   3.1215464513e+01    0.4852258    0.4280582  72.95 0.0005497677    1.160    0.138
        60 -11.7678    192.0245     40.5016   5.9786059242e+01   3.2010140513e+01    0.9106009    0.5380669  23.49  0.003176211    2.450    0.592
        61  -9.4807    187.5363     32.9077   5.8100418579e+01   3.4183174552e+01    0.2301253     0.200169  48.90 0.0005338031    1.151    0.131
        62  -9.6441    190.4194     35.4902   5.8474315983e+01   3.3088227586e+01    0.2890757     0.276155 -52.97   0.00070207    1.048    0.045
        63 -11.6643    147.1064     43.3160   6.9078681103e+01   4.3373649320e+01    0.4860134    0.3398417 -53.96  0.002201593    1.660    0.398
        64 -10.7570    140.9886     43.8357   7.0644024062e+01   4.4830019454e+01    0.2815953     0.224247 -27.27 0.0009913468    1.264    0.209
        65 -11.3956     10.9177    206.5663   1.3168119852e+02   3.1885565604e+01    0.3600422     0.181518  37.06  0.002500318    1.978    0.494
        66  -9.4851    166.7672     34.9480   6.2231250569e+01   3.9453150311e+01    0.2948529    0.2452941  40.72  0.001076023    1.210    0.173
        67 -10.2108    159.5715     30.5152   6.2026350030e+01   4.1943949450e+01    0.2850436    0.2510871  19.11 0.0006948249    1.189    0.159
        68  -9.8837    144.6496     30.3880   6.4944147435e+01   4.5854378247e+01    0.2795471     0.184122 -22.06 0.0006040824    1.585    0.369
        69  -8.5339    182.4503     41.4816   6.1641368832e+01   3.4409114784e+01    0.1487659    0.1476789  41.66  4.01832e-05    1.009    0.008
        70  -8.6910    250.4806    198.9677   8.7569207006e+01  -2.2237244339e+00    0.1527129    0.1029631 -16.52 0.0003234675    1.487    0.327
        71 -10.4771    202.3626     18.2936   5.1554413417e+01   3.1956694327e+01    0.3876041    0.3343778  78.35  0.001012972    1.138    0.121
        72  -9.8554    248.4899    180.8290   8.4668700701e+01   3.1954494919e-02    0.2403986    0.1902895 -49.02  0.001060031    2.004    0.501
        73 -10.5975    178.2414     23.8650   5.6592557503e+01   3.7776113319e+01    0.6417488    0.4476162  69.92  0.003056878    1.425    0.298
        74 -13.5591      5.1687    158.2962   1.3051274656e+02   4.1379346449e+01     1.391779     0.518937 -80.18  0.007731218    2.168    0.539
        75 -11.5513    230.4917    167.3319   8.5080680611e+01   4.7443260854e+00    0.4019758    0.2779607 -35.24  0.001682973    1.626    0.385
        76 -13.1642     22.2992    166.4935   1.2749028740e+02   3.8287655787e+01    0.7442468    0.5427573  78.78  0.003649995    1.038    0.036
        77 -10.1050    237.0167    171.0339   8.4699136725e+01   3.1235915907e+00    0.1921867    0.1571211  16.98  0.001238838    1.005    0.005
        78  -9.0278    213.8593    168.6574   8.8224342689e+01   7.6154178900e+00    0.1801605     0.143224  37.45 0.0005206869    1.149    0.130
        79  -9.0285     92.0289    168.1898   1.1281384202e+02   2.9530114285e+01    0.1648647    0.1529136  62.00 0.0002765161    1.181    0.154
        80 -10.4759    236.7967    166.5073   8.3863329516e+01   3.7188112569e+00    0.2378423    0.1531381  26.03 0.0006554291    1.433    0.302
        81  -8.4582    213.0038    164.0292   8.7485091349e+01   8.4124998141e+00    0.1547679    0.1331055  21.06            0    1.008    0.008
