#   1 NUMBER                 Running object number                                     
#   2 MAG_AUTO               Kron-like elliptical aperture magnitude                    [mag]
#   3 X_IMAGE                Object position along x                                    [pixel]
#   4 Y_IMAGE                Object position along y                                    [pixel]
#   5 X_WORLD                Barycenter position along world x axis                     [deg]
#   6 Y_WORLD                Barycenter position along world y axis                     [deg]
#   7 A_WORLD                Profile RMS along major axis (world units)                 [deg]
#   8 B_WORLD                Profile RMS along minor axis (world units)                 [deg]
#   9 THETA_WORLD            Position angle (CCW/world-x)                               [deg]
#  10 FWHM_WORLD             FWHM assuming a gaussian core                              [deg]
#  11 ELONGATION             A_IMAGE/B_IMAGE                                           
#  12 ELLIPTICITY            1 - B_IMAGE/A_IMAGE                                       
         1 -10.5648      4.1268     65.7402   1.0306889207e+02   6.2942797338e+01    0.4214884    0.3205612 -44.99  0.002710052    1.042    0.041
         2 -10.5278    233.8881     47.6477   3.5299616670e+01   2.2648392109e+01    0.4192211    0.3541364 -18.56  0.002740716    1.664    0.399
         3  -9.4902     64.8140     23.0542   6.0135519530e+01   6.3183314894e+01    0.3094528    0.1528726 -39.06  0.001489379    2.430    0.588
         4 -10.1186    142.8519     17.9002   3.9183103205e+01   4.6593295408e+01    0.4626297    0.2989491  49.32  0.002412512    1.498    0.333
         5  -9.9475    119.1735     19.2965   4.3804629705e+01   5.2010425570e+01    0.4684016     0.279719  -8.36  0.002333075    2.275    0.560
         6  -9.4981    238.3843     15.4517   2.8589370468e+01   2.5795715766e+01    0.2799059    0.1876913  36.09  0.001584447    3.009    0.668
         7  -9.9430    171.6385     13.1845   3.4049436442e+01   4.0326628830e+01    0.3413989    0.2554052  74.59   0.00141286    1.158    0.136
         8 -11.1433    166.0372      5.3907   3.2708202391e+01   4.2359639259e+01    0.5608313    0.5109316 -79.87  0.003415515    1.139    0.122
         9  -9.2305      5.7416     10.1088   8.2776839050e+01   7.3129675846e+01    0.2358969    0.1690216   9.98  0.001675826    1.262    0.208
        10  -8.4151    221.7367      5.9777   2.7922962948e+01   3.0138331806e+01    0.1380802   0.08865169 -41.86 0.0008862411    1.529    0.346
        11  -9.1392     79.4380      5.3387   4.7929265389e+01   6.2050826112e+01    0.2490653    0.1738332  31.51  0.001435089    1.288    0.223
        12  -9.9621    235.5754      2.1161   2.6275032427e+01   2.7790538963e+01    0.3495523      0.16713 -88.27  0.002019873    1.924    0.480
        13  -9.1388    149.2477      1.1213   3.3532106351e+01   4.6610790068e+01    0.4764809   0.08160627  72.40  0.001272265    6.322    0.842
        14  -8.3792    243.4663    184.5275   6.2054816460e+01  -1.7920895510e+00    0.1309271    0.1037823 -22.80 0.0001345439    1.001    0.001
        15  -9.7298    228.7857    179.3885   6.3601330021e+01   1.2091541065e+00     0.262608    0.1530932 -63.24 0.0009630136    4.114    0.757
        16  -8.9108    124.3178    167.2903   8.4296911530e+01   2.2154523149e+01    0.3621988    0.1880855 -51.91  0.001050606    1.914    0.477
        17  -9.3803    198.4080    160.7659   6.5513461118e+01   9.7420923626e+00    0.3788201    0.1293801 -41.12  0.001308875    2.688    0.628
        18  -9.4032     81.0844    144.4484   9.1941858228e+01   3.5395279639e+01    0.3340629    0.3012171  79.37  0.001703553    1.199    0.166
        19  -9.8237    239.9242    129.9730   5.1694883370e+01   8.2802123936e+00    0.5407425    0.2151615 -43.92  0.002303827    2.100    0.524
        20 -10.1222     56.6084    128.9328   9.6586838477e+01   4.2924291082e+01    0.5797135    0.3280173 -44.37  0.002516816    1.715    0.417
        21 -10.2229    115.9417    124.2101   7.6809465722e+01   3.4279172969e+01    0.7070653    0.3779612  33.95  0.002692394    2.033    0.508
        22 -10.4727    116.8007    119.2663   7.5294641850e+01   3.5278927089e+01    0.7648816     0.514793  36.40  0.003330494    1.537    0.349
        23 -12.7100    243.8985    105.4225   4.6063305561e+01   1.1833799311e+01     1.368126    0.6686912 -39.51  0.006367007    1.723    0.420
        24 -10.7786    240.7041     88.6080   4.2994895301e+01   1.5187622082e+01    0.4474109    0.2659954 -47.08  0.001751457    1.389    0.280
        25  -9.1756      1.8310    110.2168   1.1204440865e+02   5.2553958787e+01    0.3490476   0.06444606 -68.17  0.001131272    3.661    0.727
        26  -9.4010    181.0299    101.0891   5.5087963714e+01   2.5185074089e+01    0.4331269    0.2449614 -27.93  0.001741644    2.205    0.546
        27 -10.4304    160.5496    100.3325   5.9102395530e+01   2.9901054334e+01    0.6110408    0.4475058 -45.02  0.002452461    1.326    0.246
        28  -9.3446     37.2075     98.9227   9.7058603744e+01   5.2736065251e+01    0.3253885    0.2142295  24.64  0.001655682    1.663    0.399
        29  -9.4649     13.7497     95.6345   1.0535220667e+02   5.5471126241e+01    0.2872996    0.2403513 -32.58  0.001492573    1.152    0.132
        30 -10.3051    211.0047     89.9944   4.7320367332e+01   2.0774848215e+01    0.6334519    0.2987292 -49.10  0.002736103    1.983    0.496
        31  -9.8439    211.0068     83.9932   4.5946550587e+01   2.1792949927e+01    0.3858753     0.332423 -72.25  0.001894031    1.109    0.098
        32  -9.5099    128.7430     83.7060   6.2048609855e+01   4.0368911698e+01    0.3651232    0.3212129 -42.81  0.001613608    1.152    0.132
        33  -9.8491     83.8264     82.7372   7.5299097421e+01   4.9833841568e+01    0.5431862    0.3297605  31.23  0.002419159    1.705    0.413
        34 -10.7578    228.6133    110.8278   4.9328596122e+01   1.3671237912e+01    0.4588087    0.3161016 -38.85  0.002462767    1.276    0.217
        35 -10.2981    213.7649     70.2619   4.2444230006e+01   2.3441842121e+01    0.5483711    0.3293911 -48.47  0.002842349    1.477    0.323
        36  -8.1195    225.3127    247.3130   7.6590374697e+01  -9.3350178258e+00    0.1259197   0.07508506  -5.31 0.0004308399    1.635    0.388
        37 -10.9350    139.7023     64.5555   5.3698919425e+01   4.1241290255e+01     0.687869    0.5699077 -74.16  0.003004013    1.375    0.273
        38 -10.8582    249.7259     62.0693   3.6649063635e+01   1.7592592646e+01    0.5236827    0.2395648 -38.70  0.002666966    1.935    0.483
        39  -9.8983     86.7770     64.6909   6.8395453339e+01   5.2800337630e+01     0.438812    0.3917155  30.04  0.002487211    1.094    0.086
        40 -10.1900    235.6094     61.0328   3.7871563931e+01   2.0415068128e+01    0.2634722    0.1926575 -23.39  0.001529236    1.818    0.450
        41  -8.2447    115.4787     62.4909   5.8994614041e+01   4.7152716670e+01    0.1442151    0.1376952  39.09 0.0008101017    1.026    0.025
        42 -10.3501    183.8836     63.7946   4.5191851089e+01   3.1018608908e+01      0.68541    0.4410138 -25.36  0.003293891    1.921    0.480
        43  -8.1235    249.6740    241.6740   7.1273029108e+01  -1.1319346274e+01    0.1240178   0.06985857  -8.05 0.0007049494    1.695    0.410
        44  -9.7147     95.9400     53.8403   6.1682215500e+01   5.2791118284e+01    0.4571545     0.333768   9.98   0.00229714    1.614    0.380
        45 -10.7650     81.8389     43.7805   6.2533370193e+01   5.7190456600e+01     0.672234     0.461975 -14.40   0.00349711    1.620    0.383
        46  -9.9875     49.5903     42.7768   7.4506135593e+01   6.2947521229e+01    0.4986684    0.3383943  -1.70  0.002719133    1.532    0.347
        47 -10.5324    140.7882     38.1775   4.5562620291e+01   4.4796209942e+01    0.4510199    0.4116114 -82.53  0.001946041    1.118    0.106
        48  -9.0045     41.4957     38.0418   7.6214423303e+01   6.4867316901e+01    0.3424555     0.143713 -39.05   0.00156381    2.291    0.564
        49  -9.4712     40.2042     32.9375   7.4685577951e+01   6.5846035681e+01    0.3556269    0.2190621 -32.83  0.001944133    1.551    0.355
        50 -10.0159    172.7943     36.3147   3.9815873551e+01   3.7453498950e+01    0.3680826    0.3185284 -89.65   0.00221574    1.031    0.030
        51 -10.9173    199.4942     45.0651   3.8471698318e+01   3.0220552268e+01     0.706297    0.4562748 -40.70  0.003744796    1.508    0.337
        52 -10.0413    180.6617     26.4570   3.6294460355e+01   3.6818826048e+01    0.4461811    0.3504334   6.67  0.002598873    1.921    0.480
        53  -9.8344    108.9495     24.9462   4.7936852681e+01   5.3772184168e+01    0.5075586    0.2436811  33.21  0.002118883    2.646    0.622
        54 -10.2496    219.7469    221.0486   7.3141294631e+01  -4.6325390982e+00    0.4135079    0.2099456  17.67  0.001951356    2.262    0.558
        55  -9.9471    190.6886    218.3831   7.8461940740e+01  -6.3384502298e-02     0.509809    0.3335184 -51.08  0.002618875    1.875    0.467
        56  -9.5332    202.4597     18.3366   3.2077399709e+01   3.2864623156e+01    0.2755608    0.2359802  58.31  0.001879712    1.402    0.287
        57  -9.9608    208.7540    213.7579   7.3958336098e+01  -1.8943750185e+00    0.2354894    0.1545089  23.33  0.001281266    1.482    0.325
        58  -8.3956    250.5220    208.9627   6.5419894467e+01  -6.6506155551e+00    0.1874693   0.08265573 -22.44 0.0008100314    2.654    0.623
        59  -9.7602    199.5624    207.7311   7.4693044773e+01   5.2014477744e-01    0.3034153     0.187464  22.32  0.001527772    1.645    0.392
        60  -9.2518    185.8778    204.2787   7.6902524893e+01   3.2826382792e+00    0.3848361    0.1651297 -37.33  0.001549081    2.340    0.573
        61  -9.2592    248.1345    197.7494   6.3765004457e+01  -4.5871326156e+00    0.3378755    0.1900752  18.31  0.001784237    2.096    0.523
        62 -10.3299    199.8751    194.3993   7.2095040079e+01   2.9313750481e+00    0.4872667    0.2737715 -45.40  0.002286389    1.790    0.441
        63  -8.7517    219.4390    196.4323   6.8644518525e+01  -4.2311233114e-01     0.208826    0.1756734  24.21  0.001272839    1.292    0.226
        64  -9.5147    229.5272    189.6836   6.5480427951e+01  -7.0916008460e-01    0.3595458    0.1797506 -17.23  0.001407323    3.077    0.675
