#   1 NUMBER                 Running object number                                     
#   2 MAG_AUTO               Kron-like elliptical aperture magnitude                    [mag]
#   3 X_IMAGE                Object position along x                                    [pixel]
#   4 Y_IMAGE                Object position along y                                    [pixel]
#   5 X_WORLD                Barycenter position along world x axis                     [deg]
#   6 Y_WORLD                Barycenter position along world y axis                     [deg]
#   7 A_WORLD                Profile RMS along major axis (world units)                 [deg]
#   8 B_WORLD                Profile RMS along minor axis (world units)                 [deg]
#   9 THETA_WORLD            Position angle (CCW/world-x)                               [deg]
#  10 FWHM_WORLD             FWHM assuming a gaussian core                              [deg]
#  11 ELONGATION             A_IMAGE/B_IMAGE                                           
#  12 ELLIPTICITY            1 - B_IMAGE/A_IMAGE                                       
         1 -12.0541    236.2580     29.6342   6.7228243213e+01   2.2368728243e+01     1.820936     1.121717 -20.20  0.009100469    1.774    0.436
         2 -11.2846    249.9693     11.0081   6.1477164643e+01   2.1315055612e+01     1.168893    0.7288457 -49.44  0.005196147    1.450    0.310
         3  -8.9922    202.4089     18.5871   6.8140680038e+01   3.1831870314e+01    0.4264883    0.2232842 -36.38  0.001953443    1.861    0.463
         4  -9.9940    211.1700     17.1387   6.6720875792e+01   2.9807173978e+01    0.3887714    0.1536355 -37.83  0.001593282    2.355    0.575
         5 -11.4364    248.4172     17.9141   6.3216353912e+01   2.0920161938e+01     0.884024    0.7754771  41.20   0.00565369    1.351    0.260
         6  -9.6811    219.9120     12.6193   6.4595236705e+01   2.8143557696e+01    0.3755248     0.338095 -22.37  0.002180259    1.205    0.170
         7  -9.7368    232.1691      9.6934   6.2686535991e+01   2.5521993117e+01    0.3476525    0.1901052  85.94  0.001677788    1.960    0.490
         8  -9.1206    230.6945      5.7361   6.1845855069e+01   2.6267248536e+01    0.3858276    0.2615584  19.22  0.002003807    2.113    0.527
         9 -11.2065    216.0779      4.0661   6.2758011296e+01   2.9924875998e+01    0.6573468    0.5387856  69.05  0.003970635    1.175    0.149
        10  -9.2301     94.5063     14.4800   8.7019746320e+01   5.8301877763e+01    0.4002516    0.2604976  36.88  0.001969369    1.416    0.294
        11  -9.6674     94.7153      6.9862   8.3730341173e+01   5.9061850621e+01    0.4535453    0.2308422 -26.71  0.001603401    1.952    0.488
        12  -9.8119    226.4171      2.6591   6.1460392198e+01   2.7577483291e+01    0.6257308    0.1954842  61.41  0.002491997    2.834    0.647
        13  -9.6261    161.7699     10.1296   7.1132799846e+01   4.2999593243e+01    0.3212364    0.2846808  59.27  0.001878362    1.047    0.045
        14  -9.3179     81.5192      7.5002   8.7769376520e+01   6.1630004108e+01    0.2427338   0.09455431  40.55  0.001040297    2.388    0.581
        15  -8.4759    172.4572      5.7623   6.8196921333e+01   4.0691596859e+01    0.2540603    0.1284534 -26.88  0.001142865    2.049    0.512
        16  -8.5620    154.2373      5.4582   7.0752951366e+01   4.5327100937e+01    0.1922092     0.128683  81.73 0.0009446426    1.649    0.393
        17  -8.5909    145.1962      2.4784   7.1183916208e+01   4.7838606977e+01    0.3230254    0.1813874 -23.94  0.001552396    1.882    0.469
        18  -8.3876    159.7736      2.9184   6.9071154664e+01   4.4154706038e+01    0.2342953    0.1828602  65.07 0.0005225185    1.178    0.151
        19  -8.4567    118.5845      1.7943   7.5868862963e+01   5.4291070218e+01    0.1860291    0.1169966 -31.94 0.0009505076    1.738    0.425
        20  -8.9586     47.4029      2.0917   9.7261157062e+01   6.7974137189e+01     0.212627     0.164694  52.61  0.001342951    2.000    0.500
        21  -7.8226    183.5163      1.4978   6.5505418416e+01   3.8264616734e+01    0.1345812    0.1237715  81.95 7.781015e-05    1.031    0.030
        22  -8.0894    216.1904    148.8064   9.9929287479e+01   9.1449781843e+00    0.1975626    0.1551465   7.12  0.000545795    1.293    0.226
        23  -7.6208    250.3067    140.6398   9.2188322724e+01   3.7593670006e+00    0.1304995    0.1040061 -55.49 0.0007040014    1.733    0.423
        24  -7.8303    235.2637    138.9957   9.4325376181e+01   6.8832878269e+00    0.1794951    0.1129611 -29.61 0.0004703429    1.500    0.333
        25  -8.5246    120.4832    139.5353   1.1843582112e+02   3.0137407574e+01    0.1418699     0.133785  82.31 0.0008085295    1.065    0.061
        26  -8.9418    229.8136    118.2136   9.0414158006e+01   1.1202985955e+01    0.3232507   0.08707733 -38.86  0.001007906    3.504    0.715
        27  -9.1206    122.8041    110.6727   1.1130448095e+02   3.5844691157e+01     0.357993    0.2411335 -51.43  0.001676953    1.494    0.331
        28  -8.5945    176.8799    109.6475   9.8328019873e+01   2.4422924253e+01    0.2593826    0.2084421 -19.03 0.0006315253    1.307    0.235
        29  -8.0507    161.3024    109.6292   1.0173215440e+02   2.7941667729e+01    0.1569514    0.1221734 -74.99 0.0004093964    1.749    0.428
        30  -7.5512    210.2918    107.6789   9.1245269659e+01   1.7160067780e+01    0.1464011    0.1163058 -64.26 0.0002905212    1.608    0.378
        31 -10.2128     70.5021    101.0072   1.2335181042e+02   4.6671250933e+01     0.360537    0.1953639 -43.34  0.001693588    1.806    0.446
        32 -10.5813    124.3927     98.5308   1.0773090988e+02   3.8061672415e+01    0.7950186    0.5912733 -42.18   0.00391571    1.305    0.234
        33  -9.1596    173.9704     98.8467   9.6073258073e+01   2.7070904241e+01    0.3609638    0.2634903 -10.81  0.001629709    1.644    0.392
        34 -10.1789    132.3866     98.3186   1.0562116787e+02   3.6462349724e+01    0.3734688    0.3301006  78.61  0.001946032    1.334    0.251
        35  -8.5746    106.2318     99.0249   1.1272261537e+02   4.1439066708e+01    0.2641172    0.1920226  57.24  0.001289152    1.619    0.383
        36 -10.4340     35.0686     97.0182   1.3296575322e+02   5.1559344191e+01    0.4163229    0.3176138  20.09  0.002659569    1.630    0.386
        37  -8.1830    159.0080     97.7540   9.9065692200e+01   3.0725636691e+01    0.2048192    0.1303433  48.47 0.0007215379    1.584    0.369
        38  -8.3108    214.9745     94.7280   8.7096223291e+01   1.8211412509e+01     0.282342    0.1805549 -45.68  0.001126941    1.641    0.391
        39  -7.8260     14.7800     93.3382   1.3833095612e+02   5.3977655884e+01    0.1347908    0.1093308  -8.17 0.0008357709    1.595    0.373
        40 -10.0747    241.8067     64.0403   7.5184339326e+01   1.6674393651e+01    0.4732052    0.2513704  62.47  0.002149794    2.052    0.513
        41  -9.5350    247.1489     85.0561   7.9652368982e+01   1.2527561159e+01    0.6307199    0.1871716 -33.81  0.002204881    2.893    0.654
        42 -10.8946    248.0979     71.8097   7.6286807810e+01   1.4206329823e+01     1.387353    0.3768985 -32.67  0.004716472    3.138    0.681
        43  -8.8780    243.3238     76.0316   7.7963873256e+01   1.4652964403e+01    0.5038317    0.2329716 -36.01  0.001585481    1.927    0.481
        44  -8.7767    139.9705     86.4889   1.0037620929e+02   3.7155821165e+01    0.2870069    0.2218062 -35.68 0.0005353472    1.270    0.213
        45  -7.7079     92.2016     86.5489   1.1335627829e+02   4.6534806705e+01    0.1838042    0.1368842  20.37 0.0006071934    1.576    0.366
        46  -8.9447    219.9044     81.4955   8.2828520019e+01   1.9148972712e+01    0.2500091    0.2042692  -3.18  0.001294534    1.328    0.247
        47  -8.5213    198.9964     81.9957   8.6517960458e+01   2.4021621713e+01    0.2462939     0.185069 -68.38  0.001136663    1.723    0.420
        48  -8.3040     83.3208     82.7068   1.1494599863e+02   4.8785929556e+01    0.1333327    0.1101723  88.22 0.0007014616    1.610    0.379
        49  -7.3910    231.5298     81.4786   8.1022304070e+01   1.6486500097e+01    0.1429013      0.13322 -21.34 0.0002311658    1.013    0.013
        50  -8.1678     37.5113     80.5027   1.2889700356e+02   5.4984832428e+01    0.1267216    0.1033248 -52.49 0.0008105404    1.014    0.014
        51  -8.6900    106.9086     73.2715   1.0516651702e+02   4.6579204189e+01    0.5833824    0.3808864  84.44  0.002024625    3.989    0.749
        52  -9.1208    105.8421     67.7948   1.0373788149e+02   4.7831818722e+01     0.334136    0.3040579 -24.58  0.001889339    1.032    0.031
        53  -9.3348     34.3893     63.6106   1.2591441343e+02   5.8884223291e+01    0.3730751    0.1456116  42.25   0.00160282    3.597    0.722
        54  -9.3368    232.5496     59.9129   7.5358557276e+01   1.9353685276e+01    0.4194936    0.2905687 -15.62   0.00208092    1.592    0.372
        55  -9.0183     69.9147     61.1283   1.1281361787e+02   5.5210769098e+01    0.2052493    0.1854326 -58.60  0.001254791    1.278    0.218
        56  -8.0173    134.3208     53.3161   9.1303081015e+01   4.4286651100e+01    0.1561595     0.111456  16.41 0.0007041128    1.660    0.397
        57  -9.5095    232.3798     45.6626   7.1724892513e+01   2.1297907116e+01    0.4683762    0.3571222  35.18  0.002510114    1.528    0.346
        58  -8.6200     97.3072     47.6230   9.9347992396e+01   5.3065395838e+01    0.2073185    0.1753062 -72.79  0.001109665    1.693    0.409
        59  -8.8885    249.8404     45.7057   6.9713603124e+01   1.7310425276e+01    0.4068626      0.19471 -47.23  0.001815777    2.036    0.509
        60  -9.3889    250.3311     39.8410   6.8247545628e+01   1.7935160485e+01    0.4818389    0.1951211 -22.38  0.001874608    2.866    0.651
        61  -8.0040     57.2825     45.6008   1.1203585643e+02   5.9911102180e+01    0.2240425    0.1214821  37.64  0.001129594    2.102    0.524
        62  -8.0260     51.8504     44.2951   1.1359171220e+02   6.0846416486e+01    0.1767511    0.1597983  37.51  0.001152058    1.406    0.289
        63  -8.3651     85.4754     43.1300   1.0137732077e+02   5.5988170701e+01     0.254704    0.1875487  58.75  0.001323438    1.875    0.467
        64  -9.4624    102.1853     41.1004   9.5489973264e+01   5.3159747633e+01    0.2485562    0.2238336  55.53  0.001434443    1.320    0.243
        65  -8.0299    224.3787    248.7898   1.1666998911e+02  -5.5921007779e+00    0.1450403   0.09390289 -10.01 0.0009532528    1.734    0.423
        66  -9.3439    216.3623     34.0000   7.0645149991e+01   2.6603147083e+01    0.3229776    0.1289887 -27.37  0.001250207    2.492    0.599
        67  -8.6217    231.5002    236.1463   1.1357957795e+02  -5.3117157786e+00     0.238598    0.1431539  17.60  0.001459486    1.559    0.359
        68  -8.2887    143.1747     26.8757   8.0143808928e+01   4.5860164069e+01    0.1965758    0.1922568 -33.09 0.0002490238    1.119    0.106
        69  -8.2761      8.9637     24.9780   1.2464083300e+02   6.8430591964e+01    0.1527653    0.1344718 -85.93 0.0008690328    1.701    0.412
        70  -8.0589     38.3555     22.6701   1.1068430863e+02   6.6211849283e+01    0.1064079   0.09687619 -71.93    0.0007045    1.783    0.439
        71  -8.3068    211.5244    227.5180   1.1563316822e+02  -1.2295059853e+00    0.1211092   0.09483795  25.13  0.000472236    1.001    0.001
        72  -7.6648    152.2951     20.3474   7.6132511034e+01   4.4346678032e+01    0.1518963   0.09997706  28.30 0.0007032343    1.673    0.402
        73  -8.3864     14.4992     19.4759   1.2007225752e+02   6.9019521164e+01     0.207148   0.07150793 -41.79 0.0008803679    2.149    0.535
        74  -7.7092    223.3192    226.6796   1.1346266168e+02  -2.9958911704e+00    0.1047016   0.09117389  56.05 0.0007043103    1.666    0.400
        75  -9.4363    248.5761    223.0693   1.0862171446e+02  -6.4540903706e+00    0.2639871    0.1757009   9.44   0.00122314    1.318    0.241
        76  -9.9247    246.7277    218.7622   1.0819549706e+02  -5.7065550979e+00    0.3131064    0.1538097 -36.80  0.001692858    2.443    0.591
        77  -8.8831    171.8203    222.8384   1.2202386912e+02   5.8910611605e+00    0.1686806    0.1349017  56.61  0.001090067    1.353    0.261
        78  -8.0279    186.9590    215.6335   1.1815595900e+02   4.3756900329e+00    0.1811272    0.1363188  35.96 0.0006387347    1.105    0.095
        79  -8.3064    242.1570    221.3065   1.0938820966e+02  -5.2956715736e+00    0.1954927    0.1346743  -4.94 0.0006576175    1.386    0.279
        80  -9.6048    242.1096    206.9252   1.0689898692e+02  -3.6314480810e+00    0.3555901    0.2583952 -68.82  0.001618534    4.358    0.771
        81  -8.3860    240.5068    194.5222   1.0490289511e+02  -1.8499268282e+00    0.1268491    0.1030181  12.04 -1.170718e-05    1.018    0.018
        82  -7.1913    179.3049    204.3075   1.1776346880e+02   7.3519325739e+00    0.1279331   0.09223777  13.08 0.0003165824    1.606    0.377
        83  -8.2606    220.5300    178.7912   1.0540349242e+02   3.7440525556e+00    0.3021862    0.1248169 -36.75  0.001289956    2.524    0.604
        84  -8.6080    116.3994     13.8256   8.1113798940e+01   5.3652974350e+01    0.1907295    0.1241911  -2.44 0.0008625719    1.666    0.400
        85  -7.9524    193.1211    173.1079   1.0945272943e+02   9.7448378989e+00    0.2129213    0.1682613  18.14 0.0007000035    1.251    0.201
        86  -9.0352    249.9601    167.9295   9.8074730944e+01   2.3418116492e-02    0.2987742     0.202238 -37.00  0.001668345    1.616    0.381
        87  -7.5950     96.5463    165.5581   1.2866223936e+02   2.8638574915e+01     0.128356    0.1186695  78.75 0.0008057388    1.032    0.031
        88  -9.5024     25.3081    158.8054   1.4353495686e+02   3.8830989400e+01    0.2722296    0.1108871  49.17  0.001393094    2.407    0.585
        89  -8.3351    149.2113     15.1771   7.4912149166e+01   4.5660972899e+01    0.1877266    0.1636913 -80.82 0.0005858903    1.315    0.240
        90  -8.2610    121.2356    155.0189   1.2127437218e+02   2.6751678460e+01    0.1864116    0.1145891 -52.51 0.0008908494    1.661    0.398
        91  -7.8252    196.9717    153.6549   1.0466947557e+02   1.2220112280e+01     0.226954    0.1195823  65.08 0.0007048495    4.387    0.772
        92  -9.3586    156.6248    148.7707   1.1204324406e+02   2.1301735404e+01     0.450323    0.3367923  58.35  0.002258799    1.469    0.319
        93  -7.9104     64.6859     16.6275   9.7588033807e+01   6.3486814333e+01    0.1374068   0.08563365   2.40 0.0007033279    1.786    0.440
