#   1 NUMBER                 Running object number                                     
#   2 MAG_AUTO               Kron-like elliptical aperture magnitude                    [mag]
#   3 X_IMAGE                Object position along x                                    [pixel]
#   4 Y_IMAGE                Object position along y                                    [pixel]
#   5 X_WORLD                Barycenter position along world x axis                     [deg]
#   6 Y_WORLD                Barycenter position along world y axis                     [deg]
#   7 A_WORLD                Profile RMS along major axis (world units)                 [deg]
#   8 B_WORLD                Profile RMS along minor axis (world units)                 [deg]
#   9 THETA_WORLD            Position angle (CCW/world-x)                               [deg]
#  10 FWHM_WORLD             FWHM assuming a gaussian core                              [deg]
#  11 ELONGATION             A_IMAGE/B_IMAGE                                           
#  12 ELLIPTICITY            1 - B_IMAGE/A_IMAGE                                       
         1 -10.7273     58.9816     38.3038   2.5057577121e+01   6.4170505133e+01    0.2525085    0.2047157 -73.13  0.001111304    1.566    0.361
         2  -9.4307     40.0035     14.9703   2.1978197575e+01   7.1634517342e+01    0.2145852    0.1500995  15.40  0.001053783    1.703    0.413
         3  -9.2723     84.6804    220.6680   5.7153220913e+01   1.7113660982e+01    0.1289134   0.09537786 -15.07 0.0007048717    1.694    0.410
         4  -9.5689    179.9775    211.6841   3.5118131998e+01   6.5824678630e+00    0.1959976   0.08657763  12.06 0.0007048096    4.293    0.767
         5  -8.6276    149.6694    210.3327   4.0971174394e+01   1.0657312851e+01    0.1204741   0.09722632  58.17  0.000705208    1.723    0.420
         6  -9.3077    201.6632    204.6642   3.0096279839e+01   5.0503172492e+00    0.1245434   0.07592599  -8.96 0.0007051779    1.748    0.428
         7  -8.9434    188.2961    204.6740   3.2475818742e+01   6.6575576439e+00    0.1015405    0.0976879  81.68  0.000277723    1.627    0.385
         8 -11.3503    167.9680    203.5376   3.6176373582e+01   9.4238315076e+00    0.3309057    0.2007685  12.68  0.001768908    1.785    0.440
         9  -9.4433    143.3355    201.6892   4.1030320372e+01   1.3063253562e+01    0.1254422   0.09956542  58.40 0.0007044282    1.682    0.405
        10  -9.8240     90.3269    198.6762   5.3222195849e+01   2.0999697917e+01    0.1441444   0.09584688  57.39  0.000393375    1.692    0.409
        11 -12.3827    164.5576    193.1569   3.5186515202e+01   1.1670306264e+01    0.6365351    0.3286374  29.34  0.003159846    1.904    0.475
        12  -9.6704     46.6645    193.3256   6.4256789581e+01   2.7658951929e+01    0.1516574   0.08599695  55.57  5.25325e-05    1.718    0.418
        13  -9.6462    142.3564    191.2996   3.9611027470e+01   1.5157312746e+01    0.1391056   0.09691624  -6.61 0.0007036515    1.705    0.414
        14 -10.6629    130.8632    189.1379   4.1883163784e+01   1.7256662062e+01    0.2049841    0.1872915  55.70  0.001237484    1.256    0.204
        15  -9.7384    167.1559    187.7264   3.3749999866e+01   1.2267173971e+01    0.2380731    0.2018291  71.70  0.001095955    1.796    0.443
        16 -10.8856    187.0171    184.2483   2.9318014944e+01   1.0111540173e+01    0.2610334     0.147861 -40.13  0.001408067    1.643    0.391
        17 -11.2385    179.1561    183.1534   3.0603853429e+01   1.1379318937e+01    0.3621664    0.1792741 -23.43  0.001535152    2.812    0.644
        18  -9.4834    150.9866    181.1643   3.6011518021e+01   1.5830879314e+01    0.2192058    0.1558979  60.21  0.001100542    2.050    0.512
        19 -11.2162    131.8619    178.0890   3.9822511324e+01   1.9357512556e+01    0.3570322     0.197472  27.50  0.001620695    1.854    0.461
        20  -9.8559    196.5123    177.4887   2.6424170760e+01   9.9336004749e+00    0.1245166    0.1035951 -15.96 8.368379e-05    1.017    0.017
        21  -9.9769    164.6813    176.8567   3.2358766801e+01   1.4590327104e+01    0.2579941    0.1474542  19.80  0.001114902    2.102    0.524
        22 -11.4415    188.4623    173.7486   2.7194726094e+01   1.1671474663e+01    0.4395762     0.220114 -16.09  0.001608064    4.039    0.752
        23 -12.2808    152.6772    169.3960   3.3540084927e+01   1.7850432937e+01      0.43175     0.285944  33.32  0.002237595    1.512    0.338
        24 -10.2905     35.8044    172.8193   6.5509124631e+01   3.3890914726e+01    0.3526948    0.1364447  72.52  0.001080895    4.198    0.762
        25  -9.7361    179.3372    169.3193   2.8086652868e+01   1.3764158622e+01    0.1354866   0.09321763  -8.31 0.0006806955    1.706    0.414
        26 -11.0421    123.0119    170.4999   4.0651856617e+01   2.2352605363e+01    0.2261452    0.1956725 -46.60   0.00126289    1.186    0.157
        27  -9.2784     44.5946    171.2030   6.2712132977e+01   3.3342783242e+01    0.2033074    0.1247941 -60.84 0.0009486176    1.672    0.402
        28 -10.8693    172.3459    169.8185   2.9535863457e+01   1.4724517729e+01    0.1776144    0.1684151   9.02 0.0009791489    1.139    0.122
        29 -12.3540    144.2036    165.6183   3.4723599109e+01   1.9961104382e+01    0.4295272     0.296235  19.79  0.002155389    1.609    0.378
        30  -9.2489     77.6699    175.6678   5.3580968482e+01   2.8020377144e+01    0.1476689    0.1094756 -23.00 -9.45642e-05    1.721    0.419
        31 -12.0428    162.8179    163.8074   3.0337735692e+01   1.7320984657e+01    0.4789306    0.2684528  17.58  0.002037685    2.591    0.614
        32 -11.0075    182.1085    160.3668   2.5879644281e+01   1.4931271363e+01    0.2462317    0.1663446 -30.28  0.001349136    1.397    0.284
        33 -11.2904    153.4954    159.5292   3.1496530617e+01   1.9663515383e+01    0.2954694    0.1306647 -46.22  0.001218873    2.193    0.544
        34 -12.5263    172.6203    156.8653   2.7019964575e+01   1.7057101895e+01    0.4428208    0.2920759 -47.56  0.002333708    1.504    0.335
        35 -12.0227    121.6923    155.6641   3.8259847261e+01   2.5839788389e+01    0.4897714    0.2073823 -47.01  0.001864888    2.370    0.578
        36  -9.6490    191.6895    157.6642   2.3620206088e+01   1.3943002565e+01    0.1326416    0.0916011 -11.03 0.0007044124    1.682    0.405
        37  -9.7444     85.4830    155.9826   4.8304244673e+01   3.1700310416e+01    0.2101544    0.1292531  85.16 0.0008097547    2.488    0.598
        38 -12.5143    138.4622    152.8699   3.3592213454e+01   2.3569773662e+01    0.5212119    0.3454289 -27.60  0.002430539    1.786    0.440
        39 -11.6092    111.0431    158.3724   4.1548822855e+01   2.7013344291e+01    0.5489987    0.2663061  41.07  0.002227302    2.007    0.502
        40  -9.4932    193.6736    149.3314   2.1655125389e+01   1.5070675265e+01    0.1236526    0.1003157 -70.56  0.000539777    1.709    0.415
        41 -11.5523    114.1602    147.6650   3.8664040078e+01   2.8957719669e+01     0.459698    0.2922428  17.86   0.00194512    2.065    0.516
        42 -11.8805    127.5353    144.7777   3.4606335906e+01   2.7245845236e+01    0.4547876    0.2838478  55.75  0.001982224    1.954    0.488
        43 -13.4938    155.4190    145.3010   2.8223838801e+01   2.2173300024e+01    0.6720263    0.5404558  58.94  0.003638504    1.482    0.325
        44 -12.6842    170.5977    142.3812   2.4496769090e+01   2.0103360887e+01    0.3886495    0.3672209 -60.13   0.00239492    1.171    0.146
        45 -11.7226    166.0650    134.8848   2.3807236862e+01   2.2328293555e+01    0.3215604    0.2416491 -22.41  0.001348058    1.458    0.314
        46 -12.7905    147.3413    130.5367   2.6812508627e+01   2.6646116080e+01    0.6007444    0.4116093 -18.48  0.002717939    1.990    0.498
        47 -12.2902    102.1712    129.1612   3.8138805529e+01   3.5485024174e+01    0.7456305    0.3122185  27.55  0.002281239    3.582    0.721
        48 -11.5842    126.0106    126.0000   3.0883392233e+01   3.1707920245e+01    0.3948711    0.1656737  45.07  0.001436275    2.446    0.591
        49 -12.0949    115.4643    132.9905   3.5239095630e+01   3.2123374409e+01    0.4655203    0.3081914  50.45  0.002102854    1.598    0.374
        50 -11.0612     59.6559    122.1863   5.0597777787e+01   4.4380167877e+01    0.3412661     0.274925 -83.85  0.001688429    1.289    0.224
        51 -10.3540     26.4678    118.9768   6.2676392841e+01   4.9281346925e+01    0.3376525    0.1183314  52.44  0.001046919    3.631    0.725
        52 -11.2311     41.2037    114.6104   5.6163850074e+01   4.8889163162e+01    0.5286851    0.2199858 -81.48  0.001650714    3.486    0.713
        53 -12.8866     80.9533    111.1768   4.0685422803e+01   4.3780400528e+01    0.7402681       0.3708 -63.45   0.00274386    2.260    0.558
        54 -10.6716    148.1886    112.5586   2.2426742437e+01   3.0152275134e+01    0.2927017    0.1061187 -46.59  0.001014249    2.646    0.622
        55 -12.0896     95.5853    110.2241   3.5674577787e+01   4.1293540429e+01    0.5002689    0.2384046 -45.99  0.001868082    2.152    0.535
        56 -12.4099    109.8870    109.5107   3.1226396730e+01   3.8633678215e+01    0.5319205    0.3767726 -62.13  0.002428367    1.513    0.339
        57 -10.9669     66.1348    109.8557   4.5628925039e+01   4.6638500819e+01    0.2454606    0.2107517  74.91 0.0007205636    1.231    0.188
        58 -12.0030     92.3604    104.9674   3.5354035547e+01   4.3178532075e+01    0.4162136    0.2945852 -24.45  0.001781004    1.930    0.482
        59 -11.1310    169.1911     99.9984   1.5188952317e+01   2.8293306792e+01    0.3914138    0.1812588  56.10   0.00161958    2.458    0.593
        60 -10.9969    163.0277     99.9656   1.6316422114e+01   2.9556156521e+01    0.2584842    0.1913261  36.04  0.001317048    1.623    0.384
        61 -12.0657     63.1325     95.1444   4.3188008587e+01   5.0905131745e+01    0.4579222     0.330929 -88.49  0.002052081    1.737    0.424
        62 -12.7956     84.8037     96.1388   3.5494302996e+01   4.6755158624e+01     0.677503     0.338406  52.03   0.00251097    2.276    0.561
        63 -12.4543     44.5046     94.0589   5.0620953286e+01   5.3982972357e+01    0.5533949    0.3745204 -36.59  0.002532738    1.660    0.398
        64 -11.8538    109.9729     92.4601   2.6607690284e+01   4.2426514871e+01    0.3827169     0.277357  46.65  0.001799148    1.394    0.283
        65 -13.3337    128.9681     89.9672   2.0942605872e+01   3.8797128282e+01    0.8239464    0.6205745 -82.80  0.003896938    1.631    0.387
        66 -13.2448     88.1132     84.0952   3.0883117714e+01   4.8889505319e+01    0.7261662    0.4720294  63.13  0.003073336    1.877    0.467
        67 -13.2143     91.8194     78.0160   2.7768403138e+01   4.9449809767e+01    0.5712427    0.4986431 -33.68  0.002955518    1.243    0.195
        68 -12.1174     49.0019     78.0986   4.4470822036e+01   5.7410754461e+01    0.4868937    0.3274784   5.25  0.002126684    2.020    0.505
        69 -10.2503    145.3078     90.1590   1.7318092005e+01   3.5162991292e+01    0.2325666    0.1873785 -26.45  0.001049155    1.413    0.292
        70 -11.0276     34.7690     88.5582   5.3715331505e+01   5.6653344906e+01    0.3622712    0.1817569 -69.63  0.001457886    2.050    0.512
        71 -12.7537     74.8303     78.0878   3.3738861999e+01   5.2909623189e+01    0.5429842     0.377284 -57.63  0.002509856    1.497    0.332
        72 -13.2771     66.7725     87.9734   3.9809716842e+01   5.2067370841e+01    0.8628342    0.4809335  25.72  0.003387178    2.199    0.545
        73 -11.2807     25.5565     75.2868   5.5127544736e+01   6.1118500394e+01    0.4999672    0.2690831 -41.82  0.002171481    1.926    0.481
        74 -10.7431     99.4865     65.4884   2.1259442449e+01   5.0312399771e+01    0.2302895    0.1399965  41.93 -1.443096e-05    1.759    0.432
        75 -13.1765     85.6383     64.7850   2.5402227916e+01   5.3538243252e+01    0.7136472    0.4402159  37.38   0.00310579    1.782    0.439
        76  -9.6589     42.6363     71.3146   4.5450009102e+01   6.0008324015e+01    0.1539768    0.1102275  64.75 0.0007040562    1.763    0.433
        77 -11.2613    108.4967     67.0062   1.9217455088e+01   4.7951230159e+01    0.2733075    0.2093223  43.03  0.001177539    1.386    0.279
        78 -12.0106     63.6692     67.3346   3.4609407324e+01   5.7454196947e+01    0.4417713    0.2370662  47.09  0.001829255    1.913    0.477
        79 -11.6280     50.5490     65.3225   3.9738979731e+01   6.0209008063e+01    0.3382847    0.2645441 -54.46  0.001199516    1.286    0.223
        80  -9.9730    116.6558     61.6730   1.5361647605e+01   4.7015291592e+01    0.1495388    0.1178456  20.31  0.000103743    1.744    0.427
        81  -9.4629     38.6618     59.6795   4.3714181393e+01   6.3334448566e+01    0.1504638    0.1066447 -20.12 0.0005762655    1.712    0.416
        82  -9.5036     25.9927     55.7947   4.9439039831e+01   6.5878316378e+01    0.2201684    0.1409303 -36.33   0.00106414    1.619    0.382
        83 -11.7851     74.8481     50.8850   2.4034723122e+01   5.8571253996e+01    0.3595749    0.2244973 -44.18  0.001658105    1.658    0.397
        84 -10.8789     54.5993     50.6934   3.2392937940e+01   6.2673012137e+01    0.3446569    0.1820024 -41.65  0.001475761    1.981    0.495
        85  -9.6027     21.6796     52.6885   5.1007908999e+01   6.7085097302e+01    0.1456776   0.09589161 -28.03 0.0003030166    1.648    0.393
        86 -12.3308     96.3562     46.5474   1.5345611023e+01   5.4437087413e+01    0.7082437    0.1989602 -41.86  0.002248789    3.544    0.718
        87 -11.1957     62.8301     48.8778   2.7990071266e+01   6.1449849350e+01    0.3030585    0.2503976 -14.85  0.001598368    1.413    0.292
        88  -8.8860     44.3321     53.3182   3.8454613803e+01   6.3896805568e+01    0.1474953    0.1089508 -12.71  0.000704804    1.691    0.409
        89 -10.5700     29.1788     45.6088   4.3897555207e+01   6.7797898858e+01    0.1960908    0.1276849  14.08 0.0009521632    1.712    0.416
        90 -11.7312     83.5882     42.5766   1.7638158104e+01   5.8081364858e+01    0.3338548    0.2637947   0.72  0.001681169    1.687    0.407
        91  -9.7622     98.3911    225.2551   5.4401068591e+01   1.4521112098e+01    0.2444959    0.1448697  17.50 0.0009048792    1.696    0.410
        92  -9.4934     37.3925     36.1978   3.4955535160e+01   6.8526479870e+01    0.1903486    0.1304165 -57.40 0.0009599742    1.705    0.414
        93 -10.4620     83.2408     32.5918   1.3539882256e+01   5.9717512950e+01    0.2064452    0.1212866  48.47 0.0009482132    1.629    0.386
        94 -12.0152     71.7311     36.5890   1.9163594272e+01   6.1743687878e+01    0.4745737    0.2670759  34.03   0.00200673    2.207    0.547
        95 -10.7846    104.8527     26.3020   5.3560521706e+00   5.5305391350e+01    0.2373041    0.1709356 -88.43  0.001215415    1.470    0.320
        96 -10.4885     85.6063     23.2060   8.7267952965e+00   6.0431245295e+01    0.1874423    0.1364143 -12.60 0.0009586228    1.722    0.419
