#   1 NUMBER                 Running object number                                     
#   2 MAG_AUTO               Kron-like elliptical aperture magnitude                    [mag]
#   3 X_IMAGE                Object position along x                                    [pixel]
#   4 Y_IMAGE                Object position along y                                    [pixel]
#   5 X_WORLD                Barycenter position along world x axis                     [deg]
#   6 Y_WORLD                Barycenter position along world y axis                     [deg]
#   7 A_WORLD                Profile RMS along major axis (world units)                 [deg]
#   8 B_WORLD                Profile RMS along minor axis (world units)                 [deg]
#   9 THETA_WORLD            Position angle (CCW/world-x)                               [deg]
#  10 FWHM_WORLD             FWHM assuming a gaussian core                              [deg]
#  11 ELONGATION             A_IMAGE/B_IMAGE                                           
#  12 ELLIPTICITY            1 - B_IMAGE/A_IMAGE                                       
         1 -10.1779     39.3851      6.2904   9.9653799979e+01   6.9495451952e+01    0.9491758    0.3363099 -29.70   0.00431613    2.667    0.625
         2  -9.6789     35.9468     20.1980   1.0791746793e+02   6.7932845236e+01    0.3505071    0.2781685 -22.74  0.001874034    1.056    0.053
         3 -10.7764     39.1244     29.7517   1.1060566350e+02   6.6001522366e+01    0.7827131    0.3421853 -47.34   0.00380104    2.176    0.540
         4 -11.7627     43.3902     20.5062   1.0478570966e+02   6.6965784484e+01    0.7965426    0.7469978  -9.31   0.00442932    1.325    0.245
         5 -10.2835     67.0920     32.8195   1.0074760932e+02   6.1613841818e+01    0.9034585    0.4065609 -45.77  0.003934419    2.520    0.603
         6 -11.7687    108.8529      3.9572   7.5956793746e+01   5.6850750752e+01     1.809927    0.6863408  54.04  0.007709994    2.201    0.546
         7 -11.9026    131.8804      3.1656   7.1061583822e+01   5.1472145330e+01     1.984409    0.7602695  72.29  0.007348967    2.990    0.666
         8 -12.0657    121.2601      3.9012   7.3327512683e+01   5.3969920501e+01      2.20229    0.9047794 -48.11  0.007984385    3.800    0.737
         9 -13.8824    169.6873     16.5987   6.9576772952e+01   4.0653012186e+01     4.381075     1.245976  62.44   0.01515761    2.923    0.658
        10 -10.4978     71.1831      5.3110   8.6856107131e+01   6.4525391182e+01    0.6338732     0.314959  37.47  0.002396984    1.873    0.466
        11  -9.5952    104.8130     25.8025   8.5889976591e+01   5.5414075859e+01    0.5346071    0.3851337 -31.50   0.00287617    1.421    0.296
        12 -13.0044    168.2219      5.0964   6.6184754195e+01   4.2155102422e+01     3.098022    0.8234215  70.41   0.01004033    3.554    0.719
        13 -10.5245    117.0960     16.4634   7.9124243843e+01   5.3738888569e+01    0.9007272     0.339723 -30.00  0.003603733    2.634    0.620
        14 -10.2331    111.5776     15.7138   8.0113896947e+01   5.5087435347e+01    0.5094593    0.2456947  42.65  0.001801164    1.952    0.488
        15 -12.1119     81.7111      7.8292   8.4726571105e+01   6.2261304864e+01     2.288869     1.102645  -2.71  0.009470744    2.995    0.666
        16  -9.5840     94.0215     17.6685   8.5497067961e+01   5.8693262400e+01    0.4014794    0.3529204 -57.61  0.002324094    1.483    0.326
        17  -9.5554     64.3899     16.6510   9.4628212678e+01   6.4387499483e+01    0.3251411    0.2285613 -45.67  0.001544229    1.832    0.454
        18 -10.4020    248.5895     15.5032   6.0762074451e+01   2.1356271096e+01    0.4171436    0.3081929 -19.03  0.002443639    1.600    0.375
        19  -8.3753     20.1075     14.6496   1.1291205700e+02   7.0478405450e+01    0.3469629    0.2014703 -26.33  0.002144818    1.481    0.325
        20  -9.6468    226.6070     13.9697   6.2276103309e+01   2.6617632163e+01    0.3827595    0.1612358 -55.66  0.001574117    2.534    0.605
        21  -9.4102     70.3897     13.5912   9.1066948247e+01   6.3737191597e+01    0.2813279     0.264336 -23.05  0.001898875    1.308    0.236
        22  -8.4537     48.7204      6.3640   9.5690839191e+01   6.8161736605e+01    0.2610725    0.1386519  31.78  0.001041364    1.847    0.459
        23 -10.0032     60.5058      2.5706   8.9188236655e+01   6.6704674368e+01    0.5775889    0.3018454  34.06  0.003096064    1.798    0.444
        24  -8.9052     52.3539      2.2813   9.2117021954e+01   6.8076858547e+01    0.3116761    0.2315165  15.36  0.002038234    1.163    0.140
        25  -9.2589     60.0599      9.7019   9.2915299691e+01   6.5975443347e+01    0.2663049    0.1948365 -30.43  0.001199508    1.408    0.290
        26  -8.4586     55.6599      7.8762   9.3686309574e+01   6.6907406225e+01    0.3068338    0.1854141  48.26  0.001727676    1.933    0.483
        27  -9.9391    249.9984      6.6925   5.8660958771e+01   2.2006021242e+01    0.4390892    0.2495611 -35.55  0.002403198    1.615    0.381
        28 -10.9408    244.6984      8.1038   5.9371836437e+01   2.3042565570e+01    0.7774226    0.2816182 -30.67  0.003384604    2.547    0.607
        29 -10.0974    203.9765      4.6519   6.2018899969e+01   3.3116907219e+01    0.4356255    0.2557001 -34.50  0.002221354    1.694    0.410
        30  -9.4916    200.1949      7.7035   6.3221492259e+01   3.3763053868e+01    0.2146626    0.1979677 -35.07 0.0008572005    1.185    0.156
        31 -10.4633    216.3596      3.2694   6.0516031782e+01   3.0202238922e+01    0.7396601     0.232741  54.89  0.002789103    3.233    0.691
        32  -8.6775     26.2681      2.7218   1.0395715316e+02   7.1595716236e+01      0.21505    0.1537146 -16.56 0.0009708758    1.095    0.087
        33  -8.6776     16.7389      1.7466   1.0834621892e+02   7.2742768532e+01    0.1823541    0.1416795  27.96 0.0008619001    1.616    0.381
        34  -8.5815    198.4787     54.7843   7.6597020572e+01   2.8405616545e+01    0.2679002     0.204449  61.39 0.0008597994    1.308    0.236
        35 -10.2295     88.2695     50.4713   1.0038563091e+02   5.5026111093e+01    0.4877508    0.3937696 -75.56  0.002564274    1.831    0.454
        36 -10.3042     81.2543     39.4151   9.8476597771e+01   5.8153592776e+01     0.590335    0.3886236 -32.92  0.003111757    1.430    0.301
        37  -8.0101     34.7704     52.4284   1.2049852735e+02   6.2250389083e+01    0.2096499    0.1153876  32.22  0.001134962    2.117    0.528
        38  -7.5880     23.2779     52.3207   1.2504761725e+02   6.3299182773e+01    0.1253922   0.07204871 -36.32 0.0003061671    1.580    0.367
        39  -8.8513    111.1308     45.6448   9.1800920202e+01   5.1224775547e+01    0.2868807    0.2061112 -23.42  0.001299977    1.414    0.293
        40  -9.6322     82.0069     47.4104   1.0129608835e+02   5.6687131169e+01    0.4537342    0.3085969 -28.75  0.002372503    1.407    0.289
        41 -10.3634      3.2435     39.6519   1.2990733777e+02   6.7173735089e+01    0.5453866    0.3758284 -50.56  0.002626853    1.087    0.080
        42  -9.2757     11.6053     33.9811   1.2446870797e+02   6.7764037100e+01    0.4367563    0.3427573 -31.95  0.003180124    1.096    0.087
        43  -8.8998     97.1990     43.7915   9.5116921435e+01   5.4424944322e+01    0.2057934    0.1605894   7.01   0.00109098    1.376    0.273
        44  -9.6246    187.7345    248.5225   1.2050254665e+02  -1.0288245454e+00    0.2691374    0.1577818   4.82  0.001317424    3.138    0.681
        45 -10.3039     50.5984     35.1738   1.0803088185e+02   6.3650539375e+01     0.748944    0.3712426 -50.34  0.003562503    2.269    0.559
        46  -9.7470    183.1301    246.1325   1.2098176161e+02  -5.0983660545e-03    0.1835793    0.1360672  22.91  0.001205003    1.285    0.222
        47 -10.7861    159.6403    240.4517   1.2440253876e+02   4.5145404479e+00    0.5127782    0.2011309  49.95  0.002351857    2.440    0.590
        48 -10.5019    173.2370    242.9591   1.2230026499e+02   1.9833065660e+00     0.267993    0.2109074  68.80  0.001776234    1.654    0.395
        49  -8.6149    199.6709    239.6853   1.1717931302e+02  -1.8018077346e+00    0.1208696   0.07817678  16.43 0.0007044735    1.675    0.403
        50 -10.6539    206.3559    227.0262   1.1408165494e+02  -1.2626414374e+00    0.4415981    0.1775647  29.30  0.001846567    2.944    0.660
        51  -8.9829    123.9847    206.0135   1.2660563557e+02   1.6030222230e+01    0.1822583    0.1540855  58.22            0    1.027    0.026
        52  -8.6987    239.0377    203.5270   1.0437926098e+02  -3.5364086544e+00    0.1539592     0.107046  60.67 0.0008089576    2.461    0.594
        53 -12.7675    240.8873    133.2151   8.9679044415e+01   6.2505037299e+00     1.512059     1.228631  43.23  0.005160567    1.314    0.239
        54  -8.5382     27.6663     35.2703   1.1772285612e+02   6.6227227298e+01    0.2386067      0.17253  -6.38  0.001465134    1.440    0.305
        55  -7.2022     59.3109     35.3388   1.0468722140e+02   6.2404928554e+01    0.1348097   0.08981504  -9.13 0.0002147723    1.690    0.408
        56 -10.3818    225.2080     28.9142   6.6166613880e+01   2.5230238216e+01    0.4358238      0.41383  -7.13   0.00166236    1.238    0.192
        57  -9.6484     86.3406     31.2913   9.3543189362e+01   5.8449875339e+01    0.3881758    0.2145415  31.84  0.001596178    1.961    0.490
        58  -8.7821     90.4510     28.7548   9.1216062138e+01   5.8008179688e+01    0.3228546    0.2181848 -26.26  0.001714795    1.437    0.304
        59  -9.1010    125.3421     28.8414   8.1963987058e+01   5.0363960401e+01    0.3440645    0.3257889 -12.56   0.00203322    1.090    0.082
        60  -8.8320     97.5060     27.6889   8.8685675180e+01   5.6721571581e+01    0.4529034    0.2405426  -5.67  0.001771729    2.938    0.660
        61 -11.6498     10.9325    139.9319   1.4362386793e+02   4.4809023190e+01    0.5826752    0.3702305 -84.29   0.00373221    1.250    0.200
        62  -9.9800      4.0431    138.7847   1.4514476670e+02   4.5574676017e+01    0.3276624    0.2054155 -50.04  0.002086178    1.806    0.446
        63  -8.7067     27.5939     26.4618   1.1438504100e+02   6.7801729582e+01     0.382092    0.2157513  41.45  0.002130294    2.484    0.597
        64  -9.0836     10.6600     25.5237   1.2199850768e+02   6.9392784098e+01    0.3172639    0.1315636 -38.64  0.001701337    1.935    0.483
        65  -9.5737     41.4061    141.0111   1.3631484977e+02   4.1766158191e+01    0.3125518    0.1810219 -86.48  0.001643582    1.712    0.416
        66 -10.7327     11.9915    128.0029   1.4216525412e+02   4.7397314838e+01    0.4519526    0.1307179 -69.25  0.001988035    2.546    0.607
        67 -11.1094     13.9528    120.5482   1.4081986962e+02   4.8934213908e+01     0.406665    0.2695053  66.85   0.00254392    1.575    0.365
        68 -10.1660     19.5079    107.6653   1.3760849697e+02   5.1443202525e+01    0.5590054    0.2765659  60.34  0.002721242    2.678    0.627
        69  -8.4601     19.0013     22.6377   1.1686870647e+02   6.9251606868e+01    0.1605717    0.1261738 -19.49 0.0009359304    1.107    0.096
        70  -9.0455    158.4934     37.4780   7.8126857800e+01   4.1054316582e+01    0.1461389    0.1389739  48.68 0.0008100957    1.027    0.026
        71  -9.8951     49.6993     27.7839   1.0534535504e+02   6.4993909890e+01    0.3406733    0.3373713 -68.77  0.001641013    1.456    0.313
        72  -9.6659     30.0175    101.9984   1.3362933064e+02   5.1870526179e+01    0.3630541    0.2325699 -42.32  0.002084929    1.629    0.386
        73  -9.5950     47.2417     98.5215   1.2771677871e+02   5.0963214991e+01    0.3205284     0.159149 -65.08  0.001223708    1.837    0.456
        74 -12.1848     43.1609     82.1352   1.2543723263e+02   5.5103530162e+01     1.051914    0.9443479  -6.21  0.006000185    1.278    0.218
        75  -7.8147      8.1716     18.1406   1.2042136149e+02   7.0870517399e+01     0.143657    0.1206545 -53.77   0.00107418    1.416    0.294
        76  -9.2391      2.5678     89.3113   1.4002982958e+02   5.6690741029e+01    0.2659531    0.1919617  82.68   0.00152997    1.432    0.302
        77  -7.8067     13.3530     15.7437   1.1679404434e+02   7.0887215402e+01     0.169431    0.0763526 -39.97 0.0009483946    1.708    0.414
        78  -7.8591    101.4769     82.9927   1.0706183485e+02   4.6302461723e+01    0.2156249    0.1260074 -65.87   0.00080986    2.684    0.627
        79 -10.0660     24.3235     65.6167   1.2813117552e+02   6.0443436338e+01    0.7290836    0.2050382 -55.65   0.00307622    2.538    0.606
        80  -9.0211    110.4938     38.4944   8.9309088653e+01   5.2445806235e+01    0.1417579     0.131453  11.93 -1.297875e-06    1.001    0.001
        81 -11.6125     13.4437     73.8723   1.3385483056e+02   5.9445276639e+01    0.8707258    0.6526557 -59.54  0.005907875    1.039    0.038
        82 -10.2697      3.5544     75.9389   1.3763302465e+02   5.9578866315e+01    0.4964086    0.3267185 -67.63  0.002510963    1.181    0.153
        83  -9.2850    227.5763     78.9321   7.8672715417e+01   1.7692358133e+01    0.3987457    0.2852805  19.67  0.001884675    1.903    0.475
        84  -7.4479    204.2542     76.6667   8.1717604650e+01   2.3598101641e+01    0.1526056    0.1094739 -59.73 0.0002761214    1.563    0.360
        85  -9.2786     82.8897     69.5006   1.0863159072e+02   5.2390028227e+01    0.4543838    0.3055692   4.74  0.002075846    2.187    0.543
        86 -10.4399     75.0750     68.3028   1.1081303710e+02   5.3901425956e+01    0.5045151    0.4727635 -26.81  0.003096961    1.050    0.048
        87  -8.5125     33.0819     68.6934   1.2568284210e+02   5.9032449346e+01    0.2568145    0.1921472 -19.15  0.001588308    1.496    0.332
        88  -9.2650     16.3035     64.3319   1.3080554087e+02   6.1312990098e+01    0.2542081    0.1657309 -61.88 0.0009767396    1.258    0.205
        89  -8.5652     16.0965     58.5944   1.2953018846e+02   6.2539381710e+01    0.2841282    0.1494482 -69.61  0.001269608    1.916    0.478
        90  -8.4788     98.6653     36.6893   9.1945525896e+01   5.5220010195e+01    0.1463091    0.1012289  14.79 0.0006360293    1.680    0.405
        91  -9.3600     48.8181     61.6962   1.1797379558e+02   5.8855522262e+01    0.3432769    0.3001006 -15.60  0.002222763    1.160    0.138
        92  -8.8003     66.9760     56.5451   1.0974196684e+02   5.7462678691e+01    0.2381748    0.1785326 -61.79  0.001290039    1.637    0.389
