#   1 NUMBER                 Running object number                                     
#   2 MAG_AUTO               Kron-like elliptical aperture magnitude                    [mag]
#   3 X_IMAGE                Object position along x                                    [pixel]
#   4 Y_IMAGE                Object position along y                                    [pixel]
#   5 X_WORLD                Barycenter position along world x axis                     [deg]
#   6 Y_WORLD                Barycenter position along world y axis                     [deg]
#   7 A_WORLD                Profile RMS along major axis (world units)                 [deg]
#   8 B_WORLD                Profile RMS along minor axis (world units)                 [deg]
#   9 THETA_WORLD            Position angle (CCW/world-x)                               [deg]
#  10 FWHM_WORLD             FWHM assuming a gaussian core                              [deg]
#  11 ELONGATION             A_IMAGE/B_IMAGE                                           
#  12 ELLIPTICITY            1 - B_IMAGE/A_IMAGE                                       
         1 -13.3463    170.3661     55.8638   6.1390370163e+01   3.5398880987e+01     2.450301     1.456207  26.88  0.007150121    2.535    0.606
         2 -13.1398    185.5425     40.7340   5.4153608054e+01   3.3703483710e+01    0.9629754    0.8254016 -56.26  0.002797222    1.169    0.145
         3 -12.8604    190.3814     34.4745   5.1584685964e+01   3.3289877763e+01    0.6347176    0.5940939 -57.89  0.001464653    1.066    0.062
         4 -12.6144    199.2410     23.3260   4.7221025592e+01   3.2400328572e+01    0.6467867    0.4625583  89.87   0.00262118    1.409    0.290
         5 -13.9253    208.6024      9.6079   4.2460527874e+01   3.1575780894e+01     1.090429     1.069843 -46.10  0.004226556    1.183    0.155
         6 -12.2409    192.5813     15.3703   4.5809921314e+01   3.5008118194e+01    0.8444306     0.422005  65.31  0.003790673    1.817    0.449
         7 -11.8889    239.5045      2.2899   3.7977004370e+01   2.4940667218e+01     1.084891    0.2643858  75.92  0.003706026    4.171    0.760
         8 -11.7179     58.0590    214.5445   1.2082347295e+02   2.3417703743e+01    0.2393631    0.1552216  59.43  0.001076074    1.250    0.200
         9 -13.3689    246.0561    240.4252   8.9062085113e+01  -9.8450374651e+00     1.532182    0.7346194 -23.84  0.008729518    2.254    0.556
        10 -17.5424     41.7702    242.1001   1.2567181521e+02   2.0322912425e+01     7.036161     4.689652  32.67   0.04829431    1.953    0.488
        11 -19.1678     24.2953    101.0078   1.1589354928e+02   5.2380880436e+01     17.71998     1.417667 -67.59   0.03549902   10.926    0.908
        12 -11.5831     64.9319    194.9799   1.1765310389e+02   2.6470602862e+01     0.335397    0.2227636 -49.50   0.00134062    1.976    0.494
        13 -10.1648    156.7321    189.9616   9.7414562957e+01   1.2429898289e+01    0.2297024    0.1828175  41.50 0.0003916178    1.133    0.117
        14 -11.7209    149.6204    188.1309   9.8607915177e+01   1.4098791554e+01    0.3781672    0.3299868  46.00  0.001809995    1.034    0.033
        15 -11.5129    141.0357    188.7061   1.0054111139e+02   1.5570781844e+01    0.3243871    0.2717364 -50.50  0.001726934    1.322    0.244
        16 -11.5874     61.3362    204.2577   1.1928274361e+02   2.5036568088e+01    0.2211132    0.1910179  89.64 0.0005150653    1.199    0.166
        17 -11.0408    151.3713    180.6327   9.6925437797e+01   1.5214782678e+01    0.3797973    0.2534353 -70.24  0.001311128    2.054    0.513
        18 -11.2579     99.4232    180.8982   1.0848419280e+02   2.4396985316e+01    0.2921237    0.2568131  40.42  0.000641448    1.244    0.196
        19  -8.7541    192.6649    205.2877   9.2809001920e+01   3.2360474464e+00    0.1246858    0.1005535  64.69 0.0003909488    1.629    0.386
        20 -10.8518    188.9631    176.9054   8.8314918023e+01   8.6255218868e+00    0.6681111    0.3995976 -58.66  0.002303982    2.500    0.600
        21 -10.6452     71.8298    244.2100   1.2070937354e+02   1.6193270523e+01    0.2079318    0.1346106 -86.00  0.001408006    1.560    0.359
        22  -9.5633    240.3351    169.3012   7.7063628323e+01   2.1638917172e-01    0.1393107   0.09377031   7.78 0.0003139775    1.658    0.397
        23  -9.1401      7.1335    161.1420   1.2686522767e+02   3.9976212544e+01    0.1543346    0.1226901 -77.93 0.0003080096    1.208    0.172
        24 -10.9975     93.6348    157.3745   1.0622063018e+02   3.0557804271e+01    0.2497487    0.2322665 -85.49 0.0002359799    1.072    0.067
        25  -9.2955    149.2427    156.0653   9.2693706517e+01   2.0606225966e+01    0.2439497    0.1733402 -81.23   0.00107185    2.020    0.505
        26 -11.4385     70.7475    207.1667   1.1769404918e+02   2.3199175745e+01    0.4681547    0.2846645  24.52  0.002434011    2.509    0.601
        27 -10.9317    133.8974    145.5065   9.4114746008e+01   2.5961003702e+01     1.223443    0.3047034 -54.96  0.002887547    6.060    0.835
        28 -11.8763     98.9992    150.9133   1.0378912732e+02   3.1161732257e+01     0.577198    0.4550249 -29.37   0.00299248    1.676    0.403
        29  -9.8347    113.4767    151.3370   1.0027909681e+02   2.8541448081e+01    0.3156688    0.2159205  84.51  0.001346365    1.943    0.485
        30  -9.7671    174.7879    148.9219   8.5448332150e+01   1.6744123202e+01    0.2762973    0.2126164 -64.05 0.0008753311    1.590    0.371
        31 -11.0117    192.9874    195.2285   9.0969811433e+01   4.7728249419e+00     0.898609    0.4621761 -60.57  0.003102121    4.739    0.789
        32  -9.3890     92.1813    146.9297   1.0479632901e+02   3.3206956577e+01    0.2255536    0.1841984  82.04  0.001230021    1.232    0.188
        33  -8.7231    113.6302    142.3062   9.8473397410e+01   3.0570956027e+01    0.1568071    0.1113141  75.61 0.0007034285    1.757    0.431
        34 -11.1094    109.4370    137.4965   9.8563534884e+01   3.2444009556e+01    0.5531392    0.3142539 -40.08  0.002314964    2.079    0.519
        35 -11.8460     98.0252    136.8842   1.0140895326e+02   3.4590224413e+01    0.2972095    0.2706077 -58.65 0.0004373344    1.103    0.094
        36 -10.9236    105.9430    130.7844   9.8070359844e+01   3.4633023255e+01    0.4001624    0.3213323 -68.42  0.001227938    1.246    0.197
        37 -10.0528    116.0874    128.7641   9.4957982391e+01   3.3219595099e+01    0.3344093    0.2627936 -27.92 0.0007469188    1.539    0.350
        38  -9.8211    161.6389    128.4961   8.3651190513e+01   2.3753389989e+01    0.4554301    0.3060378  77.55  0.001786622    2.367    0.578
        39  -9.1218     87.5127    202.7721   1.1384350627e+02   2.1691412247e+01    0.2167296    0.1637921  23.03  0.001014739    1.829    0.453
        40 -10.5068    103.9999    124.3780   9.7196588265e+01   3.6475454122e+01    0.3027987    0.2581296 -18.94  0.000832807    1.437    0.304
        41  -9.2509    120.5330    123.2694   9.2530955797e+01   3.3612670578e+01    0.2153855    0.1415193 -38.67 0.0009413433    1.652    0.395
        42  -9.6910    135.0000    120.4084   8.8106134123e+01   3.1294093210e+01    0.3427698   0.08737046 -46.49 0.0009296758    3.894    0.743
        43  -9.4270    152.6145    119.5400   8.3550679287e+01   2.7645671075e+01    0.3031406    0.1917809 -47.74  0.001038991    1.598    0.374
        44  -9.4473    111.0089    118.0536   9.3840018412e+01   3.6649086725e+01    0.2200097    0.2108777 -78.96            0    1.021    0.020
        45  -9.8116    231.2788    113.7313   6.6181924624e+01   1.0932984823e+01    0.2566581    0.2326453  -3.64 0.0007494685    1.112    0.101
        46  -9.6581    167.7001    112.6999   7.8290523510e+01   2.5619118469e+01    0.3957378    0.2851478 -81.07  0.001512164    2.065    0.516
        47 -11.0891    119.2431    110.4102   8.9719846720e+01   3.6780678218e+01    0.5918486    0.3725489  62.27  0.002442186    2.050    0.512
        48 -10.1061    134.6054    105.1041   8.4259063680e+01   3.4725316602e+01    0.5393803     0.148708 -44.54  0.001528146    3.574    0.720
        49  -9.7795     73.5062    107.4945   1.0213115457e+02   4.5403537595e+01    0.1413345    0.1273569 -61.08 -4.844012e-05    1.006    0.006
        50  -9.6377    205.5128    110.1970   6.9853959585e+01   1.7278056695e+01    0.2680926    0.2152948  49.96 0.0006291145    1.289    0.224
        51  -9.6823    184.6816    212.1591   9.5504560976e+01   3.5771287846e+00    0.1823454    0.1692142 -79.70 0.0008969175    1.413    0.292
        52  -9.8041    186.5788     86.6079   6.7225294346e+01   2.6080414690e+01    0.2988459    0.2791659 -72.08  0.001181879    1.110    0.099
        53  -8.8781    152.6235     82.1459   7.3229641415e+01   3.5257953008e+01    0.2194635    0.1492089 -25.78 0.0005725166    1.652    0.395
        54  -8.9010     73.2793     73.4299   9.3391139578e+01   5.3153580947e+01    0.1737459    0.1337283  47.44 0.0004772375    1.510    0.338
        55  -9.4894     89.2843    242.0236   1.1745570570e+02   1.4162659487e+01    0.1482068    0.1166037  81.26 0.0005918728    1.224    0.183
        56 -12.6961     75.2695    249.0564   1.2048892437e+02   1.4916215715e+01    0.3103295    0.1564581 -61.25  0.001878273    2.361    0.576
        57 -10.8572     62.8358    220.8623   1.2045447961e+02   2.1588596677e+01    0.3478989    0.1731039  71.67   0.00150973    2.107    0.525
        58  -8.8181     95.5151     63.4367   8.2860293989e+01   5.1404031695e+01    0.1436561    0.1345788 -16.62 0.0001142637    1.013    0.013
        59  -9.2107     13.8616    201.4808   1.2813999108e+02   3.0938601604e+01    0.1045723   0.09460353 -62.51 0.0005624583    1.600    0.375
        60 -11.5628    151.1404    195.9143   9.9582688986e+01   1.2359913404e+01     0.535311    0.3069744  34.74  0.002553728    1.727    0.421
        61 -10.0864     80.4501    194.6429   1.1437994610e+02   2.4389201547e+01    0.4899683    0.2013325  53.12  0.001818468    2.347    0.574
