#   1 NUMBER                 Running object number                                     
#   2 MAG_AUTO               Kron-like elliptical aperture magnitude                    [mag]
#   3 X_IMAGE                Object position along x                                    [pixel]
#   4 Y_IMAGE                Object position along y                                    [pixel]
#   5 X_WORLD                Barycenter position along world x axis                     [deg]
#   6 Y_WORLD                Barycenter position along world y axis                     [deg]
#   7 A_WORLD                Profile RMS along major axis (world units)                 [deg]
#   8 B_WORLD                Profile RMS along minor axis (world units)                 [deg]
#   9 THETA_WORLD            Position angle (CCW/world-x)                               [deg]
#  10 FWHM_WORLD             FWHM assuming a gaussian core                              [deg]
#  11 ELONGATION             A_IMAGE/B_IMAGE                                           
#  12 ELLIPTICITY            1 - B_IMAGE/A_IMAGE                                       
         1 -11.0882     31.0374     15.1391   5.6901191072e+01   7.4245623215e+01    0.3329199    0.1795319 -30.94  0.001518829    2.032    0.508
         2  -9.9545     55.1299     10.8697   4.0494906388e+01   7.0006287487e+01    0.1992494    0.1565145  27.81  0.001082209    1.316    0.240
         3 -10.2618     40.4738      9.9733   4.7127311760e+01   7.3292050792e+01    0.1897684    0.1088075 -54.32 0.0008100243    2.570    0.611
         4 -10.9647     84.4023      8.2377   2.9476232237e+01   6.3116988358e+01    0.2421047    0.1704728 -36.41 0.0006711108    1.466    0.318
         5 -10.8576     92.9874      8.5307   2.7715067616e+01   6.0850327517e+01    0.2225947     0.132354  70.73   0.00103012    1.589    0.371
         6 -12.8407    198.3465      5.0944   1.5124933811e+01   3.4546824895e+01     0.671016    0.2233691  68.03  0.002870347    3.061    0.673
         7 -11.1188     88.5964      4.4343   2.6521494549e+01   6.2387970394e+01    0.2776011    0.2194985 -80.31 0.0007642112    1.309    0.236
         8 -11.0269    159.0091      3.8319   1.7299260316e+01   4.3978623987e+01    0.2253914    0.1323945  50.63  0.001090145    2.003    0.501
         9 -11.8450     20.9219      4.3293   5.6298928589e+01   7.7737647410e+01    0.4321949     0.238153  44.72  0.002164104    1.913    0.477
        10 -10.9529    189.8833      1.6229   1.4637753293e+01   3.6776877531e+01    0.3565857    0.1020388  75.19  0.001389436    3.366    0.703
        11  -9.5052     84.7002    237.9891   8.7487517843e+01   1.4950438522e+01    0.1487085    0.1263116  39.28 0.0001950041    1.098    0.090
        12 -10.2551    238.0070    248.7932   6.0641674515e+01  -3.2113212925e+00    0.1895452    0.1112803 -30.84  0.001462441    1.815    0.449
        13  -9.5749     86.0058    250.7538   8.8241166795e+01   1.2736569347e+01    0.1505855   0.07435691  30.11 0.0005908681    1.531    0.347
        14 -13.6844     54.2639    248.6492   9.4660712561e+01   1.6472556463e+01     1.966596    0.6343195  23.54  0.005995316    3.060    0.673
        15 -14.4529     10.1485    186.8036   1.0183940152e+02   3.2984934140e+01     2.286744     1.574068  33.90   0.01339535    1.317    0.241
        16 -15.2063     94.9286    195.6420   8.0851353369e+01   2.1478429509e+01     1.792739     1.188477 -78.40  0.004983773    1.961    0.490
        17 -16.5311     69.7412    192.4629   8.6761534276e+01   2.5436951057e+01     3.336852     2.882887  86.78    0.0209712    1.233    0.189
        18 -10.4765     86.9194    229.4112   8.6262353221e+01   1.6158228001e+01    0.4959608   0.09863936  31.62  0.001799199    3.537    0.717
        19 -11.2750    191.9648    225.6612   6.4813391026e+01   4.0079850266e+00    0.1672246     0.139096 -14.67 0.0008162529    1.283    0.221
        20 -10.7647    212.1818    223.5283   6.1109236800e+01   2.0249140426e+00     0.226974    0.1371586 -10.73  0.001242581    1.486    0.327
        21 -11.3639     76.6250    220.5685   8.7775105858e+01   1.8970233658e+01    0.4087298    0.2018248 -42.79  0.001977912    2.879    0.653
        22 -11.2705    125.1421    221.7529   7.7192455985e+01   1.2741088838e+01    0.2476107    0.1985758  40.18 0.0003994941    1.237    0.192
        23 -10.0914    159.8979    221.8553   7.0168081186e+01   8.3431182375e+00     0.185849    0.1300865   4.76  0.000629278    1.346    0.257
        24 -15.2868     19.9361    212.9456   1.0047520425e+02   2.6492951924e+01     1.845885     1.101059  71.10    0.0111021    1.555    0.357
        25 -11.0517    223.2145    220.3426   5.8884816319e+01   1.2183076796e+00    0.1869449    0.1384889 -13.46 0.0006377972    1.178    0.151
        26 -11.3389    173.7821    219.8247   6.7255166477e+01   6.9235071220e+00    0.2554672    0.1784386 -30.30  0.001261352    1.473    0.321
        27 -10.2642    190.3064    220.3258   6.4340168462e+01   4.8821349558e+00    0.1164511   0.07113958  -2.32  0.000406898    1.649    0.394
        28  -9.7384     95.6578    225.3242   8.3955604213e+01   1.5821104046e+01    0.1939382    0.1165143  52.25 0.0007800487    1.756    0.431
        29 -10.5660    110.4327    214.4438   7.9508843211e+01   1.5873041561e+01    0.3262399    0.1931649 -20.87  0.001245789    2.663    0.624
        30 -10.7038    135.8275    212.3842   7.3748729954e+01   1.2892922608e+01    0.3054618    0.1861207 -47.40  0.001755731    1.877    0.467
        31 -10.5067    184.0375    213.5138   6.4459226645e+01   6.5403913561e+00    0.1692157   0.09656752  27.80 0.0004414921    1.540    0.351
        32 -10.3627    125.0238    212.5466   7.6076400062e+01   1.4292296583e+01    0.2305043    0.1593789 -28.74  0.001016727    1.695    0.410
        33 -10.3083    209.9753    211.7901   5.9718343634e+01   3.6927499108e+00    0.1522304    0.1238727  44.68  0.001072441    1.979    0.495
        34 -11.9928    154.2681    210.2626   6.9661766326e+01   1.0801264284e+01    0.3971661    0.2155625  14.90  0.002019554    2.083    0.520
        35 -11.3920    141.4461    211.2952   7.2425758255e+01   1.2328307125e+01    0.2389742    0.1817527  44.71 0.0001924822    1.450    0.310
        36 -10.7241    229.3242    208.6595   5.6167513901e+01   1.9191306744e+00    0.2843382    0.1377775 -31.82  0.001766204    1.844    0.458
        37 -10.3479    160.2498    206.4338   6.7912051670e+01   1.0606018956e+01    0.1643064    0.1010924  37.26 0.0008000196    1.571    0.363
        38 -10.2567    224.0242    205.4789   5.6486843515e+01   2.8792891847e+00    0.1559052   0.09258962  26.79  0.001034406    1.601    0.376
        39 -11.6648    147.0011    201.5008   6.9874869402e+01   1.3185878768e+01    0.3308736    0.1534684  41.59  0.001577304    2.168    0.539
        40 -10.1267    123.9959    205.5485   7.5388732224e+01   1.5644168861e+01    0.1759622    0.1654314  -6.57  0.000507701    1.147    0.128
        41 -10.8664    129.5156    201.3030   7.3592934322e+01   1.5636755136e+01    0.2326326    0.1443411  11.63  0.001191696    1.872    0.466
        42 -10.4591    120.7724    200.6183   7.5445288748e+01   1.6970744625e+01    0.2302828     0.139244  37.50  0.000678895    1.463    0.317
        43 -11.3685    145.7891    204.4289   7.0555432424e+01   1.2867860234e+01    0.2652641    0.1733954   8.74  0.001231066    1.658    0.397
        44  -9.9631    183.2931    199.6187   6.2459149468e+01   8.5939990890e+00    0.1029394   0.09701774  80.89 0.0001579144    1.752    0.429
        45 -10.4583    212.2920    199.7465   5.7445928224e+01   4.9500916014e+00    0.1952352    0.1208353 -38.89  0.001234332    1.769    0.435
        46 -15.2289      8.2863    227.3495   1.0358218420e+02   2.4671445336e+01     1.041365    0.4468575  28.92  0.005429723    1.875    0.467
        47 -11.7309    124.3268    195.5393   7.3936168351e+01   1.7403487677e+01     0.347164    0.2803642 -11.18  0.002105457    1.354    0.262
        48 -10.1958    172.8603    195.8453   6.3816326785e+01   1.0545702403e+01    0.1831428     0.141284  -0.43 0.0003268843    1.176    0.149
        49 -11.2416    192.7250    194.8316   5.9981267470e+01   8.0545163573e+00     0.340567    0.2258355 -22.71  0.002139233    1.393    0.282
        50 -11.0732    189.4765    194.9501   6.0581286016e+01   8.4610770418e+00    0.2563359     0.178178 -17.22 0.0008648725    1.330    0.248
        51 -11.0732    146.9852    194.7422   6.8859162565e+01   1.4324647761e+01    0.1794071    0.1504913  17.92 0.0003921063    1.040    0.039
        52 -10.1910    218.5865    193.1957   5.5359569838e+01   5.0412147070e+00    0.1695187   0.08656282 -23.20 0.0009599341    1.826    0.452
        53 -10.5818    163.1816    193.1426   6.5278469087e+01   1.2305709259e+01    0.1624925    0.1419885  38.41 0.0004644285    1.331    0.249
        54 -14.6124     11.9579    218.5446   1.0251306585e+02   2.6073352693e+01     1.104952    0.5037163  23.48  0.005227338    2.053    0.513
        55 -11.2234    143.4809    190.5887   6.8961944938e+01   1.5545357350e+01    0.2334077    0.1928816 -36.26  0.001455691    1.287    0.223
        56 -14.4197     60.4296    233.0954   9.2378872522e+01   1.8517275465e+01     2.221164    0.8262313  21.83  0.009656338    2.890    0.654
        57 -10.1326    180.6531    189.6711   6.1328308093e+01   1.0425338808e+01    0.1303885   0.08337892  -2.31  0.000704983    1.756    0.431
        58 -10.4993    172.8646    188.6032   6.2631903850e+01   1.1671634113e+01    0.1761195    0.1064233  41.67 0.0009547224    1.799    0.444
        59 -11.2047    123.0734    187.6653   7.3073384423e+01   1.9060614740e+01    0.3106098    0.2062078  37.29  0.001043268    1.369    0.270
        60 -10.6653    135.4904    187.5268   7.0232716091e+01   1.7261147137e+01    0.1310978    0.1153993  14.63 4.808124e-05    1.024    0.023
        61 -13.9365     28.0469    245.6924   9.9973045021e+01   1.9554342606e+01    0.4400243    0.2936109  20.95  0.002191657    1.506    0.336
        62 -10.3740    248.4314    185.9286   4.9712097347e+01   2.5009034439e+00    0.1656044    0.1413919  20.32 0.0007079105    1.531    0.347
        63 -10.8751    118.5279    178.6698   7.2768436478e+01   2.1498756286e+01    0.3117093    0.1932514 -47.34  0.001575574    1.730    0.422
        64 -10.6835     24.4366    179.1857   9.7663742086e+01   3.3481063063e+01    0.2441631    0.2132872  86.96  0.000774556    1.168    0.144
        65 -12.4127    137.6635    177.0298   6.8045674661e+01   1.8883065374e+01    0.3690515    0.2519173  66.80  0.001748326    2.420    0.587
        66 -10.9237    190.4550    177.1792   5.7371164887e+01   1.0960295293e+01    0.2353823    0.1604937  49.30  0.001333006    2.010    0.502
        67 -11.3947    154.8586    177.1415   6.4315771304e+01   1.6221103705e+01    0.1879086    0.1783845  28.50 0.0004584409    1.193    0.162
        68 -17.0174     16.2752    238.2750   1.0218161084e+02   2.1944976047e+01     2.386645     1.662247  17.66   0.01379204    1.569    0.363
        69 -11.5479    127.8914    175.8182   7.0089336202e+01   2.0627858231e+01    0.2516125    0.1844571 -89.81  0.001243265    2.183    0.542
        70 -11.1630    113.3551    175.3563   7.3506107057e+01   2.2960507866e+01    0.2602417    0.2269026  16.24 0.0008646102    1.134    0.119
        71 -10.4508      6.9463    175.1869   1.0223599464e+02   3.5933996091e+01    0.1953596    0.1661336 -75.05 0.0004573246    1.304    0.233
        72 -11.2314    104.4241    174.9612   7.5674134321e+01   2.4398158166e+01    0.3460388    0.2318171  33.35 0.0003781693    1.371    0.270
        73 -12.3376    105.3655    169.8684   7.4647436008e+01   2.5343829322e+01    0.4900739    0.3546533  68.29  0.001961747    1.742    0.426
        74 -10.9471     27.4215    172.0242   9.6375383255e+01   3.4898810314e+01    0.2344488    0.2212978   4.16  0.001214528    1.293    0.226
        75 -11.1006    194.3271    171.3479   5.5627701927e+01   1.1295452111e+01    0.3640048    0.1027478  32.85  0.001266634    4.392    0.772
        76 -11.2973     53.3318    167.3306   8.8558393057e+01   3.3211377168e+01    0.3245514    0.2396176 -13.65  0.001242122    1.887    0.470
        77 -11.2268     47.7214    170.6286   9.0498406612e+01   3.3080193810e+01     0.299473    0.1956318  22.49 0.0008615275    1.602    0.376
        78 -11.5051     48.6870    167.6999   8.9932929116e+01   3.3674807854e+01    0.2669656     0.253698  30.55 0.0005759023    1.167    0.143
        79 -10.4363      2.9856    170.5125   1.0314997854e+02   3.7346957692e+01    0.2211513    0.1566716 -71.53 0.0006336552    1.492    0.330
        80 -12.3092    152.5934    168.1828   6.3203970151e+01   1.8182266606e+01    0.5579205    0.1549585 -47.61  0.001886782    3.846    0.740
        81 -13.2516    131.5014    168.5073   6.8001359728e+01   2.1500142187e+01    0.5894496    0.3385065  39.45  0.002828356    1.658    0.397
        82 -10.6097     91.0915    236.6378   8.6007134864e+01   1.4438075169e+01    0.2372406    0.1765076  26.50  0.001603107    1.127    0.113
        83 -10.5337    172.0000    166.9485   5.8981759994e+01   1.5341532687e+01    0.2128418   0.07000105 -42.39 0.0008091396    2.989    0.665
        84 -10.6863     28.1177    166.4664   9.5782162779e+01   3.6182812202e+01    0.3964371     0.106806  27.03  0.001424691    3.167    0.684
        85 -10.9804    205.8534    164.6783   5.2414338373e+01   1.0645614360e+01    0.2182923     0.145823 -21.67 0.0008716963    1.339    0.253
        86 -10.7903     22.3378    173.9866   9.7928712104e+01   3.4907957873e+01    0.2689819    0.1942189 -78.90  0.001553172    1.394    0.282
        87 -10.4660     81.3697    234.0070   8.7871867896e+01   1.6009481959e+01    0.1932256    0.1463417  50.17 0.0006923562    1.237    0.191
        88 -12.4426    219.9470    230.5606   6.0878975432e+01   4.0403554995e-01     0.212458    0.1640589  -7.00  0.000368086    1.202    0.168
        89 -10.6305     24.5994    144.2799   9.5104321128e+01   4.2152459684e+01    0.2988915    0.2108453  82.78 0.0009249449    1.317    0.241
        90 -11.8392     21.1056    160.3884   9.7418337375e+01   3.8346736468e+01    0.5594571    0.4563936  72.41   0.00255921    1.075    0.070
        91 -13.1369     21.4894    153.7638   9.6839698146e+01   3.9985285890e+01    0.9907827    0.5745919  23.78  0.004903514    1.767    0.434
        92 -10.3892     10.6969    167.1555   1.0084215247e+02   3.7562500546e+01    0.2993962    0.2595708  -4.57  0.001876475    1.467    0.318
        93 -14.2621     88.3204    205.4328   8.3567048056e+01   2.0412776751e+01     1.110111    0.7876225 -72.26  0.003926801    1.689    0.408
        94 -11.5103    159.2700    160.1798   6.0286755012e+01   1.8561268981e+01    0.2389449    0.1739518  20.03 0.0007973122    1.417    0.294
        95 -11.6987    171.0354    159.0231   5.7663836247e+01   1.6851432195e+01    0.2980084    0.1668802  51.21  0.001372725    2.357    0.576
        96  -9.9262    130.3566    232.3056   7.7354998810e+01   1.0427259165e+01    0.1197027   0.07930774   0.85 0.0005706287    1.721    0.419
        97 -11.5647     59.2567    158.7415   8.5834741859e+01   3.4569680006e+01     0.311224    0.2140951  55.21 0.0008414582    1.393    0.282
        98 -10.7905     45.7738    159.1928   8.9913491596e+01   3.6108156158e+01    0.3126273    0.2098812   3.69  0.001492998    2.005    0.501
        99 -12.2654    113.4098    156.2275   7.0266725253e+01   2.7019604042e+01    0.4608142    0.2325811 -55.46  0.001947267    2.119    0.528
       100 -11.5017     97.5311    157.1138   7.4639008106e+01   2.9404553674e+01    0.2943673    0.2095884  26.45  0.001059224    1.440    0.305
       101  -9.8936    141.6848    155.3561   6.3209273035e+01   2.2418992484e+01    0.1381058    0.1122503  81.73  0.000704491    1.744    0.427
       102 -10.4883    212.2601    153.9880   4.9333967952e+01   1.1294614961e+01    0.1631483   0.09163316 -33.54 0.0005331413    1.543    0.352
       103 -11.1438     50.7765    154.0431   8.7821611832e+01   3.6808142894e+01    0.2459408     0.200269  26.95 0.0003861395    1.278    0.217
       104 -10.5318     39.3793    154.3103   9.1356803282e+01   3.8060441724e+01    0.3508451    0.1374097  17.26  0.001229525    3.347    0.701
       105 -11.8718    170.7930    150.5782   5.6035595815e+01   1.8368190435e+01    0.3582258    0.2765908  87.94  0.001797984    2.320    0.569
       106 -11.2502    126.0521    151.7176   6.6223921919e+01   2.5846697241e+01    0.2510301    0.1973624  31.60 0.0006832294    1.245    0.197
       107 -11.3684    129.8232    150.8512   6.5129826002e+01   2.5375787603e+01    0.2643453    0.2033165  59.49 0.0004953024    1.539    0.350
       108 -12.4717    108.8181    148.5702   7.0059356966e+01   2.9493360300e+01    0.4281719    0.3369574 -49.28  0.001200803    1.310    0.237
       109 -13.3805    102.8199    142.2010   7.0479305495e+01   3.1981012384e+01    0.9350812    0.4594071  42.11  0.003561779    1.968    0.492
       110 -10.1817    180.3190    150.6504   5.4208318036e+01   1.6774895118e+01    0.1254683     0.106348 -74.34  0.000704822    1.737    0.424
       111 -11.3976    147.0445    150.0123   6.0935141845e+01   2.2544768861e+01    0.2171109    0.2088735   0.78 0.0009625892    1.047    0.045
       112 -11.6649     84.2392    149.4279   7.7099192007e+01   3.3302252041e+01    0.4010502    0.2968361 -35.58  0.001968544    1.613    0.380
       113  -9.6102    206.6677    149.2701   4.9308431139e+01   1.2829012234e+01    0.1099987   0.09871747 -64.32 0.0003046211    1.589    0.371
       114 -10.0293    224.4416    148.4792   4.6397117619e+01   1.0333269433e+01    0.1205456   0.09738132 -21.92 5.022124e-05    1.065    0.061
       115 -12.1260     23.1030    149.2794   9.5996099265e+01   4.0990169303e+01    0.7622019    0.1537576  31.61  0.002261451    3.455    0.711
       116 -10.0339      4.9735    147.2980   1.0159694027e+02   4.2963952967e+01    0.1799898    0.1493418  45.42 0.0002249738    1.158    0.136
       117 -15.3234     62.7061    205.3093   8.9724885559e+01   2.3596490628e+01     3.379478     0.808026  37.31   0.01291751    2.881    0.653
       118 -10.1629    112.8911    228.4135   8.0550041223e+01   1.3184159366e+01    0.2208614    0.1450509 -32.41  0.001324679    1.901    0.474
       119 -11.8290     28.0459    160.4000   9.5345424128e+01   3.7693951965e+01    0.3116674     0.243212  75.16 0.0004831665    1.160    0.138
       120  -9.8582     36.4307    138.4902   9.0613947997e+01   4.2493649360e+01    0.1430512    0.1289468  77.22 5.711522e-05    1.019    0.019
       121 -10.1006    176.5152    137.5316   5.2191831529e+01   1.9682269508e+01    0.1349088    0.1234988 -22.55 7.833932e-05    1.049    0.047
       122 -12.1296    136.2857    130.7345   5.9316969155e+01   2.8412370217e+01      0.56898    0.2787281  38.27  0.002291587    2.122    0.529
       123 -13.7864    143.2408    132.7018   5.8120192533e+01   2.6687091074e+01     1.108212    0.6528513 -14.38  0.003948443    3.345    0.701
       124 -13.8109    154.1601    130.0918   5.5088356614e+01   2.5140344673e+01    0.9511294    0.5719978  33.23  0.004342259    1.844    0.458
       125 -10.2949     61.8704    134.5552   8.1579368446e+01   4.0369946128e+01    0.3872828    0.1268716  33.89  0.001314985    2.782    0.641
       126 -10.5114     11.9347    133.1874   9.8468583041e+01   4.6151277242e+01    0.2930746    0.1909107  22.76 0.0009569667    1.632    0.387
       127 -10.6268    126.3643    132.0263   6.2059057065e+01   3.0019362591e+01    0.2616859    0.2105242  46.11 0.0003765614    1.261    0.207
       128 -10.3441     35.7812    131.4165   9.0004305942e+01   4.4451608049e+01    0.1833289    0.1417131   6.96 0.0003901037    1.567    0.362
       129 -10.8425     31.1833    128.7436   9.1305120971e+01   4.5652093662e+01    0.3459697    0.2757088 -35.56 0.0009829261    1.500    0.333
       130 -10.0328     98.3042    129.3199   6.9155252837e+01   3.5824989577e+01    0.1522453    0.1198182 -17.55 0.0001832839    1.631    0.387
       131  -9.1761     21.4072    128.4761   9.4756569838e+01   4.6646694344e+01    0.1431281    0.1229515  76.73 2.920407e-05    1.033    0.032
       132  -9.9705     15.1813    126.8024   9.6831690868e+01   4.7615040833e+01    0.2688879    0.1967504   5.90  0.001072582    1.650    0.394
       133  -9.5452    245.0602    123.0279   3.8576406161e+01   1.0874076289e+01    0.1367754    0.1107442 -21.85 0.0003448389    1.064    0.060
       134 -10.9888    104.5890    121.9621   6.5688749940e+01   3.6426703131e+01    0.4271408    0.2887127 -82.11  0.001227635    2.129    0.530
       135 -10.5223     99.3998    118.9077   6.6511119092e+01   3.8130715676e+01    0.2803413    0.2068733  59.07 0.0009844783    1.486    0.327
       136  -9.4237     67.5255    122.4823   7.7545619907e+01   4.2697450083e+01    0.1534008    0.1417404  76.24 0.0008096027    1.036    0.035
       137 -11.0734    189.0302    121.0216   4.6259028304e+01   2.0278158763e+01    0.1996911    0.1752757 -27.50  0.001204345    1.011    0.011
       138 -11.1371     43.5767    120.7436   8.5745453617e+01   4.6449518332e+01    0.3578948    0.2441821   3.01 0.0009869543    1.958    0.489
       139 -10.7168     36.2077    120.5426   8.8435044374e+01   4.7351255584e+01    0.2905681    0.2409286  61.58 0.0008807794    1.152    0.132
       140 -12.6066    154.7721    118.0291   5.2128226344e+01   2.7364107506e+01    0.6046509    0.2798031  39.58  0.002375432    2.402    0.584
       141  -9.4428     94.3312    117.3060   6.7681461264e+01   3.9462614588e+01     0.155458    0.1232717 -13.74 0.0002779917    1.660    0.398
       142 -10.5650     66.3701    116.1473   7.6691143630e+01   4.4538492298e+01    0.3969194    0.2546318  65.22  0.001438038    1.873    0.466
       143 -10.7518     23.9210    115.9401   9.2487736187e+01   4.9841289782e+01    0.2800035    0.1853263 -72.76 0.0006709631    1.388    0.280
       144 -10.4992     48.5147    115.6418   8.3081768296e+01   4.7217073594e+01    0.2732247    0.2328508  49.85 0.0007130037    1.156    0.135
       145 -11.0255    188.8305    114.8949   4.4883950739e+01   2.1339549119e+01    0.2168254    0.1789928  -6.15  0.001243348    1.289    0.224
       146 -10.2636    108.3959    112.7865   6.2386624605e+01   3.7844316358e+01    0.2308634    0.1417025 -40.80 0.0009614705    1.728    0.421
       147 -12.1077     53.0731    110.8489   8.0490508174e+01   4.7903974891e+01    0.5656634    0.2979901  46.41  0.001731666    1.934    0.483
       148 -11.2988     51.6760    106.6949   8.0208619692e+01   4.9218630164e+01    0.2435895     0.196705  14.58 0.0002454794    1.438    0.305
       149  -9.4229    210.6849    110.3300   4.0422517149e+01   1.8126006852e+01    0.1298271   0.09280298 -57.00 0.0007045417    1.679    0.404
       150 -10.4251    160.6055    108.3116   4.8511961342e+01   2.8038603716e+01    0.2843924    0.1298655 -43.30  0.001023709    2.056    0.514
       151 -13.2949    151.3202    106.2294   4.9918542208e+01   3.0362983059e+01    0.8472824    0.5312533 -70.66  0.003301876    2.684    0.627
       152 -11.7859    142.9487    109.5136   5.2625450350e+01   3.1462605260e+01    0.3444524    0.1427801  41.01  0.001222541    2.682    0.627
       153 -10.3050     92.0290    108.1338   6.6190112406e+01   4.2140430897e+01    0.2282288    0.2226875  80.63 0.0003528541    1.020    0.019
       154  -9.7934    116.5118    103.5252   5.7694016315e+01   3.8298954241e+01    0.1536193    0.1500084 -63.25 0.0001782356    1.009    0.009
       155  -9.6940    105.5813    102.7457   6.0605722078e+01   4.0747445974e+01     0.226844    0.1472135 -61.27 0.0009496808    1.695    0.410
       156  -9.9870     79.1949    101.2361   6.8737778421e+01   4.6243523814e+01    0.2201725    0.1816204  78.96 0.0007468141    1.336    0.251
       157 -11.9993     57.6899     98.4891   7.6079452154e+01   5.0551246508e+01    0.6945198    0.3188612 -47.84  0.002577608    2.269    0.559
       158  -9.9775     20.6007     99.8292   9.1787268965e+01   5.4581224995e+01    0.2874528    0.1678368 -78.26 0.0006055437    1.578    0.366
       159 -10.1385     21.9584     97.0000   9.0797989639e+01   5.5248132753e+01     0.337053    0.1376787  38.66  0.001317621    2.378    0.580
       160 -11.3713     10.0625    100.6769   9.6398099324e+01   5.5137103818e+01    0.2428342    0.1948032  85.63  0.000332695    1.123    0.109
       161  -9.6876    173.6403     98.3263   4.3485393079e+01   2.7159503278e+01    0.1485461    0.1078487 -69.35 0.0007042861    1.784    0.440
       162  -9.4027     75.6433     97.7023   6.9086618261e+01   4.7778890739e+01     0.158277    0.1240058 -15.56 0.0001391378    1.701    0.412
       163 -10.4003    240.1201     94.9717   3.3315002528e+01   1.5378370138e+01    0.1800989    0.1303117 -43.93 0.0003378865    1.249    0.199
       164 -11.5255     54.3956     92.7521   7.6041619164e+01   5.2571871246e+01    0.3239301    0.2373984  43.19 0.0008331616    1.388    0.280
       165 -10.4883     59.4979     91.6978   7.3698613816e+01   5.2064796689e+01     0.329398    0.2343095  46.89  0.001530267    1.442    0.306
       166 -10.3131     12.0155     88.2042   9.4070693082e+01   5.8450702949e+01    0.4993352    0.1889282  82.37  0.001435515    3.546    0.718
       167 -10.4942    232.4193     89.1548   3.2896795352e+01   1.7437163589e+01    0.2166194     0.177658  65.31 0.0008394845    1.558    0.358
       168 -11.5337    125.4248     86.5083   5.0479628179e+01   4.0004909696e+01    0.4774355    0.2602751  36.74  0.001818668    2.298    0.565
       169 -12.5239     53.8566     86.1544   7.4598500925e+01   5.4396508968e+01    0.6634503      0.40525  45.37   0.00289246    1.700    0.412
       170 -12.8666     51.0954     80.3076   7.4219870971e+01   5.6343972562e+01     1.075169    0.5287572  53.16  0.003925188    2.599    0.615
       171 -12.0820    115.8127     85.6363   5.2750102223e+01   4.2362700153e+01    0.2909433    0.2715431 -80.88 0.0002751492    1.080    0.074
       172  -9.5922    245.3232     84.3291   3.0480974392e+01   1.5943056597e+01    0.1162963    0.0845803  -3.08 0.0005348828    1.696    0.410
       173  -9.2425     62.3560     83.2591   7.0239299463e+01   5.3780201533e+01     0.152235    0.1212178 -13.33 0.0005097646    1.617    0.382
       174  -9.6059    182.0407     81.2464   3.7622261364e+01   2.8268035764e+01    0.1619412    0.1215488  57.90 0.0002186164    1.487    0.327
       175 -10.8200     21.9265     80.3924   8.8048316526e+01   5.9826068411e+01    0.2554567    0.1873915 -87.10 0.0005498706    1.339    0.253
       176  -9.3191    153.3235     80.3134   4.2391018190e+01   3.4794673039e+01    0.1481068    0.1182725  10.54 0.0002764846    1.660    0.397
       177 -11.8147     28.7879     79.8341   8.4559891995e+01   5.9317226585e+01    0.3157063    0.2176157  54.17  0.001062154    1.570    0.363
       178 -10.2647    214.0674     78.8945   3.2651255355e+01   2.2166634891e+01    0.1951638    0.1645842 -36.72  0.000432155    1.027    0.026
       179  -9.8870     88.5293     78.6896   5.8926991586e+01   4.9885693827e+01    0.2749543    0.1905106  66.73  0.001167199    1.778    0.438
       180  -9.4816    219.4780     78.5244   3.1929574475e+01   2.1204729718e+01    0.1303213    0.1062753 -37.63 0.0001302374    1.001    0.001
       181 -10.3674    111.9986     76.5112   5.0925559834e+01   4.5152753043e+01    0.2601868    0.2188211 -30.97   0.00058648    1.275    0.216
       182 -10.1951    116.5015     74.3306   4.8982245743e+01   4.4550550042e+01    0.4143282    0.2408589  36.17  0.001615698    2.181    0.541
       183 -10.6734     74.8479     75.7481   6.2934029075e+01   5.3355652331e+01    0.2515037     0.248313 -11.35 0.0006494792    1.079    0.073
       184 -11.4020     65.9143     74.0623   6.5945590094e+01   5.5451224598e+01    0.2314103    0.2237655 -69.67            0    1.003    0.003
       185 -12.4147     32.2675     74.4892   8.1600013965e+01   6.0377817316e+01    0.4178835    0.2936432 -12.23  0.001087609    1.821    0.451
       186 -13.2704     30.5365     65.6777   8.0191643042e+01   6.2902781953e+01     1.256477    0.7496737  36.47  0.005805057    1.743    0.426
       187 -12.3489     46.1867     86.6729   7.8053897788e+01   5.5368741805e+01    0.4383484    0.2581304  46.91  0.001887035    1.797    0.443
       188  -9.9184    198.6319     65.7639   3.1251917423e+01   2.7124994833e+01     0.263956    0.1358115  32.34 0.0009671357    3.945    0.746
       189 -11.9029    178.4308     64.3071   3.3548614495e+01   3.1722200246e+01      0.25522    0.2498649 -86.75 0.0003009621    1.134    0.118
       190  -9.1495    114.2781     61.2816   4.5100891028e+01   4.7624236647e+01    0.1464382     0.123054  13.77 0.0001974647    1.507    0.336
       191 -11.4102     99.6840     68.9387   5.1978774713e+01   4.9568882161e+01    0.7307143    0.2851552 -39.64  0.002425465    2.678    0.627
       192 -11.8884    165.9453     58.3832   3.3698511646e+01   3.5506073469e+01    0.2593256    0.2228864 -49.60 0.0003822894    1.048    0.046
       193 -10.2893      4.1294     59.2416   9.3917795790e+01   6.6777844102e+01    0.2832545    0.1723605 -12.62  0.001384263    1.914    0.478
       194 -10.9951    194.1511     57.4873   2.9617853078e+01   2.9252192434e+01    0.2471348    0.2044055 -42.81  0.000355066    1.041    0.039
       195 -11.6877     54.9923     57.8266   6.5042777398e+01   6.1290287107e+01     0.759699    0.4815483  85.26   0.00275216    3.130    0.680
       196 -11.7151     50.9931     56.4762   6.6459987096e+01   6.2296289407e+01    0.4950418     0.309566  70.88  0.001899995    2.745    0.636
       197 -10.0684    108.6340     55.8610   4.4618622473e+01   5.0009687633e+01      0.21536    0.1366408 -48.66 0.0003719828    1.584    0.369
       198  -9.2504    233.6924     53.2765   2.4619718607e+01   2.1908792536e+01    0.1250207   0.07422581 -53.91 0.0002768894    1.552    0.355
       199  -9.4291    115.3330     53.6808   4.2065638929e+01   4.8743558051e+01    0.1625161    0.1159543 -72.60 0.0007048767    1.696    0.410
       200  -9.6301     30.9600     50.4669   7.5109172716e+01   6.6707590077e+01    0.2140635    0.1400433  29.43   0.00103208    1.603    0.376
       201 -10.0060     18.4843     49.0632   8.2428328285e+01   6.8419698279e+01    0.2164022    0.1275688 -64.29 0.0004638734    1.561    0.360
       202 -11.0722     51.1754     43.0089   6.0677345254e+01   6.5278321636e+01    0.2434089    0.1647265 -21.50  0.000838321    1.943    0.485
       203  -9.9236    122.5035     41.5260   3.5849445061e+01   4.8917194103e+01    0.1509457    0.1407346 -73.93 1.880743e-05    1.015    0.014
       204  -9.6104    133.5051     39.5984   3.2976778948e+01   4.6368750988e+01    0.1469632    0.1372788 -79.41 0.0001304476    1.024    0.024
       205  -9.7834    110.3571     39.2753   3.7692305604e+01   5.2386337487e+01    0.2203944    0.1306016 -43.01 0.0009474162    1.660    0.397
       206  -9.7242    104.4993     39.7140   3.9327419136e+01   5.3812867562e+01    0.2611518    0.1320365  59.97 0.0005947737    1.953    0.488
       207 -11.2150     56.9291     36.9257   5.4890619117e+01   6.5402658888e+01    0.3362942    0.2169108 -55.85  0.001103307    1.789    0.441
       208 -10.2113     36.4488     39.2357   6.7143410080e+01   6.8570886400e+01    0.2559208    0.1991794  31.33 0.0007871569    1.327    0.246
       209 -10.2853    247.8483     31.9503   1.8813556073e+01   2.1849085269e+01    0.1661662    0.1352696 -30.00 0.0004039352    1.231    0.188
       210 -10.5930    213.3024     32.1625   2.1165696548e+01   2.8439688876e+01    0.1809189    0.1678804 -84.77 0.0003540069    1.234    0.190
       211 -10.7056    106.2747     31.4126   3.5381512695e+01   5.4606121156e+01    0.2957374    0.2504754  87.08 0.0008497339    1.191    0.160
       212 -11.6134     77.9497     31.1938   4.3379737407e+01   6.1745505907e+01    0.3305168    0.2922603 -83.24  0.000666482    1.239    0.193
       213  -9.2371    162.5310     31.4769   2.5868843488e+01   4.0100835284e+01    0.1412258    0.1264413 -60.50 6.345622e-05    1.021    0.020
       214  -9.8189    100.9969     26.3216   3.4393996636e+01   5.6678430030e+01    0.2058852    0.1886412  77.46 0.0004364016    1.050    0.047
       215 -10.5559     45.0617     24.9109   5.4447191590e+01   6.9972852364e+01    0.2058267    0.1982777 -20.94 0.0004958624    1.053    0.050
       216 -10.7652    171.9371     21.0535   2.1607636353e+01   3.9032391666e+01    0.2922417    0.1970005 -28.79  0.001541746    1.449    0.310
       217 -11.4093     84.4994     23.5710   3.7456387763e+01   6.1268874573e+01     0.471569    0.3038312 -73.55   0.00202266    2.166    0.538
       218  -9.8153    134.5494     22.4728   2.6503518796e+01   4.8345361736e+01    0.1451803    0.1304564 -70.16 8.976143e-05    1.020    0.019
       219 -10.6895     32.5068     29.4781   6.4757701235e+01   7.1265132593e+01     0.219181    0.1219315 -39.40 0.0007978594    1.802    0.445
       220  -9.5448    189.6667     20.2834   1.9849979451e+01   3.4940875027e+01    0.1421732   0.08011268 -58.41  0.000282565    1.617    0.381
       221  -9.8411     93.2066    248.8343   8.6612591104e+01   1.2234608744e+01    0.1389057    0.1155715   5.51 0.0003216314    1.311    0.237
       222 -10.4725    125.1037    248.0576   8.0117279717e+01   8.7192974463e+00    0.1597804    0.1246089  24.96  0.000270017    1.037    0.035
       223 -10.0780    214.3521     10.6744   1.5707919465e+01   3.0558099538e+01    0.1399839   0.06594093 -54.61  0.000704777    1.761    0.432
       224  -9.3043    139.6902    247.7012   7.7238866193e+01   7.1003584217e+00    0.1101758   0.07237047   2.30 0.0005693984    1.598    0.374
       225 -10.5364     83.6349    246.3314   8.8386150791e+01   1.3700834232e+01    0.3999774    0.1142287  36.78   0.00185098    2.406    0.584
       226  -9.9671    179.8972    244.5144   6.9446592137e+01   3.0169381780e+00     0.153981   0.08319523  26.42 0.0003619161    1.481    0.325
       227 -10.4791    116.0847    240.2298   8.1127858278e+01   1.0927302544e+01    0.1656325    0.1458421  20.44 0.0002753421    1.133    0.117
       228  -9.7511     83.7544    241.4175   8.7970240289e+01   1.4487974101e+01    0.1520021   0.09300185  22.63 0.0002485731    1.459    0.314
       229  -9.7181     94.1083    240.5493   8.5715243048e+01   1.3446330325e+01    0.1731417   0.09158055  29.23 0.0004935674    1.489    0.328
       230  -9.0779    156.4713    238.4774   7.2967469207e+01   6.4251216189e+00    0.1126763   0.08720434  16.89 4.850535e-06    1.031    0.030
