#   1 NUMBER                 Running object number                                     
#   2 MAG_AUTO               Kron-like elliptical aperture magnitude                    [mag]
#   3 X_IMAGE                Object position along x                                    [pixel]
#   4 Y_IMAGE                Object position along y                                    [pixel]
#   5 X_WORLD                Barycenter position along world x axis                     [deg]
#   6 Y_WORLD                Barycenter position along world y axis                     [deg]
#   7 A_WORLD                Profile RMS along major axis (world units)                 [deg]
#   8 B_WORLD                Profile RMS along minor axis (world units)                 [deg]
#   9 THETA_WORLD            Position angle (CCW/world-x)                               [deg]
#  10 FWHM_WORLD             FWHM assuming a gaussian core                              [deg]
#  11 ELONGATION             A_IMAGE/B_IMAGE                                           
#  12 ELLIPTICITY            1 - B_IMAGE/A_IMAGE                                       
         1 -11.6273    218.4869     26.8749   5.6750416120e+00   2.7779119927e+01     1.182557    0.6879537 -26.10  0.005925145    1.721    0.419
         2 -11.0740    237.3194     96.3805   2.1025665835e+01   1.3519071297e+01      1.90091     1.109137 -38.28  0.009383923    1.368    0.269
         3 -12.2434    246.2455     79.5423   1.5913279971e+01   1.4518211663e+01     2.717304    0.7086415 -41.96  0.009692052    2.938    0.660
         4 -11.4238    232.5441     49.6710   1.0145398026e+01   2.1670007152e+01     1.689663    0.9818351 -25.48  0.008321746    1.734    0.423
         5 -12.3850    219.8141     74.1232   1.7852259177e+01   2.0612633743e+01     2.447395     1.211583 -50.58   0.01043805    2.001    0.500
         6 -10.6583    200.7951     41.9155   1.1582842734e+01   2.9809498278e+01    0.6401066    0.3360414 -42.22  0.002909154    1.620    0.383
         7 -10.0979    235.7722     28.2140   4.5681077567e+00   2.3882956479e+01    0.4671607    0.3541533 -73.50  0.002876989    1.286    0.222
         8  -9.9442    146.5761     16.5671   1.0769678143e+01   4.6602993927e+01    0.5014654    0.2362418 -13.45  0.001903853    2.800    0.643
         9  -8.7731    144.7387     11.0002   9.0210032289e+00   4.7674954699e+01    0.1936048    0.1788874 -37.38 0.0005634147    1.105    0.095
        10 -11.7067     13.9232      9.5088   5.5232024778e+01   7.5092767809e+01    0.5691978    0.3359156  52.05  0.002593277    3.725    0.732
        11  -8.2456    161.2517      8.6247   6.0863091860e+00   4.3690916553e+01     0.148572   0.08907621 -53.42 0.0003653367    1.644    0.392
        12  -9.8468     43.9913      2.0006   3.1484229284e+01   7.1987229856e+01    0.1830132    0.1599491 -56.77  0.001134339    1.677    0.404
        13  -9.3874     33.4911      7.4992   4.0906192159e+01   7.2978997769e+01    0.1296006     0.105905  -7.71 0.0008106242    1.006    0.006
        14 -10.1898     11.1804    232.6423   9.1562704503e+01   2.1567138976e+01    0.2201023   0.09663624  67.44  0.001271294    1.844    0.458
        15 -10.8329    190.2151    233.7161   5.6689969983e+01  -1.0734662272e+00    0.8872111    0.4242328 -28.82  0.004691939    2.383    0.580
        16 -11.2116    192.3213    226.6221   5.5250178037e+01  -3.7216606969e-01     1.140222    0.4350383  27.58   0.00518709    2.602    0.616
        17 -10.1538    186.0559    249.8428   5.9682082878e+01  -2.6592441197e+00    0.5878038    0.1849348  30.77  0.002713866    2.732    0.634
        18 -11.0283    191.0012    244.1331   5.8024173467e+01  -2.5478329404e+00    0.5470052    0.3560325  22.35  0.003666593    1.238    0.193
        19  -9.0942     51.0314    250.4966   8.5043234706e+01   1.4173084935e+01    0.1677274   0.08636314  37.80  0.001026782    1.571    0.364
        20 -10.1800     20.4830    249.2632   9.0492976864e+01   1.7615152643e+01    0.3586831    0.1376421  44.35  0.002124291    1.800    0.444
        21  -9.2759     26.3346    248.8313   8.9438248020e+01   1.7103989658e+01    0.2224034    0.1081979  40.72  0.001406601    1.585    0.369
        22 -10.3853     13.2836    248.2246   9.1719617376e+01   1.8500889554e+01    0.3005128   0.09757411  48.90  0.001513366    2.008    0.502
        23  -9.4162      9.3035    250.6694   9.2486223627e+01   1.8447791680e+01    0.1589218   0.07981444  41.21  0.000569741    1.546    0.353
        24 -10.3626      4.6209    248.7644   9.3234350980e+01   1.9218962417e+01    0.2472692    0.1607412  67.90  0.001305882    1.138    0.122
        25 -11.1041      3.8323    243.1792   9.3214474146e+01   2.0290865922e+01    0.4495549    0.1148161  52.41   0.00232661    2.430    0.588
        26  -9.3743    155.1504    242.0320   6.4376096432e+01   2.3788951230e+00    0.1774129    0.1364739   7.00 0.0007370883    1.293    0.227
        27 -10.8987     14.9595    229.5103   9.0743619464e+01   2.1808650016e+01    0.3282526    0.1173966  80.89  0.001589051    2.802    0.643
        28 -10.5557    134.2869    229.7428   6.6922491146e+01   7.1381529033e+00    0.4757779    0.1930011  30.74  0.002177816    2.292    0.564
        29  -8.7826     32.3100    229.6480   8.7441716065e+01   2.0036040518e+01    0.1266439   0.06093967  60.79 0.0007044322    1.720    0.419
        30 -11.0439      6.0037    229.6023   9.2412839022e+01   2.2630157442e+01    0.2244816    0.1266855  87.03  0.001374075    1.536    0.349
        31 -11.6780    226.0213    219.2523   4.8094005087e+01  -3.7160763089e+00    0.9114634     0.619652 -44.30  0.005704822    2.081    0.519
        32  -9.3140    223.8607    207.0412   4.6410221618e+01  -1.8179505736e+00    0.3512418    0.1798984 -29.61  0.001935734    1.786    0.440
        33  -8.4072     23.3016    237.6691   8.9521940844e+01   1.9437954239e+01    0.1204782   0.05682226  59.89 0.0007033712    1.650    0.394
        34 -11.8998    247.7890    212.9599   4.3447690126e+01  -5.5424528810e+00     1.372008    0.4171593 -39.33  0.005994821    3.604    0.723
        35 -12.4720    246.9123    187.8657   3.9128728952e+01  -2.1773215226e+00     2.125471    0.6040077 -34.94  0.008862394    3.000    0.667
        36 -10.3035    135.3453    224.2591   6.6018462906e+01   7.9120500956e+00    0.2388959    0.1408565  23.86  0.001272704    1.723    0.420
        37  -8.3134     33.6841    224.2956   8.6888385902e+01   2.0939987371e+01    0.1247991   0.06360918  59.27 0.0003402967    1.604    0.377
        38  -9.3218    156.9123    225.4999   6.1856367519e+01   4.6556076942e+00    0.2129363    0.1562007 -17.58 0.0006809715    1.544    0.352
        39  -9.6695    143.4161    218.7735   6.3641253027e+01   7.6928087326e+00     0.168386    0.1138004 -35.12 0.0009580615    1.700    0.412
        40 -13.4015    235.5007    150.2910   3.3499590308e+01   5.0218765906e+00     2.556386     1.271494 -51.76   0.01028754    3.263    0.693
        41 -12.0624    209.3622    168.0048   4.1692912992e+01   6.2483207611e+00     1.279252     0.881274 -67.62  0.005636247    3.179    0.685
        42 -10.9211    195.5283    161.7273   4.3014717657e+01   9.6260112636e+00     0.665049    0.6012649 -76.54  0.003663659    1.564    0.361
        43 -11.0936    231.7065    189.3968   4.1907110134e+01  -3.8232236642e-01    0.6928887    0.2881067 -41.15  0.003231256    2.502    0.600
        44 -11.5232    224.7556    178.7824   4.1083971514e+01   2.1695735241e+00    0.7817706    0.5959717  62.39  0.004283084    2.488    0.598
        45  -9.1225     65.5056    187.4980   7.7083892413e+01   2.5142839072e+01    0.2526292   0.09298334  43.54  0.001036773    2.373    0.579
        46  -8.5840      4.3428    187.6720   9.1165982645e+01   3.1588721989e+01    0.1355703   0.06328348  61.30 0.0007051104    1.743    0.426
        47  -9.3125     35.7759    186.6001   8.4008021944e+01   2.8855087359e+01    0.1844323   0.09712663  45.18 0.0009529678    1.670    0.401
        48 -10.0110     27.4449    157.0369   8.3658611442e+01   3.6943533727e+01    0.3071627     0.218565  56.35  0.001749513    1.313    0.238
        49  -8.6891     58.5170    145.9983   7.3818035726e+01   3.6368805017e+01    0.2293055     0.130201 -68.64  0.001032938    1.593    0.372
        50 -10.5875    192.9574    139.9235   3.8745574627e+01   1.4143440492e+01    0.7368219    0.4565208  69.89  0.002728952    3.572    0.720
        51 -12.7184    244.3125    126.2031   2.6915844155e+01   7.4684331067e+00     1.955227     1.020302 -42.74   0.00827206    1.731    0.422
        52 -11.8703    224.4406    114.0545   2.7111029167e+01   1.2954642902e+01     1.319769    0.7418526 -45.02  0.004480888    1.652    0.395
        53  -9.8558     34.8834    248.3227   8.7878756953e+01   1.6308513123e+01     0.238397    0.1665912  80.72  0.001709432    1.322    0.244
        54 -11.2071    222.1799     44.8612   9.9875213511e+00   2.4556423071e+01    0.9485582    0.5349392 -33.52  0.003372602    1.526    0.345
        55  -9.2218     37.4950    245.5267   8.7267333119e+01   1.6528617380e+01    0.1578821   0.09646258 -83.78 0.0006880689    1.675    0.403
        56 -10.0896     63.0597    247.6389   8.2630373651e+01   1.3293307958e+01    0.2698784   0.08632392  42.77  0.001336262    2.219    0.549
        57 -11.9175    215.9545     95.5966   2.3897589459e+01   1.7798318896e+01     1.131822    0.3945127 -36.98  0.003589633    2.368    0.578
        58 -10.2977    246.6219     54.6878   9.9823123866e+00   1.8125208098e+01     1.067797    0.4018734 -45.81  0.004622055    2.142    0.533
        59  -9.6250     44.7285    244.8009   8.5891630360e+01   1.5874535641e+01    0.2404426    0.1078548  46.05  0.001404842    1.642    0.391
        60  -9.2441      4.9774    139.2376   8.8338733319e+01   4.3389997142e+01    0.1490489    0.1091607  30.04 0.0007248263    1.613    0.380
        61  -9.7273    166.9326    128.2585   4.1372858688e+01   2.1587343399e+01    0.4732081    0.2422565 -50.92    0.0018134    2.069    0.517
        62 -11.3746    217.7536    136.8203   3.3498149210e+01   1.0209374236e+01     0.832018    0.4005145 -39.55  0.003677584    1.806    0.446
        63  -8.6920    154.5871    124.8041   4.3320844900e+01   2.4870748870e+01    0.2348284    0.1426531 -53.61 0.0009540178    1.734    0.423
        64 -10.3171    171.3946    117.2876   3.7652024340e+01   2.2970660068e+01    0.8372186     0.334159 -45.76  0.002887616    2.390    0.582
        65 -10.2016      1.4203    115.5160   8.7583293298e+01   4.9849976432e+01    0.4614125   0.09373663 -76.19  0.001496538    3.533    0.717
        66 -11.7694    197.2737    107.4607   3.0032607092e+01   1.9487057025e+01     1.294712    0.5395777 -47.47  0.004651852    2.461    0.594
        67 -11.1078    197.6232     95.9102   2.6962473632e+01   2.1567665425e+01     1.036619    0.3048812 -42.83  0.003255709    3.014    0.668
        68 -10.9006    122.8499    108.1454   4.7041667472e+01   3.5369248294e+01     1.028022    0.6774083 -38.66  0.004344468    1.524    0.344
        69 -10.8133    122.3223     97.9804   4.4330782484e+01   3.7906292962e+01    0.6713614    0.5052385  17.00  0.002907726    1.759    0.432
        70 -10.3136    159.6156    108.1413   3.7825069601e+01   2.7441504263e+01    0.3331501    0.3028522 -39.85   0.00160219    1.013    0.013
        71 -10.0323    139.9949    102.7076   4.1002744073e+01   3.2963091880e+01    0.6772829    0.2367912 -43.06  0.002100812    2.677    0.626
        72  -8.8500     56.9966     99.9937   6.6027846220e+01   4.9021854992e+01    0.2425272     0.201635 -65.15 0.0006433616    1.059    0.056
        73 -10.5720    168.0277    103.2803   3.4653909777e+01   2.6611664595e+01    0.5830075    0.2980446  53.05   0.00223845    2.230    0.552
        74  -9.7147    169.2068     93.5347   3.1687754484e+01   2.8335723358e+01    0.5014509    0.3109217 -62.16  0.001968947    2.124    0.529
        75  -8.5900     62.2158     91.3601   6.2037171634e+01   5.0614447890e+01    0.2077185    0.1383778  45.06 0.0009423957    1.693    0.409
        76 -10.1258     29.4377    240.7217   8.8522721427e+01   1.8247105668e+01    0.3311889    0.1711709  79.39  0.002037395    1.810    0.447
        77 -11.9842    153.8380     79.0495   3.0676385664e+01   3.4830755168e+01     1.241991    0.6902372 -57.89  0.004556364    2.282    0.562
        78 -10.8281    145.3305     70.6407   2.9912853463e+01   3.8532470580e+01    0.5993945    0.5043747 -51.01   0.00264747    1.145    0.126
        79  -9.5907    211.6826     81.6456   2.0949234492e+01   2.1085379313e+01     0.285493     0.215259 -48.92 0.0009155903    1.211    0.174
        80  -8.9021    185.2430     81.4361   2.5168094270e+01   2.6985555265e+01    0.2718152    0.1484409  50.42  0.001122653    2.037    0.509
        81 -10.4352    180.3903     75.7407   2.4396198755e+01   2.9150988591e+01    0.6245751    0.3586778 -39.01  0.002663866    1.546    0.353
        82  -9.3961      1.8644     73.3136   8.2689799789e+01   6.1026710435e+01    0.2489047     0.151713 -84.07  0.001169363    1.450    0.310
        83 -11.7250    201.6776     60.4570   1.6660754926e+01   2.6802321327e+01     1.040333     0.420799 -39.64  0.003906327    2.054    0.513
        84 -10.5385    161.7512     65.8208   2.4878592714e+01   3.5427405729e+01    0.6240525    0.2716307 -31.33  0.002183863    2.356    0.575
        85  -8.6686    185.5351     56.9606   1.8014892311e+01   3.1152293905e+01    0.2333086    0.1355933 -34.82  0.001018256    1.554    0.356
        86 -10.1520    167.3279     40.6032   1.5787554446e+01   3.8169822159e+01    0.4803841    0.2739456 -44.86  0.002105035    1.638    0.389
        87  -9.3241    155.6562     42.0226   1.8209009964e+01   4.0913307204e+01    0.3457486    0.2298351 -60.18  0.001527198    1.656    0.396
        88 -11.2416    162.3117     48.9200   1.9331576364e+01   3.8161675642e+01     1.005581    0.6007103  74.66  0.004244096    1.983    0.496
        89  -8.9693    250.4598     45.5372   7.4830230437e+00   1.8651577776e+01    0.2763013   0.09981012 -34.12  0.001192754    2.128    0.530
        90  -8.9425    208.7801     44.6695   1.1406490493e+01   2.7569492064e+01    0.3312604    0.1904338 -15.52   0.00140704    2.344    0.573
        91 -10.9497     17.2176    240.8753   9.0761858460e+01   1.9447144109e+01     0.416684    0.1051447  45.96  0.002092787    2.434    0.589
        92  -9.8124    126.5618     32.3223   2.0374725335e+01   4.9736757770e+01     1.227299    0.2545916 -43.93  0.002830474    6.251    0.840
        93  -8.9964    242.9927     28.8328   4.1602999859e+00   2.2321887053e+01    0.3552306    0.2446948  68.25  0.002123741    1.708    0.415
        94 -10.1477    166.3807    137.0786   4.3605826893e+01   1.9830502549e+01     0.602105    0.3127244 -52.78  0.002329909    2.162    0.537
        95 -10.6331    224.5057    238.5260   5.1382464303e+01  -5.9065694287e+00    0.3925941    0.1728969 -34.39  0.002251737    2.289    0.563
        96  -9.7888    146.8794     26.4325   1.4274497606e+01   4.5339472712e+01    0.4305144    0.1573531 -41.07  0.001546144    2.578    0.612
        97  -8.6780    184.8396     24.8735   8.5029943253e+00   3.5931191057e+01    0.2094174    0.1438317 -53.26  0.001067319    1.336    0.252
        98  -9.8601    152.9845     18.9340   1.0669352919e+01   4.4684949779e+01    0.4444481    0.2515745  51.83  0.002009241    1.828    0.453
        99  -8.7526    222.4712    233.9696   5.1033721548e+01  -5.1242790928e+00    0.1974418    0.1371702 -15.11 0.0007770596    1.262    0.207
       100 -10.1946    175.7079     41.7801   1.4883109568e+01   3.5899795355e+01    0.4835711    0.4059016   2.32  0.002525905    1.469    0.319
       101  -8.9008     38.1391    240.8406   8.6910733397e+01   1.7307936635e+01    0.1853908    0.1098486  57.87  0.001049375    1.304    0.233
       102 -11.3092    141.7481    234.6866   6.6051778607e+01   5.3056969372e+00    0.3325217    0.2625852  70.57  0.002142574    1.740    0.425
       103  -9.3965     44.1535    237.2414   8.5577006708e+01   1.7316660312e+01    0.2270388    0.1062372  67.34   0.00123542    2.074    0.518
       104  -8.9062     35.4008    234.2132   8.7084409328e+01   1.8834940083e+01      0.15409    0.0871204  79.24 0.0009442995    1.644    0.392
