#   1 NUMBER                 Running object number                                     
#   2 MAG_AUTO               Kron-like elliptical aperture magnitude                    [mag]
#   3 X_IMAGE                Object position along x                                    [pixel]
#   4 Y_IMAGE                Object position along y                                    [pixel]
#   5 X_WORLD                Barycenter position along world x axis                     [deg]
#   6 Y_WORLD                Barycenter position along world y axis                     [deg]
#   7 A_WORLD                Profile RMS along major axis (world units)                 [deg]
#   8 B_WORLD                Profile RMS along minor axis (world units)                 [deg]
#   9 THETA_WORLD            Position angle (CCW/world-x)                               [deg]
#  10 FWHM_WORLD             FWHM assuming a gaussian core                              [deg]
#  11 ELONGATION             A_IMAGE/B_IMAGE                                           
#  12 ELLIPTICITY            1 - B_IMAGE/A_IMAGE                                       
         1 -12.2857     28.6131     19.8558   4.7483667124e+01   7.1704723900e+01    0.3070679    0.2137848  15.14 0.0002513698    1.383    0.277
         2 -11.4602     14.7666     18.0572   5.5917618936e+01   7.3610961343e+01     0.284301    0.2348963 -55.36  0.001052488    1.461    0.316
         3 -10.6862      9.0904     15.8319   5.9025469805e+01   7.4532908680e+01     0.314359    0.2343439 -58.02  0.001485973    1.552    0.356
         4 -12.4764      3.3672     13.0640   6.2176728857e+01   7.5486706650e+01    0.6599723    0.3056524 -53.16  0.003175409    1.935    0.483
         5 -11.9801      9.9067     10.5812   5.5674380525e+01   7.5414491275e+01    0.4654256    0.3405279  30.86  0.002984076    1.572    0.364
         6 -11.8271    240.4109     14.9622   3.5831763546e+02   2.4148259759e+01    0.2336254    0.1722623 -50.56 0.0003293208    1.102    0.092
         7 -12.6292     76.1337     10.5756   2.0138804956e+01   6.4105349051e+01    0.5747654    0.3296871  29.20  0.001129423    1.952    0.488
         8 -13.0676     65.4531     11.6668   2.4425603295e+01   6.6347933255e+01    0.3241333    0.2572917  37.35 0.0004908063    1.106    0.096
         9 -11.6405     59.6415     11.7712   2.6779554358e+01   6.7553202955e+01    0.3394631     0.225611 -31.46  0.001849784    1.620    0.383
        10 -10.3235     26.8267     12.4921   4.4538374386e+01   7.3152445066e+01    0.3422155       0.1214 -31.40  0.001294458    3.517    0.716
        11 -10.4813    177.9563     12.0570   2.4099980552e+00   3.8397247251e+01    0.1983708    0.1722499 -84.30 0.0003288217    1.037    0.036
        12  -9.9613    145.6000     11.7544   6.0363004390e+00   4.6595926134e+01    0.1886084    0.1187792 -41.44  0.000950259    1.625    0.385
        13 -10.6559    139.8748     10.9550   6.5635046211e+00   4.8151304444e+01    0.2274781    0.1760916  73.76  0.001271306    1.144    0.126
        14 -10.4715    118.6753     10.4740   9.7915813335e+00   5.3671194255e+01     0.384273     0.214594 -74.74  0.001618623    2.465    0.594
        15 -11.8506    249.2782      8.2635   3.5644170631e+02   2.3133938283e+01    0.3416413    0.1818293 -19.36  0.001825664    2.577    0.612
        16 -10.9940    234.5075      9.4853   3.5750421041e+02   2.5919011387e+01    0.2260701   0.06746562 -41.62  0.001035029    2.389    0.581
        17  -9.4820    100.2295      9.9260   1.3313224431e+01   5.8397440028e+01    0.1625667    0.1147395 -24.74 0.0003656105    1.579    0.367
        18 -11.5256    241.9348      9.3130   3.5704698426e+02   2.4449778118e+01     0.162772    0.1280737 -70.16  0.000673632    1.097    0.088
        19  -9.0854    126.3027      9.7109   8.1948720491e+00   5.1778551413e+01    0.1387012   0.09722818 -69.65 0.0002282729    1.565    0.361
        20 -11.0578    155.1635      8.2766   3.7314776917e+00   4.4479340483e+01    0.3777616    0.1476761  75.95  0.001083627    2.389    0.581
        21 -10.8344    146.1544      7.5786   4.6021521479e+00   4.6851604272e+01    0.3305166    0.1819732  58.48  0.001423776    1.667    0.400
        22  -9.6881     19.8099      8.5770   4.7018070785e+01   7.4682555002e+01    0.1477325    0.1073296  32.12 0.0003018928    1.466    0.318
        23 -10.6624     82.0907      6.9718   1.6566639640e+01   6.3083814490e+01    0.1988926    0.1700573  44.90 0.0003501408    1.023    0.023
        24 -10.3088     68.3157      5.4793   2.0098325442e+01   6.6383083791e+01    0.2215899      0.18625  24.66  0.000435215    1.115    0.103
        25  -9.9674     36.3548      5.9631   3.4681296835e+01   7.2634344997e+01    0.2662093    0.1286528  23.11  0.001143589    2.703    0.630
        26  -9.6706    223.0008      5.3243   3.5727522086e+02   2.8740719636e+01    0.1638533    0.1282171 -69.97  0.001100095    1.049    0.047
        27 -10.9203    179.9446      3.7593   3.5995902593e+02   3.8726543388e+01    0.3796282    0.1871953  59.11 0.0009008637    2.029    0.507
        28 -10.8804    164.3030      4.7357   1.6770580022e+00   4.2498613419e+01    0.2184133    0.1669887 -70.34 0.0003114846    1.197    0.165
        29 -10.8766     22.0034      2.0050   4.1214901616e+01   7.5374242896e+01    0.3569266    0.1871275  -4.55  0.001555688    3.078    0.675
        30 -11.4218    242.1159      3.2725   3.5578835858e+02   2.5036935353e+01    0.2737914   0.09286078  62.25  0.001279109    3.326    0.699
        31 -12.5386     31.5784      2.0727   3.4968449818e+01   7.3919156628e+01     0.404268    0.1818305  41.60 0.0004551195    2.070    0.517
        32 -10.1167    126.1463      2.7602   5.6831801373e+00   5.2434318506e+01    0.1967367    0.1667803 -87.45 0.0005023574    1.122    0.109
        33 -11.1970     98.2104      2.5958   1.0580863515e+01   5.9554158676e+01    0.2323612    0.2156171  53.56 0.0004418565    1.070    0.066
        34 -10.0438     90.9852      2.4563   1.2132835845e+01   6.1348240835e+01    0.1889485    0.1721581  30.21 0.0004972156    1.127    0.113
        35 -10.7306    230.2254      1.4118   3.5601049345e+02   2.7620536582e+01    0.1898399   0.09998965  77.93  0.000595577    1.851    0.460
        36 -10.3119     73.5682      1.4612   1.6284361446e+01   6.5569348430e+01    0.2515283    0.1142408  59.59 0.0005903371    1.924    0.480
        37 -10.1297    237.0000    197.0208   3.6387835278e+01  -7.5197314915e-01    0.2101349    0.1230527 -35.28 0.0009804858    1.644    0.392
        38 -11.0965     22.6044    249.0563   8.6972968142e+01   1.9443157057e+01    0.3187297     0.147352  48.82  0.001236183    1.553    0.356
        39  -9.3221    120.2819    200.3298   6.0690430725e+01   1.6358235185e+01    0.1339073    0.1034878  -8.40 0.0005278703    1.606    0.377
        40  -9.9208     50.9898    197.2850   7.7427054951e+01   2.6835714037e+01    0.1920735    0.1527845  45.89  0.001157713    1.106    0.096
        41 -10.0689    134.7938    196.1885   5.6640716853e+01   1.4851724220e+01    0.1938538    0.1796588  55.78 0.0005413879    1.200    0.167
        42 -12.2833     15.4049    192.1828   8.5832706167e+01   3.1730985347e+01    0.3540665    0.3341813 -27.67  0.001828827    1.411    0.291
        43  -8.9545    209.6971    193.2972   4.0461033683e+01   3.5308002525e+00    0.1058262    0.1032499  73.19 0.0002580654    1.581    0.368
        44 -10.5765    186.2525    192.0325   4.4728661071e+01   7.2812357513e+00    0.4355137    0.1412324 -33.93  0.001509015    3.868    0.741
        45 -10.3938    155.7346    185.8421   5.0102246519e+01   1.3361773058e+01    0.3079472     0.123142 -48.92   0.00119708    2.799    0.643
        46  -9.2493     61.7324    184.6439   7.3412231499e+01   2.8385523290e+01    0.1309865    0.1023968 -36.22 0.0004419327    1.634    0.388
        47 -12.4458     15.5906    182.3336   8.5218553489e+01   3.3970557057e+01    0.4841266     0.220971  56.34  0.002357617    1.952    0.488
        48 -11.0886     23.5313    180.6452   8.3074943161e+01   3.3635550699e+01    0.2953576     0.158722  53.02 0.0001461901    1.643    0.391
        49  -9.8575      1.5009    180.4720   8.8648945039e+01   3.5559660305e+01    0.1213269    0.1011998  74.05 0.0008094368    1.054    0.051
        50 -10.1751     17.6976    173.3034   8.4095978573e+01   3.5912937395e+01    0.1373052   0.07800117  59.94 0.0003539076    1.593    0.372
        51 -10.2311    176.7777    168.6200   4.2284850125e+01   1.2933276688e+01      0.29594     0.152756 -16.40  0.000953593    4.162    0.760
        52 -11.0423      5.2748    167.4104   8.7027868127e+01   3.8339231754e+01    0.1774208   0.09872604  39.97 0.0009563154    1.645    0.392
        53 -10.7325    216.4469    154.7997   3.1902261737e+01   8.5164875081e+00    0.2173532    0.1773939  28.74 0.0003262759    1.276    0.216
        54  -9.9903    158.1680    153.8157   4.3356011807e+01   1.9187082653e+01    0.2090386    0.1710677  -3.58 0.0005208639    1.344    0.256
        55 -12.6947     13.7981    147.9132   8.3326559991e+01   4.2473064599e+01    0.5004557     0.269441 -62.75 0.0003541638    1.750    0.429
        56 -12.9463     15.4927    141.6088   8.2284856312e+01   4.3933793908e+01      0.60993    0.3543444  71.68  0.002297088    1.711    0.416
        57  -9.2224     35.2652    150.6855   7.7128236278e+01   3.9825771183e+01     0.141909   0.09233196  66.00 0.0002569487    1.545    0.353
        58 -11.0201    234.2894    146.9729   2.7404512946e+01   6.8666700534e+00    0.1878806    0.1410093 -28.18 0.0007180232    1.133    0.117
        59  -9.6240     30.3216    145.3068   7.8055704234e+01   4.1692769144e+01    0.1369644    0.0981639 -40.66  0.000703313    1.641    0.390
        60 -11.4180      5.4034    145.1941   8.5621433453e+01   4.3766189105e+01    0.4491276    0.1579856  22.43  0.001901863    2.942    0.660
        61 -11.4000    239.7939    140.1634   2.5200742083e+01   7.0308255433e+00    0.1874408    0.1536698 -36.67 0.0006397169    1.183    0.155
        62 -10.4187    235.3502    138.0084   2.5422767528e+01   8.0657611427e+00    0.1854578    0.1382817 -30.07 0.0003921564    1.138    0.121
        63 -12.9531     37.5629    135.3327   7.4554268751e+01   4.3533991556e+01    0.3162317     0.263451 -88.43 0.0008473743    1.124    0.110
        64 -11.3449      2.9171    135.6905   8.5710685592e+01   4.6310968180e+01    0.2418385    0.1509304 -71.22  0.001323629    1.415    0.293
        65 -11.1665    241.6780    134.9310   2.3866213861e+01   7.5182289394e+00    0.1813662    0.1365353 -31.42 0.0004547698    1.115    0.103
        66 -11.0807     57.9149    132.3127   6.7385774444e+01   4.1894306712e+01    0.3928688      0.26635 -24.32 0.0008877416    2.026    0.506
        67 -10.1937     53.1679    133.0653   6.9078801350e+01   4.2315689819e+01    0.2123235    0.1847496 -44.95 0.0002680761    1.227    0.185
        68 -11.6620     17.0910    131.0543   8.0782595856e+01   4.6509912856e+01    0.3110905    0.2081685  21.66  0.001166777    1.661    0.398
        69 -11.3655      4.7546    130.1632   8.4714512324e+01   4.7595427452e+01    0.2124144    0.1967492 -78.93   0.00030335    1.113    0.101
        70 -11.8926     81.6920    125.4230   5.8256066137e+01   4.0090662657e+01    0.6629153    0.4486465 -58.16  0.002227813    1.474    0.321
        71 -11.0451     73.7251    128.8059   6.1540636815e+01   4.0515760416e+01    0.3259156    0.2941566  25.35 0.0008786655    1.167    0.143
        72 -10.0922    217.0550    129.2686   2.6439085199e+01   1.2573784028e+01    0.1811418    0.1648181 -22.27 0.0003870867    1.041    0.039
        73 -11.5464     24.4982    127.3828   7.7909237741e+01   4.6852779182e+01     0.355798    0.1937846 -68.03  0.001692343    1.634    0.388
        74 -11.1903     46.8445    124.3777   6.9808405797e+01   4.5351993684e+01    0.2668518    0.2327831 -48.58 0.0004107489    1.180    0.153
        75 -12.1403      9.3448    121.1755   8.2403622292e+01   4.9601907471e+01    0.5152707    0.2439296  66.04  0.001322812    2.386    0.581
        76  -9.4761     61.4120    121.4818   6.4248961107e+01   4.4219392661e+01    0.1468016    0.1394263 -75.34 0.0002228279    1.017    0.017
        77  -9.8789     22.3280    120.2961   7.7797068288e+01   4.8877529644e+01    0.1401839   0.09405423 -41.06 0.0003020641    1.632    0.387
        78 -10.9762     25.4968    118.9507   7.6504443221e+01   4.8960051679e+01    0.2665521    0.1281249 -79.08 0.0005275204    2.049    0.512
        79 -11.7560    249.1246    117.5666   1.9299615929e+01   8.8978846722e+00    0.3166742     0.186904 -19.62  0.001661614    1.874    0.466
        80 -10.7615     16.0104    115.5021   7.9460968904e+01   5.0609989369e+01    0.2494403    0.1777892 -89.46 0.0005478881    1.319    0.242
        81 -11.9885     12.8889    110.1947   7.9971248170e+01   5.2199069584e+01    0.4461299    0.3004182  50.85  0.001429793    1.567    0.362
        82  -9.7148    182.2458    114.8980   2.9330995732e+01   2.1893774527e+01    0.1874666    0.1182089 -41.58  0.000573852    1.513    0.339
        83 -10.7538     39.1474    112.0109   7.0487990780e+01   4.9449138256e+01     0.273429     0.185554  86.05  0.001018719    1.658    0.397
        84 -11.1084      2.5856    117.0613   8.4351704134e+01   5.1057534195e+01    0.3817884    0.1806247 -41.36  0.001739291    2.392    0.582
        85 -11.0649     55.2160    109.8491   6.4136523603e+01   4.8072520688e+01    0.2866433    0.2319469 -51.33 0.0005640761    1.202    0.168
        86 -11.3596     31.7044    109.3437   7.2824525459e+01   5.0899455401e+01    0.2631027    0.2241924 -72.93 0.0004243837    1.080    0.074
        87 -11.2939     30.2725    106.6373   7.2928768487e+01   5.1738462469e+01    0.3388931    0.2545381  25.54  0.001353687    1.439    0.305
        88 -10.7225     20.2662    108.2920   7.6978744125e+01   5.2160987303e+01    0.2647607    0.1869548   9.15  0.000830032    1.656    0.396
        89  -9.0801     96.7871    106.9902   4.9010105906e+01   4.1896857039e+01    0.1837812    0.1259662 -50.95            0    1.465    0.317
        90 -11.4814     75.0597    103.9272   5.5585566572e+01   4.6584423514e+01     0.368871    0.2384863 -54.21 0.0003442281    1.515    0.340
        91 -10.5547     62.0705     98.4742   5.9019464616e+01   4.9998716493e+01    0.3053615    0.1902342 -44.13  0.001358665    1.626    0.385
        92  -9.8913     52.0211     97.5122   6.2671311637e+01   5.1651594275e+01    0.2600049    0.1639156 -40.00 0.0007445363    1.681    0.405
        93 -10.4843      4.1950    105.2673   8.2651465606e+01   5.3983759260e+01    0.2843618    0.1508266  20.78    0.0014173    2.096    0.523
        94 -11.0979     16.3011     95.8702   7.6745783309e+01   5.5657034235e+01    0.3877277    0.1821385 -37.10  0.001654585    2.415    0.586
        95  -9.5901    226.4621     93.4764   1.7092657486e+01   1.6525257246e+01    0.1341015    0.1125946 -47.60 0.0001732043    1.086    0.080
        96 -11.6496     57.3983     90.8696   5.8939005426e+01   5.2575180678e+01    0.3787668    0.3108234 -14.11 0.0006204328    1.375    0.273
        97 -10.0711     31.8483     92.3673   6.9734572333e+01   5.5267705066e+01    0.1988669    0.1841841  86.42  0.001014996    1.122    0.108
        98 -10.1793     35.2477     90.2487   6.7880655005e+01   5.5467179481e+01    0.1864497    0.1823266  21.13 0.0004660538    1.101    0.092
        99 -10.1660     95.6855     88.8505   4.4322520621e+01   4.6324461010e+01    0.4272019    0.1629361  49.39  0.001355125    2.978    0.664
       100 -11.5371    239.8320     84.6850   1.3480346404e+01   1.5317749675e+01    0.2285559    0.1585934 -28.05  0.001320678    1.379    0.275
       101 -10.6340    184.8903     85.1396   2.1369020807e+01   2.6599885353e+01    0.2075022    0.1937922 -55.12 0.0003462757    1.013    0.012
       102 -11.1999     64.7018     81.3532   5.3409937548e+01   5.3762303335e+01     0.659214    0.2521592 -56.94  0.002265792    2.799    0.643
       103  -9.7639     46.9947     85.0015   6.1709811355e+01   5.5433463362e+01    0.1728312    0.1647142 -40.22 0.0005082365    1.016    0.016
       104  -9.7136      8.5186     85.0229   7.8385433682e+01   5.8899788561e+01    0.1844776   0.09802628  74.85 0.0008080362    2.387    0.581
       105  -9.5166     34.4462     84.4897   6.6967989626e+01   5.7000549512e+01    0.1405908    0.1269676 -49.26 0.0001410185    1.022    0.022
       106  -9.9676     68.6775     82.0236   5.2034339051e+01   5.2950002986e+01    0.2051936     0.182565 -50.26 0.0002289178    1.111    0.100
       107  -9.8563    120.0328     79.9916   3.4174879033e+01   4.2863588236e+01    0.2531002    0.1943978  12.90  0.001130308    1.717    0.417
       108 -12.5121     88.3581     77.3100   4.3249549980e+01   5.0363191760e+01    0.3298668    0.3082005  16.44 0.0003162149    1.084    0.078
       109 -10.2091     50.1097     78.0439   5.8528841998e+01   5.6719092480e+01    0.2206004    0.1805137 -31.23 0.0003654817    1.226    0.185
       110 -11.6921     23.2065     75.9769   7.0130873790e+01   6.0159133325e+01    0.4006496    0.3475933 -14.94  0.001605939    1.203    0.168
       111 -10.8819     73.3819     75.8992   4.8319829777e+01   5.3537151064e+01     0.300506    0.2323577   5.02 8.275475e-05    1.560    0.359
       112  -9.4771     44.4793     74.4596   6.0000229698e+01   5.8313523007e+01     0.138815    0.1341525 -50.74 9.446996e-05    1.069    0.065
       113  -9.6603     61.6253     73.1978   5.2190220738e+01   5.6150259587e+01     0.207366    0.1294601 -42.50 0.0005246824    1.580    0.367
       114 -11.0793    102.9493     69.6737   3.5872652480e+01   4.8829549755e+01    0.3469684    0.2254529 -44.25 0.0009161163    1.581    0.367
       115 -10.0213     44.9929     70.7012   5.8689215101e+01   5.9138405334e+01    0.1858944    0.1752074   6.89 0.0002462161    1.087    0.080
       116 -13.7452     16.5210     67.3872   7.1443844081e+01   6.2770804613e+01    0.4415271    0.3315498 -60.15 0.0007879821    1.183    0.154
       117  -9.2839     78.2904     69.3280   4.4274977637e+01   5.4063228745e+01    0.1523397    0.1165427  -8.60  0.000345921    1.619    0.383
       118 -11.6022     50.4021     68.1049   5.5449581097e+01   5.9010082191e+01    0.3161746    0.2428952 -32.29 0.0004880746    1.298    0.229
       119 -10.9964     92.7276     67.7513   3.8549792216e+01   5.1454932823e+01    0.2689383    0.2467972  22.00 0.0006654543    1.099    0.090
       120 -11.1832      6.4249     67.8393   7.6516734261e+01   6.3269992267e+01    0.2270389    0.1954709 -46.59 0.0003315909    1.058    0.055
       121 -10.4529    110.7319     65.3030   3.2037901415e+01   4.7883790867e+01    0.3913359     0.273182 -77.85  0.001622327    2.185    0.542
       122 -12.6824     30.0816     63.3373   6.3666135117e+01   6.2579495590e+01    0.4286553    0.3764614  56.14 0.0006295489    1.352    0.261
       123 -10.7725    159.5405     64.5503   2.0260345634e+01   3.6059398522e+01    0.2489635    0.2388756  23.98  0.001388311    1.164    0.141
       124  -9.5430    130.7839     65.0106   2.6594006658e+01   4.3105955271e+01    0.1963109    0.1246342 -37.82 0.0004016206    1.618    0.382
       125 -10.4094     81.9571     65.0181   4.1409507823e+01   5.4243300276e+01    0.2297926     0.219453   7.19 0.0005679672    1.022    0.022
       126 -11.5182    209.8047     62.9521   1.2081581153e+01   2.4520938380e+01    0.2246718    0.2032872 -52.97 0.0002789499    1.046    0.044
       127  -9.8304    155.2820     63.9236   2.0894495814e+01   3.7215117635e+01    0.2030724    0.1882735 -46.98 0.0003339826    1.088    0.081
       128 -10.4475    123.0413     62.9148   2.7850118892e+01   4.5372188218e+01    0.3171439    0.2125033 -32.92  0.000843853    1.595    0.373
       129 -10.8631     11.2526     61.6938   7.2844711064e+01   6.4484938951e+01    0.2748242    0.2494328 -36.10  0.001785093    1.076    0.070
       130 -11.6571      3.4403     62.0347   7.6938484209e+01   6.4814303365e+01    0.3833301    0.2291497 -54.60  0.001865117    1.377    0.274
       131 -10.3642    246.6508     61.6804   7.7949618720e+00   1.7252523609e+01    0.1142903   0.09386738  10.36 0.0007048482    1.738    0.424
       132 -13.0354    232.1124     57.3047   8.2527038387e+00   2.0648158424e+01    0.7377109    0.2345888 -48.77  0.002859425    2.988    0.665
       133 -10.2160     90.5283     61.0528   3.6934193295e+01   5.3247593342e+01    0.2894398    0.2054203  61.14 0.0008901018    1.638    0.389
       134 -11.4655     46.5979     60.0186   5.4569261240e+01   6.1363347098e+01    0.3919591    0.3185539 -25.29 0.0007423544    1.208    0.172
       135  -9.9055    189.2626     60.0459   1.4089205870e+01   2.9588245283e+01    0.1896681    0.1650278 -52.33 0.0002581872    1.066    0.062
       136 -10.9624    153.9767     58.6723   1.9565372859e+01   3.8386807540e+01    0.2471393    0.2034142 -48.08 0.0003976199    1.209    0.173
       137 -10.1478    135.7315     58.7495   2.3398936121e+01   4.2947276089e+01    0.3605958    0.2065836  83.98  0.001254326    3.024    0.669
       138 -10.2389     68.2050     57.7395   4.4140430469e+01   5.8365750952e+01    0.3949363    0.1745635 -35.20 0.0009711867    2.700    0.630
       139 -10.3652     15.2603     58.6640   7.0037884144e+01   6.4941838137e+01    0.1953369    0.1665156 -13.32  0.000415504    1.188    0.159
       140  -9.7737    177.2437     56.4267   1.4897421592e+01   3.2988350444e+01    0.1973526    0.1335249  82.12 0.0009384874    1.632    0.387
       141 -10.9334    115.8248     55.2648   2.7130611970e+01   4.8455800382e+01    0.2848418    0.2409833  71.81 0.0005598892    1.237    0.192
       142 -11.3071     89.0747     54.6217   3.5055991475e+01   5.4772613690e+01    0.4004528    0.2421105 -38.87  0.001603522    1.709    0.415
       143 -11.9514      5.6363     42.4141   7.1240142567e+01   6.9265517298e+01    0.8388048    0.2084478 -46.63  0.003263734    2.937    0.659
       144 -11.5586     16.9692     42.0347   6.4271539997e+01   6.8585168417e+01    0.5598731    0.3000474 -60.76  0.002809374    1.810    0.447
       145 -11.4000     12.9487     53.1218   6.9874123115e+01   6.6391947118e+01    0.4527442    0.1928746 -30.88  0.001905022    2.627    0.619
       146 -11.9729      6.0927     52.3841   7.3499408351e+01   6.6967567588e+01    0.6501049    0.3084903  -1.21  0.002903798    2.461    0.594
       147 -13.2474     12.5614     47.8563   6.8659078616e+01   6.7621647476e+01    0.3674449    0.3264038  -2.36 0.0006660665    1.177    0.151
       148 -11.8788    149.7512     51.5597   1.8181824709e+01   4.0551648073e+01    0.4007812    0.2776768 -59.48  0.001126862    1.580    0.367
       149  -9.7203    154.2527     52.3457   1.7582020827e+01   3.9296008804e+01     0.202094    0.1632525 -72.85 0.0004075442    1.296    0.228
       150 -11.4515    105.2395     52.5373   2.9121878284e+01   5.1461431079e+01     0.282093     0.259432  53.40 0.0002297812    1.051    0.049
       151  -9.7707     38.6431     52.7200   5.5961282968e+01   6.4012723323e+01    0.1434591   0.09745178 -17.24 0.0002185918    1.661    0.398
       152  -9.8449    127.1844     51.1984   2.2855144252e+01   4.6311848263e+01    0.2099595    0.1711592 -65.85 0.0007000384    1.356    0.262
       153 -10.2240     62.6050     50.7400   4.3832163446e+01   6.0770573353e+01     0.193076    0.1353507 -51.90 0.0008587159    1.577    0.366
       154 -11.6501     53.8782     48.4831   4.6878255898e+01   6.2698941298e+01    0.4926656    0.3601665  26.72  0.002597293    1.363    0.266
       155 -11.8809     55.0973     41.6051   4.3466326943e+01   6.3820111094e+01    0.8867075     0.310476 -46.92  0.003223546    3.039    0.671
       156 -10.8479     57.8152     34.3833   3.8998576268e+01   6.4626384920e+01    0.3869457    0.2238877  25.46  0.001134341    1.979    0.495
       157 -12.0579     44.9077     44.1727   4.9518832079e+01   6.4940610478e+01    0.5858243    0.3627138 -55.22 0.0004380934    1.833    0.455
       158 -11.0059    247.8028     46.8348   4.5351220719e+00   1.8962304928e+01    0.1750038    0.1159192 -57.53 0.0008522319    1.312    0.238
       159 -10.1905    180.2854     47.0527   1.1848719127e+01   3.3599189156e+01    0.1923716    0.1637055 -55.59 0.0001945754    1.100    0.091
       160 -10.6534     83.0012     47.4808   3.4417163583e+01   5.7364033396e+01    0.2950408    0.1399385  51.61   0.00115692    2.170    0.539
       161 -10.2690     78.7123     47.3943   3.5959245440e+01   5.8283688363e+01    0.2469569    0.1783973   8.40 0.0009315097    1.763    0.433
       162  -9.7701    222.0143     45.9857   6.6674317644e+00   2.4231297537e+01      0.15264    0.1294498 -60.47            0    1.020    0.019
       163  -9.8927    121.6362     46.7244   2.2622374539e+01   4.8399968352e+01    0.3487418    0.1604682  65.48  0.001260635    2.494    0.599
       164 -10.9878    122.1475     43.2750   2.1270516875e+01   4.8791978600e+01    0.7275692    0.4105889  89.44  0.002490524    3.382    0.704
       165 -11.0944    236.9589     44.3635   4.9174097328e+00   2.1375159600e+01    0.2236455    0.1386453 -48.00  0.000714189    1.324    0.245
       166  -9.3578     91.7038     45.6627   3.0698500080e+01   5.5756757410e+01    0.1508642    0.1123553  13.82 0.0002906832    1.653    0.395
       167 -11.3113     75.2306     43.8574   3.5834668973e+01   5.9624404625e+01    0.3784409    0.2017776  50.35 0.0009769236    1.930    0.482
       168 -10.3231     50.2126     43.3212   4.6528095888e+01   6.4298399257e+01    0.3095481    0.1881443 -38.24   0.00150933    1.615    0.381
       169  -9.9578    126.7983     43.2108   2.0173808588e+01   4.7626525357e+01    0.2112651    0.1890947 -88.27 0.0004155369    1.146    0.127
       170 -10.3048     89.8012     41.5944   2.9688963952e+01   5.6851938483e+01    0.3420384    0.2068152  64.73  0.001461868    2.042    0.510
       171 -11.3803    149.5499     40.8039   1.4823641166e+01   4.2154820073e+01    0.2503475    0.2269998  87.34 0.0002699666    1.034    0.033
       172  -9.5374    143.9417     42.0453   1.6245243220e+01   4.3417650176e+01    0.1714209    0.1563047  78.41 0.0002908139    1.026    0.026
       173 -10.6675     97.3046     41.1088   2.7118120625e+01   5.5195537025e+01    0.3266242    0.2094564  63.66  0.001029915    1.704    0.413
       174 -10.4717    245.3044     39.3233   3.1419814497e+00   2.0371747130e+01    0.1063677   0.09316011  10.68 0.0003945227    1.639    0.390
       175  -9.4019    112.4150     45.4770   2.4509374868e+01   5.0880214198e+01    0.1472372    0.1390207  42.09 0.0001040667    1.044    0.042
       176 -11.5701     83.5893     37.1122   2.9920810585e+01   5.8951485690e+01    0.4283673     0.372097  37.23   0.00139062    1.072    0.067
       177 -12.0205     27.7236     37.6701   5.6269556202e+01   6.8468778206e+01    0.2375582    0.2165803  -0.36 0.0002377478    1.117    0.104
       178 -10.9368     24.4005     34.7795   5.7082202856e+01   6.9414406182e+01    0.2407584     0.189891 -22.98 0.0004371323    1.132    0.117
       179 -10.2808    223.3104     37.3016   4.5294210933e+00   2.5063272501e+01    0.1137064   0.09819262  27.76 0.0002024685    1.605    0.377
       180 -11.1997     65.0080     36.5648   3.6822511625e+01   6.2907748209e+01    0.2321948    0.1899396 -51.35 0.0006630541    1.449    0.310
       181 -11.4007    248.0406     36.0576   2.2456192483e+00   2.0244792861e+01    0.1847198    0.1423332 -54.61 0.0003758737    1.023    0.023
       182 -11.0330    241.9820     35.4673   2.5748398347e+00   2.1485307770e+01     0.189083    0.1394822 -44.15  0.000597561    1.146    0.128
       183  -9.3894     93.6556     35.3036   2.5873739483e+01   5.6926967733e+01     0.144342    0.1136657 -81.38  0.000704038    1.686    0.407
       184 -10.2153    110.5048     34.2058   2.0741921664e+01   5.3001564940e+01    0.2788408    0.1923096  56.85  0.001364942    1.336    0.251
       185  -9.7420    118.0195     32.8343   1.8413400021e+01   5.1299156353e+01    0.3972992    0.1924021  33.38   0.00139004    3.170    0.685
       186 -10.1485     88.1272     32.5939   2.6469294062e+01   5.8603684068e+01    0.2689805    0.1848757  -3.87 0.0009049824    1.889    0.471
       187 -11.0052     75.7172     33.2075   3.1046926293e+01   6.1265949590e+01    0.3267753    0.1862081  62.36  0.001378648    2.293    0.564
       188  -9.8896     34.5022     33.1120   5.0397748205e+01   6.8538883366e+01    0.1926769    0.1210601 -43.34  0.001010283    1.525    0.344
       189 -10.8245     12.0964     29.1738   6.2709634811e+01   7.1683471749e+01    0.3881427    0.1744287 -41.88  0.001897127    1.904    0.475
       190 -10.4188      8.0000     31.9983   6.6499973873e+01   7.1390702673e+01    0.2823105    0.1606908 -60.96  0.001525763    1.680    0.405
       191 -11.4178      6.7739     28.1314   6.5945114390e+01   7.2277786438e+01     0.238148    0.1760485 -58.52 0.0006806348    1.346    0.257
       192 -10.2833     15.6244     32.1586   6.1546979740e+01   7.0784732012e+01    0.2296301    0.1568874 -13.18 0.0006682507    1.442    0.306
       193 -10.3662     19.3965     30.7888   5.8562181693e+01   7.0720574066e+01     0.220896    0.1827153 -22.19 0.0009527004    1.032    0.031
       194 -10.0610     49.1330     28.7408   4.0474866045e+01   6.7102197401e+01    0.1839107     0.142099   0.39  0.001026693    1.319    0.242
       195 -12.1026    231.9977     26.6412   1.4067946705e+00   2.4534451484e+01     0.338697    0.1973972 -79.45  0.001553718    1.755    0.430
       196 -11.7939    112.0503     27.1287   1.7618176207e+01   5.3538806277e+01    0.3398077    0.2882604  -1.02    0.0018713    1.357    0.263
       197 -10.3337     80.3055     27.2437   2.6707672676e+01   6.1131561576e+01    0.2661544    0.1765145  -6.97  0.001259731    1.915    0.478
       198 -11.2081    212.9682     26.5041   2.9033463438e+00   2.8607453636e+01    0.2236479    0.1822098 -12.49  0.001241333    1.589    0.371
       199 -10.9567    176.7431     26.6830   6.6210057365e+00   3.7085932728e+01    0.2376925    0.1972976 -67.05 0.0002187824    1.100    0.091
       200 -10.7037    119.5277     27.2229   1.5976599330e+01   5.1630988373e+01    0.2502199    0.1845002  62.29 0.0005802013    1.237    0.192
       201 -10.4682    218.9908     25.6597   2.1983329484e+00   2.7389221108e+01    0.1750063    0.1427489 -75.50 0.0004179077    1.097    0.088
       202  -9.2570     98.5083     26.4547   2.0772937797e+01   5.6978144486e+01    0.1447416    0.1277751  42.25 0.0001056332    1.062    0.058
       203 -10.6298    198.6389     28.4233   4.7070182592e+00   3.1629461014e+01    0.2601328    0.1216417  81.55  0.001141147    2.318    0.569
       204 -10.2880     91.4238     24.9231   2.2129425957e+01   5.8874598235e+01    0.3378779     0.162838  48.76  0.001344251    1.858    0.462
       205 -10.3431     11.0285     24.5463   6.1561847300e+01   7.2698394381e+01    0.2448222    0.1360604 -37.80  0.000733146    1.555    0.357
       206  -9.6721    129.1623     24.6306   1.3088042784e+01   4.9467324084e+01    0.2030632    0.1165056  56.06 0.0005078313    1.580    0.367
       207 -10.0016    159.5191     23.4487   7.8520711602e+00   4.1783328352e+01    0.2219282    0.1353358 -30.30 0.0006559365    1.735    0.423
       208  -9.9664    156.6760     21.4046   7.6080927643e+00   4.2739035091e+01    0.2117244    0.1268403  72.22 0.0005964189    1.536    0.349
       209 -10.5725     82.4486     22.1930   2.3677578815e+01   6.1314341600e+01    0.2528612    0.1396613 -21.30  0.001135144    2.102    0.524
       210 -11.5055     34.1386     22.7069   4.5599416172e+01   7.0461168576e+01    0.2296721    0.1853363   3.96 0.0002387994    1.122    0.109
       211 -11.6073    249.2558     20.9385   3.5902390339e+02   2.1767867531e+01    0.2276432    0.1587321 -49.53 0.0002363105    1.120    0.107
       212 -10.8416    241.7661     22.2192   3.5976581066e+02   2.3076549233e+01    0.1710953   0.07769018  62.76 0.0008834556    2.453    0.592
       213 -10.5595    193.0873     20.8484   3.3013786248e+00   3.3807318714e+01    0.2071599    0.1700421 -51.51 0.0003363437    1.137    0.120
       214 -10.7262    122.1961     20.1599   1.2788459245e+01   5.1770562500e+01    0.3704681    0.1857017  42.22  0.001546734    2.203    0.546
       215  -9.5597     74.2429     21.1582   2.5983646701e+01   6.3287375111e+01    0.1695717    0.1595188  89.44 0.0003620631    1.285    0.222
       216 -10.6632     68.8265     21.1907   2.8009497737e+01   6.4451021003e+01    0.1938973    0.1895748  87.22  0.000685561    1.238    0.192
       217  -9.6178     58.9985     21.2435   3.2071235143e+01   6.6448593307e+01    0.1750246    0.1056752  44.75 0.0005834933    1.548    0.354
       218 -10.1915    247.5026    249.5133   4.3095904943e+01  -8.2596541177e+00    0.1060532    0.0737406   2.13 0.0004398197    1.027    0.026
       219 -11.6711    219.3919    247.3301   4.7442223017e+01  -4.9589978996e+00    0.2733676    0.2108874 -38.63  0.001981931    1.878    0.467
       220  -9.7282    109.9803    249.7879   6.9038774990e+01   8.8695440931e+00    0.1697727   0.07824057  33.01  0.000759115    1.694    0.410
       221  -9.8743      6.9782    249.2892   9.0008924343e+01   2.0907285272e+01    0.1519327    0.1057264  52.58 0.0004651778    1.036    0.035
       222  -9.7182     10.5067    248.0533   8.9292836143e+01   2.0802084017e+01    0.1458108   0.09298137  85.77 0.0005894029    1.522    0.343
       223 -10.1552     88.0869     19.4608   2.0686713802e+01   6.0335465417e+01     0.212466    0.1890146 -65.10 0.0003351875    1.328    0.247
       224 -11.2390     64.4847     17.6294   2.7916105602e+01   6.5827708447e+01    0.3101846    0.2039406  41.92 0.0009252188    1.369    0.269
       225 -10.8054    131.9352     16.1912   9.5949259983e+00   4.9681541880e+01    0.2117699    0.1939066 -57.16 0.0003026918    1.150    0.131
       226 -10.1971    109.1697     16.6695   1.4122415009e+01   5.5472186019e+01    0.2414793    0.1539862  56.10 0.0007746039    1.382    0.276
       227 -10.0781    101.4610     17.5297   1.6257114325e+01   5.7310123553e+01    0.3027298    0.1256594  61.68  0.001056375    2.160    0.537
       228  -9.9244     35.5457     17.4350   4.1951856014e+01   7.1117079236e+01    0.1293315    0.1089051   2.54 6.045004e-06    1.016    0.016
       229 -11.2437     73.1906    244.8125   7.6337061586e+01   1.4496704539e+01    0.2298682     0.202935  48.41  0.001078633    1.141    0.123
       230 -10.7310    216.9098     15.9812   1.0740656174e-01   2.8931437146e+01    0.3940882    0.1395335  64.61  0.001755852    2.772    0.639
       231  -9.9906    193.6423     16.3099   2.0762979481e+00   3.4176361265e+01    0.2326101    0.1370771 -86.70 0.0009957593    1.663    0.399
       232 -10.7763    137.4210     15.2269   8.3805918846e+00   4.8360957239e+01    0.2737255    0.1982624 -71.58 0.0004298024    1.452    0.311
       233 -12.6185     74.8303    239.7560   7.5575395942e+01   1.5205840462e+01    0.5153816    0.4244544 -65.64  0.003540796    1.482    0.325
       234  -9.5624      4.4742    243.9434   9.0328098256e+01   2.2111444026e+01    0.1448435    0.0904692  82.88 0.0004877041    1.485    0.326
       235 -10.0159     45.4856    244.4683   8.2121435076e+01   1.7848364982e+01    0.1197648   0.08817714  50.80 3.266823e-05    1.034    0.033
       236 -10.2355    151.4694     15.0469   6.3127182971e+00   4.4754893613e+01    0.1872187    0.1364032 -27.96 0.0003355033    1.516    0.340
       237 -10.8554    166.2271     12.8261   3.8484169680e+00   4.1230974424e+01    0.3542737    0.1460022  74.98  0.001473731    2.262    0.558
       238  -9.5281    135.0000    237.9916   6.2455153295e+01   7.3608386565e+00    0.1715816    0.0725037 -52.19 0.0008009388    2.932    0.659
       239 -10.5352    160.5809    235.2121   5.6788279391e+01   4.2080639033e+00    0.1600892    0.1074231 -24.60 0.0009422945    1.706    0.414
       240 -10.3090      3.7695    238.4966   9.0300916413e+01   2.3190118800e+01    0.1910282    0.1274533  83.97 0.0007772067    1.399    0.285
       241 -10.1007    183.2090    234.4311   5.2186364252e+01   1.2189516329e+00    0.1693216   0.09571069  37.94   0.00094836    1.686    0.407
       242 -10.3377     30.6935    233.7699   8.4614698691e+01   2.1478762423e+01    0.2406184    0.1293352  84.18  0.001383934    1.915    0.478
       243 -10.3082     54.5178    231.5138   7.9349402189e+01   1.9255707261e+01    0.1227214   0.09803676  49.62 9.550145e-05    1.020    0.020
       244 -10.7118    248.5310    229.0090   3.9822916295e+01  -6.1096193953e+00    0.1581387   0.08772475 -26.83  0.001031286    1.591    0.371
       245 -10.2255    191.9965    226.8138   4.9358286069e+01   1.1093235134e+00    0.1497418    0.1432646 -51.30  0.001061672    1.623    0.384
       246 -10.0789      4.0264    225.8381   8.9843701428e+01   2.5613943668e+01    0.1811495    0.1553783   7.70  0.001297552    1.624    0.384
       247 -10.1121     78.9891    223.4949   7.3193477540e+01   1.7750621934e+01    0.2116363    0.1673215  -7.16  0.001151101    1.742    0.426
       248  -9.6786     16.3016    222.3080   8.7121858795e+01   2.5195015023e+01    0.1001737   0.08848198 -42.51 0.0003119392    1.601    0.375
       249 -11.3742     49.2087    218.5134   7.9584837294e+01   2.2481712244e+01    0.4342039    0.2034221  35.55  0.002205782    1.756    0.430
       250  -9.8222    211.6101    217.8433   4.4293786921e+01  -2.6339557355e-01    0.1537365    0.1066712 -40.38 0.0009512029    1.743    0.426
       251 -10.1016     38.6183    217.1371   8.1903077917e+01   2.3967055317e+01     0.215738    0.1299902  44.90 0.0005931473    1.335    0.251
       252 -10.0581     23.8602    216.0831   8.5164123309e+01   2.5735012372e+01    0.1837748    0.1239548  59.14            0    1.197    0.165
       253 -10.1344     13.3409    216.3104   8.7497618432e+01   2.6701240760e+01    0.1045696   0.08839371 -38.79 0.0007045122    1.694    0.410
       254 -10.4901    234.0000    214.9965   3.9934839714e+01  -2.7324037987e+00    0.1767515   0.05699467 -35.86 0.0008009244    2.932    0.659
       255 -10.3175     29.8101    214.4066   8.3731718024e+01   2.5479201369e+01    0.1585158    0.1106101  20.08 0.0005649932    1.663    0.399
       256 -10.9960    217.5155    209.6609   4.1884862342e+01   7.9730868468e-02    0.3669646    0.1399499 -32.21  0.001702969    2.610    0.617
       257  -9.8290     20.0098    211.5070   8.5787884543e+01   2.7073964113e+01    0.1848038     0.056408  47.92 0.0008094503    2.450    0.592
       258 -11.4794      5.3634    210.5179   8.9005644917e+01   2.8623882912e+01    0.2174931    0.1269124 -84.40 0.0007805014    1.626    0.385
       259 -11.8724     11.2788    209.1398   8.7636278191e+01   2.8392263037e+01    0.2946869    0.1959478  55.93  0.001490077    1.189    0.159
       260  -9.3540     71.4927    208.5595   7.3477764353e+01   2.1788269345e+01    0.1317791    0.1120733  47.92 9.727826e-05    1.021    0.021
       261 -11.6258     21.1686    199.1068   8.4840987386e+01   2.9645745185e+01    0.3359365    0.2372024  -7.86  0.001303349    2.207    0.547
       262 -11.1496      4.8635    204.7027   8.8887231739e+01   2.9900220798e+01    0.1964839    0.1784634 -32.47  0.001415933    1.543    0.352
       263  -9.9456    174.8026    202.1716   4.8817183405e+01   7.3832643113e+00    0.1821521     0.136247   4.41 0.0004441228    1.318    0.241
