#   1 NUMBER                 Running object number                                     
#   2 MAG_AUTO               Kron-like elliptical aperture magnitude                    [mag]
#   3 X_IMAGE                Object position along x                                    [pixel]
#   4 Y_IMAGE                Object position along y                                    [pixel]
#   5 X_WORLD                Barycenter position along world x axis                     [deg]
#   6 Y_WORLD                Barycenter position along world y axis                     [deg]
#   7 A_WORLD                Profile RMS along major axis (world units)                 [deg]
#   8 B_WORLD                Profile RMS along minor axis (world units)                 [deg]
#   9 THETA_WORLD            Position angle (CCW/world-x)                               [deg]
#  10 FWHM_WORLD             FWHM assuming a gaussian core                              [deg]
#  11 ELONGATION             A_IMAGE/B_IMAGE                                           
#  12 ELLIPTICITY            1 - B_IMAGE/A_IMAGE                                       
         1 -14.2370    173.9696     74.0672   7.4858600388e+01   3.1597622819e+01     7.767534     4.204173  89.11   0.02563487    3.912    0.744
         2 -12.4593    249.9070     42.2752   5.7867752219e+01   1.9785336356e+01    0.8543031    0.3789534 -50.18  0.003405563    1.874    0.466
         3 -13.3434    248.9284      5.1685   5.1304816655e+01   2.4624214255e+01     1.319248    0.8078921 -11.54  0.005722447    5.893    0.830
         4 -14.5064    245.6084     29.9130   5.5962316727e+01   2.2291510901e+01     3.730581    0.5923248  61.11   0.01287373    5.329    0.812
         5 -14.3566    208.4902     66.3148   6.7502976990e+01   2.4953956975e+01     4.962646     3.101899 -80.37   0.02413682    1.862    0.463
         6 -13.8038    234.2170      7.8504   5.2840596643e+01   2.7247301597e+01     1.632805     1.451301  44.83  0.007584542    1.765    0.433
         7 -13.6881    240.4234     44.9176   5.9270964324e+01   2.1316044543e+01     2.539361     1.123663 -68.29  0.003830925    2.816    0.645
         8 -14.0479    241.0727    109.9631   7.2285164614e+01   1.0667279064e+01     9.177417     1.197519 -43.18   0.02290716    6.035    0.834
         9 -10.7667    145.2662     29.3224   6.8182573162e+01   4.4586617617e+01    0.7017508    0.2616646 -40.00  0.002983538    2.872    0.652
        10 -13.4207    249.6164     20.0207   5.3848188031e+01   2.2745416573e+01     1.187483    0.5647932 -31.74  0.006073811    2.907    0.656
        11 -11.5711    129.4803     22.2962   6.9051516950e+01   4.8903353855e+01    0.5039612    0.4343491 -39.70  0.003301911    1.333    0.250
        12 -10.4526    126.0197     14.8716   6.7512806796e+01   5.0392695052e+01     0.394247    0.2605269 -73.53  0.002129024    2.105    0.525
        13 -11.4730    119.0103     10.1095   6.7395548516e+01   5.2345542080e+01    0.6523994    0.3579103  48.05  0.002797514    1.559    0.359
        14  -9.5710    203.2567     18.2463   5.7645974101e+01   3.2641585626e+01    0.5156576    0.2592371  77.59  0.002700025    1.787    0.440
        15 -10.0815    178.8277     10.8004   5.8680326526e+01   3.8889338909e+01    0.4505934    0.1952513 -35.05  0.001879454    2.502    0.600
        16  -9.3829    179.2397      7.0253   5.7767793634e+01   3.9168934945e+01     0.248513    0.1894436  75.10 0.0006508183    1.096    0.087
        17  -9.9605    143.3879      8.8410   6.2899264874e+01   4.7077519027e+01    0.5579582    0.2547606 -13.76  0.002484065    3.578    0.721
        18  -9.3948    144.1481      3.1553   6.1264995336e+01   4.7396488934e+01    0.3641317     0.190786 -33.69  0.001259143    2.191    0.543
        19 -10.2537    208.0635      9.1858   5.5298535637e+01   3.2589891956e+01    0.2862971    0.2194034  71.43  0.001348587    1.264    0.209
        20  -9.8424      6.5572      2.7827   1.0059247220e+02   7.1585519712e+01    0.4183723    0.1515285  23.03  0.002260369    2.735    0.634
        21  -7.7577    171.5205      2.5295   5.7603225718e+01   4.1318463211e+01    0.1215454   0.09654221  84.51 0.0002035206    1.036    0.035
        22  -8.9406    250.1872    239.2020   9.5941410570e+01  -1.3304150117e+01    0.1891348    0.1503989 -29.51 0.0003886947    1.278    0.217
        23 -11.8820    232.5057    250.1161   1.0098802403e+02  -1.2587173717e+01    0.2368766    0.1755906  24.70 0.0005927745    1.266    0.210
        24  -9.9484    144.5961    226.8238   1.1483093855e+02   5.3293214309e+00    0.2475308    0.2377865 -27.53 0.0004113018    1.127    0.113
        25 -10.9369     68.3535    146.2331   1.1952821216e+02   3.7323667081e+01    0.9803038     0.576076 -69.54  0.003950702    1.776    0.437
        26  -8.3135     93.6650    151.9549   1.1366422350e+02   3.1910945345e+01     0.203218    0.1778482 -58.68 0.0003480131    1.082    0.076
        27  -7.8441    137.6894    147.2832   1.0112188137e+02   2.4661270239e+01    0.1572239      0.12377  83.65 0.0005928125    1.570    0.363
        28  -9.2244    227.2568    144.0923   8.1594914179e+01   6.9082582277e+00     0.224807    0.2028975  69.04 0.0002126353    1.259    0.206
        29  -8.5232    213.5148    143.0174   8.3785934571e+01   9.7710504817e+00    0.2263937    0.1329593 -43.92 0.0006157478    1.548    0.354
        30  -7.9963    155.3592    142.1514   9.5671572213e+01   2.2133047967e+01    0.2186664    0.1927016 -56.77  0.000487161    1.111    0.100
        31  -9.0611    188.0347    139.0571   8.7807453334e+01   1.5816331564e+01    0.3610689      0.26392  48.59  0.001312913    1.444    0.307
        32  -8.4534    159.9896    137.9774   9.3623083758e+01   2.2077116408e+01    0.2386887    0.1878777 -84.01 0.0003547333    1.560    0.359
        33  -9.0195    221.5063    135.5139   8.0752701853e+01   9.6798026694e+00    0.3834865    0.1571248 -50.73  0.001427436    2.464    0.594
        34 -10.8003    198.1319    132.7136   8.4374653435e+01   1.5001682950e+01    0.6871669    0.4047418 -60.68  0.002841462    2.030    0.507
        35  -8.6219    160.8218    128.6554   9.1215708500e+01   2.3954479026e+01    0.3641715    0.1790754 -63.43  0.001102777    3.535    0.717
        36  -8.8930    218.1685    126.0236   7.9266721427e+01   1.2191887877e+01    0.3148352     0.234314  83.76  0.001532556    1.689    0.408
        37  -7.9113    210.5924    125.7960   8.0529419219e+01   1.3787386592e+01    0.2099297    0.1264206 -52.39 0.0003317971    1.596    0.374
        38  -8.9498    135.0000    124.9684   9.6497848763e+01   3.0376896998e+01    0.3278245    0.1621201 -51.88  0.001217832    2.076    0.518
        39  -7.9344    133.9734    121.2948   9.5842389984e+01   3.1417655687e+01    0.3042658    0.2026967 -30.94  0.001286312    1.777    0.437
        40 -10.7836    184.2652    120.5598   8.4277156236e+01   2.0489408849e+01    0.5483777    0.3808743 -50.37  0.002299413    1.381    0.276
        41  -9.3950    158.8171    115.6253   8.8476457959e+01   2.7196075292e+01    0.5691319    0.3171923 -70.91  0.001796786    3.591    0.722
        42  -7.5827     16.9874    218.4989   1.4119589625e+02   2.6022711694e+01    0.1581418    0.1122448  43.32 0.0005298661    1.504    0.335
        43  -9.3264    217.3533    116.5756   7.7333584931e+01   1.4177141528e+01    0.3796593    0.2129135  49.71  0.001342438    1.968    0.492
        44  -9.5380    168.2819    114.2000   8.6047246885e+01   2.5366434995e+01     0.289074    0.2565195  81.14 0.0008404251    1.169    0.144
        45  -8.5075    128.4962    114.9747   9.5639877093e+01   3.3975729256e+01     0.224814    0.1344053 -68.52 0.0006703959    2.575    0.612
        46 -10.4593    206.6612    110.0636   7.7683081905e+01   1.7676380436e+01    0.5069943     0.316917  60.81  0.002370291    1.740    0.425
        47 -10.8457    225.6054    108.1313   7.4179160644e+01   1.4064961115e+01    0.4773704    0.2874697 -58.02  0.001927147    1.660    0.398
        48 -10.5482    188.7280    104.6439   7.9634599318e+01   2.2665938481e+01    0.5857757    0.4303389  85.26  0.002797991    1.624    0.384
        49  -9.1627    216.1476    101.8847   7.4286819004e+01   1.7181348612e+01    0.2665495     0.177211 -60.40  0.001247355    1.496    0.331
        50  -8.7007    147.7351    101.6058   8.7432182832e+01   3.2577014300e+01     0.275919    0.2474547 -53.11 0.0005937674    1.107    0.097
        51  -9.2713    197.8389     97.5542   7.6325601207e+01   2.1967936606e+01    0.3388675    0.3196005 -41.37  0.001221117    1.172    0.147
        52  -9.2229    133.2365     96.8686   8.9656578691e+01   3.6750300754e+01    0.4134212    0.2739561  83.77  0.001583569    2.558    0.609
        53  -9.1954    169.1249     96.3725   8.1427499319e+01   2.8720863269e+01    0.2830264    0.2309651 -44.33 0.0004404154    1.225    0.184
        54 -11.0241    172.6544     86.9690   7.8357377392e+01   2.9655173450e+01    0.6678738    0.5524732   7.39   0.00288873    1.681    0.405
        55  -9.8792    157.6614     95.5436   8.3623874994e+01   3.1513779736e+01    0.4766466    0.2468917  39.26  0.001831203    2.334    0.571
        56  -9.1624    141.1446     91.3526   8.6249138831e+01   3.6073294241e+01    0.3080185    0.2684606 -61.47 0.0006140489    1.191    0.160
        57 -10.9116    156.1872     86.0850   8.1468644933e+01   3.3628515999e+01    0.5755798    0.3744174  67.30  0.002594054    1.721    0.419
        58  -7.9268    131.2979     86.3366   8.7247095440e+01   3.9214044284e+01    0.1488395    0.1174455   6.24 0.0007032285    1.654    0.396
        59  -8.7913    193.2080    195.6305   9.8752775954e+01   2.9627662721e+00    0.2900665    0.1729134 -72.90 0.0009552794    4.207    0.762
        60  -8.3366    112.1783     77.7842   8.9738218354e+01   4.4869936573e+01    0.2013801    0.1910563  68.40 0.0004373484    1.140    0.123
        61 -10.9971    191.9249     74.7503   7.1942307375e+01   2.7329397233e+01    0.8066403     0.401447  39.96  0.003060685    3.106    0.678
        62  -9.4544    185.4617     68.8772   7.1588065870e+01   2.9780078830e+01    0.5093555    0.2102133 -52.14  0.001867824    2.721    0.633
        63  -9.4541    249.9558    177.6922   8.4589030054e+01  -3.2522245840e+00    0.2820899    0.2030022 -63.27  0.001249706    1.878    0.468
        64 -12.3680     11.3732    183.3891   1.3931094347e+02   3.4687208275e+01    0.9496358    0.6788042 -80.53  0.003825247    1.115    0.103
        65  -9.3190    238.7101    173.5092   8.5664276782e+01  -6.9611361392e-01     0.245749     0.233475 -18.51 0.0004447142    1.113    0.102
        66  -9.2975    239.5828    168.7856   8.4570255626e+01   3.0985932667e-02    0.2553832    0.2179374 -26.21 0.0003463835    1.090    0.082
        67  -7.8451    202.7571     30.4536   6.0315890792e+01   3.1301287120e+01    0.1638681    0.1052283  63.22 0.0004631037    1.480    0.324
        68  -7.6438    198.0000     29.9508   6.0758036511e+01   3.2427268297e+01    0.1787378   0.06960166 -35.25 0.0004956856    2.758    0.637
        69  -9.4905    181.1827     29.0883   6.2660309868e+01   3.6349385111e+01     0.309496    0.2473114 -73.15   0.00129351    1.187    0.158
        70 -10.0134    239.9373    163.8461   8.3517341558e+01   8.8740594876e-01    0.3233681    0.2145074 -37.30 0.0007304699    1.328    0.247
        71 -11.2398     55.4604    156.7127   1.2494453196e+02   3.6455378067e+01    0.8138193    0.5645417 -87.15  0.002259421    1.560    0.359
        72 -11.2305     42.5881    165.3276   1.2966078879e+02   3.5878047598e+01    0.5204194    0.3820715 -41.75  0.001426691    1.550    0.355
        73  -7.7038    179.4924     20.9690   6.0965409632e+01   3.7667450553e+01     0.163424    0.1217997 -40.32 0.0005881849    1.493    0.330
        74 -11.6051     49.2808    160.7664   1.2724054241e+02   3.6217450498e+01     0.840372    0.7015263  82.04  0.002992479    1.187    0.158
        75  -8.1060    159.7554     19.0241   6.3148160513e+01   4.2385687790e+01    0.1596884    0.1490262  83.25 0.0003995967    1.129    0.114
        76  -9.6073     21.9511    168.3893   1.3523859167e+02   3.7306320537e+01    0.2639267    0.1355748  52.57 0.0009848933    2.142    0.533
        77  -8.9507     94.6168    167.0722   1.1636671272e+02   2.7980840176e+01    0.2384592    0.2127187  34.72 0.0003708659    1.220    0.180
        78  -8.3882    161.0001    164.9910   9.9473572050e+01   1.5760369147e+01     0.223278    0.2174988 -67.45  0.001195196    1.020    0.020
        79 -10.1764    207.7396    161.5000   8.8838038304e+01   7.1666152800e+00    0.2590524    0.2532902 -65.14 0.0004375987    1.093    0.085
        80  -7.9070      9.6031    247.1937   1.4457699661e+02   2.0673476122e+01    0.1490189   0.08603278 -70.35 0.0003625736    1.659    0.397
        81  -8.6917    192.3353    244.6856   1.0778127673e+02  -5.9240017189e+00    0.1220585    0.1012343  64.66 0.0007046679    1.690    0.408
        82  -8.4928    202.9562     23.9501   5.8891368113e+01   3.2046720233e+01    0.3596213    0.1522534  76.03  0.001645538    2.289    0.563
