#   1 NUMBER                 Running object number                                     
#   2 MAG_AUTO               Kron-like elliptical aperture magnitude                    [mag]
#   3 X_IMAGE                Object position along x                                    [pixel]
#   4 Y_IMAGE                Object position along y                                    [pixel]
#   5 X_WORLD                Barycenter position along world x axis                     [deg]
#   6 Y_WORLD                Barycenter position along world y axis                     [deg]
#   7 A_WORLD                Profile RMS along major axis (world units)                 [deg]
#   8 B_WORLD                Profile RMS along minor axis (world units)                 [deg]
#   9 THETA_WORLD            Position angle (CCW/world-x)                               [deg]
#  10 FWHM_WORLD             FWHM assuming a gaussian core                              [deg]
#  11 ELONGATION             A_IMAGE/B_IMAGE                                           
#  12 ELLIPTICITY            1 - B_IMAGE/A_IMAGE                                       
         1 -12.5430    197.9937     36.4484   4.8682413723e+01   3.0948512304e+01     1.070739     1.018272  13.25  0.003941668    1.217    0.178
         2 -12.5605    208.8934     25.0440   4.4230295465e+01   2.9649472403e+01    0.9455207    0.7780799  32.91  0.003027872    1.507    0.337
         3 -11.0109     32.8525      7.7947   8.2200067294e+01   7.0354275178e+01    0.8859988     0.128273 -38.87  0.002657022    6.321    0.842
         4 -10.2277    232.7367      2.0109   3.6334121240e+01   2.6516542202e+01    0.6045282     0.209455  76.43   0.00252537    2.763    0.638
         5  -9.4678     29.0705      2.6582   8.1403161819e+01   7.1496895966e+01    0.1995924    0.1405062 -29.04   0.00133959    1.358    0.263
         6  -9.1433     57.0320    224.9823   1.2071847484e+02   2.0940269851e+01    0.1775123    0.1325673  69.58   0.00035046    1.052    0.049
         7 -13.4715     46.7328    221.6378   1.2238842396e+02   2.2855462186e+01     1.799903     1.659619 -72.79  0.009843555    1.462    0.316
         8 -14.3997     50.6605    199.6950   1.1982851547e+02   2.6826190925e+01     4.329392     2.758352 -39.79   0.01951674    2.674    0.626
         9 -10.5251     69.6502    177.8673   1.1337080200e+02   2.9149189598e+01    0.4017302    0.3052422 -19.83  0.001376349    2.185    0.542
        10 -10.5872     74.2850    172.2366   1.1155873453e+02   2.9786034666e+01    0.5572548    0.3438758 -34.54   0.00252435    2.666    0.625
        11  -8.0191     99.5257    180.5058   1.0680719483e+02   2.4077498492e+01    0.1373897     0.124845  71.05 0.0008099974    1.022    0.022
        12 -11.4612     82.8135    162.5352   1.0809548463e+02   3.0790195758e+01     1.206974    0.4675084  54.65 0.0005005266    3.440    0.709
        13 -11.9572     71.0037    158.3059   1.1040058703e+02   3.3492944319e+01    0.5866867    0.4113458 -47.54  0.001278576    1.597    0.374
        14 -12.7205     68.5408    144.3024   1.0887906111e+02   3.7181029986e+01     2.038259      1.01972  83.97  0.005529322    4.155    0.759
        15 -10.5568     89.3918    156.1476   1.0541828972e+02   3.1277721744e+01    0.5476316    0.4034972  -9.89  0.001670409    2.228    0.551
        16 -10.1003     32.4925    165.0996   1.2051775827e+02   3.6501575722e+01    0.4050097   0.09245203 -68.92  0.001489566    3.453    0.710
        17  -8.8084     84.5806    144.0181   1.0456219716e+02   3.4920647127e+01    0.2845396    0.1859529  58.10  0.001352878    1.677    0.404
        18  -9.3074     44.5254    144.4881   1.1521576780e+02   4.0075483017e+01    0.2316179     0.127609  32.52 0.0007508238    2.034    0.508
        19  -8.7508    133.5794    142.8146   9.1535538200e+01   2.6396974560e+01    0.2278488    0.1466969 -61.52 0.0009636329    1.776    0.437
        20  -9.5187    102.9037    140.9519   9.9093141917e+01   3.2635007669e+01    0.5106335      0.29882 -31.92  0.001997757    2.550    0.608
        21 -10.6684     90.5439    140.7099   1.0235347823e+02   3.4774174314e+01    0.2899885    0.2519939 -43.19  0.001589318    1.238    0.192
        22  -9.6710     45.1941    137.1602   1.1403267794e+02   4.1763939279e+01    0.3000048    0.1859482 -46.66  0.001561516    1.745    0.427
        23  -7.2950     38.7058    137.7402   1.1584463511e+02   4.2305430775e+01    0.1205645   0.09020541 -45.12  0.000213449    1.499    0.333
        24  -9.3167    111.7315    130.8826   9.4579303674e+01   3.3418538268e+01    0.3229384    0.2367828   2.17  0.001156284    2.060    0.514
        25  -9.4166     99.1023    126.9879   9.7187643057e+01   3.6630386498e+01      0.32069    0.2561635  13.31  0.001092333    1.573    0.364
        26 -10.2038     28.8546    127.6616   1.1716569394e+02   4.5656015694e+01    0.2347471    0.1432772 -62.42 0.0008459367    1.371    0.271
        27 -14.5090     61.9879    247.5545   1.2152713729e+02   1.6183097740e+01     6.473525     2.233426  30.71   0.01508489    5.279    0.811
        28  -8.6913    105.9388    130.7268   9.6120247056e+01   3.4523348599e+01    0.2985725    0.2234018 -64.58  0.001440585    1.368    0.269
        29 -10.4894     29.2958    117.4925   1.1562647451e+02   4.8053409359e+01    0.3614109    0.1327006 -49.60   0.00152732    2.576    0.612
        30  -8.2499    108.0920    119.4944   9.2941887406e+01   3.6780922574e+01    0.2149073    0.1516955  40.07 0.0003212845    1.469    0.319
        31 -15.8672      6.0289    211.6965   1.2917913396e+02   2.9113188462e+01     18.23727    0.9458902 -76.90   0.02132675   11.896    0.916
        32 -10.3620    117.7940    108.7537   8.7510091424e+01   3.7374746490e+01    0.4550824    0.3875031  -2.78  0.002246082    1.382    0.276
        33 -10.5139     43.4672    109.1259   1.1000634964e+02   4.8727708958e+01    0.3679696    0.2672388  47.70  0.001556001    1.569    0.363
        34 -10.2104     32.8072    106.9496   1.1291535365e+02   5.0271033030e+01    0.4665474   0.09206896 -66.78  0.001379886    4.561    0.781
        35  -8.9876    134.5421    105.2144   8.1996295763e+01   3.4618808560e+01     0.413383    0.1441038 -51.46   0.00118079    3.521    0.716
        36  -9.1383     52.9844     94.0062   1.0384734657e+02   5.1293760670e+01    0.2125959    0.1607551  82.53 0.0006656406    1.689    0.408
        37  -8.8967     41.6252     91.7681   1.0716486058e+02   5.3044965006e+01    0.1703942    0.1534256 -40.10 0.0004722443    1.122    0.109
        38  -8.3167    205.0543    110.4600   6.7482304194e+01   1.7188852932e+01    0.2327708    0.1510542  49.96  0.001033669    1.604    0.377
        39  -8.6570     58.3688     67.1510   9.4791787792e+01   5.6675015802e+01    0.1946175      0.12028 -58.93 0.0004809008    1.742    0.426
        40  -9.1981     94.1114    220.4592   1.1308101551e+02   1.6679359255e+01    0.2283618    0.1826347  80.96 0.0005108286    1.204    0.170
        41  -9.3988    148.7242     52.6507   6.2354580078e+01   4.1262198019e+01    0.4955212    0.3201223 -80.24  0.001680584    2.616    0.618
        42 -11.4859    188.3693     43.9189   5.2210970213e+01   3.2390772734e+01    0.5569182    0.4023055  59.00  0.001088502    1.343    0.255
        43 -15.1294      6.4838    246.3624   1.3063664787e+02   2.2660825188e+01     1.602201     1.165855  45.27  0.002762354    1.508    0.337
        44  -9.0148    192.9249    194.2232   8.8612555986e+01   4.4473365021e+00     0.475149    0.2411737 -61.83  0.001317118    7.003    0.857
        45  -8.6448    149.8667     45.6400   5.9793862752e+01   4.2035783311e+01    0.2704127    0.2136613 -43.93 0.0007440081    1.335    0.251
        46  -7.8418     94.6822     46.3271   7.4629447552e+01   5.4644113311e+01    0.1362807      0.11588 -73.99 0.0007045903    1.678    0.404
        47 -11.6442     17.8972    191.8708   1.2581605560e+02   3.2036893561e+01    0.4188105    0.2944616  41.80 0.0004692826    1.523    0.343
        48  -9.2661     73.5863    188.4319   1.1376408249e+02   2.6252873842e+01    0.2765529    0.1856356  68.47 0.0008957001    1.439    0.305
