#   1 NUMBER                 Running object number                                     
#   2 MAG_AUTO               Kron-like elliptical aperture magnitude                    [mag]
#   3 X_IMAGE                Object position along x                                    [pixel]
#   4 Y_IMAGE                Object position along y                                    [pixel]
#   5 X_WORLD                Barycenter position along world x axis                     [deg]
#   6 Y_WORLD                Barycenter position along world y axis                     [deg]
#   7 A_WORLD                Profile RMS along major axis (world units)                 [deg]
#   8 B_WORLD                Profile RMS along minor axis (world units)                 [deg]
#   9 THETA_WORLD            Position angle (CCW/world-x)                               [deg]
#  10 FWHM_WORLD             FWHM assuming a gaussian core                              [deg]
#  11 ELONGATION             A_IMAGE/B_IMAGE                                           
#  12 ELLIPTICITY            1 - B_IMAGE/A_IMAGE                                       
         1 -11.8835    190.2418     34.3845   6.1626230085e+01   3.3771808218e+01    0.7910266    0.6641707 -62.52  0.003311666    1.171    0.146
         2 -12.1711    198.9038     23.2935   5.8159136947e+01   3.3191945328e+01    0.6024956    0.5891944 -46.69  0.001526683    1.376    0.273
         3  -8.6815    115.0000      4.0148   6.5230230860e+01   5.3625797264e+01    0.2794944   0.06865922 -23.39  0.001052164    4.942    0.798
         4 -11.6818    159.4785    226.7909   1.1034697080e+02   2.6271493209e+00    0.6089898    0.3294307  30.56  0.002708868    1.908    0.476
         5 -19.3444      8.1110    133.6132   1.3351117189e+02   4.6737178826e+01     19.23111     2.617538 -69.51   0.04603905    7.402    0.865
         6 -10.1534    193.4692    193.8654   9.6985980470e+01   3.3467726014e+00    0.6296116    0.4166739 -63.62  0.002838369    2.064    0.516
         7  -9.7332    114.8006    194.1207   1.1499492979e+02   1.7720792421e+01    0.3497479    0.1892818 -48.90  0.001311787    1.882    0.469
         8  -9.9862    114.6538    186.5722   1.1368556376e+02   1.9568319458e+01    0.5416825    0.1212347 -51.82   0.00147824    4.157    0.759
         9  -8.0440     95.6536    188.3033   1.1870645605e+02   2.2413378685e+01    0.1569801    0.1095425  71.36 0.0004368545    1.690    0.408
        10  -9.4783     69.0397    186.2855   1.2501524900e+02   2.7030665753e+01    0.2023903    0.1815815  68.54  0.001100553    1.096    0.088
        11 -10.5100     77.2552    179.1915   1.2183964531e+02   2.7602820876e+01    0.5277081     0.301503 -37.62  0.002165282    2.357    0.576
        12 -10.3459     81.0688    173.8326   1.1996037948e+02   2.8371863185e+01    0.3802455    0.2687501 -41.79 0.0008261602    1.569    0.363
        13  -8.1110     99.5202    180.5158   1.1638673509e+02   2.3695424754e+01    0.1501099    0.1421073 -80.94 0.0002117144    1.016    0.016
        14  -9.7509    114.3107    174.2509   1.1145821089e+02   2.2647203792e+01    0.3493895    0.2110046 -50.19   0.00149564    1.621    0.383
        15  -9.3188     50.3991    172.8439   1.2774334775e+02   3.2902628420e+01    0.2366937      0.18259  52.20 0.0009034569    1.357    0.263
        16  -9.2067    110.4640    173.0042   1.1219856942e+02   2.3649940181e+01      0.24278    0.1471345 -55.60   0.00103391    1.601    0.375
        17  -8.8052    195.9263    170.4765   9.1705920049e+01   7.7386752870e+00    0.2489182    0.2014418 -17.78  0.001269443    1.359    0.264
        18  -9.6752     71.8540    229.3820   1.3001793929e+02   1.6349594954e+01    0.2911257    0.2416929 -52.73  0.001521206    1.417    0.294
        19  -9.6609     99.3872    170.2813   1.1454146602e+02   2.6274576815e+01    0.2676103    0.1790742  59.31 0.0009834254    1.716    0.417
        20  -7.7267    145.6894    168.3465   1.0245999243e+02   1.8086817140e+01    0.1611646    0.1237991  87.10 0.0003285439    1.708    0.414
        21 -10.5509     88.2099    164.5011   1.1640216380e+02   2.9598682384e+01    0.4472261    0.3184148  55.66  0.001543157    1.528    0.345
        22 -11.9917     76.7158    159.7383   1.1861524106e+02   3.2608585024e+01    0.6501594    0.4727111 -54.95  0.001154836    1.279    0.218
        23 -10.2801     94.2745    157.2092   1.1335710260e+02   3.0430625820e+01    0.6097931    0.3771003 -31.74  0.002279055    2.173    0.540
        24 -11.2439     48.8631    152.6700   1.2502883253e+02   3.8178165917e+01    0.5000354     0.238852 -62.14  0.002173866    1.814    0.449
        25  -9.0330    114.2838    152.1955   1.0693798926e+02   2.8096324186e+01     0.409514    0.2223206 -63.56  0.001538396    2.166    0.538
        26  -9.8541    133.9356    143.8006   9.9945840483e+01   2.6269453041e+01    0.6107506    0.2279065 -56.10  0.001825063    3.264    0.694
        27 -11.2986     54.2511    148.9559   1.2289313258e+02   3.8451461325e+01    0.4444956    0.3412021  20.69  0.002378836    1.554    0.356
        28  -9.4494    115.1335    143.2874   1.0473474567e+02   3.0110715971e+01    0.5827266    0.1680283 -55.41   0.00155372    4.060    0.754
        29  -9.3683    106.6760    141.1381   1.0654072262e+02   3.2222876951e+01      0.50942    0.3066952 -27.22  0.001915337    2.468    0.595
        30 -10.6526     94.3609    141.7346   1.1009271953e+02   3.4274377962e+01    0.3124624    0.2648453 -30.87 0.0005270293    1.270    0.212
        31 -12.9948    246.3829    124.9640   7.3301317514e+01   7.3353683462e+00     1.761397    0.7311674 -40.93  0.005908207    2.113    0.527
        32 -12.2611     68.5075    144.3702   1.1799185822e+02   3.7692435132e+01    0.9494404    0.6298398  87.44  0.003461907    2.082    0.520
        33 -10.9157     56.8738    121.3425   1.1671829395e+02   4.4914940782e+01    0.3981383    0.2864337 -66.44  0.001871537    1.406    0.289
        34  -8.8385    141.6236    158.4777   1.0132693756e+02   2.1231433524e+01    0.2783485    0.2364144 -64.25 0.0005621585    1.205    0.170
        35  -8.8525    105.9132    130.7188   1.0433651914e+02   3.4875770661e+01     0.313532      0.22904 -62.74  0.001447139    1.450    0.310
        36 -10.7217    114.4089    131.4536   1.0217101921e+02   3.3085520339e+01    0.7116247    0.2768634 -48.21  0.002428759    2.466    0.595
        37 -10.0593    135.1643    126.3865   9.5476933069e+01   3.0055073507e+01    0.6143371    0.1683597 -47.75  0.001727464    3.593    0.722
        38  -9.2259    101.7443    127.7410   1.0479764796e+02   3.6352436756e+01    0.2978528    0.2381203 -26.37 0.0007361444    1.395    0.283
        39  -9.9556    119.3166    125.5470   9.9407151575e+01   3.3498958174e+01    0.5764024    0.2205421 -34.94  0.001508006    4.639    0.784
        40 -11.2523     57.5398    127.7564   1.1787513072e+02   4.3285549210e+01    0.4952172    0.2353617 -66.04  0.001963994    2.307    0.567
        41  -8.6997    109.6573    120.0115   1.0067392460e+02   3.6667166676e+01    0.2181481    0.1842561 -46.64 0.0002532065    1.146    0.127
        42  -9.0242    145.6500    227.3004   1.1345492759e+02   4.8888340315e+00    0.1436694    0.1060043  66.88  0.000467735    1.692    0.409
        43  -9.5201    134.8532    111.8474   9.1886922953e+01   3.3329411391e+01    0.4003111    0.1047279 -47.15   0.00109922    3.876    0.742
        44  -9.8271    120.3632    111.9955   9.5690884559e+01   3.6334368988e+01    0.3572297    0.1430547 -46.55  0.001240719    2.454    0.592
        45  -9.8721    169.9015    232.2006   1.0902092801e+02  -1.8185209449e-01    0.2677254    0.1857296  17.05  0.001361839    1.604    0.377
        46  -9.8181    179.0378    218.9693   1.0477605114e+02   8.3780419732e-01    0.2271384    0.1654367  -2.49 0.0009560484    1.680    0.405
        47  -8.5702    103.5104    110.9175   1.0008667024e+02   3.9889196745e+01    0.2252106    0.1971252  38.37 0.0004491261    1.176    0.149
        48  -8.1999    205.5367    110.4563   7.6664933760e+01   1.8083555579e+01    0.1450863    0.1312082 -62.24  0.000130528    1.008    0.008
        49 -11.3152    114.7322     93.3388   9.2191207185e+01   4.1386452074e+01     1.089892    0.1756401 -45.13  0.002490585    6.368    0.843
        50 -11.1913    115.0000    124.0295   1.0020157734e+02   3.4704182198e+01     1.348773    0.1518895 -49.57  0.002346869    9.661    0.896
        51  -9.8162    114.7964    209.9625   1.1764889011e+02   1.3995926440e+01    0.3094464    0.1498885 -56.94  0.001265377    2.108    0.526
        52  -8.9874    134.4992    102.9712   8.9654752596e+01   3.5269248063e+01    0.2373645    0.1483955 -44.58 0.0009529924    1.592    0.372
        53 -10.3329    114.7402     63.0323   8.3386341225e+01   4.6804700022e+01    0.5345534    0.1094793 -39.68   0.00153091    4.942    0.798
        54  -8.9803    164.3792     65.0999   7.3096522796e+01   3.5373530270e+01     0.247353    0.1820974 -86.16 0.0007810449    1.557    0.358
        55  -9.8127    114.6906     45.6702   7.8110186948e+01   4.9338202688e+01    0.3488587    0.1258033 -30.96  0.001340705    3.205    0.688
        56 -10.9330    179.8381     42.9608   6.5040393886e+01   3.5018258683e+01    0.3786795    0.2975509  58.99  0.001084651    1.258    0.205
        57 -10.6103     92.3924    234.8211   1.2624986519e+02   1.2073831068e+01    0.4281474    0.2565919 -77.93  0.002025575    1.936    0.484
        58  -7.6447     78.6732    237.3469   1.2948324758e+02   1.3598630179e+01    0.1440208     0.088199  68.74 0.0007049917    1.751    0.429
        59  -8.7850    115.0000     17.0327   6.9201045575e+01   5.2508973104e+01    0.1801509   0.07100336 -26.18 0.0008073763    2.977    0.664
        60  -8.4437    164.2896    206.0184   1.0561325845e+02   6.0635227143e+00    0.2031468    0.1827349 -44.45 0.0004011905    1.130    0.115
