#   1 NUMBER                 Running object number                                     
#   2 MAG_AUTO               Kron-like elliptical aperture magnitude                    [mag]
#   3 X_IMAGE                Object position along x                                    [pixel]
#   4 Y_IMAGE                Object position along y                                    [pixel]
#   5 X_WORLD                Barycenter position along world x axis                     [deg]
#   6 Y_WORLD                Barycenter position along world y axis                     [deg]
#   7 A_WORLD                Profile RMS along major axis (world units)                 [deg]
#   8 B_WORLD                Profile RMS along minor axis (world units)                 [deg]
#   9 THETA_WORLD            Position angle (CCW/world-x)                               [deg]
#  10 FWHM_WORLD             FWHM assuming a gaussian core                              [deg]
#  11 ELONGATION             A_IMAGE/B_IMAGE                                           
#  12 ELLIPTICITY            1 - B_IMAGE/A_IMAGE                                       
         1 -11.9219    207.3808      4.9024   6.0383162920e+01   3.3054366971e+01     0.861178    0.6222056  69.38  0.003804816    1.252    0.201
         2 -10.9917    200.6080     13.9275   6.3221377178e+01   3.3707325880e+01    0.5196313    0.3986443  57.37  0.001112429    1.350    0.259
         3 -11.8727    185.8374     29.1096   6.8917227458e+01   3.5550005214e+01    0.6040758    0.4977358  56.06  0.002505366    1.225    0.184
         4 -12.6966    194.5943     22.9391   6.6156231450e+01   3.4140046960e+01     1.411861     1.095445 -20.29  0.008085289    1.640    0.390
         5 -10.8202     40.8813     16.0030   1.0061816887e+02   6.6796626347e+01    0.5275749     0.128767 -38.11   0.00212137    3.998    0.750
         6 -10.0732     50.1904     12.5458   9.5516911959e+01   6.5969307363e+01    0.3274476    0.1314559  30.23  0.001538006    2.584    0.613
         7  -9.8013     59.1978      7.8748   9.0247321237e+01   6.5131515060e+01    0.2759711    0.1361593 -35.42  0.001510015    2.298    0.565
         8  -9.6447     50.2872      6.9918   9.3064096729e+01   6.6560484187e+01    0.1662168     0.126922   3.35  0.001182557    1.055    0.052
         9 -10.1098     78.0761    182.7740   1.3112258834e+02   2.7441556308e+01     0.329714    0.2545132 -51.56 0.0007143758    1.468    0.319
        10  -8.5589    162.9966    249.8098   1.2293303934e+02  -5.9214299238e-01    0.2166839    0.1288595  60.30  0.001093078    2.003    0.501
        11 -12.9899     51.3324    220.6167   1.4103969002e+02   2.2806662497e+01     1.647233    0.6203687 -59.47  0.007685534    2.731    0.634
        12 -14.0790     58.6138    208.9734   1.3848511103e+02   2.4319178566e+01     5.224404       1.5376  52.57   0.01978945    3.425    0.708
        13  -9.5152    105.4977    172.6242   1.2312478531e+02   2.5323940047e+01    0.2852493    0.1825116  39.54  0.001338278    1.630    0.387
        14  -9.9159     85.6381    171.7955   1.2771382932e+02   2.8849851184e+01    0.3312386    0.2981369  47.28 0.0006815656    1.232    0.188
        15 -11.7159     74.1692    168.4425   1.2992412355e+02   3.1396392631e+01    0.5001339    0.2935448 -45.92  0.001235016    2.008    0.502
        16 -10.7223     91.7066    164.3692   1.2501861196e+02   2.9635396726e+01     0.654512    0.5370247 -34.36  0.003491185    1.544    0.352
        17 -10.0372     83.6414    162.7180   1.2671272375e+02   3.1326017576e+01    0.5703695    0.3117531 -73.42  0.002465633    2.007    0.502
        18 -12.6914     66.8484    143.4292   1.2765829658e+02   3.8433648799e+01      2.14064     1.066943 -88.27  0.005610434    4.184    0.761
        19  -9.2473    104.6425    146.0007   1.1829921696e+02   3.1801124455e+01    0.6171513    0.3222825 -35.01  0.002202605    2.980    0.664
        20  -8.9441    113.6098    134.0599   1.1339002342e+02   3.2964950577e+01    0.2756964    0.2219265   3.77  0.001297636    1.709    0.415
        21 -10.5811     48.0839    151.1714   1.3369935724e+02   3.8962598293e+01    0.3796895    0.2502348 -21.81  0.001799362    2.656    0.623
        22  -9.2689    100.7240    131.2104   1.1617099829e+02   3.6022587898e+01    0.3263229    0.2388256 -34.63 0.0008475918    1.578    0.366
        23 -10.5719     41.9485    128.6356   1.3177035388e+02   4.4979236201e+01    0.3155298    0.1996089 -35.06  0.001642085    1.956    0.489
        24  -8.0585    109.2657    121.9936   1.1172995903e+02   3.6607476241e+01    0.2047654    0.1872775 -52.75 0.0003294916    1.055    0.052
        25 -10.2243     48.8457    147.1720   1.3291232318e+02   3.9824416900e+01    0.2535007    0.1864265 -84.00 0.0009679723    1.258    0.205
        26  -9.1712    168.2962    113.1358   9.4773041539e+01   2.5729771657e+01    0.3378846    0.2812645 -79.88 0.0009513994    1.348    0.258
        27  -9.7324     59.8161    110.2286   1.2312889243e+02   4.7193117871e+01    0.3909607    0.1380613 -46.93  0.001488722    2.624    0.619
        28 -10.5410     92.7387    146.9359   1.2155966800e+02   3.3645406685e+01    0.2958408    0.2623481 -48.45 0.0005601007    1.191    0.160
        29  -8.2231     41.3160    109.6618   1.2851564532e+02   4.9438243589e+01    0.1288375   0.09408966  81.40 0.0007048098    1.701    0.412
        30 -12.9587     36.4323    247.8799   1.4583806844e+02   1.9263941742e+01     1.568181    0.9748898  47.31   0.01054756    1.531    0.347
        31 -16.4315      5.9180    142.3220   1.4285235355e+02   4.4991893551e+01     18.05319     1.706494 -71.89   0.04111666    9.443    0.894
        32  -8.6322     58.5049     69.5038   1.1313377050e+02   5.6026532274e+01    0.1314779    0.1111131 -26.06 -4.636328e-05    1.044    0.042
        33  -9.4843    149.4735    227.8572   1.2240788040e+02   5.5661653383e+00    0.2876999    0.1955679 -27.03   0.00142371    2.245    0.555
        34  -8.8781     91.9687    247.9365   1.3610694523e+02   1.1534797912e+01    0.1881356    0.1465152  68.33 0.0005419772    1.036    0.035
        35  -9.1960    114.9827    173.5089   1.2103141849e+02   2.3404626393e+01    0.2260708    0.1407838  44.33 0.0005563246    1.581    0.367
        36  -9.4343     72.0290    244.8827   1.3943845557e+02   1.5089306626e+01    0.3340926    0.1336714  55.67    0.0016048    2.185    0.542
        37  -9.2481    107.0319    242.9495   1.3275481240e+02   1.0075607838e+01    0.1939164    0.1587861  64.19 0.0005302159    1.025    0.025
        38  -8.2037    191.7019    192.3513   1.0756111723e+02   4.2229937002e+00    0.1414866    0.1146526  89.02 0.0005033787    1.689    0.408
        39 -10.4941     99.0438    237.0649   1.3361138577e+02   1.2481848472e+01    0.3687711    0.2648802 -69.77  0.001333535    1.476    0.322
        40  -8.7259     69.0456    233.4554   1.3891654433e+02   1.7751358735e+01    0.1794652    0.1055279  45.37 0.0007937858    1.570    0.363
        41 -10.6958    133.5775    230.3116   1.2596286607e+02   7.9470822898e+00    0.4039457     0.312802   6.72  0.002163207    2.033    0.508
        42 -10.2701     73.8393    189.3668   1.3297298388e+02   2.6551054195e+01    0.4321648    0.2732138 -44.29  0.001738568    2.116    0.527
