#   1 NUMBER                 Running object number                                     
#   2 MAG_AUTO               Kron-like elliptical aperture magnitude                    [mag]
#   3 X_IMAGE                Object position along x                                    [pixel]
#   4 Y_IMAGE                Object position along y                                    [pixel]
#   5 X_WORLD                Barycenter position along world x axis                     [deg]
#   6 Y_WORLD                Barycenter position along world y axis                     [deg]
#   7 A_WORLD                Profile RMS along major axis (world units)                 [deg]
#   8 B_WORLD                Profile RMS along minor axis (world units)                 [deg]
#   9 THETA_WORLD            Position angle (CCW/world-x)                               [deg]
#  10 FWHM_WORLD             FWHM assuming a gaussian core                              [deg]
#  11 ELONGATION             A_IMAGE/B_IMAGE                                           
#  12 ELLIPTICITY            1 - B_IMAGE/A_IMAGE                                       
         1 -14.5107    196.2144     16.5044   6.8313889757e+01   3.3610460074e+01     2.643041     1.659162  28.37  0.009625549    2.038    0.509
         2 -14.0162    201.9110      8.6007   6.5425157664e+01   3.2979142094e+01      1.67919    0.9516921  50.82  0.001440362    1.768    0.435
         3 -10.5421     32.5717      2.6959   1.0399654931e+02   6.9856758735e+01     0.228331   0.09164858 -31.19  0.001144968    2.139    0.533
         4 -10.7242     32.8505     15.3476   1.0991269228e+02   6.7992512967e+01    0.3386277   0.05914989 -39.80  0.001110698    4.712    0.788
         5 -11.0833     94.7804    241.2767   1.3796652463e+02   1.4951177957e+01    0.2116302    0.1427346 -69.22  0.001478519    1.690    0.408
         6 -10.1826    250.0000    249.0120   1.1254642108e+02  -9.2693911205e+00    0.2393698   0.07888004 -26.55  0.001165965    3.544    0.718
         7 -10.8001    143.0135    250.2288   1.3063896663e+02   6.6174974869e+00    0.2708308   0.09808913  39.64  0.001325114    2.251    0.556
         8 -12.3067    126.5557    244.6569   1.3285389867e+02   9.8732261920e+00    0.4078004    0.2466511  56.84  0.002577396    1.512    0.339
         9 -11.4190     98.0339    249.4545   1.3814918850e+02   1.3244199202e+01    0.3141028    0.2027162  47.06  0.002143477    1.230    0.187
        10 -11.3358    101.5178    246.5013   1.3730263538e+02   1.3209514133e+01    0.3052341    0.1876327 -88.12  0.001588986    2.045    0.511
        11 -12.2358     71.9889    243.1619   1.4193437783e+02   1.7665053971e+01    0.4697409     0.293019 -68.64  0.003342681    1.776    0.437
        12 -12.5480     80.3536    247.5626   1.4090519660e+02   1.5897790914e+01    0.5936722    0.2825098  50.97   0.00370913    1.615    0.381
        13 -12.0172     81.9386    242.8714   1.4026568360e+02   1.6427555145e+01     0.593495    0.2709977  70.95  0.002974489    3.038    0.671
        14 -11.5266     66.2316    250.1444   1.4337453987e+02   1.7281643013e+01    0.3612408    0.1532906  41.68   0.00165402    1.981    0.495
        15 -12.5724     41.6914    206.8396   1.4436255993e+02   2.7585290258e+01     1.008237    0.3400205 -73.91  0.000912626    2.854    0.650
        16 -15.1360      4.4060     17.7796   1.2423169371e+02   7.0009540955e+01     20.52824     1.389299 -55.36   0.03716426   18.235    0.945
        17 -14.0190     32.4726    246.0527   1.4837494996e+02   2.1804491930e+01     1.716607    0.5709075  42.96   0.01021721    2.343    0.573
        18 -15.7538      8.2330    240.2574   1.5172695570e+02   2.5166844131e+01     7.558271    0.6849755 -69.57   0.03053421    6.497    0.846
        19 -13.1140     48.1544    229.6829   1.4489268361e+02   2.2780019185e+01    0.4219194    0.3054762  64.68 0.0008280444    1.048    0.046
        20 -15.3660     56.5288    217.1517   1.4253013010e+02   2.3990472718e+01     6.019127      1.00941  43.48   0.02022763    3.942    0.746
        21  -9.9566    229.7188    229.9935   1.1290581220e+02  -4.3660293147e+00    0.1582591    0.1288133  12.98 0.0004993602    1.108    0.098
        22  -9.9567    164.3136    226.3419   1.2389242856e+02   6.6248705604e+00    0.1197752   0.08684979  13.48  0.000704712    1.704    0.413
        23  -9.1011    152.6842    213.0233   1.2416991733e+02   1.0573017928e+01    0.1567966    0.1476785  42.40 0.0003403235    1.114    0.102
        24 -11.1448     37.4566    226.5052   1.4645135017e+02   2.4521660018e+01    0.2436943    0.1423615 -82.96  0.001559993    1.559    0.359
        25 -11.8322     35.1358    230.2913   1.4706421298e+02   2.4122871493e+01    0.2984691    0.2007402  69.71  0.001082373    1.111    0.100
        26 -10.7702    194.8002    198.0191   1.1376804335e+02   5.5598818938e+00    0.4032197    0.2280858 -59.78  0.001665687    3.700    0.730
        27 -11.8055     76.3839    188.7650   1.3604444362e+02   2.6818797912e+01    0.2652127    0.2280451 -50.10 0.0005722912    1.455    0.313
        28 -11.6451     71.6670    195.9287   1.3776544442e+02   2.6046368300e+01    0.3547255    0.2515663 -52.63  0.001557751    1.703    0.413
        29  -9.9789     66.6395    196.2829   1.3878100335e+02   2.6627338955e+01    0.2476809     0.143532  65.90 0.0008138892    1.688    0.407
        30  -9.7604    120.1263    188.3920   1.2702649207e+02   2.0312809139e+01    0.3193436    0.1893199  23.29  0.001402079    2.547    0.607
        31  -9.5896     92.6590    178.0837   1.3132547909e+02   2.6650500835e+01    0.5003216    0.2132771  63.54  0.001648208    4.730    0.789
        32 -11.2039     84.6921    176.5449   1.3281787593e+02   2.8123685141e+01      0.22418    0.2013748  86.32 0.0002910172    1.061    0.058
        33 -13.2747     72.5749    174.0364   1.3508453447e+02   3.0309527360e+01    0.4487544    0.2650995 -43.69  0.002235294    2.285    0.562
        34 -11.0030    126.0625    174.8309   1.2366248846e+02   2.1916559141e+01    0.4102809    0.1755272  44.06  0.001744981    2.164    0.538
        35 -11.9843     50.3266    130.0013   1.3424638765e+02   4.2607504832e+01    0.3651167    0.2424954  56.13  0.001419206    1.636    0.389
        36 -13.3996     67.8406    145.0986   1.3220031600e+02   3.7137235465e+01     1.441314    0.7518699  85.69  0.005735301    3.307    0.698
        37  -9.6114    105.1554    146.7886   1.2351840095e+02   3.1248503644e+01     0.271141    0.1923165 -23.13  0.001217529    2.100    0.524
        38 -12.0991     91.5993    150.5989   1.2740733104e+02   3.2581597478e+01    0.2635638    0.2426314 -31.95  0.001630592    1.289    0.224
        39 -12.1165     46.5419    149.0704   1.3777015466e+02   3.8797587443e+01    0.4310452    0.2250964 -64.69   0.00233662    1.659    0.397
        40 -10.0443    134.2997    147.7101   1.1685365100e+02   2.5868892210e+01    0.4913224    0.1304695 -51.90  0.001426807    4.382    0.772
        41  -8.6879    192.0348    144.2478   1.0357546326e+02   1.4851501276e+01     0.177939    0.1193024  42.48 0.0002912034    1.444    0.307
        42 -14.1793     11.4782    207.1989   1.4962723054e+02   3.0563010372e+01     1.182899    0.8283134  49.51   0.00687278    1.398    0.285
        43 -10.0424    112.4248    136.5535   1.1978082767e+02   3.2214871321e+01    0.2904032    0.2430412 -12.64  0.000998296    1.509    0.337
        44 -12.9956     58.0009    131.3262   1.3250326432e+02   4.1428897236e+01     2.395499    0.7259691 -72.42  0.005848474    7.802    0.872
        45 -12.6414     90.4764    167.5610   1.3031280859e+02   2.9138610741e+01     1.497431    0.5410856  50.92  0.001905914    3.073    0.675
        46 -10.7436    100.1454    133.7823   1.2226508045e+02   3.4904728626e+01    0.2861016    0.2330234 -24.97 0.0005935368    1.508    0.337
        47  -9.3977    108.8722    123.7408   1.1795696659e+02   3.5619770671e+01    0.1949579    0.1867982  -3.72 0.0003930421    1.136    0.119
        48 -11.1227    168.2703    113.4485   1.0116924185e+02   2.5655566869e+01    0.3959805    0.3299925 -77.53 0.0009945279    1.538    0.350
        49 -10.2483    102.6063    151.1968   1.2491357887e+02   3.0720480796e+01    0.3306198    0.2635566 -38.10 0.0008957665    1.449    0.310
        50 -10.4404    162.8409    249.1806   1.2712557634e+02   3.7325241650e+00    0.1791541    0.1330071  51.20  0.001250261    1.249    0.199
        51 -11.5733    107.5635    248.3456   1.3645697311e+02   1.2083425045e+01     0.326819    0.1840078  52.98  0.001481365    1.424    0.298
        52 -11.1241    139.2510    248.7130   1.3111348277e+02   7.3934187351e+00    0.2953465    0.1618238 -46.49  0.001798163    2.399    0.583
