#   1 NUMBER                 Running object number                                     
#   2 MAG_AUTO               Kron-like elliptical aperture magnitude                    [mag]
#   3 X_IMAGE                Object position along x                                    [pixel]
#   4 Y_IMAGE                Object position along y                                    [pixel]
#   5 X_WORLD                Barycenter position along world x axis                     [deg]
#   6 Y_WORLD                Barycenter position along world y axis                     [deg]
#   7 A_WORLD                Profile RMS along major axis (world units)                 [deg]
#   8 B_WORLD                Profile RMS along minor axis (world units)                 [deg]
#   9 THETA_WORLD            Position angle (CCW/world-x)                               [deg]
#  10 FWHM_WORLD             FWHM assuming a gaussian core                              [deg]
#  11 ELONGATION             A_IMAGE/B_IMAGE                                           
#  12 ELLIPTICITY            1 - B_IMAGE/A_IMAGE                                       
         1 -13.2422    173.4936     54.5115   5.7896002614e+01   3.4662681714e+01     1.738505      1.05997  30.37  0.005092908    2.228    0.551
         2 -13.5441    188.5009     40.9473   5.1334838011e+01   3.2766962926e+01     1.089413     1.026017  34.76  0.003792753    1.167    0.143
         3 -13.9497    210.7870     11.0039   4.0406383466e+01   3.0778379481e+01     1.668808     1.111304  43.62  0.007396305    1.828    0.453
         4 -10.6554    189.6582     14.7952   4.3736003143e+01   3.5652386884e+01    0.2584207    0.2150388  86.50  0.000722742    1.101    0.092
         5 -11.3551     52.3020      7.2064   7.2974227614e+01   6.7728052740e+01    0.2386172    0.1682556  43.54  0.001457241    1.638    0.389
         6 -11.0022    245.2649      2.0915   3.5439020693e+01   2.3689753369e+01    0.6664953    0.1961423  78.11  0.002578763    3.501    0.714
         7 -11.1951     67.1058    205.9325   1.1704503024e+02   2.3419526092e+01    0.2108192    0.2021045  -5.66 0.0003012997    1.512    0.339
         8 -13.0851    245.9379    246.3974   8.7798701817e+01  -1.1093621902e+01     1.925986    0.6227856 -26.06  0.008457686    3.826    0.739
         9 -18.0721     30.6995    240.2749   1.2642886013e+02   2.1215362856e+01     6.554341     5.500926  40.15   0.05209095    1.570    0.363
        10  -9.2163     72.0573    202.9370   1.1571358939e+02   2.3366847453e+01    0.2772625    0.1652423  68.80 0.0009448557    1.679    0.404
        11  -9.8945     75.5662    247.4250   1.1912476530e+02   1.4419548240e+01    0.3029182   0.09807689 -60.04  0.001442528    3.481    0.713
        12 -10.8857    193.0245    194.9778   8.8733112164e+01   4.3030367854e+00    0.9437727    0.4705136 -60.72  0.002759229    6.373    0.843
        13 -10.3205     58.6260    202.3419   1.1843823734e+02   2.5276423624e+01    0.2680443    0.1962255 -41.41  0.001121144    2.051    0.512
        14 -10.1796      7.7148    214.8569   1.2903917323e+02   2.8340283823e+01    0.1004585   0.06903204  37.03 0.0003373984    1.695    0.410
        15 -11.3805     61.7929    194.9007   1.1704155117e+02   2.6443900909e+01    0.3566065    0.2424685 -41.97  0.001394582    2.165    0.538
        16  -9.4502     82.2137    195.0936   1.1266285488e+02   2.3577365029e+01    0.2119497    0.1754148  51.84 0.0008097864    1.149    0.130
        17 -11.0317     55.0348    211.4434   1.1998240121e+02   2.3859299396e+01    0.3289248     0.149406  55.47  0.001695065    1.946    0.486
        18 -11.9185    149.6623    188.4259   9.6707998513e+01   1.3560574873e+01    0.4629625    0.3757671  74.61  0.001609326    1.475    0.322
        19  -9.6922     43.9909    211.8010   1.2216430874e+02   2.5128165496e+01    0.2550857    0.1442483 -81.86  0.001120414    1.625    0.385
        20 -11.2042    150.4441    179.0044   9.4837251927e+01   1.5285371372e+01    0.4470312    0.3012153 -73.94  0.001274447    2.196    0.545
        21 -12.0728    144.2422    178.9937   9.6235906289e+01   1.6468637860e+01    0.5166758    0.3482593 -60.32  0.001778146    1.715    0.417
        22 -11.4006    139.9061    172.6479   9.6060744811e+01   1.8612327813e+01    0.3855141    0.3041864  76.51  0.001339847    1.522    0.343
        23 -10.3862    188.6516    176.7356   8.6096538927e+01   8.2988844141e+00    0.3932002    0.3586737 -55.93  0.002244969    1.307    0.235
        24  -8.7321     65.6879    175.7109   1.1401934008e+02   3.0173872667e+01    0.1197418    0.1008895 -37.22 0.0004818561    1.584    0.369
        25  -9.3726     49.1398    172.0524   1.1741297331e+02   3.3087306314e+01    0.1802614    0.1633046 -54.16  0.000840757    1.360    0.265
        26  -8.9471    186.3045    170.3427   8.5283034629e+01   9.9309112500e+00    0.1511781    0.1105319   2.19 0.0004457851    1.684    0.406
        27  -9.6083    240.3007    169.3159   7.4592324186e+01  -7.5567348800e-02    0.1392894   0.09452082   2.10 0.0002491188    1.615    0.381
        28  -8.7699    188.0000    163.9603   8.3584069076e+01   1.0783414170e+01    0.2351663   0.08323912 -41.34 0.0007962693    2.900    0.655
        29  -8.9682      2.0893    161.8233   1.2703893919e+02   3.9897157813e+01    0.1618046    0.1167035  68.87  0.000439468    1.224    0.183
        30 -11.0035     91.7721    157.4511   1.0503476519e+02   3.0592552422e+01     0.275876    0.2543148  18.40 0.0002425908    1.296    0.228
        31 -11.7782     97.3423    151.0942   1.0249687221e+02   3.1180970174e+01    0.5816398    0.4598994 -28.59   0.00296948    1.617    0.382
        32  -9.8300    187.8250    152.0673   8.1017627896e+01   1.3081384379e+01    0.2295854    0.2124639 -87.05 0.0009751357    1.311    0.237
        33 -11.1505    133.8875    145.4831   9.2041677040e+01   2.5733718090e+01     1.292888    0.3269848 -54.84  0.002970363    6.117    0.837
        34  -9.7051    113.4556    151.4072   9.8424320811e+01   2.8293794147e+01    0.3460588      0.22062  77.96  0.001383562    2.424    0.587
        35  -9.5485    174.8388    149.1536   8.3180931215e+01   1.6397513305e+01    0.2308905    0.2133255 -82.53 0.0006495474    1.262    0.208
        36 -10.9878    105.9021    130.9837   9.6186700744e+01   3.4469026086e+01    0.4907877    0.3413688 -50.83  0.001636712    1.396    0.284
        37 -10.4571    107.1762    145.6486   9.8907405055e+01   3.0770090300e+01    0.3053713    0.2438932  88.15  0.000682397    1.404    0.288
        38 -11.5847    108.5315    137.7273   9.6928308287e+01   3.2394680344e+01    0.6617533    0.4464613 -46.19  0.003079439    1.503    0.335
        39 -11.8186     96.8364    136.9437   9.9913485092e+01   3.4636439366e+01    0.3146991    0.2848078 -70.18 0.0004867938    1.052    0.049
        40 -10.1526    136.1067    129.9185   8.7931435787e+01   2.8787369913e+01    0.5493138   0.09483146 -47.20  0.001223302    5.792    0.827
        41 -10.3758    115.3381    128.6155   9.3089395424e+01   3.3266501883e+01    0.3224057    0.2717052 -35.49 0.0004984767    1.260    0.207
        42  -8.7692     83.3364    130.3063   1.0230848200e+02   3.8426838640e+01    0.1451703    0.1112281 -25.50 0.0007040921    1.673    0.402
        43  -9.6374    160.9259    128.3400   8.1441988926e+01   2.3744212831e+01     0.292204    0.2181514 -53.35  0.001332454    1.428    0.300
        44 -10.6305    103.1750    124.3738   9.5462544171e+01   3.6531244899e+01    0.3140514      0.26254 -19.80 0.0007843408    1.430    0.301
        45 -10.5244    120.6345    122.6589   9.0248881022e+01   3.3614821070e+01    0.4171085    0.2786673 -11.24  0.001579918    2.620    0.618
        46  -9.8440    134.7147    120.1035   8.5876102264e+01   3.1287312815e+01    0.3102805    0.1372646 -52.10 0.0008908715    2.453    0.592
        47  -9.5853    110.6842    118.0451   9.1863922639e+01   3.6630365338e+01    0.2469781    0.2158301  42.84 0.0004720346    1.180    0.153
        48  -9.9844    231.2988    113.7826   6.3647642938e+01   1.0816227239e+01    0.2583398    0.2458451 -14.72 0.0007198607    1.053    0.051
        49  -9.6368    167.3847    112.3244   7.5832829823e+01   2.5607827112e+01    0.3294898    0.2620768 -76.73    0.0011658    1.613    0.380
        50 -10.3432    134.5857    105.8475   8.2158248502e+01   3.4471319704e+01    0.5520302    0.1492274 -46.37  0.001507115    3.751    0.733
        51 -11.6156    118.9606    110.4154   8.7621414829e+01   3.6760825430e+01    0.5624203    0.4482501  75.31  0.001978807    1.560    0.359
        52  -9.6397    205.1662    110.2545   6.7408901970e+01   1.7200936912e+01    0.3433343    0.2064011  47.66  0.001000254    1.723    0.420
        53  -9.3883     51.2869     90.5831   1.0362713299e+02   5.2290919936e+01    0.2441094    0.1250197  35.59  0.001135828    2.191    0.544
        54  -9.1186    182.4923     82.9459   6.4486561556e+01   2.7621455477e+01    0.2417133     0.152001 -35.89 0.0008283175    1.570    0.363
        55  -8.3875     71.3156     72.7320   9.1818989424e+01   5.3672151757e+01    0.1293509    0.1118821  81.30 0.0003271648    1.552    0.356
        56 -10.3723     71.8959    244.3624   1.1953582675e+02   1.5444141545e+01    0.1849501     0.136183  89.18 0.0007722059    1.332    0.249
        57 -10.4286     58.8691    229.6546   1.2074542820e+02   1.9819611698e+01    0.1784612    0.1303731  80.81 0.0003780884    1.189    0.159
        58 -12.8036    193.2744     34.6131   4.8828521014e+01   3.2386982425e+01    0.6354008    0.5499222  71.76  0.001453493    1.104    0.094
        59  -8.5313     93.2210     62.3411   8.0925005593e+01   5.2064279463e+01    0.1926566    0.1344225  50.59 0.0003074277    1.640    0.390
        60 -11.0942     39.2068    212.7692   1.2315319046e+02   2.5488001601e+01    0.1682968    0.1345064  71.68  0.000308003    1.081    0.075
        61  -9.2646     64.9563    223.6181   1.1910472515e+02   2.0179210835e+01    0.1813418    0.1216205  82.26 0.0006302851    1.381    0.276
        62 -19.1554     18.9653    104.5307   1.1678674929e+02   5.1953620500e+01     16.73817     0.867809 -68.84   0.02827334   15.213    0.934
