#   1 NUMBER                 Running object number                                     
#   2 MAG_AUTO               Kron-like elliptical aperture magnitude                    [mag]
#   3 X_IMAGE                Object position along x                                    [pixel]
#   4 Y_IMAGE                Object position along y                                    [pixel]
#   5 X_WORLD                Barycenter position along world x axis                     [deg]
#   6 Y_WORLD                Barycenter position along world y axis                     [deg]
#   7 A_WORLD                Profile RMS along major axis (world units)                 [deg]
#   8 B_WORLD                Profile RMS along minor axis (world units)                 [deg]
#   9 THETA_WORLD            Position angle (CCW/world-x)                               [deg]
#  10 FWHM_WORLD             FWHM assuming a gaussian core                              [deg]
#  11 ELONGATION             A_IMAGE/B_IMAGE                                           
#  12 ELLIPTICITY            1 - B_IMAGE/A_IMAGE                                       
         1 -13.0690     60.4246      9.6805   9.6904466173e+01   6.6111951213e+01    0.4087806    0.2005249 -21.97   0.00177953    2.506    0.601
         2 -14.0238     59.4109      2.8969   9.3778322315e+01   6.7276467355e+01    0.7317415    0.3348843  28.51  0.003028838    3.281    0.695
         3 -11.3940     99.6361      5.2021   8.2209725846e+01   5.9228999223e+01    0.3489357    0.1882168   8.60  0.001378552    2.753    0.637
         4 -12.7798    229.7553    139.6154   9.7116187794e+01   9.8130903959e+00    0.3240761    0.2037054 -30.30  0.001215422    1.637    0.389
         5 -16.8935     20.1656    174.5764   1.4189218549e+02   3.7399141995e+01     2.220885       1.5791 -36.73   0.01526643    2.845    0.649
         6 -18.0256     72.6817    140.9984   1.2821360859e+02   3.7911345461e+01     7.760788     4.958049  16.68   0.03891122    3.079    0.675
         7 -18.1388    211.5408    162.1777   1.0450771199e+02   1.0441940696e+01     10.50425     2.025792 -35.72   0.03410893    5.493    0.818
         8 -11.3446     24.2880    105.1109   1.3526525765e+02   5.0764274100e+01    0.1647023    0.1508409 -68.06   0.00069953    1.299    0.230
         9 -11.9113    231.4363    150.5572   9.9065208125e+01   8.1868073330e+00    0.2154273    0.1619498  31.54 9.174913e-05    1.162    0.139
        10 -13.0740    230.6957    146.3640   9.8346162377e+01   8.8204290220e+00    0.4830088    0.2895656  43.94  0.002640049    1.528    0.346
        11 -12.8956    111.9420    150.2543   1.2113838930e+02   3.0292375638e+01    0.2625396    0.1942758  83.16  0.001564946    1.460    0.315
        12 -11.6782      7.3764     76.1382   1.3642368377e+02   5.8281981384e+01    0.1646276   0.08410554 -84.91  0.000734454    1.704    0.413
        13 -12.1251     88.2942     68.3194   1.0976877114e+02   5.0733855407e+01    0.2408976    0.1818374 -52.18 0.0008372469    1.212    0.175
        14 -11.8040     13.3978     60.0748   1.3200259564e+02   6.1358099475e+01    0.1813913    0.1590046  70.98 0.0004627642    1.287    0.223
        15 -12.0247     85.9300     56.2917   1.0683046501e+02   5.3558056372e+01    0.2759126    0.1830816 -39.27   0.00115355    1.435    0.303
        16 -11.2261     90.4500     50.4610   1.0354104156e+02   5.3899749940e+01    0.1384341    0.1250395 -31.93 0.0008064299    1.064    0.060
        17 -12.4241     85.7640     47.8283   1.0406180004e+02   5.5232555470e+01    0.4812521     0.173526 -42.38   0.00182854    2.535    0.606
        18 -11.1147     56.2303     42.3912   1.1205700803e+02   6.0849149167e+01    0.2031152    0.1639237  51.80  0.001040355    1.501    0.334
        19 -12.0838     86.8130     38.5092   1.0035334156e+02   5.6774243670e+01    0.2550306    0.1749848 -39.06 0.0005240689    1.321    0.243
        20 -11.8284     23.2654     36.0318   1.2275353818e+02   6.5730082174e+01    0.1719478    0.1244453 -58.36 0.0003672266    1.097    0.088
        21 -18.1966    186.0779     69.9336   8.7425380870e+01   2.9211756091e+01     9.838561     8.575739  -5.61    0.0416931    1.179    0.152
        22 -12.7418    105.2063     30.5778   9.1844919917e+01   5.4503984400e+01    0.2371187    0.1897807  10.58 0.0004908389    1.395    0.283
        23 -12.2076    106.1379     25.5317   8.9529902349e+01   5.5083640235e+01    0.4509506    0.2330136 -25.26  0.001281938    1.989    0.497
        24 -16.5570    168.5903    113.1517   1.0215264549e+02   2.6230798185e+01     1.823631     1.391267  61.63    0.0074305    1.399    0.285
        25 -13.6622    125.8046    157.8996   1.1950286495e+02   2.6627417202e+01    0.6436908    0.3559146  75.84   0.00265323    3.457    0.711
        26 -11.1620    186.1408     22.9279   7.2704989732e+01   3.5526608831e+01    0.3101853    0.1916454 -31.93  0.001396204    1.554    0.356
        27 -11.8499    101.0615     21.8008   8.9340135973e+01   5.6718859453e+01    0.2630016    0.1952531 -26.74  0.001333629    1.257    0.205
        28 -11.3854    125.5346     20.4752   8.2658371052e+01   5.1384699455e+01    0.2409835    0.2205412  -8.49  0.001352312    1.044    0.042
        29  99.0000    227.4798    129.4173   9.5314469072e+01   1.1525085458e+01    0.4646915    0.3528135 -34.05  0.002695826    1.414    0.293
        30 -11.2347    220.2384     15.2667   6.6178103968e+01   2.7440617597e+01    0.1331417     0.104038  25.60 0.0006749153    1.424    0.298
        31 -11.3705    190.1060     12.7274   6.8804721643e+01   3.5574127239e+01    0.1977874    0.1772195  44.15  0.001074174    1.128    0.114
        32 -11.0525    221.4052    108.4491   9.1523941095e+01   1.5518474959e+01    0.1422172    0.1189155  12.85 0.0003667691    1.154    0.134
        33 -10.5066    227.4404    116.0032   9.2325593315e+01   1.3253130480e+01    0.2831337    0.1556756  45.15   0.00135619    1.736    0.424
