#   1 NUMBER                 Running object number                                     
#   2 MAG_AUTO               Kron-like elliptical aperture magnitude                    [mag]
#   3 X_IMAGE                Object position along x                                    [pixel]
#   4 Y_IMAGE                Object position along y                                    [pixel]
#   5 X_WORLD                Barycenter position along world x axis                     [deg]
#   6 Y_WORLD                Barycenter position along world y axis                     [deg]
#   7 A_WORLD                Profile RMS along major axis (world units)                 [deg]
#   8 B_WORLD                Profile RMS along minor axis (world units)                 [deg]
#   9 THETA_WORLD            Position angle (CCW/world-x)                               [deg]
#  10 FWHM_WORLD             FWHM assuming a gaussian core                              [deg]
#  11 ELONGATION             A_IMAGE/B_IMAGE                                           
#  12 ELLIPTICITY            1 - B_IMAGE/A_IMAGE                                       
         1 -14.7734     68.5748    144.2565   1.0595572392e+02   3.7390839753e+01     5.409354     2.591122  64.72  0.009016129    3.820    0.738
         2 -14.3596    213.1241     24.9531   4.0966452583e+01   2.8771557399e+01     1.225138    0.9235206  29.17  0.006704124    1.826    0.452
         3 -14.4393    200.9374     37.4667   4.5628979260e+01   3.0176153862e+01     2.143854     1.450434  32.01  0.007706271    2.012    0.503
         4 -12.2084      3.3038     23.7546   1.0107833339e+02   7.0573074909e+01    0.4671291    0.3955212 -77.05  0.003362666    1.777    0.437
         5 -12.0210      2.3998      6.8691   9.4526648106e+01   7.3491897606e+01    0.8662963    0.1585849 -46.40  0.003522128    3.740    0.733
         6 -12.3360    237.8119      2.4333   3.3584014267e+01   2.5600825937e+01    0.7030478    0.2581272  77.32  0.003175274    2.603    0.616
         7  -9.7771     53.3178      3.6553   6.6819059884e+01   6.7834712894e+01    0.1067182   0.09672037 -47.24 0.0005343825    1.722    0.419
         8  -9.9943     66.9618      3.0000   6.1410109043e+01   6.5490665118e+01    0.2023341   0.06317531  51.46 0.0004236565    2.976    0.664
         9 -10.6573    204.9646    199.5025   8.3952893803e+01   1.5504323752e+00    0.2085983    0.1217911  37.29 0.0008528248    1.590    0.371
        10 -10.5728    139.8094    249.3654   1.0473419013e+02   4.3743164813e+00    0.2329136    0.1715333 -50.62  0.001497941    1.689    0.408
        11 -14.9054     85.7912    229.0901   1.1305627776e+02   1.6087835559e+01     2.005355     1.488647  83.27  0.006671123    1.352    0.261
        12 -15.1257     48.6157    220.8132   1.1964040208e+02   2.2634219582e+01     2.112796     1.669549  48.53   0.01468346    1.254    0.203
        13 -12.8129     12.1422    188.9473   1.2456721579e+02   3.3176074161e+01    0.2464686    0.2031761  72.97 0.0005985499    1.133    0.117
        14 -14.8516     42.5649    203.0679   1.1939062584e+02   2.7016175216e+01     1.833837    0.9353819  80.07  0.002451529    2.074    0.518
        15 -14.7282     52.1197    192.9501   1.1642037118e+02   2.8076095177e+01     1.940109     1.189211  74.81   0.01066156    1.612    0.380
        16 -10.4904    208.6998    196.9250   8.2732202038e+01   1.3211570561e+00    0.1884358    0.1616931 -15.39 0.0005191043    1.139    0.122
        17  -9.2899    159.7377    196.9856   9.2873668697e+01   1.0084417360e+01    0.1827446    0.1770894 -20.54 0.0003314359    1.121    0.108
        18  -9.6322     81.6770    194.5024   1.1001615773e+02   2.3767329896e+01    0.2630122    0.1823384  56.22  0.001452823    1.334    0.250
        19 -16.5612      7.7287    202.9901   1.2630707912e+02   3.0601114370e+01       7.7828     1.275646 -75.41  0.006038812    4.741    0.789
        20 -10.2921    146.1979    182.1317   9.3207986796e+01   1.5516437222e+01    0.2253213    0.1976981   4.28 0.0005078791    1.262    0.207
        21 -10.2434     99.1013    180.8086   1.0405459241e+02   2.4127343346e+01    0.3465621    0.2628645  12.85  0.001761722    1.803    0.445
        22 -12.1742     67.5709    176.7396   1.1102492706e+02   2.9759904105e+01    0.4229708      0.28108 -43.54  0.002182826    1.880    0.468
        23 -12.2735     72.1535    171.7459   1.0924602676e+02   3.0292755349e+01    0.3447527    0.3048701 -51.11 0.0008663795    1.278    0.218
        24 -11.1556    140.7147    173.5834   9.2872747886e+01   1.8342437986e+01    0.7469743    0.4532887 -77.81   0.00274309    3.161    0.684
        25  -9.1682    219.2637    177.6299   7.6863301075e+01   2.6185031173e+00    0.1280135     0.109446 -61.41 0.0006984881    1.657    0.396
        26  -9.1854    204.3225    176.6471   7.9573785264e+01   5.5088165379e+00    0.1350006    0.1162732 -83.99 0.0007047399    1.755    0.430
        27 -12.6912     87.8505    155.3371   1.0269419555e+02   3.1863847105e+01    0.8627483    0.7515957 -47.84  0.004827511    1.217    0.178
        28 -13.2532     81.1751    162.3683   1.0559308280e+02   3.1205360827e+01      1.70811    0.4909697  49.97 0.0005186792    4.866    0.794
        29 -13.6922     68.8814    157.9026   1.0805901459e+02   3.4034733562e+01     0.638921    0.5303772 -24.63  0.001725231    1.576    0.365
        30 -10.5809    158.7988    161.9561   8.6294545112e+01   1.7253738945e+01    0.3441159    0.2758875 -78.00 0.0007698902    1.644    0.392
        31  -9.2227     37.9686    162.0000   1.1640128446e+02   3.6788397897e+01    0.1878143    0.0721442  29.66 0.0006822211    2.917    0.657
        32 -11.1980    133.5738    143.7657   8.8440314997e+01   2.6336332197e+01     1.154134    0.2903921 -53.77   0.00270196    5.679    0.824
        33  -8.8682    112.5588    150.5560   9.5314178102e+01   2.8802717080e+01    0.1487514    0.1423031  83.84 0.0001731049    1.029    0.028
        34 -12.1262     54.8409    147.4420   1.1018440452e+02   3.8382676658e+01    0.6578282    0.4942314 -58.79  0.003717529    1.252    0.201
        35 -10.3554    174.7918    148.9206   7.9776975768e+01   1.6641670361e+01    0.2837383    0.2172209 -60.40 0.0008946641    1.573    0.364
        36 -10.4993     39.0017    146.2669   1.1423444904e+02   4.0444233040e+01    0.2796845    0.2027058  57.95  0.001074155    1.423    0.297
        37 -11.0028     28.3013    143.8663   1.1674870783e+02   4.2064280148e+01    0.2179811    0.1945516  22.03  0.001356428    1.407    0.289
        38 -10.8717    101.8564    140.5160   9.6106940017e+01   3.3100448875e+01    0.5651405    0.3571792 -25.94  0.002268127    2.416    0.586
        39 -12.4264     89.1766    140.4179   9.9570844628e+01   3.5257747614e+01    0.2943855    0.2576329 -47.62 0.0004665054    1.158    0.136
        40 -14.4626     28.8672    247.9503   1.2502066176e+02   1.9763147588e+01    0.7851702    0.6679434   4.77  0.004693524    2.142    0.533
        41 -10.4408     79.3743    139.6623   1.0214867209e+02   3.6967122513e+01    0.2417152    0.1635692  47.99 0.0006876486    1.550    0.355
        42  -9.2719     35.6878    139.9676   1.1429033191e+02   4.2304118495e+01    0.1870228    0.1424645 -78.36 0.0004111118    1.124    0.111
        43 -10.9980     25.8214    137.4056   1.1662561020e+02   4.3838707336e+01    0.2980352    0.1868604  50.35  0.001237006    1.717    0.417
        44 -10.5605    106.0674    130.4393   9.2752485006e+01   3.4755820832e+01    0.4110549    0.3065036 -59.19  0.001970059    1.343    0.255
        45 -10.2633    111.3223    130.5258   9.1315894638e+01   3.3760176731e+01    0.3211135    0.2675617   0.60 0.0007468158    1.473    0.321
        46 -11.3180    135.8109    128.0183   8.4161785230e+01   2.9440429083e+01    0.6111541    0.1923167 -51.69   0.00171067    3.736    0.732
        47  -9.5672     34.5096    171.4916   1.1823522136e+02   3.4931479129e+01    0.1272082    0.1033442  85.69 3.906796e-05    1.019    0.018
        48 -11.0094     98.4170    126.7451   9.4072443897e+01   3.7009078810e+01    0.2956765    0.2448854 -22.03 0.0005672506    1.405    0.288
        49 -10.2360    160.3037    127.7796   7.8038856106e+01   2.4178290381e+01    0.3156605    0.2520219 -71.64  0.001452886    1.565    0.361
        50 -10.1350    117.1905    124.7882   8.8339827057e+01   3.3977052192e+01    0.2205494    0.1861173  -9.34 0.0009734355    1.402    0.287
        51  -9.1307     93.2178    125.4811   9.5282015971e+01   3.8209313829e+01    0.1964339    0.1398736  52.73 0.0005880277    1.545    0.353
        52 -10.6712    135.0000    113.4374   8.0637776014e+01   3.2864388583e+01    0.5330299   0.08931794 -44.65  0.001151801    5.890    0.830
        53  -9.9743    107.7782    119.2434   8.9619158842e+01   3.7086431544e+01    0.2101751     0.202352 -80.79 0.0003770399    1.071    0.066
        54  -8.8063     35.6653    166.7451   1.1747448908e+02   3.5914459474e+01    0.1151929   0.09225872 -42.66 0.0003454981    1.567    0.362
        55  -9.8097    168.2012    113.0942   7.2426206537e+01   2.5438089949e+01    0.3533263    0.2394352 -71.96  0.001265785    2.296    0.564
        56 -11.4119     18.1120    110.8482   1.1528246586e+02   5.0837071471e+01    0.3584353    0.1578568 -74.19  0.001661269    2.020    0.505
        57 -10.1293    205.4481    110.1646   6.4020478473e+01   1.7449452787e+01    0.3090046    0.2164229  41.13 0.0008244112    1.530    0.346
        58 -15.9599     58.5760    247.2266   1.1979317161e+02   1.6392103268e+01     8.959973     2.781302  28.75  0.007635319   11.109    0.910
        59 -11.4084     22.8234    108.5755   1.1348170847e+02   5.1029741650e+01    0.2818263    0.2408818  -2.28 0.0009995984    1.446    0.308
        60  -9.9328    134.5262    105.5323   7.8615673702e+01   3.4691381432e+01    0.3418799    0.1543117 -43.86  0.001214578    2.186    0.543
        61 -11.5559     41.1720    103.7963   1.0675132778e+02   5.0552009032e+01    0.4525004    0.2503871  46.85  0.002169586    2.205    0.547
        62 -10.9427    119.9038    104.1113   8.2206521791e+01   3.8138897797e+01    0.2434712    0.2226024 -85.48  0.001124995    1.239    0.193
        63 -10.1453     33.2914     99.9444   1.0859885483e+02   5.2222946598e+01    0.2024264    0.1810095  55.39 0.0008565948    1.307    0.235
        64  -8.9762    129.3029     95.6964   7.7219804324e+01   3.7940694793e+01     0.155185    0.1267661 -84.34 0.0007008239    1.594    0.373
        65 -16.6757      8.5970    241.4255   1.2808210357e+02   2.3044076983e+01     2.159377     1.713027 -67.24   0.01734833    1.667    0.400
        66 -10.7326     41.7935     91.7379   1.0399360838e+02   5.3350689482e+01    0.2485739    0.1870588 -42.27 0.0005942229    1.203    0.169
        67 -10.4521     53.0398     90.6383   9.9814881357e+01   5.2365633520e+01    0.2867041    0.1742755 -47.74 0.0009825703    1.429    0.300
        68  -9.4181    158.4824     81.5078   6.5771641721e+01   3.3914817382e+01    0.1545674    0.1522554   9.65 0.0001546592    1.016    0.016
        69  -9.9019     54.4254     65.4736   9.2251215748e+01   5.7757628566e+01    0.2207797    0.2042509 -19.66 0.0005100571    1.106    0.096
        70 -10.7645     13.4670     59.9003   1.0722028095e+02   6.2814310898e+01    0.2464269    0.1854285 -58.49 0.0004407953    1.179    0.152
        71  -9.7778    173.2363    242.2723   9.7328331981e+01   1.9020232362e-01    0.2676772    0.1807682 -64.17  0.001469288    2.463    0.594
        72 -12.7007    191.7764     43.9005   4.8643082322e+01   3.1592161885e+01    0.6882485    0.5627316  34.78  0.001092738    1.425    0.298
        73  -9.6434    171.3000    238.6611   9.7180850419e+01   1.0362854106e+00    0.1870226    0.1693793  32.99 0.0007991926    1.154    0.133
        74 -10.9669    142.5237     47.6101   5.8686039300e+01   4.3490839005e+01    0.4709868    0.3038425 -77.13   0.00166771    2.578    0.612
        75  -9.0847    130.9925    214.0907   1.0183186621e+02   1.1889738763e+01    0.1496764    0.1417152  59.35 0.0004004649    1.093    0.085
        76 -10.3197    145.4061     42.1907   5.6269424783e+01   4.3542814812e+01    0.2584443    0.2220619  81.68 0.0003587186    1.260    0.206
        77  -9.5366    189.6478     14.9716   4.0990924995e+01   3.5614865712e+01    0.1849567    0.1655005 -55.68  0.000617068    1.136    0.120
        78  -8.9157    107.2826    210.3410   1.0640531691e+02   1.6511661441e+01    0.1226386    0.1040464 -14.70 0.0003241885    1.631    0.387
        79  -9.9624    113.2364    207.5638   1.0473767932e+02   1.6109695490e+01    0.2447953    0.1854619  74.98 0.0006230463    1.454    0.312
        80 -11.5813    193.8431    196.0769   8.5530406972e+01   4.0684171811e+00     1.193635    0.6168406 -62.42  0.003151476    7.884    0.873
