#   1 NUMBER                 Running object number                                     
#   2 MAG_AUTO               Kron-like elliptical aperture magnitude                    [mag]
#   3 X_IMAGE                Object position along x                                    [pixel]
#   4 Y_IMAGE                Object position along y                                    [pixel]
#   5 X_WORLD                Barycenter position along world x axis                     [deg]
#   6 Y_WORLD                Barycenter position along world y axis                     [deg]
#   7 A_WORLD                Profile RMS along major axis (world units)                 [deg]
#   8 B_WORLD                Profile RMS along minor axis (world units)                 [deg]
#   9 THETA_WORLD            Position angle (CCW/world-x)                               [deg]
#  10 FWHM_WORLD             FWHM assuming a gaussian core                              [deg]
#  11 ELONGATION             A_IMAGE/B_IMAGE                                           
#  12 ELLIPTICITY            1 - B_IMAGE/A_IMAGE                                       
         1 -14.4457      7.0179     46.7004   1.0254211115e+02   6.6261340328e+01     1.656437    0.8754865 -59.92  0.009263123    1.721    0.419
         2 -12.4429    232.3649      2.2819   3.1229035245e+01   2.7820678124e+01    0.6222951    0.2390199  64.71  0.003073629    2.494    0.599
         3 -14.0857    188.1389     13.3627   3.7629231241e+01   3.6608294948e+01     1.079658    0.7124932 -67.19  0.005795344    1.511    0.338
         4 -14.5548    190.2949     25.7448   4.0559423105e+01   3.4729877054e+01     1.283935    0.7603132 -63.79  0.005491554    1.818    0.450
         5 -12.5654    120.8939     25.8950   5.2060755138e+01   5.1471558392e+01    0.8693213    0.5307034  57.70  0.004367976    1.492    0.330
         6 -14.6731    166.9148     29.7702   4.4829491540e+01   3.9904994434e+01     1.131047    0.8930969  73.83  0.004002915    1.176    0.150
         7 -14.8053    147.2356     29.4058   4.7969154642e+01   4.4760103223e+01     1.568453    0.9018796  56.85  0.006373132    1.563    0.360
         8 -13.2408    131.6158     32.5861   5.2042640033e+01   4.8150123608e+01     0.778567    0.5038793 -41.74  0.003123614    1.686    0.407
         9 -14.2063    121.9980     37.4339   5.5851457866e+01   4.9800507379e+01     1.049726    0.5503199  34.52  0.002642621    2.263    0.558
        10 -13.5832    138.1805     22.1669   4.7299525689e+01   4.7771779781e+01     1.312713    0.2809295  53.47  0.004205545    3.529    0.717
        11 -14.6210     41.2325      6.1194   6.8857263971e+01   6.9332165176e+01     2.274146     1.120235   7.82   0.01008737    3.105    0.678
        12 -13.7279      2.7338     10.7133   9.1736789170e+01   7.3019534044e+01     1.075221    0.4015839 -47.21  0.005660326    2.327    0.570
        13 -13.1851      8.0783      2.6505   8.4525597235e+01   7.3780447405e+01    0.6435716    0.3980723  39.26  0.002147344    2.505    0.601
        14 -16.0245     14.2539     20.1192   8.9337983025e+01   7.0609077119e+01     1.974212    0.9173756 -28.98   0.01061684    1.943    0.485
        15 -12.0850     60.1757     17.6411   6.6592611233e+01   6.4951089664e+01    0.4437908    0.2776475 -37.59  0.002293809    1.841    0.457
        16 -12.7500     47.9548     21.0794   7.3177868758e+01   6.6469184251e+01    0.6427573    0.3040549  33.02  0.002336789    2.022    0.505
        17 -15.3613     99.1550     13.0162   5.2375510891e+01   5.7746457101e+01     1.781035    0.7686819  53.87   0.00244026    1.964    0.491
        18 -12.1972     71.3659     17.6519   6.2525079671e+01   6.2943666657e+01    0.3560338    0.2737437 -28.94  0.001327335    1.422    0.297
        19 -14.9862    216.7773     15.4146   3.5298442913e+01   2.9796056101e+01     1.765555     1.005627 -30.01  0.009564684    1.910    0.476
        20 -11.8472    152.9734      9.2151   4.0852728496e+01   4.5474766448e+01    0.2709511     0.224112  48.25  0.001020116    1.218    0.179
        21 -11.6946     46.5948     13.2571   7.0064069292e+01   6.7684241076e+01    0.2983434    0.2282584  40.53  0.001445353    1.500    0.334
        22 -13.0786    224.3600     20.7108   3.5810731813e+01   2.7521273481e+01    0.5046938    0.3651364 -79.53  0.002428323    1.235    0.190
        23 -12.5873    107.9713      9.2990   4.8865240093e+01   5.6123056057e+01    0.3153918    0.2698044  51.49 0.0006768021    1.050    0.048
        24 -10.8243     68.7730      9.6861   5.9817776475e+01   6.4285768129e+01    0.2035237    0.1478886  51.45 0.0007794719    1.446    0.308
        25 -11.7313    152.1237     14.1701   4.2467198067e+01   4.5210149281e+01     0.273028    0.1958524 -27.77 0.0008150594    1.558    0.358
        26 -10.7198     59.0163      7.2241   6.2123342990e+01   6.6311037784e+01    0.2291187    0.1626098  76.50  0.001162168    2.983    0.665
        27 -10.8571     67.5158      4.6082   5.7884809453e+01   6.5011236379e+01    0.1988875    0.1538047  84.91  0.001138173    2.232    0.552
        28 -11.8934    182.4176      2.5316   3.5461361211e+01   3.9019346502e+01    0.4939642    0.2538579 -83.91  0.002356337    2.128    0.530
        29 -11.6869    117.5052      1.5034   4.4069796495e+01   5.4578670494e+01    0.2869981    0.1998605  48.86 0.0008624345    1.239    0.193
        30 -11.8270     78.0968      2.7623   5.3750275470e+01   6.3104420304e+01    0.3418557    0.2380087  38.59  0.001700199    1.193    0.162
        31 -11.0458     83.0128      1.2301   5.1699297200e+01   6.2224079262e+01    0.2779348    0.1072537  57.73  0.001241078    2.313    0.568
        32 -12.0574     61.5833      1.9969   5.8664504914e+01   6.6350855353e+01    0.3804424    0.1904634  52.07  0.001416084    1.944    0.486
        33 -12.1196    119.6851      3.6901   4.4442810947e+01   5.3899764400e+01    0.3764997    0.1951265  70.55  0.001520041    1.876    0.467
        34 -10.4544    171.6269      1.7285   3.6391286597e+01   4.1653704796e+01    0.1607138    0.1104827 -42.96 0.0007396179    1.519    0.342
        35 -14.3136     25.2003     14.0889   8.0696062288e+01   7.0432455407e+01    0.8145002    0.4185969  30.68   0.00466882    1.953    0.488
        36 -11.8256     95.6402    171.3573   9.9194362199e+01   2.6656566860e+01    0.3490474    0.2462934 -42.24  0.001695843    1.580    0.367
        37 -12.8448    107.7214    247.8052   1.0683477978e+02   8.5984639489e+00    0.7764698    0.3912319  65.07  0.003389131    3.075    0.675
        38 -14.0679     96.9373    238.6692   1.0802704495e+02   1.1846868690e+01    0.8612914    0.5945626  42.06  0.005163282    1.242    0.195
        39 -12.7641     57.3583    246.8873   1.1664143792e+02   1.5620172254e+01    0.6789185    0.3562495  27.58  0.003593355    2.332    0.571
        40 -13.0534     28.2844    246.2586   1.2199378545e+02   1.9130216303e+01    0.4494044    0.2912239  67.23  0.003085963    1.213    0.176
        41 -11.9388      2.8314    249.7836   1.2659469577e+02   2.1057581754e+01    0.3064595    0.2148735  56.68   0.00166652    1.171    0.146
        42 -13.6721      9.3869    245.6624   1.2529999237e+02   2.1195018342e+01      0.75713    0.3689774  57.87  0.003514776    1.570    0.363
        43 -13.1409    124.1855    166.7588   9.1067498303e+01   2.2827435397e+01    0.6996124    0.4489253 -74.96  0.002894714    2.186    0.542
        44 -12.0251     77.3702    156.9044   1.0159203654e+02   3.3006070643e+01    0.4699144     0.316127  26.34  0.001812157    1.708    0.414
        45 -13.0968     73.9947    153.2451   1.0189756667e+02   3.4405891056e+01    0.7749956    0.4991526  30.53  0.003338623    1.703    0.413
        46 -12.2031    111.9890    156.6063   9.2215509663e+01   2.7430608228e+01     0.450762    0.2785198  73.99   0.00167069    2.763    0.638
        47 -12.8465    208.8138    154.5246   6.9357981199e+01   9.0538979661e+00    0.6632159    0.4305369  35.28  0.003211191    1.643    0.391
        48 -11.3113     55.5427    156.1881   1.0742133566e+02   3.6119288374e+01    0.3014392    0.2013064  -3.50  0.001390903    2.410    0.585
        49 -11.5603     85.8758    153.0602   9.8587571191e+01   3.2677793102e+01     0.441433    0.2048614 -52.69  0.001759691    2.043    0.510
        50 -11.7665     14.5998    152.4579   1.1785272314e+02   4.1153125519e+01    0.2610585    0.1503813  53.35  0.001409823    1.811    0.448
        51 -11.5951    103.2243    150.0499   9.3252635843e+01   3.0562084497e+01    0.4061139    0.2719192 -32.54  0.001777054    1.841    0.457
        52 -12.3591     60.9415    148.0177   1.0467028677e+02   3.7488905793e+01    0.4068898    0.3027249 -15.04  0.001719679    1.864    0.464
        53 -11.4020    136.8296    211.3125   9.5831399597e+01   1.0955653759e+01     0.223923     0.191463 -74.42 0.0009492357    1.371    0.271
        54 -13.2690     22.1658    181.2738   1.1866767889e+02   3.3613969920e+01    0.7027529     0.379172 -60.44  0.003113313    1.775    0.437
        55 -11.0876    149.5723    141.4429   7.9279702090e+01   2.3669450247e+01    0.4273566     0.197099  56.68  0.001342862    3.308    0.698
        56 -10.5717     62.9432    138.6830   1.0250792958e+02   3.9579240379e+01    0.1888913    0.1783244  85.68 0.0004005851    1.074    0.069
        57 -12.4325     41.1148    137.5892   1.0871284932e+02   4.2421990581e+01    0.4008164    0.2660092  62.88  0.002052582    1.719    0.418
        58 -12.7166    246.6183    133.8678   5.8318729476e+01   5.8383846533e+00    0.4611816    0.3620809 -45.88  0.002702736    1.230    0.187
        59 -14.1684    233.7244    129.5190   5.9403687910e+01   8.9084189867e+00    0.9615887    0.7424161 -39.46  0.005382844    1.146    0.127
        60 -13.0117    223.3939    128.1087   6.0803432978e+01   1.1122898682e+01    0.5937067    0.4443628 -88.98  0.002899834    2.055    0.513
        61 -10.1292     10.6949    134.3057   1.1699264932e+02   4.5867175971e+01    0.1274544   0.08348382  71.18 0.0005958455    1.603    0.376
        62 -11.8868    133.2615    132.1482   8.1194028973e+01   2.9134237501e+01    0.3103661     0.209736  68.18  0.001247925    2.105    0.525
        63 -12.6945    134.7038    103.0905   7.3281891578e+01   3.5310554163e+01     1.275234    0.3422814  50.17  0.003332833    4.429    0.774
        64 -13.0785    120.8553    102.2776   7.6801195145e+01   3.8454678856e+01    0.6388314    0.3656059  42.82  0.002448803    1.784    0.439
        65 -14.3056    105.9052    121.6608   8.6174702099e+01   3.6966656287e+01     1.665688     1.116951  31.42   0.00743152    1.625    0.385
        66 -14.7627    106.9301    104.8493   8.1526759524e+01   4.0690016872e+01      1.85102     1.473836  12.84  0.008217615    1.475    0.322
        67 -11.2457     60.0461    125.3360   1.0089366886e+02   4.3308774947e+01    0.3726061    0.1800286  16.64  0.001390606    3.157    0.683
        68 -12.7580     28.7389    122.3967   1.1010286760e+02   4.7400672273e+01    0.4405994    0.2906796 -58.86  0.002420972    1.278    0.218
        69 -12.2197    181.1437    121.0411   6.7120608907e+01   2.1251328097e+01    0.3342586    0.2268733  53.63 0.0009527527    1.596    0.374
        70 -12.1050     88.5098    110.0046   8.8510482372e+01   4.2842742945e+01    0.3980669    0.2961757 -56.23  0.001451615    1.319    0.242
        71 -12.3807     77.1707    117.3931   9.3852103016e+01   4.2881860744e+01    0.6171696    0.4289683 -70.02  0.002902012    1.587    0.370
        72 -13.1366     84.8069    115.0732   9.0918236029e+01   4.2242964925e+01     1.017853    0.5509305  47.81  0.003842475    2.128    0.530
        73 -11.6514      3.9146    119.9388   1.1730839572e+02   4.9790652698e+01    0.4555776    0.1813194  16.77  0.002117189    3.170    0.685
        74 -13.6789    171.2247    242.8184   9.3367469562e+01  -1.6025620116e-01    0.8282512    0.5360152  24.10  0.004727253    1.416    0.294
        75 -14.6156     15.7396    108.6255   1.1210687774e+02   5.1790354433e+01     1.485076    0.9389074  79.27  0.006218608    1.898    0.473
        76 -14.5142     25.0290     93.9967   1.0637749812e+02   5.4623761368e+01     1.427091     1.209447  -9.23  0.009059288    1.325    0.245
        77 -13.2848      2.1443     97.2834   1.1492227998e+02   5.5306137413e+01    0.7891311    0.2326046 -71.89  0.003139273    2.830    0.647
        78 -11.8374    121.2172    112.1944   7.9396968401e+01   3.6171326956e+01     0.355576    0.2947265  84.40  0.001347095    1.514    0.339
        79 -14.9327      6.5224     71.6118   1.0884858235e+02   6.0994603499e+01     1.107777    0.9307568 -25.62  0.007673361    1.219    0.180
        80 -11.4721    176.8684    111.2385   6.5547299094e+01   2.4158350762e+01    0.3090321    0.2102153 -11.94  0.001263116    2.134    0.531
        81 -11.9913     62.2008    109.3676   9.6839612286e+01   4.6977861952e+01     0.631264    0.3932924 -75.71  0.002793367    2.017    0.504
        82 -11.7324     32.2821    110.5043   1.0699331474e+02   5.0023339157e+01    0.2746259     0.233261 -61.12   0.00167762    1.007    0.007
        83 -11.5674    222.7686    109.5330   5.6641223849e+01   1.4560802577e+01    0.2337237    0.2214999   0.22   0.00113364    1.158    0.137
        84 -10.4012     46.3270    110.3129   1.0230528030e+02   4.8668910374e+01    0.1458474   0.09480706 -34.31 0.0007042353    1.666    0.400
        85 -11.4783     32.5991    105.2825   1.0592525840e+02   5.1270466017e+01    0.2641203    0.2435688  -4.46 0.0009961434    1.236    0.191
        86 -12.2483     61.7476     98.9365   9.4517860653e+01   4.9544621460e+01    0.5285309    0.3546101  89.69  0.002301342    2.404    0.584
        87 -12.1124     52.4907     98.0089   9.7502887002e+01   5.0939946098e+01    0.8221707    0.4007251 -18.72  0.002466364    5.158    0.806
        88 -12.5862     48.9837     94.5768   9.7922611373e+01   5.2164860672e+01    0.8153833    0.4306795 -48.42   0.00348291    1.640    0.390
        89 -12.2249    249.2846     98.9917   5.0394513720e+01   1.1144002426e+01    0.3526672    0.1552415 -40.55  0.001580463    1.888    0.470
        90 -11.9866    162.9637     98.0758   6.5075019675e+01   2.9936038988e+01    0.3896501    0.3360773  33.14  0.001069622    1.239    0.193
        91 -10.7717     67.5049     97.9242   9.2290183295e+01   4.8986047332e+01     0.230431    0.1324529 -52.78 0.0009543825    1.594    0.373
        92 -12.7219    136.6340     95.8082   7.0734158819e+01   3.6409352189e+01    0.4919185    0.3779196  56.05  0.001513407    1.386    0.278
        93 -12.2121    125.7443     92.7400   7.2729461098e+01   3.9445582232e+01     0.398847    0.2597674 -55.86  0.001698963    1.760    0.432
        94 -11.1310     65.3169    126.6663   9.9529518111e+01   4.2283300298e+01    0.2948364    0.2619624 -64.42  0.001519559    1.038    0.037
        95 -12.0113     42.4861     90.5979   9.9314214204e+01   5.3816317621e+01    0.3267327    0.2331896 -66.36    0.0017587    1.410    0.291
        96 -11.7691     90.3514     88.2772   8.1968471660e+01   4.7480014325e+01    0.4222461    0.3492154  50.11  0.002048278    1.351    0.260
        97 -13.2595    188.0866     84.2951   5.6324587637e+01   2.6641471512e+01    0.8043588    0.3962264  41.75  0.002449785    2.476    0.596
        98 -11.6337    126.7546     84.7416   7.0086561273e+01   4.0845636264e+01    0.3514165    0.3107057  27.49   0.00181608    1.162    0.139
        99 -13.0923    242.3494     83.9192   4.7981802062e+01   1.4898681089e+01    0.5109461    0.2584735  63.53   0.00239428    2.332    0.571
       100 -13.3801    237.6878     80.4701   4.7806387352e+01   1.6380003604e+01    0.5049419    0.3215678  71.12   0.00261828    1.845    0.458
       101 -14.0882    164.2627     71.5525   5.7374678856e+01   3.4503527857e+01     1.543928    0.9075775  54.86  0.006783347    1.685    0.406
       102 -13.6471    160.8029     80.8934   6.0760998384e+01   3.3691766171e+01    0.9338863    0.6523384  19.05  0.004008833    2.060    0.514
       103 -14.4996    169.4065     77.1095   5.7918060446e+01   3.2313038677e+01     1.620219    0.6526983  53.57  0.005396632    2.460    0.593
       104 -11.6597    150.7379     84.3019   6.3976811117e+01   3.5440336832e+01    0.3798442    0.2098838  39.74  0.001507476    2.010    0.503
       105 -12.2878     39.7318     65.7331   9.3728989735e+01   5.9648511710e+01     1.438653    0.6736205  32.42  0.006741701    2.341    0.573
       106 -13.2038     65.5699     49.2073   7.7696060365e+01   5.9385723428e+01    0.6743531    0.5704563 -38.29  0.002450966    1.263    0.208
       107 -13.4966     61.3725     59.0139   8.2864135170e+01   5.8238630233e+01     2.125418    0.8310134 -27.55  0.005763354    5.899    0.830
       108 -13.5286     87.4925     65.3428   7.5627770761e+01   5.2667219772e+01     1.202452     0.664677  17.05  0.004434456    3.056    0.673
       109 -12.9616     91.5698     58.3044   7.1843579541e+01   5.3172483324e+01    0.6608959    0.5104091 -45.45  0.003492559    1.405    0.288
       110 -12.8729     70.6358     75.6634   8.4877027864e+01   5.3487417609e+01    0.5942422    0.4621521  -7.20  0.002290415    1.392    0.282
       111 -12.0597     77.1127     73.8385   8.1999236065e+01   5.2823853733e+01    0.4432544    0.2833273 -35.14  0.001332756    1.519    0.342
       112 -13.0129     55.1664     82.0370   9.2427942727e+01   5.4296746411e+01    0.5653575    0.4526079 -21.03  0.002401483    1.245    0.197
       113 -13.9982     60.9910     75.8769   8.8474554992e+01   5.4865539703e+01    0.8079731    0.5333036 -42.54  0.001295038    1.367    0.269
       114 -13.5016    213.9680     78.9814   5.0733202524e+01   2.1655296773e+01     1.027109    0.6234139  85.13  0.004467418    2.364    0.577
       115 -12.7051    218.3216     74.8558   4.9107415472e+01   2.1364184742e+01    0.4145646    0.3502671 -81.04  0.001933211    1.208    0.172
       116 -12.1386    214.6444     71.9033   4.8915912764e+01   2.2645003074e+01    0.3377382    0.3169128  35.54  0.001456449    1.261    0.207
       117 -12.7873    135.1234     79.9266   6.6452936200e+01   3.9891051378e+01    0.7413682    0.4161677  50.30  0.002500858    1.786    0.440
       118 -11.9578    114.3131     80.1398   7.2132839265e+01   4.4455291136e+01    0.4090982    0.3278445 -50.43 0.0008678601    1.319    0.242
       119 -13.4323      3.7128     63.6141   1.0829055333e+02   6.2895797607e+01    0.4932823    0.3517509  10.55  0.003209682    1.642    0.391
       120 -13.9795    198.9553     69.8973   5.0754875410e+01   2.6529471513e+01     1.415908    0.7626819  35.02  0.005431594    3.005    0.667
       121 -11.7976    199.5092     62.4494   4.8765015046e+01   2.7568833654e+01    0.3744455    0.2430119 -39.30  0.001572288    1.473    0.321
       122 -11.2973     41.8711     76.6680   9.6000065128e+01   5.7056521051e+01    0.2896267    0.1764477 -57.57   0.00122986    1.553    0.356
       123 -10.7239     27.8131     76.8755   1.0156299056e+02   5.8359561858e+01    0.2093046    0.1494096 -40.58 0.0008565885    1.196    0.164
       124 -11.9083    241.8203     71.4359   4.5280103439e+01   1.6940787465e+01    0.3639662     0.217507 -78.94  0.001726006    2.281    0.562
       125 -13.2499    134.0422     65.6233   6.2297792357e+01   4.2716108926e+01    0.7261253    0.6642493 -12.05  0.002430658    1.140    0.123
       126 -11.4182    100.0078     64.9702   7.1475383978e+01   5.0305645986e+01    0.3486742    0.3087604 -14.73  0.001415368    1.103    0.093
       127 -12.3839     79.3771     61.0109   7.6913228665e+01   5.4943759435e+01    0.5233058    0.4577067 -11.55   0.00277703    1.058    0.055
       128 -12.7772     82.4942     54.4938   7.3509202987e+01   5.5554155059e+01    0.6119406     0.388898 -16.68  0.002856702    1.883    0.469
       129 -11.8529     77.8204     54.0787   7.4988366721e+01   5.6469209237e+01    0.3009933    0.2681076  27.84 0.0008052131    1.151    0.131
       130 -13.6946    177.9716     57.5985   5.0899412837e+01   3.3431755510e+01    0.8427882    0.6544392 -53.56  0.002911631    1.288    0.223
       131 -11.9151     24.6631     59.8956   9.8358606733e+01   6.2311544547e+01    0.3791144    0.1909061 -48.82  0.001600113    1.600    0.375
       132 -14.5283    119.9210     54.4696   6.2220085512e+01   4.7805496088e+01    0.9729724    0.6801603  34.86  0.002514753    1.473    0.321
       133 -11.3471     47.5348     57.4092   8.7854431193e+01   6.0437182271e+01     0.259526    0.2247075 -31.46 0.0009444109    1.098    0.089
       134 -12.9532    248.2345     51.8625   4.0332267774e+01   1.8493222530e+01    0.6474128    0.3698288 -34.08  0.003460465    1.693    0.409
       135 -11.7384    231.4855     55.8160   4.2983182311e+01   2.1400800326e+01     0.288533    0.2212232  81.05  0.001426745    1.339    0.253
       136 -12.3567    135.4685     50.6707   5.7169289095e+01   4.4772165579e+01    0.5642285    0.3358169  36.34  0.001932687    1.897    0.473
       137 -13.5179    103.1402     50.6799   6.5550218185e+01   5.2091085220e+01    0.8056031    0.5577797 -62.66 0.0007947158    2.187    0.543
       138 -12.0520     97.5981     50.7588   6.7241412787e+01   5.3234926291e+01    0.5286731    0.3111163 -48.89  0.001895822    2.081    0.520
       139 -10.3287     36.6542     53.7084   9.1220165498e+01   6.2426246774e+01    0.1359318   0.08469641 -20.27 0.0007027904    1.662    0.398
       140 -10.9897     22.6213     50.4592   9.6416599588e+01   6.4407721277e+01    0.2271242    0.1177235  17.64  0.001190075    2.113    0.527
       141 -13.1160    157.8274     44.0854   5.0550735899e+01   4.0298576479e+01    0.7805743     0.505493  37.42  0.003592828    1.792    0.442
       142 -14.1785     91.2161    231.6492   1.0844763723e+02   1.4029734456e+01    0.6522509    0.5730448  59.83  0.004332474    1.042    0.040
       143 -11.7761    147.3274    239.0652   9.7671397061e+01   4.1350335204e+00    0.1726388     0.161682  33.40  0.001089408    1.112    0.101
       144 -14.9202    212.9075     41.2756   4.1735586671e+01   2.7513491616e+01     2.369505     0.773412  71.55  0.008379722    3.631    0.725
       145 -10.8219     27.6628    235.3577   1.2145686967e+02   2.1313777388e+01     0.191898   0.09720336  63.39 0.0007562349    1.694    0.410
       146 -12.0797     24.6990    217.2150   1.2085882383e+02   2.5344500325e+01    0.6344925    0.5298249  54.75  0.004558092    1.219    0.180
       147 -12.2926     14.4544    223.8646   1.2326406232e+02   2.4989813741e+01    0.3997654    0.2336983  69.49  0.001394916    1.402    0.287
       148 -13.4738     25.8717    227.3715   1.2129578838e+02   2.3111581108e+01    0.6645722    0.3412878 -58.07  0.003726858    2.282    0.562
       149 -12.5227    109.8462     42.2704   6.0639957342e+01   5.1900546863e+01    0.5208448    0.2324794  52.76  0.001374695    2.143    0.533
       150 -13.0660     20.6370    225.2038   1.2216497789e+02   2.4098083916e+01    0.4186241    0.3842798 -55.50   0.00271204    1.526    0.344
       151 -13.0303    237.1517    230.0567   7.8752761261e+01  -7.8068592505e+00    0.3946315    0.3163872  62.51  0.002322466    2.629    0.620
       152 -12.6575    113.7681     38.1668   5.8136098658e+01   5.1590334647e+01    0.4072183    0.3172061  43.54  0.001408576    1.185    0.156
       153 -10.8018     55.3154     41.0936   7.8628339397e+01   6.2346039086e+01     0.175957    0.1460414 -18.25 0.0003880258    1.077    0.071
       154 -13.4711     65.6303    223.4601   1.1297225577e+02   1.9218772529e+01    0.8138948      0.56274  39.09  0.004871042    1.385    0.278
       155 -13.2934    242.3717     35.2782   3.7360996991e+01   2.1904446105e+01    0.7049012    0.4714831  71.06  0.002766927    1.539    0.350
       156 -12.5035     76.0172     37.3543   6.9220887473e+01   5.9499102120e+01    0.3362094     0.247954  39.37 0.0007579284    1.326    0.246
       157 -12.0661     69.3274     36.6166   7.1340284341e+01   6.0801559136e+01    0.4433952    0.2214937  33.09   0.00125507    2.015    0.504
       158 -10.7986    104.4859     36.9938   6.0173523836e+01   5.3810197075e+01    0.2061397     0.134819 -29.43  0.001034439    1.598    0.374
       159 -14.1150     63.2333    214.5179   1.1260610021e+02   2.1426230946e+01    0.9029451    0.4952456  44.50  0.004777696    1.618    0.382
       160 -10.7961    201.3140    215.3348   8.2901981992e+01  -4.2059944116e-01    0.1375373   0.09192408  -0.85 0.0007046296    1.688    0.407
       161 -11.5380    185.6010    213.8127   8.5793139378e+01   2.3487578008e+00    0.1777525    0.1277474 -51.67 0.0009542219    1.723    0.419
       162 -11.7247    156.8082    213.2122   9.1756982830e+01   7.2380643827e+00    0.2874646    0.1100493 -55.05  0.001033753    3.552    0.718
       163 -12.5010     46.1652     33.8047   7.9546831998e+01   6.4837581251e+01     0.474971    0.3164281 -14.88  0.002710148    1.455    0.313
       164 -10.4323     91.0419     34.4966   6.3136020263e+01   5.6988994886e+01    0.2000485    0.1243827  45.90 0.0005466389    1.506    0.336
       165 -10.2285     31.9867     31.0000   8.4890286046e+01   6.7061376562e+01    0.1812883   0.06495763  29.39 0.0005939943    2.866    0.651
       166 -13.3220      7.9884    211.3418   1.2379513534e+02   2.8213307315e+01     1.152496     0.722805  72.89  0.007495883    1.286    0.223
       167 -12.9956     56.0629     27.2846   7.2556871861e+01   6.4362526429e+01    0.6983535    0.2916989  39.34  0.002440126    2.320    0.569
       168 -12.5890     67.7979     24.4010   6.6757503327e+01   6.2775675767e+01    0.5535579    0.3568555  43.96  0.002692957    1.530    0.347
       169 -10.9312     97.9751     27.2009   5.8256519264e+01   5.6469420068e+01    0.2013745    0.1810095  66.54  0.001219599    1.286    0.222
       170 -11.2921     36.1334     24.2909   8.0014289051e+01   6.7631919098e+01    0.2278561    0.2032052 -53.77  0.001401462    1.727    0.421
       171 -13.0550     16.9869    195.1002   1.2090628248e+02   3.0931458436e+01    0.9571459     0.319979 -73.25  0.004322075    2.516    0.603
       172 -14.1080     29.8561    169.5052   1.1573074087e+02   3.5668741089e+01     1.314479    0.9416029  54.41  0.007817627    1.377    0.274
       173 -14.9620      8.4564    183.3816   1.2191841003e+02   3.4343996489e+01      1.15085    0.9223138  81.20  0.007968599    1.041    0.039
       174 -11.0781    248.7627     18.0574   3.3281050938e+01   2.2706032027e+01     0.196873    0.1496411 -86.67 0.0006232484    1.198    0.165
       175 -11.3636     88.8828    249.5372   1.1075914770e+02   1.0967258293e+01    0.2953428    0.1386737  43.01  0.001541573    1.719    0.418
       176 -13.0101     95.3257    218.3551   1.0602726905e+02   1.6118710283e+01    0.5334792     0.231236  35.49   0.00234365    2.160    0.537
       177 -11.0134    150.4710    207.0086   9.2113368536e+01   9.4974043403e+00    0.2796778    0.1857375  22.90   0.00137258    1.623    0.384
       178 -12.3671     57.5189    203.6276   1.1275647571e+02   2.4553144712e+01    0.5589132    0.2797205 -88.92  0.002507622    2.411    0.585
       179 -12.4834     41.3691    206.1689   1.1654769188e+02   2.5925740290e+01    0.2461002    0.1719493  81.78  0.001330051    1.274    0.215
       180 -13.0935     40.4721    195.1041   1.1574388827e+02   2.8519050548e+01    0.4559603    0.2463444  83.84  0.001982384    1.945    0.486
       181 -12.1837     36.8593    195.4330   1.1658438818e+02   2.8843680420e+01    0.3558679      0.16898 -85.18    0.0016801    2.134    0.531
       182 -15.0896     15.8797    175.7307   1.1965245286e+02   3.5482602033e+01     2.301034     1.034867  67.57   0.01065018    2.434    0.589
       183 -12.8927    163.8813    194.7527   8.7000887705e+01   9.5633079862e+00    0.5442609    0.2741753 -58.41   0.00211757    2.843    0.648
       184 -10.9806     79.7494    192.9931   1.0637015011e+02   2.3973111503e+01    0.3568084     0.133162  44.33   0.00140173    2.499    0.600
       185 -11.9629     97.8338    188.1622   1.0132985512e+02   2.2353209673e+01    0.1929236    0.1744605 -16.70  0.001091955    1.342    0.255
       186 -12.5881    201.0738    191.8146   7.8595611221e+01   3.6116445888e+00    0.4222573    0.2913173 -24.33  0.001350555    1.455    0.312
       187 -13.1417    197.5089    180.6180   7.7101663933e+01   6.2574169974e+00    0.5696849    0.4224677 -70.98   0.00270443    2.235    0.553
       188 -11.0937    109.7058    183.5840   9.7703330553e+01   2.1472269598e+01    0.2829719    0.1402405  31.96  0.001140763    2.156    0.536
       189 -11.7214     49.0808    181.6589   1.1234983052e+02   3.0669957276e+01    0.3926963    0.2380027 -54.03  0.002033035    1.726    0.421
       190 -12.3485     85.8197    180.8336   1.0318578193e+02   2.5922847818e+01     0.294255    0.2189063  70.65  0.001522865    1.430    0.301
