#   1 NUMBER                 Running object number                                     
#   2 MAG_AUTO               Kron-like elliptical aperture magnitude                    [mag]
#   3 X_IMAGE                Object position along x                                    [pixel]
#   4 Y_IMAGE                Object position along y                                    [pixel]
#   5 X_WORLD                Barycenter position along world x axis                     [deg]
#   6 Y_WORLD                Barycenter position along world y axis                     [deg]
#   7 A_WORLD                Profile RMS along major axis (world units)                 [deg]
#   8 B_WORLD                Profile RMS along minor axis (world units)                 [deg]
#   9 THETA_WORLD            Position angle (CCW/world-x)                               [deg]
#  10 FWHM_WORLD             FWHM assuming a gaussian core                              [deg]
#  11 ELONGATION             A_IMAGE/B_IMAGE                                           
#  12 ELLIPTICITY            1 - B_IMAGE/A_IMAGE                                       
         1 -13.3604      8.5693     15.8787   6.7742289031e+01   7.0772763527e+01     1.044485    0.3034983 -33.35  0.004481973    3.267    0.694
         2 -12.8522      4.7868     23.8270   7.2711106395e+01   6.9663284111e+01    0.5296329    0.2582937 -39.20  0.002507326    1.505    0.336
         3 -12.7296      2.6112     13.5513   6.9966967085e+01   7.1540817100e+01    0.8044962    0.2446809 -43.14  0.004098875    2.277    0.561
         4 -13.0243      3.2006      4.5593   6.5779338642e+01   7.2923588980e+01    0.9499574    0.3935954  10.85  0.005221916    2.669    0.625
         5 -12.1526    228.4378      9.8499   8.3966567640e+00   2.6535731337e+01    0.3339216    0.2289827 -11.61  0.001827316    2.085    0.520
         6 -10.9867    174.0051      6.7606   1.3408111979e+01   4.0148907421e+01    0.2572735     0.105856 -57.84 0.0009020866    3.654    0.726
         7 -12.9519    211.6456      4.4675   8.6662971013e+00   3.1056154555e+01    0.6706052    0.3203609  76.13  0.003203778    1.897    0.473
         8 -12.4772    249.5724    232.7213   5.4174659592e+01  -1.0664671272e+01    0.7759503    0.2435362 -31.11   0.00339395    3.306    0.698
         9 -12.4444     93.8064    248.0543   8.5881204929e+01   1.1631572146e+01    0.6402417     0.356448  51.76  0.003764686    1.440    0.305
        10 -12.0047     69.9426    246.8424   9.0132245692e+01   1.5193618975e+01     0.444241    0.2226861  41.20  0.001958334    1.721    0.419
        11 -12.7958    246.2504    222.9279   5.3042882328e+01  -8.9843437408e+00     0.763746    0.3837766 -33.35   0.00411818    2.047    0.511
        12 -11.6656     41.2715    220.6919   9.3349042790e+01   2.3729786744e+01    0.5845114    0.2129615  44.68  0.002978206    2.239    0.553
        13 -11.8687     59.2547    234.0327   9.1043426730e+01   1.8940386898e+01    0.5971034    0.2221139  48.73  0.002978889    2.138    0.532
        14 -11.7273     52.1418    230.7878   9.2099162756e+01   2.0456717598e+01    0.3981235     0.264534 -86.21  0.001492122    1.402    0.287
        15 -11.4535     47.9583    226.4609   9.2539646821e+01   2.1803125812e+01    0.3566303    0.2367114  85.26  0.001575619    1.331    0.248
        16 -11.5506     91.1416    226.9303   8.4256751770e+01   1.5846998146e+01    0.7674381    0.3090602  52.97  0.003447969    2.345    0.574
        17 -10.8713     69.0607    229.2923   8.8796784401e+01   1.8541031541e+01    0.2908316    0.2746844 -23.55  0.002094272    1.608    0.378
        18 -10.1379     31.9150    227.2933   9.5524156336e+01   2.3512856640e+01    0.1950186    0.1209278  80.26  0.001004637    1.341    0.254
        19 -11.0764     92.9120    222.0485   8.3367210742e+01   1.6516932921e+01    0.4910734    0.2689825  51.72  0.002383528    1.583    0.368
        20  -9.7089     65.6538    218.3268   8.8448824526e+01   2.1141776178e+01    0.1337793     0.074368  65.93 0.0007050152    1.749    0.428
        21 -14.3146     16.4417    131.0382   9.0474542902e+01   4.5942240297e+01     1.385062     1.247688 -15.83  0.009844848    1.435    0.303
        22 -14.7700     24.2417    163.9018   9.2051780540e+01   3.7697082104e+01     2.083889    0.7137496 -76.26  0.008955059    2.638    0.621
        23 -13.6261     20.6676    191.7812   9.5178455729e+01   3.1894062648e+01    0.8134873     0.609059  61.44  0.005712782    1.201    0.168
        24 -14.1268     11.1510    180.0461   9.6246780663e+01   3.5287876313e+01     1.515159    0.6783748  72.24   0.00777172    2.258    0.557
        25 -14.1973      7.2607    158.8578   9.5445416909e+01   4.0271619285e+01     1.194608    0.7840017 -63.12   0.00607501    1.419    0.295
        26 -13.6988      4.2962    149.1427   9.5306580977e+01   4.2671910621e+01     1.009237    0.5262733 -68.53  0.004600997    1.526    0.345
        27 -10.5885    114.5059    215.5043   7.8105266946e+01   1.4373868068e+01    0.1329236    0.1134869  55.11 0.0002802978    1.002    0.002
        28 -10.4984     85.3836    235.3746   8.6244030715e+01   1.5113296047e+01    0.2469986    0.1733371  61.26  0.001210509    1.196    0.164
        29 -11.8807      2.0095    187.1412   9.8546768968e+01   3.4546688414e+01    0.3997944    0.1735607 -84.73  0.001986375    1.885    0.470
        30 -12.6336      7.8643    202.3463   9.8349460032e+01   3.0896088761e+01    0.7064061    0.3888893  82.69  0.003274532    1.476    0.323
        31 -11.6792      2.3871    194.8762   9.8935292324e+01   3.2906170245e+01    0.3738531    0.2015365 -89.42   0.00167313    1.471    0.320
        32 -10.2152     63.0770    207.3255   8.7901927647e+01   2.3727078010e+01    0.3687264   0.07867806  40.01  0.001347205    3.671    0.728
        33 -11.1502    104.1973    203.8288   7.8752753835e+01   1.8387735576e+01    0.1769718    0.1647572   7.13  0.001094896    1.364    0.267
        34 -11.7741     86.4142    200.0881   8.2144236550e+01   2.1950385738e+01    0.3982666    0.1894366  34.42  0.001803063    2.209    0.547
        35 -10.8133     65.0256    193.2850   8.6005975917e+01   2.6457270143e+01    0.4646571    0.1827017 -61.59  0.002079465    2.427    0.588
        36 -11.7604    244.9991    194.3915   4.7938445326e+01  -4.9346682871e+00     0.411781    0.2866015  -9.85  0.002370608    1.348    0.258
        37 -10.1297     79.4285    178.7249   8.0927476697e+01   2.7677556391e+01    0.2214578    0.1772985   7.39  0.001207534    1.799    0.444
        38 -11.5538    249.7081    174.0257   4.3023265656e+01  -2.6981390303e+00    0.2606432    0.2106064   3.36  0.001397902    1.107    0.097
        39 -13.2932    249.5958    142.7936   3.6394384625e+01   2.2318905720e+00     1.486678    0.2764923 -35.27  0.004024215    5.116    0.805
        40 -13.6611     21.9145    206.8004   9.6000536065e+01   2.8639520463e+01     1.869081    0.7082921  69.90  0.008506529    2.981    0.665
        41 -12.8380    241.4193    146.3783   3.8561902812e+01   3.1643679156e+00    0.5327243    0.2176344 -39.35  0.002142604    2.281    0.562
        42 -12.6453     38.2287    197.9186   9.2119643719e+01   2.8749548462e+01     1.321518    0.5543089  58.45  0.006382677    2.352    0.575
        43 -11.7366     53.3869    126.6179   7.9616001116e+01   4.3472634024e+01    0.4479068     0.258135 -69.05  0.002182737    1.630    0.386
        44 -13.0291      2.5989    115.5838   9.2411320080e+01   5.0425818979e+01    0.8223755    0.3113101 -76.68  0.003877352    2.223    0.550
        45 -13.3696      6.8573    103.6287   8.9692816297e+01   5.2916066732e+01    0.7747858    0.5004504 -59.31  0.004768969    1.226    0.185
        46 -11.8696      2.4322     98.4524   9.0320170081e+01   5.4333219894e+01    0.3840012    0.2189219 -78.17  0.001768813    1.518    0.341
        47 -10.9824     54.3790    118.4238   7.7841848141e+01   4.5321811273e+01    0.2874804    0.2074247 -34.84  0.001543137    1.540    0.351
        48 -11.7509     31.4140    119.0913   8.4718700912e+01   4.7525502501e+01    0.3246569    0.3056239  52.46  0.002001271    1.233    0.189
        49 -10.8470     43.4410     91.4975   7.5788506865e+01   5.2840816440e+01    0.3779182     0.237588  39.61   0.00200968    1.865    0.464
        50 -13.1384      2.4747     81.2638   8.7729722836e+01   5.8175011821e+01     1.081292     0.302711 -67.69  0.004593196    2.725    0.633
        51 -12.5665      7.8685     87.2965   8.6921942127e+01   5.6558032395e+01    0.3933225    0.3565606 -80.78  0.002090414    1.208    0.172
        52 -12.9628      9.9649     75.3054   8.4056004113e+01   5.9098455618e+01    0.7074649    0.2765986 -49.52  0.003289514    1.913    0.477
        53 -13.1880     13.7496     82.2111   8.4041670483e+01   5.7353120699e+01    0.6488633    0.4666556  89.51  0.004003673    1.623    0.384
        54 -13.5097     18.9380     77.5597   8.1298255244e+01   5.8049427772e+01    0.8576444     0.628669  60.15   0.00524472    1.855    0.461
        55 -12.4143     12.6051     63.2615   8.0526400585e+01   6.1537521295e+01    0.3924923    0.2942365  20.69  0.002640511    1.620    0.383
        56 -13.0020      8.2937     55.4023   8.0383133267e+01   6.3418919873e+01    0.4758818    0.3609115 -42.62   0.00228586    1.044    0.042
        57 -12.5208     20.3385     41.3752   7.1303722305e+01   6.5420205662e+01    0.5173904    0.2787845  -5.53  0.002789013    2.210    0.547
        58 -12.4127      3.9356     35.2329   7.6843315404e+01   6.7628946683e+01    0.3902796     0.215317 -36.53  0.002037321    1.398    0.285
        59 -12.4223     12.5886     26.7781   6.9909810142e+01   6.8646051603e+01    0.3301874    0.1988614 -22.23  0.002094977    1.445    0.308
        60 -10.8286    124.6078    248.3812   8.0120976282e+01   6.8897998746e+00    0.2410787    0.1988717  39.25   0.00163717    1.153    0.133
        61 -11.9235    100.7005    241.9462   8.3977866609e+01   1.1669875600e+01    0.5393831    0.3186768  80.47  0.002875572    2.229    0.551
        62 -12.1107     75.2440    238.8332   8.8482602059e+01   1.5911668557e+01    0.8484896    0.3041856  55.98  0.003744017    2.784    0.641
        63  -9.8511     60.8561    249.8226   9.1974112207e+01   1.5865219631e+01    0.1672199   0.09924914  61.42  0.001074784    1.347    0.258
        64 -13.2929    236.2067    228.0674   5.5747426828e+01  -8.1462031654e+00    0.6800956    0.5697639  -5.21  0.004694175    1.201    0.168
        65 -11.7392    236.9979    215.9889   5.3456975864e+01  -6.6819133745e+00    0.6028712    0.3650591  51.98  0.003028964    2.529    0.605
