#   1 NUMBER                 Running object number                                     
#   2 MAG_AUTO               Kron-like elliptical aperture magnitude                    [mag]
#   3 X_IMAGE                Object position along x                                    [pixel]
#   4 Y_IMAGE                Object position along y                                    [pixel]
#   5 X_WORLD                Barycenter position along world x axis                     [deg]
#   6 Y_WORLD                Barycenter position along world y axis                     [deg]
#   7 A_WORLD                Profile RMS along major axis (world units)                 [deg]
#   8 B_WORLD                Profile RMS along minor axis (world units)                 [deg]
#   9 THETA_WORLD            Position angle (CCW/world-x)                               [deg]
#  10 FWHM_WORLD             FWHM assuming a gaussian core                              [deg]
#  11 ELONGATION             A_IMAGE/B_IMAGE                                           
#  12 ELLIPTICITY            1 - B_IMAGE/A_IMAGE                                       
         1 -11.9083     50.6203     67.2643   1.0374940183e+02   5.6246107850e+01    0.3874758    0.1160628 -61.83  0.001265117    4.268    0.766
         2 -11.7696     92.0000     47.0114   8.4304704427e+01   5.4389836947e+01     0.390124    0.0717432 -40.74  0.001054372    4.962    0.798
         3 -12.5456    160.5681    239.5588   1.0839453480e+02   5.8215663356e+00    0.2410323    0.1606194  66.09  0.001401649    1.640    0.390
         4 -11.7336    147.3914    239.2236   1.1050933307e+02   7.9942871019e+00    0.1363979    0.1025524 -80.32 0.0009494944    1.673    0.402
         5 -11.2883     92.4834    237.9863   1.1922270430e+02   1.6473188500e+01    0.1482719   0.07462458  82.20 0.0008103415    2.564    0.610
         6 -10.9487    114.3860    234.1982   1.1536984020e+02   1.3868875033e+01    0.1434949    0.0946073 -85.14 0.0009017843    1.722    0.419
         7 -11.3717    145.1331    232.8959   1.1016326230e+02   9.2412818284e+00    0.1832939    0.1307805  64.66  0.001234637    1.316    0.240
         8 -11.2185     92.3316    230.6686   1.1862032191e+02   1.7640520205e+01    0.1173837   0.06394889  68.62 0.0007052074    1.723    0.420
         9 -11.2827     72.9065    227.6080   1.2148221326e+02   2.0782634226e+01    0.2162822    0.1141082  84.11  0.001332117    1.959    0.490
        10 -11.5677     84.3835    227.2039   1.1960622939e+02   1.9306517388e+01    0.1467922   0.08723213 -87.70 0.0009544734    1.714    0.417
        11 -11.1122    162.8704    224.8567   1.0618855300e+02   7.4376371989e+00    0.1817761    0.1427803  36.26  0.001180848    1.246    0.198
        12 -11.7585    149.1261    223.2741   1.0833899420e+02   9.9779655844e+00    0.2144099    0.1424403  84.12  0.001237026    2.100    0.524
        13 -10.8288    183.1845    223.3776   1.0252413644e+02   4.1661608730e+00    0.1772593   0.09204215  51.70 0.0009461302    1.717    0.418
        14 -10.8538    114.5055    223.5098   1.1426794074e+02   1.5511204502e+01    0.1165797   0.08856857  62.74 0.0005956874    1.026    0.025
        15 -11.0910    193.6718    221.3422   1.0044787742e+02   2.6210945057e+00    0.1159892   0.08754542  69.73 0.0007051228    1.742    0.426
        16 -11.1490    143.8916    216.3593   1.0837956236e+02   1.1898527414e+01    0.1928142     0.157543 -88.43  0.001314328    1.366    0.268
        17 -11.2137    199.3811    215.2045   9.8552489947e+01   2.4164105023e+00    0.1463861    0.1161306 -52.74 0.0007611435    1.682    0.405
        18 -11.3298    186.1193    214.8422   1.0078737560e+02   4.7996874287e+00    0.1875611    0.1493874  57.97 0.0008086535    1.280    0.218
        19 -11.0389    154.5983    214.8270   1.0630143871e+02   1.0311710918e+01    0.1517265    0.1127808 -73.24 0.0009470716    1.695    0.410
        20 -11.2170     76.3889    213.2060   1.1971548039e+02   2.2752130691e+01     0.154544   0.08841954 -87.00 0.0009552336    1.743    0.426
        21 -11.0521    218.3398    211.6707   9.4760469558e+01  -4.5978652340e-01    0.1137049    0.0930677  69.89 0.0006151123    1.738    0.425
        22 -11.8822    116.4037    209.4318   1.1238766910e+02   1.7523737230e+01    0.2929141    0.1942652 -78.16  0.001808987    1.683    0.406
        23 -11.3267    177.1935    210.2128   1.0166370693e+02   7.0304696905e+00    0.1710209    0.1355464  66.03  0.001081804    1.379    0.275
        24 -11.0246    148.3083    209.6596   1.0672475039e+02   1.2191717226e+01    0.1242725   0.08505856  72.80 0.0003752341    1.687    0.407
        25 -12.6948    186.2752    204.2039   9.9133545393e+01   6.2581073101e+00    0.2732863    0.2315659 -82.38  0.001390079    1.570    0.363
        26 -11.3161    198.6873    204.3512   9.6960330592e+01   3.9831128532e+00    0.1850162    0.1441671  72.19  0.001070054    1.730    0.422
        27 -13.3119    164.7038    201.6451   1.0262654533e+02   1.0554744794e+01    0.5023968    0.3079273 -52.53  0.002407884    1.963    0.491
        28 -12.4073    162.4964    193.6723   1.0181476915e+02   1.2224636172e+01    0.3851364    0.2707343 -70.03  0.001779603    1.878    0.467
        29 -12.1371    123.9285    197.0920   1.0950143688e+02   1.8426838833e+01    0.2853814    0.1689851 -73.06  0.001529064    2.060    0.514
        30 -11.7192     88.3802    197.5958   1.1610020758e+02   2.3867563162e+01    0.2226585   0.09646063 -80.13 0.0009574125    3.370    0.703
        31 -10.6301    203.3229    197.6538   9.5030629230e+01   4.0565421606e+00    0.1217745   0.09845722  77.44 0.0004928996    1.738    0.425
        32 -11.4862    112.4091    197.1977   1.1164982061e+02   2.0286104010e+01    0.1669363    0.1068859 -79.51 0.0009535715    1.748    0.428
        33 -10.7866    193.4313    196.2066   9.6553202923e+01   6.0936007214e+00    0.1611468    0.1234031 -56.28 0.0009460612    1.695    0.410
        34 -11.6745    186.4249    193.6640   9.7397735728e+01   7.7762249136e+00    0.2186674    0.1266187 -47.59  0.001125156    2.082    0.520
        35 -11.4801    206.0072    191.3019   9.3454910617e+01   4.4444477712e+00    0.1861368    0.1541326  37.67 0.0009300549    1.044    0.042
        36 -11.6547    172.2952    190.6680   9.9508499662e+01   1.0889596480e+01    0.2182194    0.1611283 -61.94  0.001225229    1.691    0.408
        37 -10.8805    210.4288    189.2033   9.2293646704e+01   3.9089837289e+00    0.1645181    0.1234499 -48.99 0.0009445066    1.696    0.410
        38 -11.6120    138.8908    188.3650   1.0546536923e+02   1.7393941934e+01    0.2846084    0.1667756 -64.50  0.001460482    2.055    0.513
        39 -10.9658    192.5965    187.8141   9.5269549193e+01   7.4892572479e+00      0.17084    0.1248019 -54.27 0.0009512923    1.732    0.423
        40 -11.3072    129.1068    187.6628   1.0723718456e+02   1.9228869421e+01    0.2214215    0.1667719 -79.14  0.001327287    1.441    0.306
        41 -11.3055     86.6755    188.3441   1.1540101027e+02   2.5838137281e+01    0.1288775   0.07591373  73.35 0.0007050555    1.737    0.424
        42 -10.9225    217.5173    187.5026   9.0730408579e+01   2.8143886166e+00    0.1302441     0.111404  29.56 0.0003156048    1.019    0.019
        43 -11.5345    165.3488    186.3608   1.0010810620e+02   1.2894457029e+01    0.2871458    0.2242423 -76.77  0.001416851    1.612    0.379
        44 -12.1638    120.1766    183.7086   1.0840205715e+02   2.1474173399e+01    0.4811099    0.1820484 -63.00  0.001923386    3.370    0.703
        45 -11.8860     94.9340    184.6255   1.1339915694e+02   2.5329363392e+01    0.4192291    0.1635117 -66.23  0.001884831    2.788    0.641
        46 -11.6592    148.9894    197.7904   1.0494471144e+02   1.3989956797e+01    0.2816201    0.1717121 -73.86  0.001407029    2.425    0.588
        47 -11.5064    204.2001    184.1158   9.2493168928e+01   5.8187922795e+00    0.2260765     0.188574 -63.82  0.001100898    1.613    0.380
        48 -10.8989    183.3723    184.1972   9.6345491658e+01   9.8131381730e+00    0.1755949    0.1245359 -55.82 0.0009499074    1.752    0.429
        49 -11.9717    174.4006    183.3298   9.7883535263e+01   1.1674800565e+01    0.2829018    0.2410034 -82.70  0.001284654    1.427    0.299
        50 -12.2552    147.2387    179.2104   1.0243220043e+02   1.7510790670e+01    0.3388452    0.1927357 -54.68  0.001693144    1.970    0.492
        51 -11.3015    192.3391    177.4329   9.3452772128e+01   9.1353983328e+00    0.2461593     0.170624 -43.37  0.001327846    1.636    0.389
        52 -11.5846    183.0270    175.5703   9.4868635347e+01   1.1266030187e+01    0.2445795    0.1957255 -65.52   0.00137591    1.569    0.363
        53 -12.0827     77.5997    175.9028   1.1571571202e+02   2.9535510574e+01     0.348469    0.1387331  59.61  0.001501655    2.928    0.658
        54 -11.4855    177.2172    170.6745   9.5083420173e+01   1.3231070459e+01    0.3395043    0.2199181 -60.91  0.001645451    2.055    0.513
        55 -11.0764    134.4883    170.5222   1.0355921703e+02   2.1452199976e+01    0.2328299    0.1247231 -65.69   0.00103925    2.364    0.577
        56 -10.6003    198.6566    170.3149   9.0924099291e+01   9.0020353767e+00    0.1337923    0.1077154  81.81 0.0007047781    1.711    0.415
        57 -10.8583    205.9644    169.0080   8.9309201747e+01   7.7420724323e+00    0.2037294    0.1710197 -87.96  0.001128308    1.671    0.402
        58 -11.1076    167.8756    168.5252   9.6515843830e+01   1.5456020770e+01    0.2216391    0.1666681 -53.27  0.001205371    1.485    0.327
        59 -11.6022    138.0388    178.4019   1.0411200737e+02   1.9338777142e+01     0.248675     0.190828 -70.04  0.001450141    1.420    0.296
        60 -11.9314    120.9423    167.8828   1.0589809209e+02   2.4367200587e+01    0.3635879    0.1783887 -63.01  0.001643797    2.303    0.566
        61 -10.7445    185.4743    166.9605   9.2782247965e+01   1.2200273514e+01    0.1963854     0.137771 -41.62 0.0007733507    1.568    0.362
        62 -11.6401    192.2576    164.5497   9.1008457102e+01   1.1222956787e+01    0.4083472    0.1771074 -42.64  0.001680488    2.529    0.605
        63 -12.2482    139.1332    163.7366   1.0146621542e+02   2.1891827284e+01    0.5159931    0.2492799 -62.65  0.002112017    2.734    0.634
        64 -11.6292    213.0209    163.3556   8.6878909880e+01   7.1891226297e+00    0.2363761    0.2009837 -68.06  0.001327825    1.587    0.370
        65 -12.2246    205.1664    162.0082   8.8057613719e+01   8.9958959586e+00    0.3162298    0.2022661 -35.41  0.001576638    1.678    0.404
        66 -10.9681    159.4780    163.0135   9.7175889751e+01   1.8107168319e+01    0.2050055    0.1376154 -48.47  0.001039972    1.615    0.381
        67 -11.7044    177.5294    159.2812   9.2836836692e+01   1.5134685348e+01    0.3916789    0.1385161 -44.36  0.001425908    3.071    0.674
        68 -10.9464    151.4922    160.0053   9.8247847325e+01   2.0237433107e+01    0.2059085    0.1368965 -51.95  0.001036434    1.612    0.380
        69 -11.1747     92.3783    159.5852   1.1059297842e+02   3.0702044913e+01    0.2488983    0.1091925 -74.94 0.0009571883    3.282    0.695
        70 -12.1708    196.4809    156.7440   8.8622541435e+01   1.1641952417e+01    0.3833905    0.2655859 -45.26  0.001528123    1.599    0.375
        71 -11.3738    105.1054    157.0229   1.0750385347e+02   2.9223419939e+01    0.2928726    0.1670277 -76.10   0.00137754    2.112    0.527
        72 -11.2838    167.5583    155.8291   9.4156520421e+01   1.7797209975e+01    0.3435974    0.1381659 -47.08  0.001316242    2.706    0.630
        73 -10.8521    218.2915    156.6506   8.4528985290e+01   7.1415799400e+00    0.1319861    0.1115892 -75.97 0.0006008765    1.670    0.401
        74 -10.6192    157.4909    155.4930   9.6154864972e+01   1.9899493354e+01    0.1409244    0.1293524  64.35 4.351605e-05    1.040    0.039
        75 -11.5379    119.0781    154.2065   1.0404349312e+02   2.7429039051e+01    0.3154346    0.1736111 -67.40  0.001430982    2.123    0.529
        76 -11.7664    204.5171    154.0350   8.6528114359e+01   1.0407968178e+01    0.2092249    0.1391836 -35.43  0.001032472    1.590    0.371
        77 -11.5234     81.1466    153.7244   1.1214642746e+02   3.3577672815e+01    0.2554434    0.1356054 -78.84  0.001225216    2.114    0.527
        78 -11.3442    132.8685    151.8025   1.0064962956e+02   2.5409129739e+01    0.3450942    0.1809023 -67.81  0.001381042    2.712    0.631
        79 -11.0094     67.3343    153.0129   1.1500476638e+02   3.5603746392e+01    0.2048709    0.0881631 -86.82 0.0007049974    4.334    0.769
        80 -12.0511    190.4003    149.1645   8.8212216501e+01   1.4206634299e+01    0.4518006    0.2797618 -45.73  0.002119029    1.762    0.433
        81 -10.7919    182.0000    149.9884   9.0050697760e+01   1.5844406444e+01    0.2278133   0.08245061 -41.22 0.0008023742    2.942    0.660
        82 -12.1901    200.1430    147.5325   8.5969872138e+01   1.2406384655e+01    0.4039144    0.2129289 -37.01  0.001743349    1.997    0.499
        83 -10.8861     98.0000    148.9925   1.0776343456e+02   3.2042436682e+01    0.2165871   0.07007068 -58.00  0.000808684    2.986    0.665
        84 -11.2991    234.3089    147.4354   7.9698066195e+01   5.2480606134e+00    0.2457345    0.1220758 -32.75  0.001077028    2.021    0.505
        85 -12.1146    148.2752    142.6646   9.5546917814e+01   2.4233695741e+01    0.5826458    0.2501824 -53.28  0.002218978    2.615    0.618
        86 -12.0148    106.2675    143.4681   1.0499477104e+02   3.1864431601e+01    0.4593515    0.2298394 -70.80  0.001888087    2.605    0.616
        87 -11.6429     54.9145    144.0510   1.1653672887e+02   3.9040236798e+01    0.3356688    0.1408833 -79.94  0.001444316    2.809    0.644
        88 -11.0145    165.4988    142.9722   9.1945062995e+01   2.0618802167e+01    0.2212036    0.1436954 -44.84     0.001041    1.615    0.381
        89 -11.8917    124.3379    141.5732   1.0059622059e+02   2.9085069399e+01    0.4474624    0.2300241 -70.06  0.001692039    2.986    0.665
        90 -11.6297     87.5947    141.9800   1.0895306647e+02   3.5138778265e+01    0.3914632    0.1064198 -56.42  0.001413722    3.314    0.698
        91 -11.0635    182.0780    140.6960   8.8036185162e+01   1.7493632268e+01    0.2565755    0.2020761 -52.74  0.001310908    1.397    0.284
        92 -11.0085    219.8081    137.3708   8.0025909067e+01   9.8397461601e+00    0.2732887    0.1066087 -37.29  0.001014383    2.575    0.612
        93 -11.0348    171.9871    137.1986   8.9335861299e+01   2.0323709428e+01    0.2159635    0.1627671 -65.00  0.001044732    1.604    0.376
        94 -11.2220    179.4795    132.5279   8.6730473853e+01   1.9556591851e+01    0.3087298    0.1466373 -40.63  0.001213613    2.178    0.541
        95 -11.0931    112.4793    132.4803   1.0153722530e+02   3.3139838302e+01    0.2568122    0.1277588 -64.94  0.001038595    2.394    0.582
        96 -12.6088     82.8464    129.2924   1.0793105487e+02   3.8594896414e+01    0.6526983    0.1730689 -61.09  0.002162022    3.812    0.738
        97 -11.3644    142.6649    129.7381   9.4042805961e+01   2.7972644045e+01    0.4063735    0.1338286 -45.45   0.00135817    3.099    0.677
        98 -11.9626    131.5166    129.1402   9.6447668649e+01   3.0317149355e+01    0.5200413    0.2218985 -54.99  0.001959479    2.548    0.608
        99 -11.0802    204.7907    129.8175   8.1075258864e+01   1.4390840903e+01    0.2025407    0.1805228 -74.56  0.001075946    1.354    0.262
       100 -11.1723    192.8800    129.0888   8.3222394446e+01   1.7191220478e+01    0.2729207    0.2071865 -27.38  0.001268957    1.399    0.285
       101 -11.3049    197.8413    135.4545   8.3724036585e+01   1.4967578402e+01    0.5507928    0.2050927 -36.54   0.00194218    2.822    0.646
       102 -11.3340    212.0000    128.9549   7.9512223006e+01   1.2925380156e+01    0.2385585   0.08278465 -35.52 0.0007986813    2.916    0.657
       103 -11.1761    168.4834    128.4841   8.8099845237e+01   2.2741248737e+01    0.3127041    0.1468696 -42.57  0.001215609    2.185    0.542
       104 -11.5303    152.5325    127.3085   9.1295611585e+01   2.6414743431e+01    0.4475014    0.1431761 -46.54  0.001449938    3.202    0.688
       105 -12.7163     98.0847    124.9655   1.0347841016e+02   3.7200644773e+01    0.7587892    0.2324996 -58.64  0.002556277    3.442    0.710
       106 -11.3811     72.4126    128.2084   1.1023371679e+02   4.0288872234e+01    0.1907786    0.1097265 -74.34 0.0009578539    1.731    0.422
       107 -11.4382    116.9126    123.7535   9.8714366913e+01   3.4214870837e+01    0.4350127    0.1761314 -58.53  0.001571222    2.834    0.647
       108 -11.5316    179.9525    122.7488   8.4334188088e+01   2.1265763076e+01    0.4231921    0.2232625 -27.68  0.001601137    2.442    0.591
       109 -12.0957     58.4411    122.6793   1.1270475872e+02   4.3270680934e+01    0.3638594    0.1152561 -69.39  0.001303133    3.561    0.719
       110 -10.9428    188.4898    123.0064   8.2651045130e+01   1.9277414435e+01     0.233194    0.1480519 -38.54  0.001025463    1.604    0.377
       111 -12.1344     42.4561    120.2643   1.1621411207e+02   4.5561327515e+01    0.5689862    0.1986353 -79.53  0.001871432    4.848    0.794
       112 -11.2474    158.3885    119.8035   8.8244559305e+01   2.6648174801e+01    0.3555257    0.1889614 -44.82   0.00146159    1.903    0.475
       113 -10.9752    172.4726    119.9929   8.5236529033e+01   2.3476903770e+01    0.2358752    0.1488406 -40.44  0.001039397    1.614    0.380
       114 -12.1082    141.1400    116.2537   9.1306142496e+01   3.1054331178e+01    0.5817205    0.2214095 -47.29  0.002057996    2.626    0.619
       115 -11.4014     70.4968    119.0077   1.0913247970e+02   4.2572926719e+01    0.1913356    0.1028678 -84.56 0.0008105784    2.635    0.620
       116 -11.4417    130.1183    117.2210   9.4122411508e+01   3.3090870482e+01    0.3556972    0.1861487 -57.98  0.001436833    2.151    0.535
       117 -11.1279    192.8743    114.1347   7.9586910574e+01   1.9865738660e+01    0.2878957    0.1749678 -43.77  0.001237911    1.696    0.410
       118 -10.9752    185.7044    114.4895   8.1119672882e+01   2.1472049770e+01    0.2795371    0.1369035 -37.80  0.001076432    2.067    0.516
       119 -12.2988    108.5107    111.3827   9.8055859746e+01   3.8394042483e+01    0.7253417    0.2564015 -52.92  0.002613736    2.733    0.634
       120 -12.4094     91.9670    109.4871   1.0183444589e+02   4.1575757457e+01     0.751491     0.199068 -55.37  0.002430752    3.581    0.721
       121 -12.2661     78.1571    110.4965   1.0559870272e+02   4.3414155304e+01    0.6115743     0.231503 -67.62  0.002070998    3.735    0.732
       122 -11.9765    121.7649    110.7970   9.4635208662e+01   3.6077670411e+01    0.3693949    0.1642088 -43.66  0.001429394    2.284    0.562
       123 -11.2359    174.5549    110.2515   8.2366408069e+01   2.4851182449e+01    0.3016078      0.14574 -43.11  0.001148669    2.090    0.522
       124 -11.4631    159.0000    110.4850   8.5813143343e+01   2.8354868115e+01    0.3356341   0.08599295 -41.67 0.0009324201    3.916    0.745
       125 -11.3071     13.5628    109.2920   1.2179931083e+02   5.0437861523e+01    0.2323019    0.0883413 -76.76  0.001151797    2.195    0.544
       126 -10.9922    133.0000    108.9593   9.1463193372e+01   3.4243581578e+01    0.2480904   0.08214668 -46.04 0.0008042353    2.955    0.662
       127 -10.7609    182.5282    108.0080   8.0121609235e+01   2.3407651751e+01    0.2386625    0.1504638 -38.05  0.001032233    1.593    0.372
       128 -11.0302    189.2978    106.5007   7.8353017688e+01   2.2082432330e+01    0.2813139    0.1378091 -36.71   0.00107358    2.048    0.512
       129 -11.5456    139.4092    102.7500   8.8359618548e+01   3.4193849609e+01    0.4467216    0.1812399 -42.04  0.001598561    2.462    0.594
       130 -11.9413    149.6989    100.4241   8.5325370312e+01   3.2427929631e+01    0.5767217    0.1643813 -43.98  0.001714207    3.462    0.711
       131 -11.1028    166.6012    102.2050   8.1986819403e+01   2.8231660114e+01    0.2263271    0.1472638 -27.84 0.0009602424    1.744    0.427
       132 -11.9274    128.3064    100.5026   9.0478781146e+01   3.6960013000e+01    0.3903518    0.2064862 -45.87  0.001634281    1.827    0.453
       133 -11.9986     21.4009    100.7726   1.1873318017e+02   5.1687465121e+01    0.3871174    0.1660457  86.23  0.001538898    3.989    0.749
       134 -10.7735    175.5067    100.5086   7.9618836366e+01   2.6460917081e+01    0.1532944     0.149975  11.90 0.0008104548    1.026    0.026
       135 -12.3024     81.5252     97.7668   1.0200723226e+02   4.5739299944e+01    0.4277532    0.1149929 -53.24  0.001461226    3.208    0.688
       136 -12.2471    244.4921     98.0005   6.6333730540e+01   1.0528140705e+01    0.2123062    0.1240938  -3.66 0.0008105891    2.603    0.616
       137 -13.0244    107.5193     95.9450   9.4613513969e+01   4.1897308087e+01    0.5946707    0.2437453 -52.59  0.002256961    2.399    0.583
       138 -12.0294     94.8819     94.4133   9.7596918815e+01   4.4398424844e+01    0.5345741    0.1692117 -46.07  0.001852264    3.008    0.668
       139 -12.6868     62.7475     93.4718   1.0623605479e+02   4.9207387598e+01    0.6232139    0.1649566 -61.85   0.00198979    4.123    0.757
       140 -11.7642    138.4861     89.9981   8.5155174015e+01   3.6974467756e+01    0.4160624    0.1457863 -41.85  0.001376713    2.784    0.641
       141 -12.4062    124.5394     87.7131   8.7999118018e+01   4.0363741136e+01    0.6658926    0.2827998 -37.33  0.002394398    2.571    0.611
       142 -12.6980     85.9122     84.3834   9.7548389324e+01   4.7981722479e+01    0.5368088      0.17045 -51.39  0.001931688    2.820    0.645
       143 -12.6316    104.1225     80.6897   9.1449152939e+01   4.5717946938e+01     0.591377    0.1994852 -45.87  0.002082179    2.736    0.635
       144 -11.8378    140.5810     81.6790   8.2266393351e+01   3.8153829237e+01    0.3042696    0.1460074 -35.82  0.001145889    2.149    0.535
       145 -12.5951     44.7151    101.5096   1.1270951125e+02   4.9453158464e+01    0.4505921    0.2282161  83.79  0.001827034    3.611    0.723
       146 -11.6666     34.3167     87.2781   1.1304727268e+02   5.3552676577e+01    0.5235671    0.1047675 -62.06   0.00188448    3.587    0.721
       147 -11.7401    239.4819     75.5100   6.1346667658e+01   1.5073817912e+01    0.1462326    0.1383527 -19.87 0.0001489865    1.025    0.025
       148 -11.9702    127.7703     72.6340   8.2753965904e+01   4.2685506018e+01    0.5400265    0.1922037 -36.25  0.001770011    2.978    0.664
       149 -12.1785    248.9560     73.0479   5.9354442362e+01   1.3208710887e+01    0.2358134    0.1714219  18.46  0.001004715    1.717    0.418
       150 -12.5154     62.5755     69.8592   1.0066277803e+02   5.4310455901e+01    0.6636508   0.08280428 -51.43  0.001776326    5.613    0.822
       151 -11.9853     81.8130     69.3811   9.4634229905e+01   5.1750473572e+01    0.6236382    0.1633551 -47.78  0.002083833    3.327    0.699
       152 -11.3404    239.3097     71.3381   6.0280046271e+01   1.5732986780e+01    0.1516046    0.1117726  17.06 0.0004407189    1.685    0.407
       153 -11.4750     47.3290     83.0034   1.0843126795e+02   5.3235896066e+01    0.2039878   0.09474772 -79.78 0.0007050358    4.319    0.768
       154 -12.4195    154.8768    241.1208   1.0950434021e+02   6.5362959715e+00     0.177313    0.1274157  60.91 0.0008823125    1.272    0.214
       155 -11.0449    203.5149     65.4917   6.4340172873e+01   2.5545796867e+01     0.152162    0.1491875   3.59 0.0004601439    1.029    0.028
       156 -10.7452    158.4944     81.5024   7.8020157632e+01   3.4064649581e+01    0.1535016    0.1501003  -4.16 -1.567038e-05    1.024    0.024
       157 -11.7213     94.5341     68.7954   9.0693430022e+01   4.9819257642e+01    0.4809873     0.126828 -49.37  0.001456178    3.897    0.743
       158 -11.8074     73.0861     55.8537   9.3237549588e+01   5.5743709520e+01     0.666135   0.09475245 -44.77   0.00169994    5.998    0.833
       159 -11.1519    100.3288     55.4178   8.4726069179e+01   5.1376213165e+01    0.3796603    0.1197447 -36.21  0.001228319    3.377    0.704
       160 -11.3540    147.0000     65.9513   7.5934046111e+01   3.9618041734e+01    0.2586768   0.08549502 -36.16 0.0008066983    2.972    0.664
