#   1 NUMBER                 Running object number                                     
#   2 MAG_AUTO               Kron-like elliptical aperture magnitude                    [mag]
#   3 X_IMAGE                Object position along x                                    [pixel]
#   4 Y_IMAGE                Object position along y                                    [pixel]
#   5 X_WORLD                Barycenter position along world x axis                     [deg]
#   6 Y_WORLD                Barycenter position along world y axis                     [deg]
#   7 A_WORLD                Profile RMS along major axis (world units)                 [deg]
#   8 B_WORLD                Profile RMS along minor axis (world units)                 [deg]
#   9 THETA_WORLD            Position angle (CCW/world-x)                               [deg]
#  10 FWHM_WORLD             FWHM assuming a gaussian core                              [deg]
#  11 ELONGATION             A_IMAGE/B_IMAGE                                           
#  12 ELLIPTICITY            1 - B_IMAGE/A_IMAGE                                       
         1 -13.3376     11.3414     24.2496   9.3568484622e+01   7.0252600374e+01    0.6981695    0.2932978 -25.49  0.003335005    2.591    0.614
         2 -13.9742    246.3858      6.7399   3.1932056471e+01   2.3755564147e+01     1.193811    0.5956619 -53.80  0.006693937    1.659    0.397
         3 -12.5251      8.2471      2.0659   8.4884956660e+01   7.3951954015e+01    0.8290911    0.1777963  29.44  0.003387038    4.611    0.783
         4 -11.9822     12.9016     13.1963   8.7823576527e+01   7.1915195610e+01    0.2949339    0.1949881  -9.42  0.001339156    1.292    0.226
         5 -13.1323      5.6661     11.5105   9.1187176645e+01   7.2777985473e+01     0.688845    0.3673636 -22.19  0.004006836    1.637    0.389
         6 -12.5136     15.0363      7.2906   8.3678125349e+01   7.2578155309e+01    0.4096247    0.2335894   0.31  0.002206382    1.764    0.433
         7 -13.2335     24.1790      4.2388   7.7037404403e+01   7.1974629028e+01    0.5571669    0.2949382  21.33  0.003264757    1.805    0.446
         8 -12.4683     19.3266     14.4324   8.4877138391e+01   7.1114455075e+01    0.3327871    0.1876148 -13.53  0.001921967    1.762    0.432
         9 -11.2862    182.7605      3.2648   3.6371302366e+01   3.8544974094e+01    0.1811311    0.1111102  -5.50 0.0008986563    2.414    0.586
        10 -12.2696     40.6441      2.6790   6.8156382860e+01   6.9907075653e+01     0.354108    0.1762103  27.81  0.001913628    1.889    0.471
        11 -11.1682    119.1760      3.3805   4.5227493905e+01   5.4029112294e+01    0.1899254    0.1147314  76.58 0.0009527106    1.749    0.428
        12 -10.8279    169.3515      2.3135   3.7562603942e+01   4.1896730619e+01    0.1358153   0.08567337  45.30 8.021143e-05    1.728    0.421
        13 -11.8441     97.4195    244.5309   1.0977050824e+02   1.0913252631e+01     0.276714    0.1408283  52.91  0.001436265    1.775    0.437
        14 -12.9515    241.6053    237.9065   8.0879914914e+01  -9.8103354160e+00    0.6101725    0.2912969   0.15  0.002502452    3.783    0.736
        15 -12.3560    249.0963    225.4209   7.7439731570e+01  -9.2144322493e+00    0.3830424    0.1606676 -33.01  0.001945582    2.251    0.556
        16 -12.0969    248.8892    248.0218   8.1293594477e+01  -1.1960031952e+01    0.5718045    0.2891026 -25.74  0.003408918    1.886    0.470
        17 -12.8207    242.6841    246.2461   8.2070943925e+01  -1.0968654314e+01    0.6016285    0.3167135 -12.89  0.003357606    2.065    0.516
        18 -12.2690    247.5307    239.3511   8.0095639578e+01  -1.0758524921e+01    0.4082266     0.235727  -7.91  0.002122637    1.719    0.418
        19 -12.0276    249.9790    232.7425   7.8556828049e+01  -1.0259878437e+01    0.3393695    0.1826261 -23.91  0.001747969    1.718    0.418
        20 -12.9312    213.1051    247.7960   8.7606440297e+01  -7.1734314554e+00    0.4776775    0.2566526  15.54  0.002507016    2.034    0.508
        21 -11.1230     50.6317    250.1618   1.1916630400e+02   1.6202611377e+01    0.3294233    0.1161364  42.13  0.001666492    2.194    0.544
        22 -11.5355     36.7013    248.8458   1.2158754922e+02   1.8108229998e+01     0.377297    0.1582237  55.76  0.002091378    1.909    0.476
        23 -11.5434     20.1062    249.0455   1.2449863524e+02   1.9912033763e+01    0.3144005    0.1525367  57.03  0.001974394    1.561    0.359
        24 -11.3171     11.9215    249.0200   1.2588713493e+02   2.0768288415e+01     0.329343    0.1427691  53.52  0.002004596    1.707    0.414
        25 -10.6672      3.0852    250.5210   1.2741772471e+02   2.1372720629e+01    0.2391839   0.08544821  35.87  0.001333079    2.616    0.618
        26 -11.4674      6.4633    236.2264   1.2622665512e+02   2.3716622482e+01    0.2979007      0.14822  79.95  0.001634745    1.666    0.400
        27 -12.6743    226.2460    240.9339   8.4110346145e+01  -8.1196587058e+00    0.3041094    0.1791762  -6.99  0.001702451    1.877    0.467
        28 -11.8808     15.7277    240.2116   1.2480579359e+02   2.2027435229e+01    0.4794628    0.1746539  50.71  0.002647181    2.059    0.514
        29 -10.9475     14.1249    231.9797   1.2466130890e+02   2.3783214336e+01    0.3082915    0.1486345  60.92  0.001849387    1.659    0.397
        30 -12.9984    234.4540    244.3568   8.3203250495e+01  -9.6654408202e+00    0.4416359    0.2645904  -5.25  0.002412255    1.705    0.413
        31 -11.7088     29.4162    240.5697   1.2239093006e+02   2.0494032573e+01    0.3588437    0.1621404  63.82  0.001997923    1.926    0.481
        32 -11.5219     26.1748    229.1647   1.2228872935e+02   2.3081492481e+01    0.3318705    0.1369046  89.00  0.001640668    2.507    0.601
        33 -11.8410    236.8788    228.4352   8.0099202221e+01  -7.9528522550e+00    0.2520199    0.1383817 -15.60  0.001344439    1.950    0.487
        34 -11.5932      4.4851    227.8027   1.2617629585e+02   2.5547136164e+01    0.3390169    0.1452682  63.36  0.001936931    1.904    0.475
        35 -10.8028     11.1180    225.6070   1.2486782164e+02   2.5346006799e+01     0.274348    0.1251117  59.07  0.001588323    1.775    0.437
        36 -10.7353    244.0000    224.9534   7.8239674130e+01  -8.4687563249e+00    0.1845262   0.06096935 -35.35 0.0008002967    2.928    0.658
        37 -11.3732      1.9845    220.8689   1.2629153524e+02   2.7163170227e+01    0.2731087    0.1247599  86.52  0.001569093    1.850    0.460
        38 -11.6251     12.1550    216.6971   1.2418181617e+02   2.7057151911e+01    0.3292612     0.175755  62.34  0.002005457    1.537    0.350
        39 -11.8397    248.3941    214.8815   7.5682479953e+01  -7.7223238241e+00    0.3171335    0.1626987 -24.60  0.001687001    1.838    0.456
        40 -11.2734      2.3680    212.5174   1.2580168822e+02   2.8835168349e+01    0.2568703    0.1377198  71.49  0.001585613    1.509    0.337
        41 -12.0897     12.5556    204.9248   1.2339658784e+02   2.9496616677e+01    0.3606737    0.1209453  54.08  0.001693054    2.614    0.617
        42 -11.5888      3.5192    197.0058   1.2472045837e+02   3.2022416117e+01    0.3142049    0.1413799  71.76  0.001656435    2.029    0.507
        43 -11.6383      4.5356    189.3281   1.2404300831e+02   3.3617911044e+01     0.283551    0.1318684  68.77  0.001496432    1.987    0.497
        44 -10.7440      1.6301    177.8043   1.2391069206e+02   3.6435612986e+01     0.179024   0.08735598  88.77 0.0009555813    1.739    0.425
        45 -11.0425    248.4843    129.5078   5.8443970978e+01   5.4997844206e+00    0.2542775    0.1057715 -45.09  0.001034911    2.299    0.565
        46 -12.0947    248.8096    118.7274   5.6033136779e+01   7.2300658144e+00    0.2943362    0.1630919 -44.59  0.001420622    1.625    0.385
        47 -12.6659    246.3092    101.7164   5.2608776888e+01   1.0508862672e+01    0.6739222    0.3680961 -75.25  0.002204287    4.979    0.799
        48 -12.3274    249.2243     97.5290   5.1281563412e+01   1.0623799624e+01    0.3304678    0.1644505 -41.88  0.001070462    1.697    0.411
        49 -12.4557    242.6719     93.2058   5.1186828280e+01   1.2614248769e+01    0.2196331    0.2099419  83.03  0.001298082    1.174    0.148
        50 -12.9638    248.6692     86.3235   4.8860399213e+01   1.2519544142e+01     0.472154     0.258554 -54.67  0.002243158    1.880    0.468
        51 -13.2120    249.0658     74.8634   4.6267113164e+01   1.4216676795e+01    0.4683545    0.3743564  18.47  0.002669484    1.820    0.451
        52 -11.4501      2.8740     51.1428   1.0661524662e+02   6.5657403659e+01    0.3100462    0.1078947 -49.74  0.001521971    1.983    0.496
        53 -11.6596     17.5373     31.7368   9.3317019445e+01   6.8443423243e+01    0.2990767    0.1329457 -18.64  0.001298298    3.110    0.678
        54 -12.4628    225.6246    248.0335   8.5368872424e+01  -8.9370342977e+00    0.2994184     0.219918   8.41   0.00204356    1.091    0.083
        55 -11.9302      1.5848     25.4491   9.9312401840e+01   7.0704695421e+01    0.3430938    0.1041478 -53.61  0.001596309    2.639    0.621
        56 -10.9872     21.2963     23.2067   8.7874133505e+01   6.9553128844e+01    0.2781079    0.1415433   6.41  0.001420441    2.376    0.579
        57 -11.8103     65.3125    249.1984   1.1638395924e+02   1.4515699906e+01    0.3274453    0.1427168  53.62  0.001711731    1.936    0.483
        58 -10.9850     33.7450     16.5549   7.8518007099e+01   6.9157832759e+01    0.2207941      0.10367  27.96  0.001140502    2.112    0.526
        59 -10.3890     27.1066    248.6871   1.2326890727e+02   1.9220531204e+01    0.1885174   0.09674509  56.01  0.001181424    1.487    0.327
        60 -12.6073    142.3821    247.6336   1.0120727562e+02   3.5387526788e+00    0.4015825    0.1676758  33.20  0.001813793    2.222    0.550
        61 -11.1256    168.9898    250.0000   9.6301953322e+01  -9.4645268933e-01    0.2116274   0.05854877  37.85 0.0008058241    2.966    0.663
        62 -11.5147     44.7398    245.0413   1.1988906883e+02   1.7872454483e+01    0.2622035    0.1409996  57.81  0.001584486    1.499    0.333
        63 -11.8694      3.2343    242.9807   1.2707945610e+02   2.2748370738e+01    0.3725103    0.1753507  65.79  0.002300262    1.636    0.389
        64 -11.6620    115.8331    244.3291   1.0608945788e+02   8.1968294347e+00    0.2682694   0.08343554  43.91  0.001087327    2.620    0.618
        65 -12.0012     25.7226     16.7493   8.2622602698e+01   7.0089199566e+01    0.2804211    0.1584379 -10.15  0.001546599    1.893    0.472
        66 -11.9548     56.6694    241.8253   1.1743055806e+02   1.7008859576e+01    0.4051678    0.1576682  54.75  0.001965904    2.272    0.560
        67 -12.0155     84.2084    243.7710   1.1229147139e+02   1.2949689013e+01    0.3150826    0.1094875  42.63  0.001431753    2.266    0.559
        68 -11.4251     72.7215    240.1492   1.1420103128e+02   1.5218958303e+01    0.2580857    0.1017063  48.87   0.00123438    2.097    0.523
