#   1 NUMBER                 Running object number                                     
#   2 MAG_AUTO               Kron-like elliptical aperture magnitude                    [mag]
#   3 X_IMAGE                Object position along x                                    [pixel]
#   4 Y_IMAGE                Object position along y                                    [pixel]
#   5 X_WORLD                Barycenter position along world x axis                     [deg]
#   6 Y_WORLD                Barycenter position along world y axis                     [deg]
#   7 A_WORLD                Profile RMS along major axis (world units)                 [deg]
#   8 B_WORLD                Profile RMS along minor axis (world units)                 [deg]
#   9 THETA_WORLD            Position angle (CCW/world-x)                               [deg]
#  10 FWHM_WORLD             FWHM assuming a gaussian core                              [deg]
#  11 ELONGATION             A_IMAGE/B_IMAGE                                           
#  12 ELLIPTICITY            1 - B_IMAGE/A_IMAGE                                       
         1 -15.6255    210.6543    116.3556   3.1807253365e+01   1.8491238792e+01     3.943246    0.8795083 -46.14   0.01177179    5.039    0.802
         2 -15.6193    193.4794    100.0103   3.0733727323e+01   2.4104493853e+01     2.951975     1.406889 -42.59   0.01389035    1.803    0.445
         3 -15.9815    196.9566     91.1272   2.8205851807e+01   2.4880078230e+01     2.234778     1.431516  71.43   0.01193766    2.018    0.504
         4 -16.7324    221.5283    122.7434   3.1612491883e+01   1.5772993554e+01      2.83455    0.9520934 -38.50   0.01229401    2.390    0.582
         5 -18.4287    244.2915    119.8738   2.8189619209e+01   1.2895949669e+01     8.425344     2.782156 -41.17   0.03968497    2.308    0.567
         6 -17.7611    242.0757     89.8682   2.2616157192e+01   1.7444036694e+01     2.966522     2.163092 -68.41   0.02027234    1.571    0.364
         7  -8.4814    101.4314     10.4854   1.9492926975e+01   5.7123177030e+01    0.2686911    0.2085988 -75.31  0.000954077    1.340    0.254
         8  -8.6379    142.5488      3.4403   1.1730097063e+01   4.7815324149e+01    0.2050614    0.1756051 -71.24 0.0002178848    1.064    0.060
         9  -7.8416    180.8332    217.3877   5.6105805798e+01   5.8864523905e+00    0.1843741      0.14901 -33.15 0.0003753294    1.331    0.249
        10  -9.8684    232.3748    216.1864   4.6901611085e+01   4.8883137882e-01    0.2162185    0.1785846  24.01 0.0002855877    1.643    0.391
        11  -9.8923    230.4309    220.9089   4.7951181837e+01   4.4999259074e-02    0.3682501    0.1797221  27.55   0.00121186    2.131    0.531
        12 -11.0602    225.9344    216.6371   4.7995323878e+01   1.0664291175e+00    0.5450829    0.2403053  40.58  0.002735405    3.577    0.720
        13 -11.8061    248.7697    219.1667   4.4890352567e+01  -1.4391095581e+00    0.3980458    0.2601155 -31.38 0.0002597239    1.366    0.268
        14 -11.9242    235.1269    227.2188   4.8190305749e+01  -1.2262517117e+00    0.8662413    0.4333504 -17.82  0.001948024    1.797    0.444
        15 -10.0609    239.9658    223.9752   4.6946929599e+01  -1.2534163454e+00    0.2718793    0.1806504  11.36  0.001391604    1.404    0.288
        16  -9.8462    239.5935    213.4669   4.5359509949e+01   1.5167319832e-01    0.3881604    0.3149722 -59.40  0.001958786    2.664    0.625
        17 -12.1814    246.4729    205.3215   4.3036128861e+01   5.6756896273e-01    0.6203745    0.3844298 -39.47  0.001227284    1.641    0.391
        18 -11.8103    244.0072    230.7980   4.7374802612e+01  -2.4751437921e+00    0.5843537    0.3588328  -0.82 0.0003904995    1.365    0.268
        19 -13.7296    246.9477    240.9642   4.8441965986e+01  -3.9586972936e+00     4.199537     0.958284  24.67   0.01815141    4.976    0.799
        20 -10.3903    250.5835    236.0852   4.7186292424e+01  -3.6775805089e+00    0.2287969    0.1190553 -33.98  0.000348105    1.641    0.390
        21  -8.9788    175.8140    250.0741   6.1892569640e+01   1.4928776290e+00    0.3182245    0.1105371  29.29  0.001542695    2.510    0.602
        22 -10.9443    162.5360    212.2615   5.8966066484e+01   8.9661267675e+00    0.2598278    0.2448746  19.57 0.0004065232    1.348    0.258
        23  -7.1299    182.7209    213.6922   5.5150355105e+01   6.2541107785e+00    0.1257359   0.07923174 -11.64 0.0003343962    1.557    0.358
        24 -15.3970    219.3282    172.7028   4.1568233058e+01   8.2573632040e+00     2.004259     1.698385  33.64   0.01405307    1.510    0.338
        25 -16.0885    245.8157    158.9045   3.5222073131e+01   7.0727306907e+00     1.751112    0.8058032 -34.22  0.009886475    1.663    0.399
        26 -10.9275    181.9437    239.8531   5.9289970411e+01   2.3288647923e+00     0.616617     0.240725  26.14  0.002522621    2.301    0.565
        27 -10.3659    188.0632    237.1779   5.7750331586e+01   2.0718489772e+00    0.4779048    0.1727937 -40.00  0.002342232    2.616    0.618
        28  -7.5383    135.4718    236.4510   6.8297847287e+01   8.0955216817e+00    0.1274257    0.1015293   4.39 0.0001120355    1.062    0.059
        29 -10.3641    177.4914    230.9652   5.8841944968e+01   4.1440928861e+00    0.2220726    0.1800753   0.45 0.0003344461    1.094    0.086
        30 -15.2318    229.5420    114.6995   2.8952063169e+01   1.5783572204e+01    0.7263058    0.4469056 -51.25  0.004276926    1.604    0.377
        31  -9.4121    195.2297    229.2915   5.5249496776e+01   2.4587788914e+00     0.233251      0.17341   1.70 0.0002946721    1.089    0.082
        32  -9.0651    180.3023    199.9577   5.3342548189e+01   8.8116039507e+00    0.2354413    0.1648133  27.17 0.0006186732    1.440    0.306
        33  -7.9706    185.2893    199.0373   5.2221131887e+01   8.3320079014e+00    0.1795946    0.1348863 -11.54 0.0002084355    1.149    0.130
        34  -7.9673    173.4860    200.0173   5.4704205075e+01   9.6797755689e+00     0.180371    0.1509279  -0.22 0.0003787117    1.060    0.057
        35  -9.5693    208.6161    197.2503   4.7680520046e+01   5.7683715952e+00    0.2748851    0.1973214  13.13  0.001476977    1.350    0.259
        36  -6.6303    239.2454    197.2143   4.2772110889e+01   2.3865107664e+00    0.1010953   0.06469432 -11.63            0    1.365    0.267
        37  -7.9307    154.0482    197.0423   5.8272165730e+01   1.2813469753e+01    0.1787335    0.1617171  59.30 0.0004599516    1.544    0.352
        38  -7.8484    244.1642    194.6820   4.1630500684e+01   2.2282370114e+00    0.3048899    0.1723938 -46.68  0.001810962    2.214    0.548
        39  -8.2263    174.9606    195.4855   5.3629834230e+01   1.0271534205e+01    0.2338896    0.1492381 -25.60 0.0005060085    1.472    0.321
        40  -7.5860    183.1561    194.8258   5.1903797209e+01   9.3108346167e+00    0.1599489    0.1200217  -7.16 0.0002299169    1.198    0.165
        41  -9.4967    201.1158    193.2008   4.8292345360e+01   7.3045112433e+00    0.3037934    0.2526431  66.88 0.0006353426    2.335    0.572
        42 -10.7979    203.6635    187.7614   4.6887862237e+01   7.8553779488e+00    0.4289395    0.2919775  33.52  0.002338943    1.669    0.401
        43  -9.3862    236.3027    185.0084   4.1146617286e+01   4.4182543451e+00    0.2140712    0.1138434 -29.87 0.0003745458    1.477    0.323
        44  -7.6020    232.4931    192.3919   4.2979985603e+01   3.7810652448e+00    0.1649162    0.1202248  30.34 0.0006506733    1.676    0.403
        45  -9.7924    237.1809    190.3762   4.1932355513e+01   3.5595012182e+00    0.2934671    0.2246406  30.02 0.0008547948    1.655    0.396
        46  -9.6196    128.8194    188.0184   6.2542722433e+01   1.8169625919e+01    0.2985355    0.2478982  79.63  0.001457878    1.750    0.429
        47  -8.8790    158.8587    190.0018   5.6011428996e+01   1.3458628032e+01    0.2077771    0.1734274   9.48 0.0002698181    1.109    0.098
        48  -8.1636    214.3409    188.8284   4.5256199449e+01   6.3819587880e+00     0.153387    0.1100452 -24.18 0.0002589223    1.108    0.098
        49  -8.7956    193.9848    188.7962   4.8804346282e+01   8.9172719759e+00    0.2106836    0.1565908 -41.61 0.0004021717    1.413    0.292
        50  -9.7708    138.4559    185.7573   5.9849748890e+01   1.7223193251e+01    0.3350258    0.2244954 -24.04 0.0008188924    1.601    0.375
        51 -10.8330    247.7069    185.9001   3.9656882977e+01   3.0652207468e+00    0.2232981    0.1581527  24.36 0.0006231754    1.640    0.390
        52  -7.7306    186.9857    186.2297   4.9649468606e+01   1.0265536424e+01     0.162024    0.1366753  -4.17  0.001038478    1.075    0.070
        53  -7.5058     56.6004    184.7997   8.1536495416e+01   2.8716155851e+01    0.1826125    0.1339209 -89.88 0.0004222652    1.529    0.346
        54  -8.7557    181.0714    182.7243   5.0148956456e+01   1.1673712003e+01    0.2000643     0.157254 -30.53 0.0003473369    1.152    0.132
        55  -8.8260    155.3751    180.4632   5.5049507391e+01   1.5773107141e+01    0.2374042    0.2246765 -11.70 0.0007305521    1.158    0.137
        56  -7.8136     72.2726    181.2315   7.6554602050e+01   2.7667042941e+01    0.2024565    0.1603943  63.90  0.001044694    1.400    0.286
        57  -9.7343    140.5130    176.0451   5.7609336132e+01   1.8894973527e+01    0.2620619    0.2004037  24.80 0.0004381691    1.279    0.218
        58  -8.0730    181.9985    173.9666   4.8341863166e+01   1.3086855403e+01    0.1856426    0.1553262 -21.18  0.001144338    1.031    0.030
        59 -10.8341    148.6464    171.1888   5.4810157094e+01   1.8624022362e+01    0.5427207    0.4538732  81.22  0.002161234    1.812    0.448
        60 -10.7598    139.9179    169.0691   5.6429874161e+01   2.0430195807e+01    0.4304433    0.3035896   8.70  0.001692691    1.608    0.378
        61 -10.2342    156.8347    169.4707   5.2652265457e+01   1.7690995016e+01    0.4792763     0.406953 -51.16  0.001102844    1.329    0.247
        62  -8.9420    159.1838    163.8495   5.1037829488e+01   1.8422376347e+01     0.252011    0.1995405  50.87  0.001177815    1.575    0.365
        63  -8.7888    176.6724    170.8802   4.8794893825e+01   1.4415817784e+01     0.251778    0.1807973  34.90 0.0006853664    1.506    0.336
        64  -9.2530    182.9105    168.9836   4.7216864065e+01   1.3839825515e+01    0.2404366    0.1830381  36.71   0.00038028    1.483    0.326
        65  -8.7073    110.7978    168.3667   6.3663955992e+01   2.5191086146e+01    0.2045951     0.136119  20.45  0.000327028    1.583    0.368
        66  -7.6882    189.5295    166.4258   4.5481669327e+01   1.3326120397e+01     0.129169    0.1111984 -21.56 0.0002530094    1.055    0.052
        67 -10.3973    149.8332    162.6200   5.2862158051e+01   2.0166149496e+01    0.3841003    0.3232995 -52.55  0.002138733    1.313    0.238
        68 -15.5504    208.4844    132.8014   3.5546402849e+01   1.6177046813e+01     2.788149     1.326145 -26.22   0.01219455    2.527    0.604
        69  -7.0315    182.5283    164.5558   4.6431339401e+01   1.4686835606e+01    0.1324373    0.1144874 -20.60 8.435746e-05    1.031    0.030
        70  -7.9409    177.7877    163.2443   4.7089948907e+01   1.5639354438e+01    0.1790466    0.1347145 -15.74 0.0003097427    1.302    0.232
        71 -10.2492    123.4721    162.2026   5.9157887003e+01   2.4557475348e+01    0.3351287    0.2982395 -10.31 0.0006084864    1.099    0.090
        72 -10.2651    119.1236    160.0479   5.9865572034e+01   2.5751495865e+01    0.4448805    0.2796204 -40.64 0.0002777234    1.596    0.373
        73 -11.8403    141.9715    150.0179   5.2085323352e+01   2.4083081602e+01     1.065135    0.3735819 -40.43  0.003633368    2.935    0.659
        74 -12.3407    134.3373    155.3867   5.5050893042e+01   2.4244010663e+01     1.041698    0.7114655  55.06  0.004829884    1.893    0.472
        75 -10.9227    133.4707    147.0263   5.3503030905e+01   2.6200122091e+01    0.5834497    0.2799662 -47.77   0.00168262    2.033    0.508
        76 -11.8214    132.3041    140.8891   5.2450234988e+01   2.7739414300e+01    0.8246876    0.5013673 -26.20  0.002784048    2.069    0.517
        77 -10.2694    182.7117    155.1328   4.4523458917e+01   1.6352965716e+01    0.4338752    0.2103177  40.76  0.001073325    2.294    0.564
        78  -8.7087    172.2075    159.0704   4.7364499208e+01   1.7275651746e+01    0.2053133    0.1831698  -6.94 0.0004341211    1.063    0.059
        79  -7.7153     54.2913    156.8897   7.8563868012e+01   3.6121907726e+01    0.2012697    0.1842615 -70.93 0.0003891168    1.093    0.085
        80 -10.7677    151.8170    148.7338   4.9546465795e+01   2.2652843986e+01    0.6420665    0.2939884 -33.08  0.002428594    2.558    0.609
        81  -9.2302     66.8399    143.8392   7.2300816082e+01   3.7906820739e+01    0.6940961    0.3670426  56.72  0.002540205    2.606    0.616
        82  -8.0856     58.3272    142.0331   7.4847329530e+01   3.9542237078e+01    0.2078926    0.1941396 -76.13 0.0004968608    1.079    0.074
        83 -11.1482    126.3101    131.0698   5.1732844673e+01   3.0989004957e+01    0.5289164    0.4185956 -33.29  0.002655233    1.264    0.209
        84  -7.8171     74.3863    135.7935   6.8243336226e+01   3.8890473940e+01    0.2183312    0.1362752 -47.53  0.000455427    1.593    0.372
        85 -10.4372    188.1989    159.5444   4.4382970314e+01   1.4727817822e+01    0.2692511    0.1981691 -48.02 0.0002948046    1.443    0.307
        86  -8.6479    110.6136    129.2132   5.5551231119e+01   3.4329542675e+01    0.2183813    0.1388345 -39.95 0.0004333174    1.600    0.375
        87  -9.9337    116.9695    129.9463   5.3953096804e+01   3.2983863356e+01    0.3502382     0.257147 -73.60  0.001572399    1.816    0.449
        88  -7.3297     22.1040    125.8032   8.5509527500e+01   4.7904393130e+01    0.1868618    0.1128118  21.50 0.0008451881    1.726    0.421
        89  -9.0238    115.5175    121.4983   5.2316260691e+01   3.5168941312e+01    0.2963821    0.1343952 -37.87  0.001037218    2.509    0.601
        90  -7.7496     39.4643    121.4533   7.8086091903e+01   4.7391854438e+01     0.148694    0.1415928 -48.92 0.0001154131    1.023    0.022
        91  -9.8825    111.0169    148.0064   5.9610683608e+01   2.9876016220e+01    0.4273435    0.2140475  31.57 0.0009873359    2.067    0.516
        92 -10.7671     62.9632    116.9872   6.8229826086e+01   4.5496183730e+01    0.5931956    0.3854265 -80.07  0.002457657    2.024    0.506
        93  -9.9381    124.2208    117.9239   4.9087636585e+01   3.4265353785e+01    0.4458109    0.2976854   5.82  0.001775024    2.452    0.592
        94 -10.7378     54.8789    109.0696   6.9500753265e+01   4.8732841664e+01    0.5947981    0.3335573 -64.69  0.002374947    1.883    0.469
        95  -8.0465    172.0555    109.5655   3.6503207724e+01   2.6496324436e+01    0.2184246    0.1638743 -40.07 0.0004864515    1.202    0.168
        96  -9.2650     67.6675    109.4858   6.4717505769e+01   4.6688720305e+01    0.2796855    0.1421629 -56.48  0.001080947    1.957    0.489
        97  -8.2002     49.3206    106.3166   7.1084596118e+01   5.0218503929e+01    0.1608535    0.1111723 -27.24 0.0006214322    1.660    0.398
        98  -8.5806    159.7465    240.5547   6.3748522657e+01   4.6392357451e+00    0.2003297    0.1775423 -14.50   0.00064352    1.271    0.213
        99 -10.6058    135.8251     95.2092   4.0255321423e+01   3.6543968916e+01    0.4737933    0.3224305  36.31  0.001487523    1.667    0.400
       100  -9.4857    125.2307     95.9885   4.3016061251e+01   3.8648830390e+01    0.3386398     0.202936  38.77  0.001076597    1.823    0.452
       101  -8.3648    120.4903     94.4916   4.3806220167e+01   3.9959902518e+01    0.1483275    0.1455671 -49.03 0.0008105584    1.001    0.001
       102 -10.0354    133.2549     83.1310   3.7459370922e+01   3.9372369164e+01    0.4476779    0.3372722 -11.28 0.0005584263    1.768    0.434
       103 -10.4530    141.5729     88.2328   3.7065785824e+01   3.6619482401e+01    0.5171867    0.2646669 -49.60  0.001135067    2.017    0.504
       104 -10.4633    138.9603     82.1502   3.5927256563e+01   3.8290471702e+01     0.539809    0.2665931 -36.74 0.0002763226    2.035    0.509
       105  -8.8307    156.7363     87.0505   3.3706528954e+01   3.3578097282e+01    0.2650212    0.2346554 -16.13 0.0006217451    1.263    0.208
       106 -10.1135    151.9699     84.2037   3.3854306691e+01   3.5090822200e+01    0.2906161    0.2533787 -35.09 0.0003696158    1.143    0.125
       107  -9.4842    150.1723     77.8951   3.2479391717e+01   3.6561366551e+01    0.4116769    0.1835553 -45.76  0.001376308    2.171    0.539
       108  -8.2959      3.1154     83.9460   8.7639378717e+01   6.0500010587e+01    0.2024634    0.1799326  65.87 0.0005246297    1.256    0.204
       109  -9.2228    157.6572     80.8563   3.1896232209e+01   3.4438776543e+01    0.2667531    0.2230482 -51.74 0.0003278852    1.122    0.108
       110  -9.3038    133.0743     76.5971   3.5602887823e+01   4.0584951815e+01    0.2671739    0.2359091  19.99  0.001454314    1.324    0.245
       111  -9.5957    157.8540     73.1719   2.9798997053e+01   3.5658181462e+01    0.3467725    0.2528321 -53.43 0.0009920725    1.326    0.246
       112  -8.3443    155.3523     67.2061   2.8598251723e+01   3.7152200405e+01    0.2603211    0.1605548 -46.10 0.0007617288    1.528    0.345
       113  -9.0240    157.4500     61.5032   2.6677669645e+01   3.7555555380e+01    0.2594999     0.191488 -41.34  0.001417678    1.284    0.221
       114  -8.6398    170.1181     69.6627   2.6884491162e+01   3.3564978560e+01    0.3335675    0.1741151 -38.53  0.001111552    1.750    0.428
       115  -8.8293    139.8287     68.0932   3.1697523957e+01   4.0499321732e+01    0.2258527    0.1809814 -66.21 0.0009684526    1.305    0.234
       116  -8.6610    162.0795     65.0176   2.6899775038e+01   3.6005506895e+01    0.2033817    0.1802615 -62.51 0.0002895851    1.038    0.037
       117  -8.8401    135.4686     64.5063   3.1502803259e+01   4.2076305106e+01    0.2646777    0.1847588   2.72  0.001004513    2.367    0.577
       118  -9.0509    138.8531     60.8745   2.9749877152e+01   4.1870363988e+01    0.2330728    0.2070599  47.57 0.0002986326    1.209    0.173
       119  -8.6639    236.5801    207.1238   4.4799169598e+01   1.2988671679e+00    0.2731079    0.1427189  24.48   0.00127414    2.032    0.508
       120  -9.6962    156.8422    201.6167   5.8436297984e+01   1.1592590823e+01    0.2302395      0.19066 -17.16 0.0004046229    1.085    0.078
       121  -7.8690    233.9727    201.5310   4.4282694853e+01   2.3346103309e+00     0.288491    0.1332665 -17.10  0.001422356    2.634    0.620
       122  -8.2244    162.9933     47.0117   2.1877110760e+01   3.8359336691e+01    0.1938324    0.1567023  28.00 0.0003191006    1.660    0.398
       123  -9.0595    177.1713     43.5164   1.9190565479e+01   3.5706300839e+01    0.2305072    0.1840693 -48.88  0.001434891    1.126    0.112
       124  -9.0101    132.3079     43.8872   2.5726005354e+01   4.5870186885e+01     0.250781    0.2041106 -84.25 0.0003155139    1.239    0.193
       125  -9.2452    162.9149     40.6231   2.0140674633e+01   3.9202537177e+01    0.2655367    0.2348093 -47.08 0.0009472839    1.132    0.117
       126  -7.6401    155.1631     36.6127   2.0021393137e+01   4.1458667841e+01    0.1821796    0.1103913  58.06 0.0009382498    1.676    0.403
       127  -8.8745    167.1838     32.8316   1.7519576960e+01   3.9195900549e+01    0.2009462    0.1501173 -66.94 0.0003913924    1.227    0.185
       128 -10.5646    163.0109     28.7745   1.6884820852e+01   4.0597767794e+01    0.2627837    0.2003595 -55.40 0.0003437577    1.184    0.156
       129  -8.8194    185.4341     27.8893   1.4432140949e+01   3.5812180066e+01    0.3648545    0.1336566 -38.64  0.001706756    2.242    0.554
       130  -8.3335    167.9681    201.9853   5.6159139602e+01   1.0056509375e+01      0.19233    0.1582728  -8.19 0.0003214019    1.020    0.020
       131  -7.9905    160.5062    219.5378   6.0526840829e+01   7.9736465334e+00    0.1900396    0.1664063  51.65  0.000514367    1.676    0.403
