#   1 NUMBER                 Running object number                                     
#   2 MAG_AUTO               Kron-like elliptical aperture magnitude                    [mag]
#   3 X_IMAGE                Object position along x                                    [pixel]
#   4 Y_IMAGE                Object position along y                                    [pixel]
#   5 X_WORLD                Barycenter position along world x axis                     [deg]
#   6 Y_WORLD                Barycenter position along world y axis                     [deg]
#   7 A_WORLD                Profile RMS along major axis (world units)                 [deg]
#   8 B_WORLD                Profile RMS along minor axis (world units)                 [deg]
#   9 THETA_WORLD            Position angle (CCW/world-x)                               [deg]
#  10 FWHM_WORLD             FWHM assuming a gaussian core                              [deg]
#  11 ELONGATION             A_IMAGE/B_IMAGE                                           
#  12 ELLIPTICITY            1 - B_IMAGE/A_IMAGE                                       
         1 -13.2736      1.8547     23.9530   8.1911216942e+01   7.2975794629e+01    0.9461441    0.2900999 -61.84  0.003469073    4.580    0.782
         2 -13.6957      6.4081      8.4051   7.1223904199e+01   7.5220530251e+01     1.087331    0.5681079 -31.03  0.006213616    1.806    0.446
         3 -12.3387     14.0035     11.4598   6.7598730381e+01   7.3919859342e+01    0.3112712    0.1839272 -29.20  0.001530182    1.613    0.380
         4 -12.5610     16.1713      5.5775   6.2801807233e+01   7.4490479787e+01    0.4240519    0.2649695 -13.31  0.002362246    1.660    0.398
         5 -14.7846    244.8520      9.8713   1.7357644996e+01   2.5378331602e+01     1.570603    0.6494061 -48.84  0.009132553    1.756    0.431
         6 -13.9283     12.3273     22.1779   7.4113355282e+01   7.2375415040e+01    0.7418323     0.347129 -30.39  0.003642572    2.252    0.556
         7 -11.9399     26.7916     14.6902   6.1426477548e+01   7.1772136854e+01    0.2932106    0.1472661 -23.27  0.001420731    2.404    0.584
         8 -12.7664     20.3367     12.4265   6.4050836888e+01   7.2986004540e+01    0.4017192    0.2176786 -21.92  0.002119585    2.079    0.519
         9 -12.6148     25.0658      3.1111   5.5829677066e+01   7.3540774769e+01    0.4852294    0.2304957  29.81  0.002499833    2.058    0.514
        10 -12.1869     58.1429    240.9980   9.7882665290e+01   1.5737493509e+01    0.4717333    0.2216153  54.00  0.002307004    2.023    0.506
        11 -12.6566    247.9134    224.8319   5.7303449414e+01  -5.9400046051e+00    0.6507947    0.2426894 -23.62  0.002841919    3.479    0.713
        12 -11.8468    233.5256    249.6794   6.3420778176e+01  -7.6576610129e+00    0.3303165     0.165632  19.85  0.001886963    1.833    0.454
        13 -12.9570    234.7519    242.8533   6.2201548160e+01  -6.9194035630e+00    0.4615919    0.2353736 -13.03   0.00257219    2.119    0.528
        14 -12.8344    242.2190    236.1520   5.9970335828e+01  -6.8268337227e+00    0.6772475    0.2869459 -15.24  0.002926559    3.829    0.739
        15 -11.6890    250.0717    231.5949   5.8028622980e+01  -7.0390162633e+00     0.359808    0.1479807 -31.08  0.002026012    2.057    0.514
        16 -12.2765    247.7460    238.0695   5.9388501724e+01  -7.6273710737e+00    0.4489245    0.2169186 -18.93  0.002617131    2.025    0.506
        17 -11.6182    249.0348    249.2714   6.0868413844e+01  -9.1254132187e+00    0.3204096    0.2179431  -1.04  0.002070942    1.125    0.111
        18 -11.1668    249.1596    243.8725   6.0045252283e+01  -8.4845073799e+00     0.235026    0.1698789 -10.09  0.001009399    1.036    0.035
        19 -11.8244    241.2290    249.9941   6.2213334267e+01  -8.4624939386e+00    0.4052279    0.1772428  25.37  0.002275922    2.137    0.532
        20 -12.2766    243.4103    244.4507   6.1039968741e+01  -7.9949110741e+00    0.3785329    0.2026783 -22.59   0.00175473    1.590    0.371
        21 -11.6207    104.3047    250.4338   8.8662728588e+01   8.0601006985e+00    0.3262775   0.09584638  33.97  0.001309909    2.671    0.626
        22 -11.9920     87.4640    250.1019   9.2265974429e+01   1.0309319595e+01    0.4748516    0.1611558  29.53  0.001964798    2.649    0.623
        23 -12.3908     75.2791    249.2613   9.4828679634e+01   1.2012339333e+01    0.5866347    0.1846792  40.72  0.002520569    2.424    0.587
        24 -11.7593     51.6476    249.2169   9.9917414788e+01   1.4877497525e+01    0.4902235    0.1810314  41.18  0.002319629    2.039    0.510
        25 -12.0935     37.9151    247.9221   1.0275040829e+02   1.6685662668e+01    0.6112832    0.2287583  52.82  0.002875672    2.326    0.570
        26 -11.9453     20.9116    248.0271   1.0630522391e+02   1.8463479225e+01    0.4190223    0.2138442  57.83  0.001806098    1.624    0.384
        27 -11.6916      7.0033    234.8882   1.0858844614e+02   2.2483086689e+01    0.4162215    0.2051857  82.37  0.002284338    1.918    0.479
        28 -11.8018     12.6796    247.8979   1.0798176309e+02   1.9306457308e+01    0.4741808    0.2006425  47.03  0.002601443    1.754    0.430
        29 -11.8544      5.1343    226.7020   1.0862825167e+02   2.4379777041e+01    0.4476827    0.2139263  61.33  0.001957937    1.768    0.434
        30 -11.9432      2.6410    219.1255   1.0883583467e+02   2.6242575641e+01    0.4062796    0.2582231  85.24  0.001871257    1.396    0.284
        31 -11.9288      4.1727    249.6444   1.0975836999e+02   1.9770889853e+01    0.3591385    0.2396232  37.02  0.001838493    1.350    0.259
        32 -12.3744      3.5319    241.5928   1.0958127802e+02   2.1430273069e+01    0.5118809    0.2451192  61.30  0.002033449    1.705    0.414
        33 -12.0604     30.3088    239.5374   1.0386337636e+02   1.9197302895e+01    0.4304194    0.2410474  63.12  0.002032255    1.611    0.379
        34 -12.1908     16.5479    239.2646   1.0678175125e+02   2.0665333505e+01    0.6969395    0.2338393  46.10  0.003354658    2.189    0.543
        35 -12.1120     73.3733    239.3405   9.4351251382e+01   1.4185335122e+01    0.3665866    0.2255209  69.97  0.001951049    1.901    0.474
        36 -12.4557    226.7559    239.0962   6.2963783163e+01  -5.5828294809e+00    0.3086801    0.1604299  -7.54  0.001656389    2.317    0.568
        37 -11.9722    108.3995    239.5882   8.6562687723e+01   9.5056905949e+00    0.3253322    0.1585783  48.26   0.00152359    2.116    0.527
        38 -10.7015     38.6684    239.2653   1.0203403611e+02   1.8344431860e+01    0.2817005    0.1486036  57.63  0.001515447    1.698    0.411
        39 -10.7208     65.1564    238.4051   9.6105981127e+01   1.5404263483e+01    0.2519605    0.1264581  59.86  0.001198043    2.183    0.542
        40 -11.4458     82.5472    235.3644   9.1898146186e+01   1.3795750133e+01    0.2933232    0.1730005  62.35  0.001481786    1.960    0.490
        41 -11.3463     45.6555    235.5172   1.0023192607e+02   1.8329005726e+01    0.2992282    0.1394279  54.39  0.001465915    1.964    0.491
        42 -11.5504     95.6905    234.6927   8.8848660956e+01   1.2174231045e+01    0.2867818    0.1129697  47.17  0.001182091    2.538    0.606
        43 -12.4414    231.6237    232.8684   6.1189322070e+01  -5.2768472161e+00    0.3236237    0.1740889 -17.61  0.001895724    1.829    0.453
        44 -10.2850      1.3866    233.6432   1.0971304891e+02   2.3253369018e+01    0.2062021   0.09644743  89.22  0.001108476    2.013    0.503
        45 -11.4018     14.6595    230.6313   1.0675453041e+02   2.2649600644e+01    0.4005342    0.2051893  57.96  0.002033253    1.635    0.388
        46 -11.3576     11.6322    224.4698   1.0710512426e+02   2.4259150535e+01    0.3892283    0.1836671  50.42  0.001680102    1.709    0.415
        47 -11.7161     60.7078    230.3293   9.6406003148e+01   1.7620548263e+01    0.3027689    0.1703543  57.00  0.001556658    1.726    0.421
        48 -11.4247     39.9257    229.8721   1.0110769260e+02   2.0167773383e+01    0.3444682    0.1982541  58.45  0.001881303    1.567    0.362
        49 -12.3293     26.2751    227.0122   1.0399032356e+02   2.2256843894e+01    0.5344717    0.2494705  82.00  0.002564031    2.331    0.571
        50 -10.6780     49.0111    228.9884   9.8974765770e+01   1.9313351038e+01    0.2255897    0.1219805  58.43  0.001146597    1.769    0.435
        51 -10.6328     32.9870    227.9654   1.0254221846e+02   2.1340062080e+01    0.2190745    0.1141159  58.27  0.001134468    1.733    0.423
        52 -12.0604    237.0385    225.7941   5.9187314635e+01  -4.9094289686e+00    0.3070623    0.1444839 -24.05  0.001669291    2.075    0.518
        53 -11.5847     19.0400    220.4918   1.0523152259e+02   2.4412742278e+01    0.3640155    0.1658527  61.50  0.001739771    2.032    0.508
        54 -11.9569     12.9483    215.5843   1.0634221998e+02   2.6090287048e+01    0.4618145    0.2240579  58.51  0.002218354    1.797    0.444
        55 -10.5300     44.8112    219.8081   9.9211766026e+01   2.1798289566e+01    0.1938671    0.1285947  59.26  0.001083092    1.361    0.265
        56 -11.6518    239.0074    217.1947   5.7486760503e+01  -3.9436009054e+00    0.2853684    0.1222397 -25.55  0.001415908    2.416    0.586
        57 -11.2466     35.2003    216.1381   1.0119504536e+02   2.3700078889e+01    0.3575306    0.1696182  87.92  0.001625867    2.388    0.581
        58 -12.3987    248.4491    214.1966   5.5511517967e+01  -4.5694183807e+00    0.4163497    0.1704944 -31.17  0.002213129    2.100    0.524
        59 -11.7877      2.7887    211.0086   1.0842910683e+02   2.8033290829e+01    0.4408719    0.2183072  75.26  0.002077765    1.843    0.457
        60 -11.2473      1.7361    204.5065   1.0835877784e+02   2.9601221302e+01    0.2532829    0.1680233 -89.52  0.001236081    1.340    0.254
        61 -10.9328     29.1033    210.6174   1.0224145038e+02   2.5607613702e+01    0.2650753    0.1394875  69.77  0.001294106    1.919    0.479
        62 -11.1455     21.2782    210.1158   1.0407360393e+02   2.6522223916e+01    0.2549201    0.1487743  73.22  0.001362013    1.612    0.380
        63 -12.7628     13.0606    203.4040   1.0561539353e+02   2.8859046377e+01    0.5100396    0.2638248  56.09  0.002641447    1.696    0.410
        64 -10.4263     24.9603    215.9579   1.0358846765e+02   2.4825979281e+01    0.2207079    0.1166554  59.38  0.001133096    1.707    0.414
        65 -12.5250      4.0083    195.4697   1.0734911097e+02   3.1515434478e+01    0.4743488    0.2491454  71.31  0.002450283    1.736    0.424
        66 -11.6357     17.7900    194.8899   1.0390308767e+02   3.0427407708e+01    0.2760005    0.1187237  51.48  0.001252738    2.092    0.522
        67 -11.1818     17.8459    188.7552   1.0345278098e+02   3.1903361526e+01    0.2696578    0.1324389  69.16  0.001230675    2.075    0.518
        68 -12.5840      3.8454    186.5528   1.0688436887e+02   3.3659267210e+01    0.6123396    0.2262721  63.81  0.002493485    2.791    0.642
        69 -12.1540      2.2912    176.7965   1.0669848281e+02   3.6163802799e+01    0.4513626    0.2064173 -87.27  0.002106849    1.995    0.499
        70 -12.1640     11.9463    182.0810   1.0450917819e+02   3.4070545617e+01    0.3292753    0.1611321  84.79  0.001340611    2.014    0.503
        71 -11.5061      5.8661    181.5558   1.0606156698e+02   3.4711189872e+01    0.2278659    0.1498316  71.65  0.001074524    1.348    0.258
        72 -12.5403      6.8178    170.6438   1.0507677090e+02   3.7341159377e+01    0.3501667     0.165398 -88.42  0.001605339    1.985    0.496
        73 -11.2878      1.6782    169.0960   1.0637404283e+02   3.8122032241e+01    0.3173395    0.1271479 -72.25  0.001365186    2.148    0.534
        74 -12.4553      1.6468    163.4779   1.0600730968e+02   3.9535388823e+01    0.3678871    0.3322302  13.11  0.002075302    1.344    0.256
        75 -11.9273     11.1010    165.6079   1.0350826376e+02   3.8267814216e+01    0.2787506    0.1443321  71.23  0.001284171    1.970    0.492
        76 -12.7124      9.9552    154.4422   1.0291390564e+02   4.1219664908e+01    0.3971191    0.2004113  84.73  0.001791746    2.001    0.500
        77 -12.3627      3.9441    152.2081   1.0451435572e+02   4.2241091843e+01    0.3168148     0.165253 -73.20  0.001548824    1.656    0.396
        78 -11.6674      2.4605    141.7093   1.0410231282e+02   4.5047437181e+01    0.2612389    0.1164447 -84.46  0.001131924    2.070    0.517
        79 -11.7844      4.6795    135.1504   1.0280524201e+02   4.6600536095e+01    0.2792004     0.110444 -86.55  0.001088698    2.572    0.611
        80 -11.6278      3.4406     65.6957   9.3367687789e+01   6.4103103764e+01    0.2472759    0.1177665 -72.26  0.001147286    2.110    0.526
        81 -12.9983      3.7131     48.4815   8.9016194159e+01   6.7935145473e+01    0.5492361    0.2580336 -55.17   0.00279245    1.774    0.436
        82 -11.9224      2.7608     38.8043   8.6689043998e+01   7.0022429975e+01    0.3843985    0.1643888 -55.65  0.001904937    1.997    0.499
        83 -12.8977     13.4638     35.9949   7.9201305478e+01   6.9742686772e+01     0.402106    0.2082586 -52.39  0.002101936    1.832    0.454
        84 -12.3552    226.0303    246.9451   6.4267093701e+01  -6.5356398781e+00    0.3174252    0.1922057 -20.10  0.002110329    1.437    0.304
        85 -12.7676    212.5951    245.8514   6.6423972024e+01  -4.9313515246e+00    0.4982505    0.2593224  -1.69  0.002589941    2.450    0.592
        86 -12.1270     66.1359    247.7092   9.6679471432e+01   1.3441875786e+01    0.4602506    0.2209877  50.49   0.00233688    1.873    0.466
        87 -10.9302     27.3301    248.1406   1.0498285497e+02   1.7779257377e+01    0.3563496    0.1059093  50.11  0.001574911    2.630    0.620
        88 -12.0846     19.4349     28.8020   7.2666863510e+01   7.0461624144e+01    0.3719891    0.1690613 -31.98  0.001716184    2.394    0.582
        89 -10.9275    128.5111    246.5054   8.3025301548e+01   5.5352009699e+00    0.1255535    0.1051764  27.32 5.330772e-05    1.017    0.017
        90 -12.4156     98.6713    243.5116   8.9148156475e+01   1.0077416703e+01    0.4217721    0.1867769  47.82  0.001925001    2.242    0.554
        91 -11.4594     45.6661    243.6129   1.0080866851e+02   1.6674828424e+01    0.3713973    0.1962658  51.84  0.001831926    1.604    0.376
        92 -12.5267     85.2853    243.0307   9.2053816609e+01   1.1929758505e+01    0.3741471    0.1986011  49.64  0.001915319    1.776    0.437
