#   1 NUMBER                 Running object number                                     
#   2 MAG_AUTO               Kron-like elliptical aperture magnitude                    [mag]
#   3 X_IMAGE                Object position along x                                    [pixel]
#   4 Y_IMAGE                Object position along y                                    [pixel]
#   5 X_WORLD                Barycenter position along world x axis                     [deg]
#   6 Y_WORLD                Barycenter position along world y axis                     [deg]
#   7 A_WORLD                Profile RMS along major axis (world units)                 [deg]
#   8 B_WORLD                Profile RMS along minor axis (world units)                 [deg]
#   9 THETA_WORLD            Position angle (CCW/world-x)                               [deg]
#  10 FWHM_WORLD             FWHM assuming a gaussian core                              [deg]
#  11 ELONGATION             A_IMAGE/B_IMAGE                                           
#  12 ELLIPTICITY            1 - B_IMAGE/A_IMAGE                                       
         1 -10.1755      9.6596     16.6331   2.9175957911e+02   7.5196984395e+00   0.02408283  0.008874355 -53.60  0.001672881    2.486    0.598
         2 -10.4701     49.9602     28.7339   2.9137109144e+02   7.1481123927e+00   0.02162724  0.007017891 -54.30  0.001647803    2.757    0.637
         3 -10.5015    153.1288     27.2833   2.9018463423e+02   6.5688168522e+00   0.01324804  0.008545117  77.47  0.001248503    2.146    0.534
         4 -11.7564     60.7795     24.2049   2.9122046096e+02   7.1380522985e+00   0.02689719   0.01280672 -74.58  0.002184332    2.701    0.630
         5 -11.5280     25.8002     19.7159   2.9159342940e+02   7.3913099453e+00   0.04265301    0.0204296 -30.70  0.003188566    3.392    0.705
         6 -11.9310     26.5974     13.8840   2.9154954515e+02   7.4540461671e+00   0.02154359   0.01377785  45.90 0.0006308974    1.652    0.395
         7 -10.6398    107.9554     17.6926   2.9064278565e+02   6.9408925856e+00   0.01776661  0.008822598 -55.39 0.0008003598    1.896    0.473
         8 -10.4114     81.7502     17.5825   2.9094137591e+02   7.0935299671e+00   0.01926472  0.007249102 -56.87  0.001257848    2.426    0.588
         9 -11.9165    130.8297     13.7086   2.9035788100e+02   6.8545621573e+00   0.02324742   0.01827462 -31.88    0.0026388    1.374    0.272
        10 -10.2734     99.7174     13.5140   2.9071188133e+02   7.0367216680e+00   0.01485393  0.009084182 -67.42  0.001479802    1.675    0.403
        11 -10.0372    175.7811     11.8962   2.8983430576e+02   6.6150354682e+00  0.009685522  0.008518836 -36.50 0.0004124796    1.163    0.140
        12 -10.5227    119.2564     11.3492   2.9047586883e+02   6.9487451695e+00   0.01221338  0.008194463  75.30  0.001084428    1.966    0.491
        13 -12.0207     80.9335      7.1252   2.9088825399e+02   7.2189256179e+00   0.02508484   0.01609441 -37.83 0.0005861167    1.715    0.417
        14 -10.0816      8.9914      8.0048   2.9171579147e+02   7.6231339112e+00   0.01547102   0.01072941  -9.16    0.0012999    1.844    0.458
        15 -10.6321    127.3768      6.0800   2.9035167894e+02   6.9625549692e+00   0.01663161   0.01067055  89.98   0.00159068    2.060    0.515
        16 -10.7688     75.2124      5.1640   2.9094190064e+02   7.2745741064e+00   0.01747912  0.009197111 -56.67  0.001238764    1.798    0.444
        17  -9.7054     60.0281      5.2522   2.9111592969e+02   7.3611370121e+00    0.0183709  0.005985141  24.41   0.00129803    3.421    0.708
        18 -11.9328     27.2490      3.1469   2.9147805657e+02   7.5742196979e+00   0.02536693   0.01529024  24.64  0.001769994    1.722    0.419
        19 -10.1043    117.8356      4.1545   2.9044907963e+02   7.0399684103e+00      0.01001  0.008535923  54.07 0.0003728614    1.232    0.188
        20  -9.8402     91.7177      4.0613   2.9074676486e+02   7.1920088291e+00  0.009283272  0.008167125 -57.02 0.0004037188    1.109    0.098
        21  -9.2426    100.7207      3.6758   2.9064163759e+02   7.1444423901e+00  0.006809209  0.004808079 -32.56 0.0004492228    1.590    0.371
        22 -11.2807    153.3923    233.6383   2.9141112453e+02   4.1827383144e+00   0.01381984  0.009224842 -42.85 0.0008038467    1.548    0.354
        23 -10.1254    243.0330    247.4906   2.9047444150e+02   3.5045390203e+00   0.01076736  0.009063251  78.78 0.0006228752    1.311    0.237
        24 -10.9730    247.7350    249.9077   2.9043541582e+02   3.4494209627e+00   0.02510846    0.0123228  17.05  0.002130452    2.515    0.602
        25 -10.4311    250.3838    244.0860   2.9037070778e+02   3.5013429441e+00   0.02011637  0.009409982 -60.95  0.001786008    2.051    0.512
        26 -11.4008    181.5699    247.8613   2.9117511008e+02   3.8555684622e+00   0.02814417  0.008876625 -55.65  0.002126731    2.808    0.644
        27  -9.3172    168.4402    250.5574   2.9134041231e+02   3.9002377315e+00  0.006560679    0.0062065 -37.50  5.54939e-05    1.062    0.058
        28 -10.5137    127.8714    249.5132   2.9179567007e+02   4.1464547393e+00   0.01225055  0.009055592 -61.00 0.0009314822    1.318    0.241
        29  -9.9098     72.6624    250.0612   2.9242721247e+02   4.4582586933e+00  0.009742448  0.007975158 -50.32  0.001127094    1.198    0.165
        30 -10.4843     32.4383    248.8254   2.9287781722e+02   4.7039173931e+00   0.01810936  0.009128725 -40.01  0.001575341    2.297    0.565
        31 -11.5482     27.8094    246.2725   2.9291543094e+02   4.7600542458e+00   0.02476383   0.01259645 -64.98  0.002172722    1.975    0.494
        32 -12.2624     21.1130    248.8085   2.9300666008e+02   4.7691798645e+00   0.03579154   0.01527867  39.90  0.003043915    2.347    0.574
        33 -11.5654     14.3881    244.1893   2.9305594099e+02   4.8612494433e+00    0.0139111   0.01040056 -85.80  0.001473856    1.516    0.341
        34 -10.7462     11.4249    250.0783   2.9312446497e+02   4.8101209666e+00   0.01455819  0.007809854  45.10  0.001349141    1.991    0.498
        35  -9.6970     53.6660    234.7066   2.9255260685e+02   4.7452150902e+00  0.006854649  0.004901328 -26.49 0.0005738505    1.639    0.390
        36 -10.0121     79.5564    231.2810   2.9223751749e+02   4.6358169212e+00   0.01154497  0.008922064  27.18 0.0005401878    1.319    0.242
        37 -10.1800    137.2569    247.0225   2.9167412039e+02   4.1211122712e+00    0.0095415  0.008355906 -60.05 0.0007204491    1.115    0.103
        38 -10.1547    169.8515    229.1244   2.9119708250e+02   4.1398641812e+00  0.009398709  0.007656926 -29.87 0.0009082457    1.321    0.243
        39 -10.1990     86.3061    233.4824   2.9217371236e+02   4.5714728493e+00   0.01186899  0.008074452  85.80  0.001180458    1.876    0.467
        40 -11.0590    144.7285    227.6353   2.9147405822e+02   4.3021708004e+00   0.01668097  0.008327256 -75.79  0.001337823    2.572    0.611
        41  -9.5048     93.5230    229.4946   2.9206791531e+02   4.5760198380e+00  0.006525615  0.006324505  81.30 0.0001044709    1.049    0.047
        42 -10.2884    178.3095    228.3222   2.9109611530e+02   4.1002683140e+00   0.00692946  0.004849758 -30.04 0.0007036341    1.648    0.393
        43 -10.3432    152.5218    227.9739   2.9138739440e+02   4.2532589267e+00   0.01386486  0.007289713 -21.53   0.00103334    3.447    0.710
        44 -10.4711    129.8748    226.8413   2.9163838024e+02   4.3970846973e+00   0.01990202  0.009778107  45.90  0.001751965    2.234    0.552
        45 -10.4197    190.5231    226.4732   2.9094622816e+02   4.0510515380e+00   0.01212348   0.01064167 -59.76 0.0006731632    1.113    0.101
        46  -9.5950    139.9593    227.4514   2.9152723628e+02   4.3318285077e+00  0.009831794   0.00647151  26.58 0.0008393178    1.553    0.356
        47 -10.2855     87.9861    227.0376   2.9211639219e+02   4.6363461308e+00   0.01102156  0.007632157 -29.55  0.001135167    1.682    0.406
        48 -10.5468     66.4247    226.4209   2.9235825856e+02   4.7676530313e+00   0.01416499  0.009938884  29.12 0.0009011344    1.441    0.306
        49  -9.8015      6.6922    227.3123   2.9304386707e+02   5.1007223921e+00  0.006806187  0.004928574  64.25   0.00049847    1.623    0.384
        50  -9.7539    115.6793    225.3499   2.9179110698e+02   4.4962268604e+00  0.007038235  0.004909559  65.49 0.0007048455    1.742    0.426
        51 -10.5028     81.4802    224.7369   2.9217683626e+02   4.7004396565e+00   0.01281912   0.01158975 -88.68 0.0009039341    1.151    0.131
        52 -12.0374    155.8187    241.5274   2.9143035709e+02   4.0775136007e+00   0.01915017   0.01333474   9.69  0.001281224    1.666    0.400
        53 -10.7455    182.1217    222.9794   2.9102100421e+02   4.1399991173e+00   0.01924696  0.007458733 -62.45  0.001545475    2.510    0.602
        54 -10.8638     13.0758    222.1875   2.9294085456e+02   5.1233734042e+00   0.01135293  0.009864649 -41.82 0.0003383685    1.158    0.136
        55 -11.3068    141.4787    221.3743   2.9147386520e+02   4.3933316829e+00     0.017241   0.01228867 -14.28  0.001353318    1.749    0.428
        56  -9.2542    134.9228    223.0000   2.9155812818e+02   4.4123747312e+00   0.01055121  0.003750129  26.94 0.0007920642    2.871    0.652
        57 -10.9755    123.3796    221.4918   2.9168056077e+02   4.4964271680e+00   0.01285043   0.01277189  52.50  0.001010056    1.024    0.024
        58  -9.1597     51.6595    222.6822   2.9250427690e+02   4.8958775376e+00  0.007026305  0.004856979 -27.95 0.0007049103    1.711    0.415
        59  -9.9143    165.5540    220.8960   2.9119708185e+02   4.2598220858e+00   0.01029567  0.006243913 -60.49  0.001024555    1.593    0.372
        60 -10.4476    174.0604    219.9853   2.9109490080e+02   4.2211998457e+00   0.01003181  0.009882759  78.23 0.0006705549    1.028    0.028
        61  -9.8112     21.8451    220.1908   2.9282914767e+02   5.0961090186e+00  0.008827041  0.007450223 -27.66 0.0003879207    1.268    0.211
        62  -9.8260    250.3362    219.0521   2.9022226900e+02   3.7907838878e+00  0.009447001  0.008144443 -61.75 0.0005448669    1.135    0.119
        63  -8.9272    233.6648    219.3188   2.9041326363e+02   3.8841982265e+00  0.006980996   0.00489517  62.90 0.0007048998    1.700    0.412
        64 -10.6963    191.5191    216.9806   2.9087846501e+02   4.1550145233e+00   0.01389513  0.008328707 -62.02  0.001252893    1.626    0.385
        65 -10.4218    194.5072    215.4662   2.9083547735e+02   4.1552417979e+00   0.01124921  0.008829768  34.72 0.0009681412    1.284    0.221
        66  -9.8803     50.1162    218.2964   2.9249588695e+02   4.9554987439e+00   0.01041817   0.00823552  -3.56 0.0007577585    1.454    0.312
        67 -10.6942     10.0850    217.0171   2.9294435546e+02   5.2003755367e+00   0.01714984   0.01252778  52.25   0.00141989    1.482    0.325
        68 -10.1886     24.9934    217.0261   2.9277455979e+02   5.1146388707e+00   0.01142831  0.007709843  62.53  0.001149071    1.802    0.445
        69 -10.5911    201.6006    215.9084   2.9075744547e+02   4.1091093322e+00   0.01185071  0.009864697   6.20   0.00135368    1.310    0.237
        70  -9.5726    137.1692    215.6371   2.9148884428e+02   4.4845541290e+00  0.009311114  0.006296098  10.14 0.0009424787    1.733    0.423
        71  -9.8688     30.9837    215.2337   2.9269570851e+02   5.1009531147e+00  0.008930086   0.00548165  27.27 0.0008872946    1.658    0.397
        72 -10.3411    208.9808    212.1541   2.9065119899e+02   4.1098096833e+00   0.01105797  0.009419427 -61.08 0.0004649483    1.147    0.129
        73 -10.2675    170.2024    213.1470   2.9109814609e+02   4.3225507042e+00  0.009289773  0.007700697  65.53  0.000825365    1.323    0.244
        74  -9.7023    142.8317    213.1987   2.9140991372e+02   4.4800594240e+00  0.009268562  0.007514559 -30.34 0.0005440791    1.327    0.247
        75  -9.9643    212.5567    211.1707   2.9060469120e+02   4.1004876536e+00   0.01731621  0.009770459 -89.44  0.001111592    2.742    0.635
        76 -10.1481    217.8475    207.8873   2.9052500317e+02   4.1078170277e+00   0.02270557  0.005796397 -48.77  0.001469688    3.887    0.743
        77 -12.0561      4.3548    207.2793   2.9295205968e+02   5.3459537662e+00   0.02451674   0.02026619  81.08  0.002847237    1.345    0.256
        78 -11.1715     20.5182    211.3956   2.9279223246e+02   5.2055027110e+00   0.01705077   0.01189049  77.73 0.0007649522    1.817    0.450
        79  -9.4805    150.3071    205.3234   2.9127804153e+02   4.5279526056e+00  0.006927023  0.004846074 -30.30 0.0004939624    1.645    0.392
        80  -9.2527     27.5549    205.4922   2.9267711434e+02   5.2333767324e+00  0.006501353   0.00631166  89.85 0.0003884618    1.040    0.039
        81 -10.9603    210.6387    201.3115   2.9056782514e+02   4.2255207433e+00   0.01316573  0.009035281  79.25  0.001316088    1.882    0.469
        82  -9.4866    238.5366    201.4349   2.9025143143e+02   4.0626133888e+00  0.006545099   0.00623925 -35.36  0.000147596    1.056    0.053
        83  -9.9915    218.4353    201.4743   2.9048014861e+02   4.1785211415e+00  0.006491707  0.006306841 -57.54 0.0001415514    1.008    0.008
        84  -9.0562     34.6572    200.7292   2.9256798077e+02   5.2476620290e+00  0.006747067  0.004927232 -23.69 0.0002619946    1.612    0.380
        85 -10.8876    227.3391    196.7606   2.9035086391e+02   4.1814478311e+00   0.01688967   0.01008235 -36.54 0.0009876986    1.930    0.482
        86 -11.5639    232.0175    191.7106   2.9026760788e+02   4.2127079092e+00    0.0222352   0.01294838 -21.21  0.001929224    2.578    0.612
        87  -9.7821    203.0136    195.9770   2.9062278454e+02   4.3312905364e+00   0.01000162  0.009654987 -56.35 0.0006303996    1.015    0.014
        88 -11.4918    215.5575    194.2301   2.9046973967e+02   4.2788878347e+00   0.01815573  0.009845845 -63.50  0.001718965    1.821    0.451
        89 -10.4102    163.3265    191.0894   2.9104523775e+02   4.6173005317e+00   0.01390667  0.004959328 -55.09  0.001092724    2.539    0.606
        90  -9.2039     60.2757    192.6929   2.9222842366e+02   5.1932548225e+00  0.006600116  0.004963492  67.27 0.0002373453    1.549    0.354
        91 -11.7135    187.8886    189.2741   2.9075493675e+02   4.4962635228e+00   0.01816446   0.01129117 -59.95  0.001852887    1.552    0.356
        92  -9.3022    205.5236    190.4493   2.9056133295e+02   4.3806499775e+00  0.006507501  0.006312695 -41.81 0.0002776535    1.027    0.026
        93  -9.8921    250.4715    190.0281   2.9004786075e+02   4.1252633036e+00   0.01011492  0.006380702 -63.62 0.0005484871    1.564    0.360
        94 -10.3110    218.2970    187.4652   2.9039830616e+02   4.3412002606e+00   0.01255887  0.005845733 -63.21   0.00109145    2.118    0.528
        95  -9.4765    169.9940    185.5048   2.9093613180e+02   4.6433203762e+00  0.009561194  0.006431057  29.33 0.0003930935    1.500    0.334
        96  -9.8697    166.5409    183.4910   2.9096345190e+02   4.6865651771e+00   0.01120108  0.006448583  28.10  0.001086958    1.757    0.431
        97  -9.3833     61.6067    184.7884   2.9216637749e+02   5.2770383890e+00  0.009486577  0.006304915 -78.01 0.0009531559    1.700    0.412
        98 -12.0832     16.4046    182.9760   2.9267087660e+02   5.5579719307e+00   0.02031516   0.01778363  81.10  0.001847711    1.227    0.185
        99 -11.7491    244.6213    177.9922   2.9004261172e+02   4.2981853396e+00   0.01912722  0.009956917 -37.11  0.001424884    2.347    0.574
       100 -10.0019    142.0026    183.5011   2.9124286169e+02   4.8282524958e+00   0.00963423  0.005675958  -8.07 0.0008105951    2.667    0.625
       101 -10.1905    236.4656    182.4733   2.9016201551e+02   4.2936664130e+00  0.006479616  0.006356097 -73.14 0.0003254319    1.014    0.014
       102  -9.6086     58.4886    182.4448   2.9218801276e+02   5.3221013561e+00   0.00651261  0.006301852 -39.38   0.00018683    1.033    0.032
       103 -11.8515    192.1376    194.8781   2.9073994970e+02   4.4069121063e+00   0.01894532   0.01420062  73.96  0.002050007    1.590    0.371
       104 -10.5859      2.2664    180.2698   2.9281604094e+02   5.6704739081e+00   0.01279878   0.01017449  62.56 0.0005522393    1.395    0.283
       105 -11.7060    224.1911    178.3118   2.9027676207e+02   4.4128367967e+00   0.01459742    0.0143314  37.91 0.0004927863    1.038    0.036
       106 -10.9882    200.4445    176.3748   2.9053529817e+02   4.5727006161e+00   0.01343632  0.009583657 -21.71  0.001033689    1.698    0.411
       107  -9.2519     70.2076    177.5986   2.9202569495e+02   5.3106808330e+00  0.008374694  0.006367578   7.71 0.0003881156    1.483    0.326
       108  -9.8100    211.2734    175.3536   2.9040603849e+02   4.5218163418e+00  0.006948551  0.004747137 -34.30 0.0007001691    1.640    0.390
       109 -10.5369    241.6201    173.2297   2.9004833506e+02   4.3705883152e+00  0.009728237  0.005641788 -51.89 0.0009454335    1.662    0.398
       110  -9.8468    183.3456    173.3106   2.9071160497e+02   4.7070600907e+00  0.007004988  0.004876686 -27.02 0.0004468135    1.705    0.414
       111 -11.7651    249.1425    181.4927   2.9001209582e+02   4.2315550775e+00   0.03061818     0.014637 -44.65  0.002677187    2.215    0.549
       112  -9.3240     59.6312    171.8315   2.9211202219e+02   5.4383021667e+00  0.009382739  0.006232366 -77.64 0.0009428473    1.695    0.410
       113  -9.9013     74.7851    171.4894   2.9193725875e+02   5.3549773541e+00  0.009443947  0.006511788  25.91  0.000997298    1.487    0.327
       114 -10.3489    196.9965    169.2454   2.9053206259e+02   4.6750504661e+00  0.008676103  0.005587908  27.06 0.0004898917    1.583    0.368
       115  -9.7263    193.3279    172.3422   2.9059224781e+02   4.6604926980e+00  0.007113569  0.004813296 -29.80 0.0007051227    1.741    0.426
       116  -9.8321      4.5891    167.7446   2.9271537921e+02   5.8020575277e+00   0.01303317  0.005871267 -58.41  0.001135424    2.078    0.519
       117  -9.7952    210.0173    166.3334   2.9036658397e+02   4.6333200729e+00  0.009160656   0.00856587  21.20 0.0004984065    1.096    0.087
       118 -10.6221     51.5857    164.5293   2.9216041112e+02   5.5690889820e+00   0.01842807  0.009113786 -34.64   0.00149746    2.741    0.635
       119 -10.5007     40.7583    165.0464   2.9228693255e+02   5.6254091674e+00   0.00908328  0.008263825 -67.01  0.000305018    1.085    0.079
       120  -9.5823      9.9822    165.0714   2.9263803638e+02   5.8020172679e+00  0.007903661  0.007477276 -62.93 0.0004869968    1.036    0.035
       121  -9.2227    229.5078    164.5337   2.9013419694e+02   4.5412229574e+00   0.00655428  0.006288778 -39.21  0.000169726    1.042    0.041
       122 -10.6867     36.1298    161.8678   2.9232085620e+02   5.6888025059e+00   0.01762959  0.009371619 -62.01  0.001660079    1.827    0.453
       123 -11.3719    247.9308    158.9392   2.8989139756e+02   4.4990802425e+00   0.02281396   0.01426796 -74.99   0.00225786    1.792    0.442
       124  -9.4723    200.0246    162.7689   2.9045902683e+02   4.7323664341e+00  0.008526091  0.005455473  27.79 0.0004265602    1.587    0.370
       125  -9.9924    238.4023    158.7667   2.8999868489e+02   4.5563024950e+00  0.009569055  0.005704779 -51.25 0.0005532239    1.624    0.384
       126  -9.5351     48.4911    158.5379   2.9216014001e+02   5.6562055650e+00  0.006480147  0.006355827 -55.46 0.0002167838    1.004    0.004
       127  -9.8441      7.8667    158.3855   2.9262254150e+02   5.8915177645e+00  0.008942732  0.006337256   8.57 0.0006145923    1.635    0.389
       128 -10.6324     23.1760    156.1730   2.9243481018e+02   5.8291596495e+00   0.02398073  0.009298668  33.39  0.001976974    2.455    0.593
       129  -9.7482     23.7012    152.6752   2.9240807435e+02   5.8666036436e+00   0.01065227  0.008093654 -58.96  0.000583331    1.276    0.216
       130  -9.8186    217.4610    154.7095   2.9021263224e+02   4.7245140673e+00   0.01207068  0.005943847  26.19  0.001077248    2.094    0.522
       131 -10.0375    205.4735    152.5350   2.9033604218e+02   4.8190720689e+00   0.01252045  0.005129644 -51.35  0.001034054    2.315    0.568
       132  -9.8919    197.0342    153.5268   2.9043798194e+02   4.8564807130e+00   0.01014172  0.006472714  27.43  0.001032876    1.594    0.373
       133  -9.2626    151.5068    153.0301   2.9095333394e+02   5.1256265346e+00  0.009269278  0.005645595  82.28 0.0008087451    2.436    0.589
       134 -10.4412     10.0631    152.5537   2.9256291907e+02   5.9463692701e+00   0.01507135  0.009388952  53.29 0.0007657011    1.848    0.459
       135 -10.4864    178.3427    151.4325   2.9063824701e+02   4.9888750830e+00   0.01453022   0.01109013  49.78  0.001623457    1.385    0.278
       136  -9.5718     92.9641    148.0063   2.9159052082e+02   5.5217821654e+00  0.007926781  0.007830502  21.65  0.001002884    1.033    0.032
       137  -9.4279    233.5285    147.0067   2.8998396323e+02   4.7203903430e+00   0.01022738   0.00632286 -61.74  0.001025826    1.575    0.365
       138 -10.4461    206.9835    145.9748   2.9027975357e+02   4.8861253320e+00   0.01240301  0.009273061  27.82 0.0007577809    1.360    0.265
       139  -9.1142     37.5046    146.4728   2.9221382641e+02   5.8589799085e+00  0.006492689  0.006351528 -53.48  0.000222734    1.007    0.007
       140 -11.2081      7.6640    145.2940   2.9254724351e+02   6.0441286715e+00    0.0144148   0.01006998  41.67 0.0007978186    1.461    0.316
       141 -10.6481      2.9773    143.8197   2.9259197390e+02   6.0880954712e+00   0.01310601  0.009341314   9.95  0.000834589    1.605    0.377
       142 -10.2391    212.4434    141.5968   2.9019152654e+02   4.9050760302e+00   0.01714593   0.01033623  -4.62  0.001522046    2.477    0.596
       143 -10.0239     37.4218    142.1866   2.9218932741e+02   5.9090338328e+00   0.01103836  0.007602317  34.19  0.001176118    1.454    0.312
       144 -11.5867     12.2815    141.3761   2.9247132670e+02   6.0629280035e+00   0.01666058   0.01095759 -20.06   0.00140719    1.987    0.497
       145 -11.4303     57.6487    138.5662   2.9193710812e+02   5.8344908418e+00   0.01832552   0.01194358  60.54 0.0006938799    1.877    0.467
       146 -10.0910    236.0087    138.6909   2.8990615009e+02   4.8020629704e+00  0.009244731  0.008370955  27.94 0.0007030648    1.125    0.111
       147  -9.5856     44.2343    138.2675   2.9208834541e+02   5.9151674876e+00   0.01055268  0.005570054 -77.05 0.0008953742    2.405    0.584
       148 -11.5567      3.5581    135.9665   2.9253877548e+02   6.1756022804e+00   0.02923954   0.01408889 -37.28  0.002152814    2.646    0.622
       149 -11.9870      9.1197    136.7973   2.9248024117e+02   6.1340534551e+00     0.012924   0.01209648 -26.17 0.0002585702    1.098    0.089
       150 -10.3323     22.1323    136.2514   2.9232852671e+02   6.0656012383e+00   0.01280832  0.008339508  46.26  0.001314461    1.623    0.384
       151  -9.9118    138.3436    135.2746   2.9099756190e+02   5.4069701154e+00   0.01191462  0.008202143   8.16 0.0007236707    1.718    0.418
       152  -9.4799     41.2826    135.4481   2.9210527367e+02   5.9647607645e+00  0.008652745  0.006041539  40.41 0.0004496179    1.454    0.312
       153  -9.9161     79.5222    133.4381   2.9165716194e+02   5.7677625059e+00  0.006444423   0.00635718 -87.10 0.0001261337    1.021    0.020
       154 -11.9610     36.3494    130.8479   2.9213423521e+02   6.0463454026e+00   0.02110158   0.01612433 -65.54  0.001498715    1.297    0.229
       155 -10.4920    249.5560    130.2054   2.8970147588e+02   4.8214912518e+00   0.01331924   0.01018102  62.39  0.001468495    1.480    0.324
       156 -10.1857     74.1306    129.2732   2.9169388513e+02   5.8470026379e+00   0.01140209  0.008593409 -46.47 0.0006982238    1.321    0.243
       157  -9.4587     29.1744    130.6044   2.9221465435e+02   6.0904286716e+00  0.008596571  0.006324777   6.23 0.0002989637    1.570    0.363
       158 -10.0649    125.4439    129.9875   2.9111308117e+02   5.5426298814e+00   0.01828066  0.009311432   0.37  0.001306192    3.836    0.739
       159  -9.0697     60.2700    128.6858   2.9184849229e+02   5.9336578048e+00   0.00659675  0.004970674  68.58 0.0002466239    1.553    0.356
       160  -9.7728      1.3196    126.7594   2.9250970449e+02   6.2949467099e+00   0.01279688  0.006139493 -67.00  0.001109347    2.181    0.542
       161 -10.7048     44.3413    125.8649   2.9201345051e+02   6.0579899966e+00   0.01081778  0.008757234  40.71 0.0004099929    1.256    0.204
       162 -10.5090    219.5612    124.4980   2.9000854084e+02   5.0613457569e+00   0.01191427   0.01080379 -38.71 0.0005828312    1.113    0.102
       163 -11.5570     10.2166    122.5470   2.9238316259e+02   6.2925725147e+00    0.0229564    0.0159286  20.99   0.00245765    1.524    0.344
       164  -9.5096     20.5489    121.5687   2.9225943226e+02   6.2445158701e+00  0.006436576  0.006322265 -53.63 0.0001284274    1.006    0.006
       165  -9.7116    221.6362    120.1606   2.8995904760e+02   5.0994128728e+00  0.009883789  0.005516986 -51.54 0.0009425106    1.727    0.421
       166  -9.4189    166.4985    119.0101   2.9057988540e+02   5.4321109218e+00  0.009751214  0.006314783 -60.98 0.0005025685    1.499    0.333
       167 -10.4934     54.1562    117.7389   2.9185316830e+02   6.0954537011e+00   0.01334609   0.01000649  12.44 0.0008693617    1.471    0.320
       168 -11.0605     18.3083    116.0295   2.9225211039e+02   6.3214517767e+00   0.01621627   0.01338479 -43.25 0.0009349588    1.218    0.179
       169  -9.8099     19.7135    112.6909   2.9221624189e+02   6.3519817223e+00   0.01013468   0.00905454 -40.16 0.0005897792    1.127    0.113
       170 -12.1651     16.5802    108.6349   2.9222791641e+02   6.4168905640e+00   0.02049149   0.01935383  83.18 0.0006915522    1.089    0.082
       171 -10.1141    179.2017    116.2197   2.9041856059e+02   5.3908145836e+00  0.009709148  0.008777971 -27.48 0.0005162636    1.150    0.131
       172  -9.0519    107.5384    115.5552   2.9123126779e+02   5.8128814740e+00  0.006464668  0.006335797 -52.12 7.683989e-05    1.008    0.008
       173 -10.3881     35.1916    113.8767   2.9204662471e+02   6.2492668193e+00   0.01790218   0.01005882 -72.96  0.001663135    2.006    0.501
       174  -9.8802     38.4430    111.5002   2.9199539317e+02   6.2580402612e+00   0.01233167   0.01159331   4.60 0.0009613698    1.104    0.094
       175 -10.3483     35.6260    109.2578   2.9201421627e+02   6.3001762620e+00   0.01196607  0.006443225 -68.03 0.0004742627    1.946    0.486
       176 -10.1636    103.3281    113.3346   2.9126605509e+02   5.8628580036e+00  0.007073274  0.004826994 -29.48 0.0002786574    1.722    0.419
       177  -9.3305     66.6416    112.8501   2.9168164070e+02   6.0800570224e+00  0.008567946  0.006166055 -78.03 0.0001177837    1.521    0.343
       178  -8.8935    212.6702    112.6499   2.9001624078e+02   5.2381391995e+00  0.007159421  0.004795196 -29.98 0.0007048284    1.767    0.434
       179  -9.9199     42.2542    110.7330   2.9194733689e+02   6.2449791203e+00  0.009460162  0.008730149  74.31 0.0007893717    1.133    0.117
       180  -9.8137    167.3162    109.0017   2.9051088656e+02   5.5430215877e+00  0.009501941  0.008245399 -61.61 0.0005594976    1.128    0.113
       181 -10.2347    241.9964    108.1714   2.8965586831e+02   5.1197642094e+00   0.01134616  0.006755877  52.58  0.000583872    1.951    0.488
       182 -10.9337     23.1908    106.9894   2.9214267692e+02   6.3979204347e+00   0.01283415  0.009811971 -55.86 0.0004589801    1.266    0.210
       183  -9.4371    133.3268    107.3378   2.9088829720e+02   5.7588709140e+00  0.007085042  0.004821651 -29.67 0.0005628245    1.727    0.421
       184 -10.1921     76.4325    106.9787   2.9153500080e+02   6.0915017211e+00   0.01028214  0.006275883 -61.96 0.0004354223    1.596    0.374
       185 -11.0151      4.2677    105.8902   2.9235217935e+02   6.5193606715e+00   0.02119682   0.01262339  44.08  0.001394217    1.756    0.430
       186  -9.1964    126.9749    106.7685   2.9095731557e+02   5.8021661403e+00  0.008136182  0.005498397  25.84            0    1.519    0.341
       187  -9.7819    223.3223    103.9688   2.8984319878e+02   5.2766246475e+00  0.009327996  0.008137759 -62.96 0.0004584551    1.125    0.111
       188 -10.1471     92.8667    103.5067   2.9132684911e+02   6.0368424985e+00    0.0178742   0.01127066 -87.89  0.001694818    2.082    0.520
       189 -11.4352     70.3318    102.6190   2.9157866104e+02   6.1770704495e+00   0.01938303    0.0101912  18.50  0.001000118    2.202    0.546
       190 -10.5840    247.6064    102.2258   2.8955655520e+02   5.1558459978e+00  0.009753384  0.005674722 -51.71 0.0008017637    1.658    0.397
       191  -9.8248    120.2091    101.2749   2.9100171766e+02   5.9047530268e+00   0.01049142  0.008189077 -11.87 0.0006979131    1.494    0.330
       192 -10.2195     36.6554    101.2664   2.9195496023e+02   6.3866492515e+00   0.01225827  0.008743642  29.71  0.000791304    1.416    0.294
       193 -10.0659     27.9507    100.9644   2.9205253327e+02   6.4402128585e+00  0.009259459  0.009085481 -12.21  0.001174038    1.038    0.037
       194 -10.7735      3.9872    100.7969   2.9232513409e+02   6.5798626666e+00   0.01768958  0.009884049  38.07  0.001648551    1.787    0.440
       195 -11.1796     20.7023     98.4471   2.9212032347e+02   6.5109926094e+00   0.02054013   0.01202176 -74.21  0.001657978    1.936    0.484
       196 -12.2166      8.6749     94.3830   2.9223350342e+02   6.6270937430e+00   0.02040434   0.01240867 -45.30  0.002041417    1.673    0.402
       197 -10.6879    109.1560     93.2666   2.9108004410e+02   6.0611537278e+00   0.01352417   0.00826901 -58.34  0.000674797    1.568    0.362
       198 -10.5775     61.9606     98.5102   2.9164973726e+02   6.2728107236e+00   0.01288792  0.008693786   5.12  0.001300704    1.818    0.450
       199 -10.5070      1.8409     93.1285   2.9230409109e+02   6.6808463089e+00   0.01979043  0.008244064 -48.18  0.001639123    2.394    0.582
       200  -9.4273    171.4696     91.5017   2.9035915904e+02   5.7211417975e+00  0.006545973   0.00629983 -43.18 0.0001433472    1.033    0.032
       201 -10.6397     96.3484     90.5158   2.9120975062e+02   6.1668953494e+00   0.01406757  0.008737123 -20.81  0.001299636    2.226    0.551
       202 -10.5396     80.0176     96.5644   2.9143210110e+02   6.1912127142e+00  0.009890511  0.008500388 -64.15 0.0002827087    1.145    0.126
       203  -9.5277      7.0661     88.7018   2.9221811482e+02   6.7020128417e+00  0.008705111  0.008114127  29.91 0.0003537023    1.092    0.085
       204 -11.2658     46.5685     83.9467   2.9173876498e+02   6.5298050157e+00   0.03108559    0.0194112 -74.46  0.002536986    1.779    0.438
       205 -10.8955     67.1381     85.1087   2.9151087067e+02   6.3978764524e+00   0.01055771  0.008690616 -32.15 0.0006801475    1.288    0.223
       206 -10.7368    118.2186     83.2586   2.9091701823e+02   6.1244409760e+00   0.01466739   0.01050935 -27.45 0.0009880913    1.622    0.383
       207 -11.4063     24.2658     78.7511   2.9196252275e+02   6.7181834209e+00   0.02188873   0.01766029  40.83  0.001913908    1.261    0.207
       208 -11.4055     19.9619     82.1040   2.9203161646e+02   6.7041751879e+00   0.01520718    0.0122443  79.72  0.000446846    1.409    0.290
       209 -11.2550     15.9711     81.6421   2.9207444696e+02   6.7324535647e+00   0.01729867   0.01323657 -32.54  0.001217479    1.419    0.295
       210 -10.0805      7.5945     81.8736   2.9217149574e+02   6.7779080190e+00   0.01715052  0.007733603 -44.66  0.001442198    2.369    0.578
       211 -10.1082      2.4434     72.0628   2.9217200919e+02   6.9208863304e+00   0.01291322  0.009617437 -32.54 0.0007474159    1.473    0.321
       212 -11.5956      3.0017     78.7181   2.9220519735e+02   6.8407599990e+00   0.02696444   0.01850475   2.69  0.002770351    1.795    0.443
       213 -11.1565     77.6674     71.8537   2.9131172724e+02   6.4903393471e+00   0.02121126   0.01260957  46.34  0.001350333    1.801    0.445
       214 -11.4106     75.4025     81.7796   2.9139671561e+02   6.3887039691e+00   0.02240641  0.009039748 -67.03  0.001767055    2.691    0.628
       215 -11.0250     71.7090     79.0300   2.9142249489e+02   6.4417769160e+00   0.01655583    0.0113998 -54.20 0.0006455625    1.401    0.286
       216 -10.3301     74.2930     76.3424   2.9137698925e+02   6.4579338764e+00   0.01260841  0.009772155 -26.42 0.0006381416    1.444    0.308
       217 -11.0182    150.8500     78.5401   2.9051678624e+02   5.9902345593e+00   0.01215719   0.01048436  87.33 0.0003554795    1.248    0.199
       218 -10.0754    100.8075     78.3931   2.9108662779e+02   6.2812345412e+00  0.009343496  0.006381548   9.67 0.0009519538    1.715    0.417
       219  -9.5551     36.2027     77.7530   2.9182026445e+02   6.6610550266e+00  0.009125815  0.007299314 -35.20 0.0004612939    1.316    0.240
       220 -11.2452      6.8227     73.7861   2.9213222873e+02   6.8758171734e+00   0.02867651   0.01269469  19.55  0.002327329    2.715    0.632
       221 -11.7771     62.6019     72.2104   2.9148583502e+02   6.5730781460e+00   0.01954384   0.01642527 -75.00  0.001895077    1.220    0.181
       222 -11.1593     59.1902     76.5873   2.9155085386e+02   6.5421609793e+00   0.02028201   0.01428372  74.20   0.00143918    1.781    0.438
       223 -10.2956     54.7566     72.5415   2.9157737957e+02   6.6144562801e+00   0.01077534  0.008992544 -81.93 0.0005926813    1.269    0.212
       224  -9.5151    193.9671     77.0000   2.9001629836e+02   5.7582575639e+00   0.01081445  0.003748751  27.08 0.0008025444    2.943    0.660
       225 -10.8588     85.5341     82.5049   2.9128541149e+02   6.3218810160e+00   0.01943566   0.01094543 -72.18  0.001787882    1.977    0.494
       226 -11.4994    108.3762     75.0105   2.9098010765e+02   6.2766023003e+00   0.02428824   0.01243419 -51.32  0.001533341    1.878    0.468
       227 -10.2832     40.6172     73.1952   2.9174272613e+02   6.6883219755e+00   0.01703206   0.01185818 -75.87  0.001023341    1.561    0.360
       228 -11.2597    152.1879     72.1939   2.9046365505e+02   6.0557889197e+00   0.01480263     0.010626  20.07  0.001078955    1.477    0.323
       229 -10.1462    115.8786     70.7030   2.9086882764e+02   6.2830170027e+00   0.01320827  0.009476996 -71.61   0.00142383    1.449    0.310
       230 -11.1824     94.6334     69.3272   2.9110302912e+02   6.4216267360e+00   0.01642141   0.00775542 -58.08  0.001118701    1.991    0.498
       231 -11.3768     69.1017     67.4242   2.9138311511e+02   6.5909141659e+00   0.01579547   0.01372522 -56.36 0.0007542711    1.121    0.108
       232 -12.0527     49.5556     69.3115   2.9161753199e+02   6.6817371353e+00   0.02454436   0.01718024 -20.14  0.002539662    1.767    0.434
       233 -11.0962     31.0345     66.4702   2.9181213856e+02   6.8211780713e+00   0.01832725   0.01232689 -49.83 0.0008336758    1.455    0.313
       234 -11.2322     25.5069     68.3333   2.9188636369e+02   6.8314436880e+00   0.01688278     0.013928 -20.97  0.001454893    1.339    0.253
       235 -10.7753     20.8877     66.1703   2.9192625662e+02   6.8830001108e+00   0.01787899  0.009601665  38.83  0.001609408    1.864    0.463
       236 -10.5618     37.2401     67.5778   2.9174785381e+02   6.7726730474e+00   0.01695852   0.01100838 -49.42  0.001763969    1.510    0.338
       237 -10.3901     14.6014     67.0771   2.9200346378e+02   6.9086568540e+00   0.01769357   0.01625354  45.95  0.001190357    1.113    0.101
       238  -9.4322    219.8298     68.4067   2.8967047679e+02   5.7074391818e+00  0.008551695  0.006389373   8.64 0.0004548967    1.517    0.341
       239 -11.1520    130.4055     65.4437   2.9067174317e+02   6.2597832884e+00   0.02193213   0.01181072 -76.53  0.001931389    2.307    0.567
       240 -10.1258      6.9033     67.9775   2.9209676489e+02   6.9424836386e+00  0.009873067  0.009496648   2.98  0.001241485    1.070    0.065
       241 -10.2451      2.2284     65.1085   2.9213311148e+02   7.0024881264e+00   0.02181594  0.007998109 -47.11  0.001673816    2.814    0.645
       242 -10.1644    156.4973     66.5302   2.9038071493e+02   6.0962481120e+00   0.00648978   0.00635435  87.56 4.983231e-05    1.031    0.031
       243  -9.1191    146.6964     66.2807   2.9049096287e+02   6.1558655351e+00  0.006640672  0.004915211  62.01 0.0002479304    1.552    0.355
       244 -11.5551    120.3438     64.4182   2.9078039527e+02   6.3298053463e+00   0.02822785   0.01400113 -34.52  0.002307354    2.739    0.635
       245 -11.4117     98.7042     65.5586   2.9103410181e+02   6.4416582859e+00   0.02616384  0.008216321  35.16  0.001970125    2.937    0.660
       246 -10.2925    165.7968     64.8748   2.9026482745e+02   6.0615083440e+00  0.009892361  0.008491299 -39.31 0.0003488567    1.185    0.156
       247 -10.3409    138.1575     65.1954   2.9058185145e+02   6.2178092312e+00  0.009294651  0.007564574  61.56 0.0006005073    1.344    0.256
       248 -10.9726    105.8963     64.2606   2.9094428882e+02   6.4151145121e+00   0.01602443  0.009019612 -74.75  0.001471489    2.074    0.518
       249 -11.2893     84.2211     63.1746   2.9118518672e+02   6.5528028702e+00   0.02177808   0.01621532  89.15  0.002357194    1.574    0.365
       250 -10.6720     86.1248     58.1192   2.9113331253e+02   6.6002156300e+00   0.01624436   0.01153288 -76.57 0.0006615247    1.532    0.347
       251 -10.5098     76.6100     65.1853   2.9128405640e+02   6.5734833111e+00   0.01679739  0.007298918  42.63  0.001407123    2.412    0.585
       252 -10.9343    174.3545     63.8015   2.9016088860e+02   6.0243222661e+00   0.01367308   0.01063432  47.50 0.0005145067    1.340    0.254
       253 -10.5647    170.0837     61.2988   2.9019460859e+02   6.0779639481e+00   0.01143573  0.008150691  38.84 0.0002969234    1.416    0.294
       254  -9.4787    170.3211     57.7211   2.9017053007e+02   6.1178933103e+00  0.009238741  0.005802191 -53.01 0.0002629937    1.534    0.348
       255 -10.7263     41.0650     63.7878   2.9168160371e+02   6.7944510249e+00   0.01428841  0.008335042  81.44  0.001199301    2.741    0.635
       256 -10.5984     51.8464     62.4730   2.9155064245e+02   6.7475583029e+00   0.01325967  0.009293781 -36.96  0.001312064    1.542    0.351
       257 -11.1699     11.0062     62.3763   2.9201657017e+02   6.9836360872e+00   0.01425805   0.01149173 -41.68 0.0008318852    1.259    0.206
       258 -10.9407     64.6865     60.1127   2.9138995543e+02   6.7008401807e+00   0.02290135  0.007753174  33.11  0.001778977    2.757    0.637
       259 -10.0789     71.8385     61.7946   2.9131831973e+02   6.6401748173e+00   0.01139457    0.0101167  41.07 0.0002479311    1.146    0.127
       260 -10.6685     70.2527     58.5664   2.9131718287e+02   6.6866127249e+00   0.01323745  0.009269426 -50.33 0.0009127136    1.395    0.283
       261 -10.6654     32.7922     61.0394   2.9175973075e+02   6.8738167397e+00   0.01853223   0.01222403 -29.08  0.001859899    1.823    0.452
       262 -10.8722     27.1448     61.2048   2.9182522648e+02   6.9043943955e+00   0.02100179  0.009611566  25.75  0.001651365    2.267    0.559
       263  -9.8328    183.9258     61.2925   2.9003683804e+02   5.9978161250e+00   0.00901675  0.008362117  16.86 0.0003862399    1.111    0.100
       264  -9.7374     93.2833     61.3079   2.9107061937e+02   6.5220612669e+00  0.006736298  0.004843408 -31.34 0.0003219231    1.565    0.361
       265 -11.3619     57.6979     59.5432   2.9146636399e+02   6.7476961665e+00   0.01678982   0.01372678 -62.91  0.001960278    1.200    0.167
       266 -10.1813     18.2442     59.4434   2.9191642403e+02   6.9759263651e+00   0.01497957  0.009158105 -79.02 0.0006248803    1.958    0.489
       267 -10.9148    137.0259     57.9710   2.9055162924e+02   6.3077867464e+00   0.02096288   0.01244477 -19.18  0.001669257    2.513    0.602
       268 -10.9723    137.5338     54.5187   2.9052522382e+02   6.3447136499e+00   0.01268136   0.01129802 -26.03 0.0005034895    1.178    0.151
       269 -12.2581    136.1690     50.9839   2.9051968206e+02   6.3934254103e+00   0.01581703   0.01256179  63.35 0.0003622933    1.403    0.287
       270 -10.9155      5.6372     58.7563   2.9205637774e+02   7.0563096310e+00   0.01695191   0.01157668  49.79  0.001783933    1.584    0.369
       271 -10.9604    122.9782     56.6579   2.9070402860e+02   6.4042018662e+00   0.02173126   0.01047475  50.58  0.001818666    2.555    0.609
       272  -9.7583     38.7337     58.4171   2.9167624806e+02   6.8699228186e+00  0.008934299    0.0064053   8.05 0.0009378031    1.613    0.380
       273 -10.2443    114.8121     57.3325   2.9080122265e+02   6.4436188411e+00   0.01952663  0.008517076  20.34  0.001298449    2.719    0.632
       274  -9.8140    117.5350     54.5289   2.9075342246e+02   6.4602576511e+00   0.01193355  0.006569456 -67.27 0.0006374369    1.880    0.468
       275  -9.4603     80.7291     57.0150   2.9118832402e+02   6.6441059560e+00  0.009003378  0.008153309 -63.61 0.0004129028    1.085    0.078
       276 -11.0115     99.8974     55.9381   2.9096310031e+02   6.5458944832e+00   0.02529113   0.01004706  23.45  0.001994422    2.793    0.642
       277  -9.3996     96.2431     53.0014   2.9098729051e+02   6.6009159765e+00  0.009112229  0.006279577 -78.90  0.000292286    1.633    0.387
       278  -9.3970    149.5274     55.5628   2.9039468307e+02   6.2632423982e+00  0.006449268   0.00634459  85.46 7.816636e-06    1.027    0.026
       279 -11.4965     38.1292     51.7960   2.9164371633e+02   6.9498933087e+00   0.03017594   0.02108396 -36.08  0.003210618    1.560    0.359
       280 -10.0005     44.5833     51.2920   2.9156698702e+02   6.9185592924e+00   0.01251561  0.009700952 -37.92 0.0007613589    1.348    0.258
       281 -10.5710     46.0760     47.0153   2.9152445201e+02   6.9593642270e+00   0.01172501  0.009343316 -72.37 0.0003036746    1.285    0.222
       282 -12.4691    127.9991     51.3845   2.9061526796e+02   6.4360627544e+00   0.02064426   0.01297859 -49.43 0.0003863806    1.560    0.359
       283 -11.5231      4.5833     52.6977   2.9203237241e+02   7.1323625602e+00   0.02954559   0.01544604  -1.22  0.002205761    3.577    0.720
       284 -11.3793     13.0180     49.8642   2.9191912151e+02   7.1166354664e+00   0.02010563   0.01115822 -54.64  0.001465102    1.713    0.416
       285 -12.1788      8.6663     45.8277   2.9194482266e+02   7.1882705804e+00   0.02885159   0.02372044   8.05  0.001557009    1.323    0.244
       286  -9.8675      7.0000     40.9577   2.9193487502e+02   7.2540961649e+00  0.009067354  0.008481483 -57.38 0.0005796307    1.045    0.043
       287 -10.0605    157.6065     52.3289   2.9028325106e+02   6.2537988613e+00   0.01186687  0.007584693 -50.74 0.0007656044    1.523    0.343
       288 -10.2524     87.1149     52.8096   2.9109034418e+02   6.6558301327e+00   0.01023442  0.008760922  57.60 0.0009232343    1.238    0.192
       289 -10.0264     83.1244     51.3617   2.9112726508e+02   6.6955832027e+00   0.01120362  0.008445481 -51.71 0.0005990322    1.292    0.226
       290 -11.7411     51.6684     48.9280   2.9147197009e+02   6.9050608982e+00   0.02957069   0.01353694 -68.71  0.002034965    2.407    0.585
       291 -10.0208    141.6731     49.6813   2.9044912457e+02   6.3766140288e+00   0.01045516  0.006461059 -58.42 0.0005079877    1.554    0.356
       292 -12.4036    142.7017     46.1090   2.9041605638e+02   6.4119039622e+00   0.02901802   0.01448391  38.08   0.00267305    1.986    0.497
       293 -10.3484    114.9849     49.2819   2.9075120137e+02   6.5355904635e+00     0.013077  0.009062804 -50.66  0.001281652    1.408    0.290
       294 -10.9935    101.6849     49.4307   2.9090387300e+02   6.6107253111e+00   0.01998505  0.009657877  42.84   0.00177547    2.161    0.537
       295 -10.8107     76.9716     49.9739   2.9118923682e+02   6.7471129745e+00   0.01072847  0.007528304 -29.92  0.001116113    1.641    0.391
       296 -10.9368    154.8481     47.8727   2.9028807759e+02   6.3212185310e+00   0.01011997  0.009820211 -77.58 0.0004326363    1.029    0.028
       297 -10.1034    162.9372     47.5349   2.9019383353e+02   6.2782642633e+00  0.009559977  0.006487527  26.40 0.0004142156    1.508    0.337
       298  -9.2165    104.3342     46.2971   2.9085493379e+02   6.6316074454e+00  0.006875381  0.004897709 -26.58 0.0006424537    1.647    0.393
       299  -9.9068     91.8349     46.1505   2.9099673540e+02   6.7054892680e+00   0.01036584  0.008675443  73.28 0.0008722313    1.321    0.243
       300  -9.4495     22.8573     46.1568   2.9178461414e+02   7.1028979181e+00  0.008875732   0.00717654 -38.50 0.0004165072    1.275    0.216
       301  -9.8981    233.1650     45.1694   2.8937973807e+02   5.8981386041e+00  0.009743306  0.008468005 -37.07 0.0004397808    1.178    0.151
       302 -10.0020    157.6968     46.3384   2.9024642976e+02   6.3224312025e+00  0.006872611  0.006477281 -36.06 0.0005007688    1.070    0.065
       303 -11.0408    122.2245     44.3776   2.9063931335e+02   6.5503640579e+00   0.01877739   0.01255184 -68.61 0.0007584952    1.534    0.348
       304 -10.8818    119.2476     39.5685   2.9064456432e+02   6.6231008199e+00   0.01262335    0.0108085 -31.03 0.0007647492    1.227    0.185
       305 -10.2185     86.6717     45.0099   2.9104887551e+02   6.7484683022e+00   0.01325017  0.006992297  12.81  0.000711394    2.476    0.596
       306  -9.5185     75.1227     43.6704   2.9117275424e+02   6.8305800177e+00   0.01287959  0.005153936  35.73  0.001062339    2.397    0.583
       307 -11.1454     64.0678     41.5435   2.9128632094e+02   6.9188941068e+00   0.01310462   0.01079643 -56.47 0.0009060257    1.180    0.153
       308 -11.3294     68.7194     37.8734   2.9121130480e+02   6.9344560743e+00   0.02215596   0.01137537 -53.39    0.0020715    1.849    0.459
       309  -9.7311    163.3015     42.3351   2.9015860708e+02   6.3361742817e+00  0.006961831  0.004819147 -31.19 0.0003125676    1.659    0.397
       310  -9.9863     56.4572     42.0729   2.9137640768e+02   6.9566454927e+00   0.01024443  0.006413571 -65.63  0.001028459    1.602    0.376
       311 -10.2291     24.1660     41.4442   2.9174159037e+02   7.1498059477e+00   0.01244914   0.01022024  39.14  0.001451853    1.236    0.191
       312 -10.3490    225.5673     40.0508   2.8943559188e+02   6.0013149897e+00   0.01546743   0.01026439  60.29   0.00155389    1.819    0.450
       313  -9.1985    111.9240     42.0000   2.9074266079e+02   6.6373661078e+00    0.0106285  0.003746997  26.99 0.0007953403    2.893    0.654
       314 -10.5777     95.5534     40.3332   2.9091956991e+02   6.7511929270e+00    0.0161022   0.01004106  48.99  0.001607375    1.755    0.430
       315 -10.2413     44.1376     39.7163   2.9150309503e+02   7.0548285108e+00   0.01536526  0.009835661 -69.82 0.0009895609    1.631    0.387
       316  -9.5357    194.2891     38.3310   2.8978150676e+02   6.2027231073e+00  0.006887313  0.004815928 -31.98 0.0003107643    1.623    0.384
       317 -10.0765     98.4959     44.6963   2.9091201911e+02   6.6838179030e+00   0.01315353  0.009258157 -19.78 0.0007530398    1.755    0.430
       318 -11.7982     82.5074     36.9064   2.9104807388e+02   6.8660784774e+00   0.01678031   0.01400822  48.23 0.0009816377    1.241    0.194
       319  -9.4421     19.3717     37.8403   2.9177491290e+02   7.2189988845e+00  0.009478206  0.005589957 -51.20 0.0006187679    1.641    0.390
       320  -9.7279      1.3285     37.8495   2.9198119595e+02   7.3225733584e+00  0.009490834  0.005437995 -52.08 0.0004508322    1.678    0.404
       321 -10.7821    111.2170     33.9927   2.9070291802e+02   6.7338981390e+00   0.02152696   0.01384885 -62.54 0.0008947491    1.522    0.343
       322 -11.0200    102.1634     36.9319   2.9082381052e+02   6.7522841877e+00   0.01679931  0.009030068  31.85 0.0008764934    1.838    0.456
       323 -10.6929    105.8530     34.1392   2.9076501897e+02   6.7632076864e+00   0.01435412   0.01322897  -1.81 0.0007967168    1.141    0.123
       324 -11.1081     24.4169     35.5049   2.9170334100e+02   7.2169571239e+00   0.01486292   0.01157383  42.95 0.0005810595    1.315    0.240
       325 -12.4285    226.5791    246.4087   2.9065491690e+02   3.6121999753e+00   0.04981847   0.02770692 -25.34  0.004216835    2.697    0.629
       326 -10.6383      9.2130     33.5517   2.9186547912e+02   7.3269167172e+00   0.01724195   0.01025674 -51.20   0.00138713    1.627    0.385
       327 -11.8370      4.8281     31.0068   2.9190044796e+02   7.3814977723e+00   0.02577535   0.02151782 -26.95  0.001320596    1.289    0.224
       328 -10.9562      9.2330     25.4470   2.9181697467e+02   7.4203909086e+00   0.02220139   0.01337123 -38.64  0.001531148    1.843    0.457
       329 -10.8996     76.2543     33.7449   2.9110061840e+02   6.9386655447e+00    0.0127645  0.009259188  10.50  0.001016214    1.559    0.359
       330 -10.5295     31.7702     33.8608   2.9160951062e+02   7.1936413848e+00   0.01698712  0.009522922  16.65 0.0009939858    2.084    0.520
       331 -10.2558     14.2848     33.9670   2.9180998148e+02   7.2929739944e+00   0.01402317  0.006754082  51.14  0.001107981    2.601    0.616
       332 -10.6671     97.5888     32.1163   2.9084728420e+02   6.8343075444e+00   0.01450471   0.01044462 -37.13 0.0006466593    1.487    0.328
       333 -12.1881     55.8762     30.4935   2.9131399368e+02   7.0937087968e+00   0.03573627   0.01235533 -47.78  0.002687469    2.940    0.660
       334 -11.3176    145.2425     31.6412   2.9030063160e+02   6.5641962105e+00   0.01154204   0.01109341  86.59 0.0002703457    1.059    0.056
       335  -9.1687     90.4041     31.4893   2.9092557285e+02   6.8830390400e+00  0.006525308  0.006203156 -49.64 0.0001397916    1.035    0.034
       336 -10.7752      6.3927    245.2778   2.9315341265e+02   4.8945555311e+00    0.0138066   0.01051971 -80.21 0.0005716908    1.424    0.298
       337 -11.2317     70.1194     26.5172   2.9112756038e+02   7.0575021816e+00   0.02284436    0.0113238  13.96  0.001894897    2.683    0.627
       338 -10.1588     81.8797     28.8049   2.9100689268e+02   6.9632382376e+00   0.01621627  0.008922087  56.76  0.001424531    2.381    0.580
       339 -11.7591      8.3844    241.5494   2.9310871228e+02   4.9262650742e+00   0.02227845   0.01591284  76.55  0.002326468    1.734    0.423
       340  -9.4067    196.3512     27.7377   2.8969464904e+02   6.3129725783e+00  0.006808201  0.004806307  57.38 0.0003598306    1.613    0.380
       341 -10.1810    172.6287     27.3074   2.8996243184e+02   6.4555364271e+00   0.01059487  0.007389952  63.79 0.0007909083    1.726    0.421
       342 -10.0099    115.4461    244.6733   2.9190835730e+02   4.2740843752e+00   0.01204149  0.006518054 -68.05   0.00111064    1.935    0.483
       343 -11.2883    146.8575    243.9923   2.9154692366e+02   4.1007450774e+00   0.01468628  0.009281118  33.35 0.0009881838    1.576    0.366
       344 -10.3398    110.0453    243.3177   2.9196178393e+02   4.3209019912e+00   0.01356279  0.008945923  89.32  0.001324021    1.951    0.488
       345 -10.3975    131.8515     26.1134   2.9042036487e+02   6.7055057440e+00  0.009503704    0.0087209  73.34  0.001161842    1.143    0.125
       346  -9.4073     90.7947     26.6265   2.9089208270e+02   6.9369212507e+00  0.009258735  0.005769159  39.07 0.0003584187    1.616    0.381
       347  -9.7982    113.4393     25.4211   2.9062635524e+02   6.8199940171e+00   0.01136083  0.009731295  64.89 0.0005218582    1.259    0.206
       348  -9.9774    112.5060     22.0074   2.9061661590e+02   6.8647901358e+00  0.009717919  0.008654945  24.81  0.000546345    1.148    0.129
       349 -10.6568     99.5854     23.0024   2.9077006649e+02   6.9279787249e+00   0.01736816   0.01394541 -20.18  0.001569993    1.402    0.287
       350 -10.4111     54.2236     23.2582   2.9128971702e+02   7.1867668170e+00   0.01137443     0.010584  27.02 0.0004958163    1.095    0.087
       351 -10.7023     84.1381     22.3873   2.9094279084e+02   7.0242870359e+00   0.01273261  0.009850156 -23.96 0.0005431692    1.466    0.318
       352  -9.5567     86.7606     19.0183   2.9089272350e+02   7.0480332854e+00  0.009523757  0.008180683 -60.54 0.0005464149    1.138    0.121
       353 -10.7900     65.8803     29.8362   2.9119578777e+02   7.0436304925e+00   0.01491871  0.009004312  13.18  0.001428211    1.980    0.495
       354 -10.4313    124.1747     21.6350   2.9048120587e+02   6.8016058150e+00    0.0115869  0.009915628 -40.33 0.0003525547    1.184    0.155
       355 -11.2160     66.7266     21.3242   2.9113532814e+02   7.1370175792e+00   0.01519734   0.01185392  27.59  0.001100991    1.304    0.233
       356 -10.0222     35.1848     20.2985   2.9148963583e+02   7.3305845819e+00   0.01347432  0.009641382 -80.94 0.0007925271    1.574    0.365
       357 -10.4191    136.7502     19.5643   2.9032532769e+02   6.7527291559e+00   0.01639064   0.01070726 -87.35 0.0008680008    1.940    0.485
       358 -10.3098     72.0085    243.9546   2.9239850737e+02   4.5326658681e+00   0.01028882    0.0096523 -37.46 0.0006901457    1.073    0.068
       359  -9.8036     45.1223     20.5178   2.9137737083e+02   7.2708359868e+00  0.009845846  0.006483189  26.73 0.0006787687    1.550    0.355
       360 -10.8719      5.0481     18.9030   2.9182583102e+02   7.5199890828e+00   0.01405015  0.009042568 -62.85  0.001341311    1.524    0.344
       361 -10.1769    211.2125     19.5921   2.8947661556e+02   6.3206476411e+00   0.01481748  0.008570264  -6.19  0.001238434    2.803    0.643
       362 -10.8227    217.4064     16.2246   2.8938591854e+02   6.3235029006e+00   0.02034763   0.01206301   8.23    0.0016654    2.210    0.548
       363  -9.5077    167.3170     19.3254   2.8997525229e+02   6.5784176594e+00  0.006968885  0.004847171 -29.55 0.0007044532    1.672    0.402
       364 -10.0256    104.1830     18.9714   2.9069349558e+02   6.9479377930e+00   0.01146409  0.006424356 -40.74 0.0009997081    1.962    0.490
       365 -11.2578     34.2871    241.4736   2.9281330511e+02   4.7783539338e+00   0.02356694   0.01611027  19.05  0.002407977    1.575    0.365
       366  -9.2882     50.2173     18.7957   2.9130887351e+02   7.2613667034e+00  0.008693186  0.007339457 -25.29  0.000308697    1.275    0.216
       367 -10.1825     19.0154     18.5323   2.9166393444e+02   7.4439950290e+00   0.01563841  0.008097433  26.38  0.001446359    1.980    0.495
       368  -9.8020     19.8524     15.3886   2.9163562574e+02   7.4754730368e+00   0.01362891  0.009557928 -33.09 0.0007951352    1.595    0.373
       369 -10.0424    124.4048     28.0897   2.9051714811e+02   6.7257800857e+00   0.01056734  0.008925014  -1.39   0.00044937    1.303    0.233
       370  -9.3873     24.6118     26.7863   2.9164915910e+02   7.3165138276e+00   0.01442542  0.009148701  67.73 0.0009742873    2.120    0.528
       371 -10.6407     31.8539    237.3149   2.9281642266e+02   4.8404569478e+00   0.01491262   0.01059541  75.29 0.0009967475    1.749    0.428
       372  -9.9054     76.1053     16.3292   2.9099837251e+02   7.1405719343e+00  0.009210025  0.008235749  26.20  0.000807263    1.141    0.123
       373 -10.6136     29.1080    232.8758   2.9282144384e+02   4.9076005231e+00   0.01570788   0.01054511  44.73  0.001044736    1.550    0.355
       374  -9.0756     35.6581     14.7526   2.9145115148e+02   7.3918798243e+00  0.006587991  0.004933243 -20.35 0.0002296195    1.569    0.363
       375  -9.6896    115.4866     13.4911   2.9053170353e+02   6.9458333911e+00  0.006528636  0.006314697  78.47 0.0008098777    1.054    0.052
       376  -9.7297     64.5522     13.1643   2.9111146703e+02   7.2437427518e+00   0.01251265  0.007576837  43.34  0.001242274    1.712    0.416
       377 -12.2142     19.5562    239.0110   2.9296649273e+02   4.8914871364e+00   0.02746924   0.02182937  43.88  0.003086096    1.290    0.225
       378 -10.1552     88.6387    241.1523   2.9219260024e+02   4.4693122197e+00  0.009876211    0.0054738 -51.36 0.0008576187    1.741    0.426
       379  -8.9764     51.3174     11.3225   2.9125171136e+02   7.3412877588e+00  0.006956193  0.004843462 -29.47 0.0005395506    1.666    0.400
       380  -9.4132    107.9648     10.4961   2.9059967801e+02   7.0238815618e+00  0.009467548  0.006438964  28.80 0.0004215091    1.487    0.327
       381 -11.4954     74.2433    238.4586   2.9234052385e+02   4.5833790957e+00   0.02737298   0.01795121  34.14  0.002880641    1.522    0.343
       382 -10.8391     17.1885     24.3824   2.9171968597e+02   7.3869575221e+00   0.01570351   0.01367892 -42.00   0.00129142    1.152    0.132
       383 -10.8912     73.5491    232.9910   2.9231604697e+02   4.6506288570e+00   0.01294093   0.01185482 -88.16 0.0008213111    1.128    0.113
       384 -10.5551    174.1452    238.8372   2.9120594248e+02   4.0027744999e+00   0.01722284    0.0122346   9.39   0.00182667    1.622    0.383
       385 -11.2565    177.5496    234.9644   2.9114422215e+02   4.0278763569e+00   0.01443551   0.01213206 -33.10    0.0011887    1.248    0.199
       386  -9.6758    135.3708    237.2858   2.9163781600e+02   4.2445865132e+00  0.006948364  0.004900929 -23.88  0.000696725    1.707    0.414
       387 -10.8996    160.0395    235.6723   2.9134758381e+02   4.1208372084e+00   0.01327991   0.01120729 -20.45 0.0008739335    1.296    0.228
       388  -9.4243     50.2820    240.3479   2.9262452092e+02   4.6994124272e+00  0.006954264  0.004765037 -33.54 0.0007014819    1.646    0.392
       389 -10.6020    167.1108    233.8336   2.9125622951e+02   4.1012533200e+00   0.01136351   0.01094266 -63.51 0.0008808385    1.020    0.019
