#   1 NUMBER                 Running object number                                     
#   2 MAG_AUTO               Kron-like elliptical aperture magnitude                    [mag]
#   3 X_IMAGE                Object position along x                                    [pixel]
#   4 Y_IMAGE                Object position along y                                    [pixel]
#   5 X_WORLD                Barycenter position along world x axis                     [deg]
#   6 Y_WORLD                Barycenter position along world y axis                     [deg]
#   7 A_WORLD                Profile RMS along major axis (world units)                 [deg]
#   8 B_WORLD                Profile RMS along minor axis (world units)                 [deg]
#   9 THETA_WORLD            Position angle (CCW/world-x)                               [deg]
#  10 FWHM_WORLD             FWHM assuming a gaussian core                              [deg]
#  11 ELONGATION             A_IMAGE/B_IMAGE                                           
#  12 ELLIPTICITY            1 - B_IMAGE/A_IMAGE                                       
         1 -13.2593    196.4301     41.6900   4.4146857111e+01   3.1262741035e+01     1.071477    0.9376636 -64.28  0.003209372    1.053    0.050
         2 -13.7827    205.1116     32.9868   4.0886085338e+01   3.0333213598e+01     1.408244     1.006649 -15.43  0.001321902    1.853    0.460
         3 -13.0076    231.7870      5.6773   3.2193562660e+01   2.7466642462e+01     1.433223    0.8310953  54.02  0.006566388    2.139    0.533
         4 -12.0179    225.9125      6.8997   3.2875905004e+01   2.8611241941e+01     0.723736    0.2208848 -38.22  0.003095055    2.669    0.625
         5  -9.9073     63.9173      9.1198   6.0476481425e+01   6.5509061620e+01    0.1739133    0.1631617  33.69 0.0006702403    1.279    0.218
         6 -12.0823     45.0973      4.7570   6.5429629070e+01   6.9191665414e+01    0.7922122    0.2288939  33.52  0.002833128    4.385    0.772
         7 -12.1043    113.2378    195.7945   9.9008939287e+01   1.8445162290e+01    0.8107834    0.5194209   3.01  0.003140205    3.314    0.698
         8 -11.4874    140.0086    247.8892   1.0062351638e+02   4.0633788362e+00    0.5797312    0.3184165 -54.94  0.003119202    2.226    0.551
         9 -18.1834     20.3622    210.5261   1.2118461586e+02   2.7807718252e+01     12.51193       4.9717 -80.75   0.06148246    2.273    0.560
        10 -11.2692    114.2153    184.6711   9.6982894136e+01   2.0754143109e+01    0.4756377    0.2202929 -46.01  0.001883462    2.408    0.585
        11  -8.3836     74.3039    184.3091   1.0656499022e+02   2.7195522536e+01    0.1303799     0.106443 -33.53  0.000586428    1.607    0.378
        12  -9.3729     91.2209    183.0193   1.0227347228e+02   2.4946241249e+01    0.2886886    0.2345234  13.69 0.0005375887    1.595    0.373
        13 -10.7000     99.3406    181.0041   9.9977847206e+01   2.4108590989e+01    0.2898291     0.270045  41.62 0.0006572051    1.138    0.121
        14  -9.8595    187.9360    176.2459   7.8724611131e+01   8.8590481482e+00    0.3553943    0.3179368 -65.37  0.001624224    1.352    0.260
        15  -8.7769    148.5272    175.5289   8.7209430245e+01   1.6508816491e+01    0.2894415    0.1860502 -73.59 0.0006818988    2.421    0.587
        16  -9.6206    146.3491    171.8711   8.6991190790e+01   1.7716760312e+01    0.2778395    0.2270306  76.12   0.00108343    1.484    0.326
        17 -11.2349     48.6832    171.3046   1.1117854950e+02   3.3707780847e+01     0.529345    0.3070604 -45.59  0.002052791    2.101    0.524
        18 -15.1017     71.0784    147.8982   1.0178727953e+02   3.6565904028e+01     5.053257     2.783955  77.42    0.0116778    3.115    0.679
        19 -11.0006    156.3088    219.7778   9.3300006740e+01   6.3164946908e+00    0.3296271    0.1577113  49.95  0.001408993    2.325    0.570
        20 -11.1848    184.1096    212.8910   8.6441599855e+01   2.8696637901e+00    0.3477204    0.2079897  30.23  0.001752875    1.596    0.373
        21  -8.6969    193.9504    171.2895   7.6470758174e+01   8.6746065043e+00     0.201151    0.1815662  23.58    0.0011354    1.101    0.092
        22 -10.6747    240.4854    169.2401   6.7432860662e+01   8.0515737543e-01    0.2257941     0.181482  29.98 0.0006761801    1.335    0.251
        23  -9.1203    185.4894    169.0637   7.7740676014e+01   1.0712520368e+01     0.220439    0.1399226 -42.15 0.0009384279    1.552    0.356
        24  -9.2999    107.4937    250.4660   1.0732233678e+02   8.5388148246e+00    0.1222026    0.1008408  48.31 0.0001704246    1.034    0.033
        25  -8.9150    136.7467    166.7242   8.8238043262e+01   2.0700950885e+01    0.3313122    0.1730647  58.41   0.00118839    2.697    0.629
        26  -8.4115    133.7878    163.3662   8.8276301498e+01   2.2029456644e+01    0.2134251    0.1426409  31.98 0.0009464957    1.619    0.382
        27 -10.2676    120.7749    195.1646   9.7167180050e+01   1.7299851809e+01    0.2996964    0.2121003 -85.81 0.0008055265    1.823    0.452
        28 -11.6821     91.4135    152.0378   9.6960493614e+01   3.2392930452e+01    0.7512793    0.5653208  -8.23  0.003489646    1.978    0.494
        29  -9.5977     89.9405    212.5701   1.0660821721e+02   1.8527465585e+01    0.2344401    0.1773908 -87.76 0.0005291256    1.362    0.266
        30  -9.5809    142.6946    210.6439   9.4746811110e+01   1.0338289025e+01    0.2762522    0.1217222 -47.60  0.001156842    2.471    0.595
        31 -10.9147    133.8979    145.4093   8.4398735187e+01   2.6133416860e+01     1.275193    0.3359634 -54.59  0.003011917    5.461    0.817
        32 -10.2204    164.2894    212.9419   9.0521397836e+01   6.2083393311e+00    0.1876025    0.1755361   2.25  0.001043762    1.079    0.074
        33  -9.2514    174.9273    149.1246   7.5620983143e+01   1.6848780666e+01    0.2301926    0.2094871 -87.22 0.0005841771    1.276    0.216
        34  -9.3790    143.4958    146.0431   8.2164156152e+01   2.4035869566e+01    0.2446161    0.1515388 -48.91  0.001034598    1.600    0.375
        35 -10.2330    104.2994    138.1810   9.0594363235e+01   3.3558010945e+01    0.5319783    0.3429109 -24.00  0.002102236    2.399    0.583
        36 -11.2747    111.8759    204.8967   1.0068999826e+02   1.6707508576e+01    0.4213168    0.2721611 -71.65  0.001036723    1.799    0.444
        37 -11.5921     91.7756    137.8518   9.4022407799e+01   3.5836688942e+01     0.298433    0.2588691 -42.90 0.0004351783    1.187    0.158
        38 -10.8606    135.7294    127.9923   7.9811275489e+01   2.9754133659e+01     1.059078    0.2278866 -47.75  0.002615876    4.641    0.785
        39 -10.1283    134.7135    107.2378   7.4651737701e+01   3.4593647959e+01    0.7650236    0.1701283 -43.65  0.001934884    4.403    0.773
        40 -10.2152    105.9301    130.8488   8.8483758551e+01   3.5034389909e+01    0.3695084    0.3258674 -69.77  0.001177505    1.140    0.123
        41 -10.0802    112.8437    129.2435   8.6187833864e+01   3.4107057228e+01     0.354576    0.2954982   8.58 0.0008557315    1.471    0.320
        42  -9.1161    160.8631    127.7371   7.3665874816e+01   2.4374023830e+01    0.3077788    0.2062604 -68.71  0.001061762    2.073    0.518
        43 -11.2640    119.4095    123.6493   8.3025297925e+01   3.4129004360e+01    0.6682695    0.4834549 -16.60   0.00286034    1.928    0.481
        44 -11.8995    107.6768    203.9196   1.0149698980e+02   1.7602481311e+01    0.4718993    0.3420111 -80.75  0.001633565    1.564    0.361
        45 -10.3738    100.0445    125.0474   8.8790267713e+01   3.7517864509e+01    0.3240899    0.2629708 -18.52 0.0008826184    1.500    0.333
        46  -8.2778    223.7461    206.6687   7.7692917383e+01  -2.5056060465e+00    0.1291861   0.08719116  -6.02 0.0002093107    1.559    0.358
        47  -9.1308    108.6383    118.2962   8.4672153040e+01   3.7513415637e+01    0.2279779    0.2117366  29.39 0.0004775983    1.141    0.123
        48  -9.9942    231.3598    113.7878   5.6854460562e+01   1.1947637821e+01    0.2806319    0.2364076 -48.11 0.0007306419    1.099    0.090
        49  -8.6004    168.1287    112.7451   6.8216738372e+01   2.5883105890e+01    0.2702029    0.1738544 -81.10 0.0009542592    2.890    0.654
        50 -11.4827    116.8353    109.3828   8.0026889924e+01   3.7934329283e+01    0.6211287    0.5442367 -85.97  0.003125746    1.300    0.231
        51  -9.4382    205.4032    110.3432   6.0299860835e+01   1.7981540675e+01    0.2864443     0.230738  50.67 0.0009044716    1.343    0.255
        52  -8.9868     93.4945    205.3591   1.0489997602e+02   1.9538546551e+01     0.236623    0.1196167  37.71  0.001078607    1.879    0.468
        53  -9.1789     81.8457    195.2667   1.0623869991e+02   2.3551901347e+01    0.2776479    0.2166524 -38.47  0.001520757    1.656    0.396
        54  -8.2226    129.4806     96.9654   7.3123694313e+01   3.7942453070e+01    0.2240779    0.1332444 -64.39 0.0008095003    2.490    0.598
        55 -11.4537     54.7519     93.9868   9.5530695015e+01   5.2045801437e+01    0.7777322     0.450314  62.50  0.003112154    3.074    0.675
        56  -8.7016    234.3014     86.3370   5.0107865617e+01   1.5967641230e+01    0.1315699    0.1072977   0.82 0.0007036389    1.663    0.399
        57  -8.9148    157.8986     82.5078   6.2124668256e+01   3.4189906677e+01    0.2326871    0.1501433  53.13  0.001021605    1.561    0.359
        58  -8.3659    184.5963     77.2059   5.5435227065e+01   2.8700858628e+01    0.2009298    0.1420474 -24.65 0.0005740116    1.613    0.380
        59  -9.6019     60.8568     68.5122   8.5935807802e+01   5.6817537242e+01    0.2596897    0.2144133  47.11  0.001475273    1.454    0.312
        60 -13.0082    184.7057     50.9924   4.8268652027e+01   3.2806316964e+01    0.9245842    0.8803768 -10.80 0.0008897584    1.224    0.183
        61  -9.4854     92.9232    249.3076   1.1004139736e+02   1.0860252195e+01    0.2537131   0.07850873  43.16  0.001084959    2.515    0.602
        62 -10.0407    148.6008    187.3191   8.9436218426e+01   1.3998920163e+01    0.2926627    0.2292131  52.38  0.001519694    1.312    0.238
        63  -8.3318     36.6636     37.7412   8.4740232358e+01   6.5805397638e+01    0.1259103   0.08295892  -9.58 0.0002656427    1.577    0.366
        64  -9.8849    198.1579     23.5300   3.9280069183e+01   3.3116789851e+01    0.2363512    0.1767663  -4.19  0.000754445    1.911    0.477
        65 -10.5299     59.6828    220.3830   1.1392892665e+02   2.1118481832e+01    0.3278964    0.3170937 -86.79  0.001669534    1.316    0.240
        66  -8.0854    168.2724    248.3172   9.5152330121e+01  -3.4421584906e-01    0.1186397   0.08684848   4.56 0.0001714005    1.563    0.360
        67  -8.8046    189.4972     14.9799   3.8022060279e+01   3.6128247842e+01    0.1816593    0.1249146 -33.75 0.0005515616    1.537    0.349
        68 -10.8409    193.4485    195.7412   8.1444625796e+01   4.2701655546e+00     1.016207    0.5539899 -65.11  0.003059151    5.949    0.832
