#   1 NUMBER                 Running object number                                     
#   2 MAG_AUTO               Kron-like elliptical aperture magnitude                    [mag]
#   3 X_IMAGE                Object position along x                                    [pixel]
#   4 Y_IMAGE                Object position along y                                    [pixel]
#   5 X_WORLD                Barycenter position along world x axis                     [deg]
#   6 Y_WORLD                Barycenter position along world y axis                     [deg]
#   7 A_WORLD                Profile RMS along major axis (world units)                 [deg]
#   8 B_WORLD                Profile RMS along minor axis (world units)                 [deg]
#   9 THETA_WORLD            Position angle (CCW/world-x)                               [deg]
#  10 FWHM_WORLD             FWHM assuming a gaussian core                              [deg]
#  11 ELONGATION             A_IMAGE/B_IMAGE                                           
#  12 ELLIPTICITY            1 - B_IMAGE/A_IMAGE                                       
         1 -13.8822    180.0571     41.9351   6.5517480474e+01   3.5155699373e+01     1.014721    0.8825251 -41.69 0.0009865849    1.294    0.227
         2 -14.1595    190.3706     33.4150   6.2106346624e+01   3.3890700714e+01     1.213825    0.9836065 -46.08  0.003090155    1.329    0.248
         3 -15.0293    199.0470     22.3411   5.8615273365e+01   3.3275928390e+01     1.996308     1.573021  30.33  0.001807377    1.945    0.486
         4 -11.9275     50.1084      7.2472   8.4077643427e+01   6.5750989206e+01    0.2707876    0.1721309 -29.17  0.001779039    1.775    0.437
         5 -11.6297     56.6311      2.6851   7.9992799582e+01   6.5105607505e+01    0.2546751    0.1523047  56.69  0.001523385    2.023    0.506
         6 -11.4930     92.9666    236.2188   1.2725487354e+02   1.1879018347e+01    0.2600612    0.2179648 -87.68 0.0003584274    1.176    0.149
         7 -15.7885    120.4260    237.7831   1.2155748572e+02   7.1349726589e+00     7.301777     4.129693  33.97   0.03481456    1.748    0.428
         8 -10.1049     44.8175    228.7258   1.3653257440e+02   2.0362630455e+01    0.4421196    0.1702045  62.97 0.0008690199    3.420    0.708
         9  -9.8075     71.0725    229.3031   1.3110784808e+02   1.6679747259e+01     0.180641    0.1470506  62.26 0.0004181002    1.086    0.079
        10 -11.1418     28.7575    221.5781   1.3914850825e+02   2.3896329764e+01    0.3088823    0.1787521  65.51 0.0009306576    1.594    0.373
        11 -10.0146    190.5254    217.4956   1.0312734018e+02  -7.7590313653e-01    0.1375456    0.1270108   2.09 9.955031e-05    1.014    0.014
        12 -13.6990     55.3111    205.3467   1.3178722338e+02   2.4413098044e+01     2.743202     2.278407 -12.32   0.01563338    1.805    0.446
        13 -11.6800    114.8479    209.6656   1.1859756707e+02   1.4201268800e+01     0.304355    0.2065486  43.46 0.0007950643    1.409    0.290
        14 -19.3764      7.7789    133.7571   1.3460155341e+02   4.6826728748e+01     19.20092     2.074563 -69.69   0.03902729   10.359    0.903
        15 -11.5658    105.5400    207.3344   1.2040407760e+02   1.6327321314e+01    0.4281538    0.2826187  34.51   0.00205257    1.574    0.365
        16 -10.1172     33.5844    205.8000   1.3666413394e+02   2.6986250512e+01    0.2149713    0.1817744 -33.92 0.0009001757    1.659    0.397
        17 -12.3078    194.0610    194.7041   9.8055114861e+01   3.0753835160e+00      1.16793    0.6532142 -62.16  0.004516709    2.827    0.646
        18 -11.8712    102.9119    197.9563   1.1953617789e+02   1.8991211975e+01    0.4948885    0.4174448  58.11  0.002663095    1.150    0.131
        19 -12.9910    113.2698    196.4294   1.1678559517e+02   1.7570907780e+01    0.6089852    0.4803987 -38.23  0.002983826    1.449    0.310
        20  -9.7048     95.0975    200.2289   1.2177292602e+02   1.9745063094e+01    0.2686357    0.1754339  83.91 0.0006862115    1.950    0.487
        21  -9.6543     64.4325    250.2244   1.3465352258e+02   1.3128361602e+01    0.2641636    0.1676493  72.50 0.0007558072    1.513    0.339
        22 -10.0521     81.8780    195.0069   1.2415811928e+02   2.3113422830e+01    0.2740827    0.2430028  17.86   0.00152808    1.385    0.278
        23  -9.5308    180.1993    192.6813   1.0059509068e+02   6.0221635756e+00    0.2241816     0.185394  62.14 0.0007623539    1.437    0.304
        24 -15.9077     72.0718    149.6160   1.1903457587e+02   3.5982848938e+01     5.929474     3.445052  85.22   0.01074308    3.080    0.675
        25 -10.4808     60.4120    245.9422   1.3503630710e+02   1.4573657711e+01    0.3155898    0.1742209  85.12  0.001585494    2.024    0.506
        26 -10.7485     57.9117    240.8372   1.3504315255e+02   1.5996859727e+01    0.4613407    0.2430005  79.51  0.002196606    2.221    0.550
        27  -9.9525     61.0045    186.7762   1.2804831652e+02   2.8179493664e+01    0.3049433    0.2341247   1.14 0.0007228429    1.942    0.485
        28 -11.8852     54.8764    244.6566   1.3600782316e+02   1.5592515107e+01    0.5684814    0.2616691  83.00  0.001718989    3.048    0.672
        29 -11.2473    211.0292    179.8940   9.1649030783e+01   2.9996221410e+00    0.5448704    0.3232368 -31.15  0.002395078    1.766    0.434
        30 -11.0021    207.4384    183.2249   9.3033736790e+01   2.9794442024e+00    0.3502225    0.2374499 -56.41  0.001085773    1.689    0.408
        31 -12.1890     77.3907    179.4371   1.2285072904e+02   2.7660561406e+01    0.4957057    0.2927768 -40.20  0.001373902    2.112    0.526
        32 -12.2695     81.0952    174.2664   1.2104391253e+02   2.8393131751e+01    0.3770162    0.3130266 -45.22  0.001171611    1.288    0.223
        33 -11.1414     99.4540    180.6644   1.1745501394e+02   2.3801258205e+01    0.2881234    0.2634717  79.10   0.00059384    1.063    0.059
        34 -11.3202    143.5746    178.7747   1.0616130630e+02   1.6132814966e+01    0.4713919    0.2166334  41.85  0.001756349    2.179    0.541
        35 -11.6738    195.3614    169.1911   9.2559382701e+01   8.0987721801e+00    0.9363925    0.4459939 -57.44  0.003301275    2.867    0.651
        36  -9.9143    228.6815    171.3480   8.6591511486e+01   1.5662456728e+00    0.1380972    0.1077576 -72.03 0.0007048529    1.732    0.422
        37  -9.4835     68.4309    177.3302   1.2479776377e+02   2.9506625529e+01    0.2364176    0.1326559  35.75 0.0008863016    1.897    0.473
        38 -11.8134     58.5291    162.7755   1.2506671426e+02   3.4538870351e+01    0.4831224    0.2172902  37.94  0.001795679    2.324    0.570
        39  -8.9306    141.5402    158.5631   1.0240700086e+02   2.1309406773e+01    0.1575028    0.1497924 -86.11 3.287468e-05    1.069    0.064
        40 -11.3121    133.6823    144.1915   1.0114121269e+02   2.6320383876e+01     1.162523    0.2978704 -54.18  0.002718537    5.267    0.810
        41 -10.9222    174.3764    148.4620   9.2470692599e+01   1.6815301983e+01    0.4329778    0.3116068 -51.58  0.001244042    1.359    0.264
        42  -9.2491     36.1120    233.9258   1.3874440921e+02   2.0290624621e+01    0.1835784    0.1259991  70.63 0.0005692564    1.233    0.189
        43 -11.5296    106.5519    141.3920   1.0768481104e+02   3.2299641855e+01      0.61203    0.3481688 -33.04  0.002316288    2.323    0.570
        44 -12.5053     94.4293    141.9211   1.1116764904e+02   3.4337001879e+01    0.3155017    0.2821218 -22.15 0.0005038925    1.237    0.191
        45 -12.0280    119.5978    126.7792   1.0067788043e+02   3.3269873271e+01     1.048546    0.4200861 -41.74  0.003500435    2.658    0.624
        46 -10.7025    106.0408    130.8448   1.0538442273e+02   3.4940691303e+01    0.3631803     0.318009 -81.93  0.001127079    1.255    0.203
        47 -11.0871    101.7702    127.7781   1.0585456897e+02   3.6460454041e+01    0.3027853    0.2571654 -20.42 0.0006283188    1.318    0.241
        48  -8.9070    145.6754    130.2398   9.4831201462e+01   2.7037190620e+01    0.1533223    0.1221835  79.77 0.0001435209    1.525    0.344
        49 -11.2855    136.0000    127.5518   9.6579766902e+01   2.9709613231e+01    0.8881554    0.1902037 -47.86   0.00219331    4.647    0.785
        50 -10.1740    135.0000    119.9952   9.4947694359e+01   3.1621098597e+01    0.4364859    0.1509976 -44.07  0.001376561    2.874    0.652
        51 -10.1572    160.8711    127.7479   9.0637829386e+01   2.4288059958e+01     0.312797    0.2035187 -69.85  0.001241121    2.105    0.525
        52 -10.7673    114.3311    131.3810   1.0322377872e+02   3.3231558846e+01    0.3773058    0.3113389   0.09 0.0008813821    1.506    0.336
        53 -10.1964    109.8175    119.9856   1.0167047075e+02   3.6764057085e+01    0.2370503     0.218317  35.26 0.0004410462    1.123    0.109
        54  -9.8976     49.2636    243.4190   1.3699599864e+02   1.6594214441e+01    0.2220169    0.1469546  54.46 0.0006275785    1.302    0.232
        55 -10.1979    167.7603    112.4531   8.5359787329e+01   2.6005425643e+01    0.3196534    0.2351151 -77.09  0.001086846    1.700    0.412
        56  -9.8528    134.8494    112.4158   9.3045512150e+01   3.3312412718e+01     0.307754     0.107236 -47.04  0.000973243    2.868    0.651
        57 -11.4047    119.0677    110.5001   9.6678958753e+01   3.7046244882e+01    0.6672058    0.3536576  50.70  0.002639568    2.052    0.513
        58 -10.3058    103.8353    110.9943   1.0106150509e+02   3.9940879510e+01    0.2272879     0.212964  39.18 0.0002790352    1.101    0.092
        59 -10.2624    205.5203    110.1658   7.7503214548e+01   1.8100455223e+01    0.2923983    0.2109116  45.46 0.0006153908    1.569    0.363
        60  -9.6249     59.2907    105.3146   1.1332753636e+02   4.8443938285e+01     0.143582   0.09833708 -26.90 0.0002447831    1.592    0.372
        61  -9.7785    134.4964    102.9351   9.0642359585e+01   3.5388369175e+01    0.2343962    0.1493414 -43.65 0.0008009606    1.565    0.361
        62 -10.7821     50.9996    250.0170   1.3724215361e+02   1.4984902358e+01    0.4083749     0.168817  48.54  0.001995806    2.042    0.510
        63  -8.8945    184.3458     77.3115   7.3437923753e+01   2.8822156153e+01    0.1398865    0.1129782  24.67  0.000704594    1.708    0.415
        64 -11.0562    165.7980     66.2049   7.3968531923e+01   3.4950020868e+01    0.4683616    0.2909681 -86.74  0.000790707    2.359    0.576
        65 -12.5595     51.3363    227.2433   1.3504513419e+02   1.9856195177e+01    0.5632071    0.2662832  62.94  0.002537857    2.308    0.567
        66 -11.4012     53.6703    222.5679   1.3407428019e+02   2.0606762715e+01    0.2452515    0.2241855  31.65 0.0007406562    1.392    0.282
        67 -10.8891     85.0614    235.3007   1.2882811239e+02   1.3290855744e+01    0.4773759    0.2166114 -70.25  0.001571294    2.500    0.600
        68 -10.8861    183.0233    233.9665   1.0759494955e+02  -2.5874406897e+00    0.4019064    0.1919225  45.56  0.001748186    2.237    0.553
        69  -9.0783    154.5437     25.5625   6.5266695776e+01   4.3011658799e+01    0.1283249    0.1092222  76.91 6.836715e-05    1.042    0.041
        70 -10.6812    170.8571     20.1316   6.1524623809e+01   3.9870711710e+01    0.1956708    0.1506355 -81.31 0.0005152099    1.244    0.196
        71 -11.2933     48.3921    236.6781   1.3655495324e+02   1.8154795887e+01    0.3491018    0.1947515  80.73  0.001175937    1.860    0.462
