#   1 NUMBER                 Running object number                                     
#   2 MAG_AUTO               Kron-like elliptical aperture magnitude                    [mag]
#   3 X_IMAGE                Object position along x                                    [pixel]
#   4 Y_IMAGE                Object position along y                                    [pixel]
#   5 X_WORLD                Barycenter position along world x axis                     [deg]
#   6 Y_WORLD                Barycenter position along world y axis                     [deg]
#   7 A_WORLD                Profile RMS along major axis (world units)                 [deg]
#   8 B_WORLD                Profile RMS along minor axis (world units)                 [deg]
#   9 THETA_WORLD            Position angle (CCW/world-x)                               [deg]
#  10 FWHM_WORLD             FWHM assuming a gaussian core                              [deg]
#  11 ELONGATION             A_IMAGE/B_IMAGE                                           
#  12 ELLIPTICITY            1 - B_IMAGE/A_IMAGE                                       
         1 -14.0225    117.0782     63.1724   4.2069524164e+01   4.6765384168e+01     1.623173     1.223886  68.76   0.00780334    1.454    0.312
         2 -14.6009    125.1505     84.8999   4.6839107360e+01   4.0774135495e+01      3.05192      2.31583  30.44   0.01429284    1.495    0.331
         3 -13.3987     92.7188     64.9601   4.9944899747e+01   5.1990778433e+01      2.41124     1.542244 -60.98   0.01022653    2.098    0.523
         4 -12.7840     51.3886     34.8238   5.4150086277e+01   6.5525469820e+01     1.021811    0.6825506 -42.09  0.004457045    1.555    0.357
         5  99.0000     30.7376     19.6123   5.7540568738e+01   7.1273998619e+01     1.328342    0.8831726 -71.09  0.005593703    4.105    0.756
         6 -11.4799     40.7683     20.7058   5.2497814657e+01   6.9577486107e+01    0.7879475    0.6114898 -27.72  0.002630469    1.270    0.212
         7 -11.8907     57.8757      3.5490   3.5087790899e+01   6.8515936217e+01    0.6272875    0.4288861 -42.86   0.00258669    1.840    0.456
         8 -12.2123     70.8087      3.6154   3.0689016787e+01   6.5707487815e+01     1.073272    0.5442086  78.12  0.004266777    3.266    0.694
         9 -13.8194     70.8295     20.7631   3.9304693720e+01   6.3847872828e+01     1.640013     1.330013 -84.28  0.003052529    1.758    0.431
        10 -13.3531      5.2068     54.2756   8.5965397446e+01   6.6696248017e+01    0.9728785    0.8085579 -81.05   0.00421633    1.307    0.235
        11 -13.9769     10.7708     35.6806   7.7272385158e+01   7.0428500801e+01     2.365506     2.031133 -89.73   0.01530158    1.552    0.356
        12 -13.8480     38.6391     56.0122   6.8918350911e+01   6.3289870729e+01     1.434004     1.068951 -11.64  0.007791014    1.446    0.308
        13 -12.8209    234.0499     62.1968   2.2096814942e+01   1.9776678098e+01     1.239664     0.557561 -25.73  0.005402679    2.626    0.619
        14 -12.8967    235.0624     47.0554   1.8647632037e+01   2.1571548990e+01    0.9938149     0.307408 -55.50  0.001245677    4.340    0.770
        15 -12.8398    219.2793     31.0412   1.6403380632e+01   2.6814259150e+01    0.9096841    0.5783963 -75.29  0.004273115    1.549    0.354
        16 -10.8165    161.9899     22.6432   2.0163191538e+01   4.1235549569e+01    0.6718301    0.3609713  22.16  0.001881236    4.066    0.754
        17 -12.0212    192.9066     21.4149   1.6420608290e+01   3.3849130786e+01    0.8186662    0.4537261 -23.90  0.004057775    2.068    0.516
        18 -12.7994    199.3926     34.0453   1.8998589624e+01   3.0866473027e+01     1.172458    0.7458421 -26.80  0.004356959    1.709    0.415
        19 -13.4619     79.1887     41.4226   4.5596587618e+01   5.9076424686e+01     1.420968    0.5684877  43.59  0.005433379    2.402    0.584
        20 -12.1458     53.9214     21.1100   4.6289856985e+01   6.7210768869e+01     1.082532    0.7952695 -87.11  0.005099422    2.880    0.653
        21 -12.6947    226.2029     22.4651   1.3902579610e+01   2.6341182837e+01     0.484387    0.3420034  88.28  0.002229698    1.372    0.271
        22  99.0000    229.5587     15.2247   1.2070657440e+01   2.6441091464e+01    0.6477059   0.05362478 -37.99  0.002258003    4.172    0.760
        23 -11.5953    222.7207     12.4249   1.1898124918e+01   2.8167632297e+01    0.4781273    0.3447064 -84.04  0.002178757    1.258    0.205
        24 -11.2675    220.9782      7.7485   1.0962938864e+01   2.9021604794e+01    0.2039875    0.1447493 -54.04 0.0004829068    1.156    0.135
        25 -10.1921    138.9069     17.9599   2.1906662664e+01   4.7603348447e+01    0.3399635    0.2302116  -4.68  0.001043141    1.970    0.492
        26  -9.9194    160.1619     15.2237   1.8170087529e+01   4.2486387496e+01    0.3346158    0.1467114 -43.23  0.001465785    2.200    0.546
        27 -10.4478      2.8791     15.7549   7.4651664986e+01   7.4944147216e+01    0.3648833    0.1686683 -64.55  0.001687626    2.881    0.653
        28 -13.1086    188.9212     35.1679   2.0426660714e+01   3.3169308494e+01     1.428506    0.6880188  70.94  0.006510841    2.050    0.512
        29 -11.6583    151.5948     13.2573   1.8616215801e+01   4.4846396429e+01    0.6973973     0.298972  79.15   0.00284551    2.368    0.578
        30 -10.6395    145.4135      9.6144   1.8244817726e+01   4.6767179904e+01    0.4868038    0.1215607  63.57  0.001613514    3.065    0.674
        31  -9.7991    145.9575      6.0301   1.7024149348e+01   4.6955938254e+01    0.2618356    0.1784253 -42.64 0.0004519177    1.507    0.337
        32  99.0000    231.3382      1.4230   8.9925858791e+00   2.7495919499e+01    0.8904865    0.2342488  84.18  0.003384843    4.336    0.769
        33 -12.7854    249.5204     10.1945   9.8546737425e+00   2.3020453447e+01     0.488441    0.2180926 -31.73  0.002275155    2.047    0.511
        34 -13.7259    243.5305      8.7353   9.8746014471e+00   2.4324822279e+01    0.8475415    0.4015315 -70.59  0.004649432    2.012    0.503
        35 -10.6948     93.6737     12.2066   2.8477189069e+01   5.9561622080e+01    0.3365369    0.2164966  27.86  0.001255448    1.765    0.433
        36  -9.6588    213.2291     12.7455   1.2621254970e+01   3.0177275235e+01      0.27538    0.1296465 -61.03  0.001194781    1.993    0.498
        37 -10.7323    131.1005     11.2460   2.0801797795e+01   5.0267699958e+01    0.3746869    0.2431283 -87.94  0.001446305    1.616    0.381
        38 -10.5482    123.9279     10.7564   2.1770209256e+01   5.2144716827e+01    0.3838826    0.2495795  19.71  0.001674576    2.059    0.514
        39 -11.6334    116.0404     10.1762   2.2917790937e+01   5.4202491962e+01    0.3993539    0.2760189  -2.14  0.001136944    1.823    0.451
        40  -4.8741    100.1166      5.5273   2.4133837681e+01   5.8601234154e+01    0.4686844    0.2138766  54.40  0.002124021    1.833    0.454
        41  -9.7121     88.4968     11.2479   2.9362153578e+01   6.0897869672e+01    0.2096442    0.1428874 -60.21 0.0006918292    1.945    0.486
        42 -10.0308     84.7069      7.8191   2.8779906849e+01   6.2124015365e+01    0.3401228    0.1975556 -19.36  0.001703031    1.937    0.484
        43 -11.7769     85.8563      1.9384   2.5736670380e+01   6.2363173635e+01    0.5375633    0.1763323  54.31  0.002178652    2.354    0.575
        44  -9.9597     44.9512     10.2559   4.4539775890e+01   7.0306068136e+01    0.1703732    0.1592618  26.15  0.001134116    1.212    0.175
        45 -12.1405    194.1901      7.8422   1.2852667357e+01   3.4975420535e+01    0.3043868    0.2371518 -60.30  0.001044903    1.114    0.103
        46 -10.6287     27.5015      9.2606   5.3586122172e+01   7.3314661672e+01    0.2248426    0.1543986  29.47  0.001358154    1.353    0.261
        47 -11.2862    173.3131      6.0026   1.4131752720e+01   4.0129344297e+01    0.3293686    0.2067691 -12.93  0.001576337    2.090    0.522
        48  -9.7712    156.5155      7.9996   1.6411599620e+01   4.4108450922e+01    0.1674278    0.1331327 -24.35 0.0004155217    1.443    0.307
        49 -11.5067    101.6077     10.4383   2.5883774312e+01   5.7792162598e+01    0.2439825    0.2328361  84.86  0.001531759    1.110    0.099
        50 -12.9433     63.9861     35.3869   4.8828693788e+01   6.3138068701e+01     1.164684    0.7450658  34.27   0.00513041    1.528    0.345
        51  -9.7735     47.4507      5.6955   4.0677834548e+01   7.0377514710e+01    0.2317256    0.1518454  37.34  0.001204219    1.339    0.253
        52 -10.8581      3.3989      5.9589   6.9136232052e+01   7.6651939846e+01    0.3536191    0.2073513  -7.26  0.002047457    1.727    0.421
        53 -10.3549    210.9820      5.9887   1.1201015149e+01   3.1361531962e+01    0.2157251    0.1687923 -88.34 0.0009632529    1.169    0.145
        54 -10.9370    183.8842      3.5128   1.2553650852e+01   3.7813991249e+01    0.1960032    0.1790905 -37.05 0.0005635095    1.265    0.210
        55  -9.9031    111.6817      3.7653   2.1206504523e+01   5.5862323100e+01    0.2330763    0.1431971 -87.62  0.001127021    1.841    0.457
        56  -8.9006    108.0143      4.0000   2.1957215702e+01   5.6764209307e+01    0.2490136    0.1226539  67.89 0.0003563536    1.772    0.436
        57 -10.5623    218.0787      2.1912   9.8921920233e+00   3.0194213247e+01    0.2427352    0.1887961  68.79  0.001623701    1.432    0.302
        58 -10.1052    117.5842      2.2551   1.9640750272e+01   5.4493754557e+01     0.238322    0.1192945 -29.88  0.001121148    2.146    0.534
        59 -10.2170    142.0583      1.9227   1.6163171631e+01   4.8298727651e+01    0.2441442    0.1729957  80.24  0.001363891    1.238    0.192
        60 -11.5405     50.2771      1.3482   3.6838302040e+01   7.0280839314e+01    0.2263758    0.1369424  52.43 0.0004518412    1.545    0.353
        61 -10.5786     46.6950      1.6598   3.8581656262e+01   7.0953088641e+01    0.2158039    0.1414237  34.32 0.0007554961    1.338    0.252
        62 -10.2933      1.3249      1.3020   6.8107006833e+01   7.7604164255e+01    0.1105104   0.08243529 -14.60            0    1.079    0.073
        63 -12.6463     51.6459     45.2243   5.8548647634e+01   6.3605339514e+01    0.9174458    0.5756995  22.55  0.003097193    1.746    0.427
        64 -11.9197     11.8610     97.3903   9.0773178960e+01   5.5815847492e+01    0.4565366    0.2312972 -41.32  0.002131365    2.040    0.510
        65 -10.0935    225.3683     97.1830   3.0964971740e+01   1.6378736801e+01    0.2021568    0.1025284 -43.77 0.0009531053    1.747    0.428
        66 -11.4604     72.9937     96.3046   6.6648154006e+01   4.8931485608e+01     0.342861    0.2839403  53.40  0.001221145    1.291    0.225
        67 -11.4575    232.9489     94.7702   2.9438163420e+01   1.5317800000e+01    0.2434458    0.1684891 -34.66   0.00040831    1.256    0.204
        68 -11.8944    206.5255     92.8538   3.2645376589e+01   2.0813039891e+01     0.582516    0.2179665 -35.92  0.002254789    2.441    0.590
        69 -12.3997     48.8140     95.1740   7.5532441097e+01   5.2815063179e+01    0.4925307    0.2739065  33.89 0.0008080514    1.847    0.458
        70  -9.4932     27.3524     96.2974   8.4369574172e+01   5.4887347493e+01    0.1460813   0.09380327 -35.02 0.0007035006    1.690    0.408
        71 -11.0427     13.5097     93.5392   8.9534004004e+01   5.6680087507e+01    0.2693712    0.1368679   7.34  0.001229711    2.414    0.586
        72 -11.0877    189.8618     94.7389   3.5769032839e+01   2.4046024406e+01    0.2489727    0.1856842 -29.26  0.000567531    1.358    0.264
        73 -10.2334     89.2984     93.9531   6.0308489407e+01   4.6528747356e+01    0.2134213    0.1899529 -45.84  0.000259031    1.121    0.108
        74 -11.4581    211.3226     93.1529   3.2007419826e+01   1.9779201411e+01    0.2491103     0.174633  30.39  0.001165242    1.885    0.470
        75 -11.3015    185.0034     93.0070   3.6170742548e+01   2.5409069717e+01    0.2242105     0.177982  12.01 0.0005839077    1.643    0.391
        76 -11.4799     96.4273     90.7068   5.7020685173e+01   4.5845887622e+01    0.5242175    0.4264479  72.52  0.002444348    1.470    0.320
        77 -10.2618     79.6080     91.0433   6.2823840746e+01   4.9015951393e+01    0.2754017    0.2141067 -13.85 0.0004557392    1.594    0.372
        78 -10.8423    170.7436     90.6691   3.8175027522e+01   2.9035002916e+01    0.6579988    0.2969468  64.35  0.002291128    3.025    0.669
        79 -11.5511    176.6951     85.1278   3.5601298302e+01   2.8635743207e+01    0.8963088    0.3604645  38.41  0.002692919    4.357    0.770
        80 -11.8047    162.1105     84.4026   3.8167880560e+01   3.2157357414e+01    0.9060007    0.4036473  51.32  0.003471318    2.250    0.556
        81 -12.2206    168.7184     80.4846   3.5812908742e+01   3.1286045001e+01    0.4553559    0.3687342  88.81  0.001363185    1.381    0.276
        82 -11.4597    167.2519     76.4622   3.4977360740e+01   3.2316910814e+01     0.466689     0.211758  52.65  0.001377658    2.207    0.547
        83 -10.0850     86.5137     90.1039   6.0142812697e+01   4.7943075379e+01    0.3857392    0.2119229  43.77  0.001329604    1.833    0.455
        84 -11.3997     38.1984     87.0650   7.7961438445e+01   5.6104516150e+01    0.3791546    0.2189899 -63.42  0.001764289    1.648    0.393
        85 -13.1225    192.6001     85.1945   3.2924540225e+01   2.5039586049e+01    0.8544555    0.5467622 -83.55  0.003712838    2.375    0.579
        86 -11.9033    198.8926     82.1910   3.1199299944e+01   2.4144580641e+01     0.406921    0.2047079  62.15  0.001773348    2.216    0.549
        87 -12.4460    192.1447     68.0081   2.8609830271e+01   2.7859776601e+01    0.5343137    0.3610603  41.73  0.002652659    1.795    0.443
        88 -12.4975    191.1595     74.5818   3.0449273892e+01   2.7065942726e+01    0.6485823    0.4103158 -82.09  0.002318821    2.228    0.551
        89 -12.3744    202.8116     79.3456   2.9921472760e+01   2.3742361764e+01    0.3804361     0.293231 -48.30  0.001142902    1.186    0.157
        90 -11.6340    199.0069     76.0581   2.9656440354e+01   2.5083815448e+01    0.3736017    0.2094671  66.89  0.001246223    2.015    0.504
        91 -10.1703      1.8506     88.0839   9.3569051551e+01   5.8719089694e+01    0.1946365    0.1595927  79.14 0.0005294658    1.256    0.204
        92 -13.1021    215.1209     83.2155   2.9140703976e+01   2.0551831015e+01    0.5947637    0.4022775  41.83  0.003138033    1.804    0.446
        93 -13.4495    220.5629     69.7440   2.5299775415e+01   2.1433214957e+01    0.9651188    0.6095238  88.57  0.004913014    2.030    0.507
        94 -12.0879    236.4678     85.8028   2.7041417788e+01   1.5985261263e+01    0.6914248    0.3613738  78.54  0.001445452    3.241    0.691
        95 -12.6048    221.0147     78.1028   2.7184422201e+01   2.0120213661e+01    0.9066602    0.4850121 -69.63  0.003709631    3.074    0.675
        96 -11.6361    221.3292     55.6566   2.1933623461e+01   2.3243439864e+01    0.4664153     0.335389 -43.25  0.002269748    1.206    0.171
        97 -12.8473    214.8043     59.5269   2.3566481712e+01   2.4089065426e+01    0.6222231     0.564272 -30.10  0.003963189    1.206    0.171
        98 -13.3056    202.3135     69.8104   2.7635934722e+01   2.5309701700e+01    0.6657858    0.4540064 -49.25  0.003516178    1.351    0.260
        99 -13.1630    204.6670     61.4093   2.5244552368e+01   2.6023848543e+01    0.7260705    0.5145506 -85.10  0.002452366    1.574    0.365
       100 -11.5558    209.6775     58.5985   2.3942113382e+01   2.5323807773e+01    0.2580476    0.2087087 -52.89 0.0003286619    1.091    0.083
       101 -10.8152      6.5385     86.9623   9.1439573798e+01   5.8757090786e+01    0.2517798    0.2057122   8.97  0.001547844    1.397    0.284
       102 -12.2341     27.5875     81.7579   8.1324330604e+01   5.8500107688e+01    0.5178668    0.3496756  47.45   0.00267444    1.710    0.415
       103 -11.2501    250.0177     75.1593   2.3280970406e+01   1.5009407284e+01    0.3560627    0.1925018 -22.09 0.0008732516    2.257    0.557
       104 -10.5680    250.4004     82.0741   2.4693136468e+01   1.3988681061e+01    0.2141775    0.1644364  -9.33  0.000749158    1.633    0.388
       105 -10.4162    247.5168     80.5331   2.4672483810e+01   1.4715236468e+01    0.2763302    0.1501224 -36.97  0.000777412    1.508    0.337
       106 -10.6111     55.2970     81.8712   6.9494977164e+01   5.5160527064e+01    0.2321081    0.1955196  42.47 0.0001982756    1.260    0.206
       107 -10.9008    232.5824     78.9216   2.5977382491e+01   1.7717535831e+01    0.3443501    0.2441403  50.02 0.0009275621    1.675    0.403
       108 -10.8781    225.7493     75.8624   2.6091831393e+01   1.9498205343e+01    0.3080628    0.1876878 -47.11 0.0008695387    1.446    0.309
       109 -10.6329    155.2970     76.6546   3.7358106743e+01   3.5144620329e+01    0.3305248    0.2689771  68.36 0.0008586722    1.260    0.207
       110 -10.7271    151.0301     73.3780   3.7283902635e+01   3.6744706231e+01    0.2975446    0.2116564 -35.54 0.0005248753    1.436    0.303
       111 -10.3977    113.0648     75.5512   4.7255398697e+01   4.5401419000e+01    0.3946669    0.2466787  24.57  0.001535558    2.336    0.572
       112 -12.8101    177.0412     70.9698   3.1746870717e+01   3.0901234129e+01     1.512326    0.8677338  88.74  0.005362817    2.841    0.648
       113 -10.5788    161.3112     66.7082   3.3316863642e+01   3.5360344989e+01    0.5539941    0.2049025 -38.34  0.001245582    2.579    0.612
       114 -11.1553    164.2204     64.6440   3.2193823897e+01   3.4983081422e+01     0.618702    0.3119397  59.64  0.002581814    1.972    0.493
       115 -10.5539    105.4292     74.5836   4.9183581957e+01   4.7318748048e+01    0.4126028    0.3044062  15.36  0.001846147    1.796    0.443
       116  -9.9985    243.0916     73.1257   2.3555687319e+01   1.6550312102e+01    0.1744616    0.1583135 -20.35 0.0004248784    1.256    0.204
       117 -10.2231    240.4745     69.7287   2.3092180836e+01   1.7508425615e+01    0.2851038    0.1174314 -25.33  0.001131011    3.134    0.681
       118 -11.4209    183.0361     69.0775   3.0267492866e+01   2.9794906918e+01    0.2559422    0.2344813  82.05 0.0004258293    1.096    0.088
       119 -10.0901    210.8050    112.1742   3.6490351483e+01   1.6796493480e+01    0.2824203     0.176943  63.01  0.001113392    2.022    0.506
       120 -11.6895    241.9678     61.9030   2.1248236445e+01   1.8287515819e+01    0.5959431    0.3008242 -50.04   0.00310286    1.742    0.426
       121 -10.2124    226.0502     50.7623   2.0322751702e+01   2.2916949471e+01    0.3154471    0.2347478 -36.48  0.001084643    1.256    0.204
       122 -10.6932    138.4913    112.5006   5.1100301103e+01   3.2080352493e+01     0.278074    0.1442465  35.50 0.0008664312    2.255    0.557
       123 -11.4763    230.0673     50.3844   1.9848587089e+01   2.2145672723e+01    0.5306666     0.174776 -34.51  0.001197739    2.571    0.611
       124 -12.8076    221.4913     38.7570   1.7995300341e+01   2.5404912510e+01    0.6202193    0.3565808 -59.90 0.0007702827    1.646    0.392
       125 -10.9445     96.7490    110.2686   6.2287943210e+01   4.1288330307e+01    0.3560495    0.2087064 -38.23 0.0008866817    1.927    0.481
       126 -11.4382    226.4769     66.1766   2.3798648004e+01   2.0735245502e+01    0.2827302    0.2190198 -51.75  0.001184694    1.120    0.107
       127 -11.5098    224.4326     61.8842   2.3040244223e+01   2.1748692936e+01    0.3562059    0.2994631  78.92  0.001561298    1.279    0.218
       128 -11.3913    181.3146     52.2271   2.5984060720e+01   3.2714082879e+01    0.6670741    0.5293194 -61.42  0.003691339    1.206    0.171
       129 -10.7629    196.0068    107.2936   3.7784801420e+01   2.0589435792e+01    0.3793162    0.2956769 -73.81  0.001972201    1.605    0.377
       130 -11.5025    182.5298     61.8978   2.8423987348e+01   3.1013708241e+01    0.4874615    0.2885704 -51.38  0.001536583    1.681    0.405
       131  99.0000    163.3713     48.1631   2.7544054180e+01   3.7666168611e+01    0.9707747    0.6083958  53.76  0.004647829    1.605    0.377
       132 -11.5607    201.4367     20.4906   1.5412883217e+01   3.1979421496e+01     0.253306    0.2195435  75.22 0.0006874162    1.224    0.183
       133 -12.9584    190.3676     57.2665   2.6067937646e+01   2.9860540937e+01    0.8299419    0.6757588  57.43  0.004355935    1.312    0.238
       134  -9.8306    170.1206     32.9849   2.2134613577e+01   3.7995624183e+01    0.4880227    0.3692926   8.83  0.002534177    1.883    0.469
       135 -11.1495    162.4342     29.5314   2.2158199482e+01   4.0329704655e+01    0.3677047    0.2256736 -51.99 0.0005086561    1.632    0.387
       136 -12.4068    199.2121     48.2200   2.2607376549e+01   2.9084615761e+01    0.9210533    0.5496823  22.10  0.003600724    3.720    0.731
       137 -12.2018    209.9086     46.3361   2.0935583593e+01   2.6938543807e+01    0.7548872    0.3564599 -63.97  0.003155918    2.666    0.625
       138 -10.6384    183.2973    106.9509   3.9967080802e+01   2.3330019684e+01    0.4786822    0.2381177 -28.81  0.000809492    2.371    0.578
       139 -11.3571    173.2849     53.3169   2.7470190456e+01   3.4493591088e+01    0.5768732    0.3741446 -69.12  0.002291925    1.782    0.439
       140 -10.5162    161.6262    107.1810   4.4354112790e+01   2.8032129131e+01    0.2213594    0.1403891 -29.74 0.0009499971    1.749    0.428
       141 -11.9416    173.4959     44.3092   2.4899516892e+01   3.5701859959e+01    0.7659993    0.4424011  62.53  0.003279904    1.679    0.404
       142 -11.3316    174.1053     39.8325   2.3550525634e+01   3.6146709307e+01    0.3387516    0.2341513  66.78 0.0008183228    1.399    0.285
       143 -11.6847    248.0383     56.9033   1.9619934846e+01   1.7806359074e+01    0.5103135    0.2720325 -41.78  0.002259608    1.490    0.329
       144 -11.4451    161.8669     54.6664   2.9706789952e+01   3.7095933737e+01    0.4678416    0.3627683 -74.16  0.001498273    1.370    0.270
       145 -12.0493     64.2686     47.5698   5.3931945866e+01   6.0978925711e+01     0.719423    0.4638641  60.43  0.003239164    2.212    0.548
       146 -12.3680    144.0120     69.1690   3.7514495475e+01   3.9180359598e+01     1.206537    0.5976695  45.43  0.004723391    2.138    0.532
       147 -11.1015    101.1053     54.0472   4.3372466996e+01   5.2106133791e+01    0.6122882    0.2983212  49.86  0.002465999    1.954    0.488
       148 -10.0194    210.4850    105.7356   3.5064128952e+01   1.7917200931e+01    0.2402928    0.1905707  54.50 0.0008755585    1.405    0.288
       149 -10.3708    207.7031     52.6638   2.2724298545e+01   2.6577552401e+01    0.2791597    0.1695464  81.65  0.001401536    1.845    0.458
       150 -12.2100    190.1404     46.5398   2.3280601444e+01   3.1409067896e+01     1.063472    0.4855382  74.86  0.004403825    2.489    0.598
       151 -11.3124     90.5901     51.1459   4.5579275717e+01   5.4979911323e+01    0.2469469    0.2186092  37.47  0.000278369    1.081    0.075
       152 -10.6706    162.3632     59.2040   3.0949223363e+01   3.6287231555e+01       0.2828    0.2409518  89.85  0.001526995    1.180    0.152
       153 -10.9829     99.0732     48.0603   4.1743604495e+01   5.3573992710e+01    0.3189625    0.2561036  14.01  0.001343109    1.448    0.310
       154 -10.7664    248.7948     47.1933   1.7512910790e+01   1.8902396998e+01    0.3014623    0.1985211 -88.02  0.001005462    1.673    0.402
       155  -9.2680     93.6581     48.2890   4.3493562482e+01   5.4776588322e+01    0.1448792    0.1162467 -87.30 0.0007023053    1.647    0.393
       156 -10.2674    142.5471     46.4258   3.0673691093e+01   4.3139645362e+01    0.3426304    0.2255185  39.26  0.001580122    1.757    0.431
       157  -9.3719    149.0213     41.1122   2.7793336772e+01   4.2242822214e+01    0.8674824    0.3897638 -38.44  0.003556639    2.185    0.542
       158 -11.6056    127.1123     45.1703   3.3445627648e+01   4.7209967476e+01    0.6317569    0.4053388  83.70  0.002683947    2.005    0.501
       159  -9.4845    135.8236     43.4990   3.1037033274e+01   4.5255924709e+01    0.3774677    0.2275225  47.64  0.001709834    1.676    0.403
       160 -10.8235    132.3056     40.1334   3.0613509644e+01   4.6614773600e+01    0.4230066    0.2134018  56.89  0.001229544    1.819    0.450
       161 -10.6231    215.7447     42.9445   1.9521051645e+01   2.6105811048e+01    0.2922296    0.1853388 -34.17   0.00122969    1.494    0.331
       162 -10.0925    105.7736     43.4459   3.8077325729e+01   5.2715968284e+01    0.2385646     0.204638 -32.60 0.0002958268    1.233    0.189
       163 -10.7142    246.8637     42.3189   1.6642886942e+01   1.9870280269e+01    0.2891087    0.1884979 -70.46  0.001774823    1.506    0.336
       164  -9.8727    156.2935     42.7277   2.7066154517e+01   4.0188593538e+01    0.2798538    0.1539993 -45.03  0.001245322    1.812    0.448
       165 -10.6906    240.8695     40.3254   1.6692892462e+01   2.1268388294e+01    0.2405073     0.210929 -22.49  0.001659576    1.378    0.275
       166 -10.3942    100.0062     40.6583   3.8615321004e+01   5.4507758191e+01    0.3180985     0.227571  62.49   0.00157185    1.424    0.298
       167  -9.9602    236.5287     39.0106   1.6758519301e+01   2.2285023830e+01    0.2076976    0.1481069 -74.48 0.0006253834    1.344    0.256
       168 -10.4114    233.5974     36.3183   1.6406568602e+01   2.3200612984e+01    0.2582721    0.1739982 -27.50  0.001527509    1.577    0.366
       169  -9.7431    249.9981     38.5100   1.5609802503e+01   1.9741907058e+01    0.1572917    0.1096859  83.28 0.0007366927    1.539    0.350
       170 -11.4564    191.5907     39.5683   2.1275443598e+01   3.1984953800e+01    0.3864222    0.3364627 -24.58  0.001220744    1.313    0.238
       171  -9.8701    124.9480     36.9903   3.1054963111e+01   4.8901097171e+01    0.2328951    0.1674173  30.10  0.001125602    1.663    0.399
       172 -10.5878    110.9129     34.7991   3.3461659052e+01   5.2700334174e+01     0.465655    0.2923237  13.15 0.0008423472    2.508    0.601
       173 -11.7726    152.2707     33.8111   2.4960974859e+01   4.2370499668e+01    0.2515644    0.2213896 -53.39 0.0002562845    1.140    0.123
       174 -10.6341    131.8403     33.4619   2.8417260830e+01   4.7615768649e+01    0.4029967    0.2137468 -56.72 0.0008620765    2.399    0.583
       175  -9.3376    128.3668     28.1778   2.7240574139e+01   4.9153768048e+01     0.197837    0.1210221 -43.52 0.0005403434    1.724    0.420
       176 -11.5379     92.3335     32.9790   3.7755628713e+01   5.7412699829e+01    0.3924343    0.3075472  22.78  0.001389376    1.385    0.278
       177  -9.4078    247.4599     32.8952   1.4626110640e+01   2.0889928229e+01    0.1620889   0.09265441 -41.44 0.0002528441    1.403    0.287
       178  -9.6931    122.4376     32.9729   3.0152276190e+01   5.0062131631e+01    0.1993504    0.1405844 -33.02 0.0005892903    1.511    0.338
       179 -10.6101    238.5946     30.4743   1.4751014281e+01   2.2897146789e+01    0.3850897    0.1834338  66.94  0.002053347    2.242    0.554
       180 -10.0092    104.4068     28.9424   3.2796478282e+01   5.5062598836e+01    0.3032732    0.1227013 -36.07  0.001185815    2.556    0.609
       181 -12.2908     24.5276     43.3348   7.1843800935e+01   6.7603514595e+01    0.7394968    0.4404171  24.83  0.003422766    1.728    0.421
       182 -11.8511    148.5627     27.6515   2.3594309464e+01   4.4061047344e+01    0.4964051    0.3118888 -80.50  0.001243597    1.838    0.456
       183 -11.1322    150.5966     23.0171   2.1820495502e+01   4.4073820766e+01    0.3584759    0.3374893 -20.16 0.0008842796    1.228    0.185
       184 -11.2671    138.4529     26.6169   2.4887684047e+01   4.6763039348e+01    0.5138615    0.2992604 -78.81  0.001573146    2.253    0.556
       185 -10.1512    132.5411     26.3684   2.5833622988e+01   4.8303047089e+01    0.3876703    0.1998413 -47.29 0.0007239007    2.113    0.527
       186 -11.2864     86.4424     28.5350   3.7656491597e+01   5.9376379685e+01    0.2795684    0.2422572  63.42 0.0006952604    1.196    0.164
       187 -10.3602     15.2908    105.9660   9.0643209552e+01   5.3398788784e+01     0.192693    0.1525422 -71.75 0.0003910045    1.115    0.103
       188  -9.8818    123.2370     27.9443   2.8165046176e+01   5.0485501627e+01    0.2579522    0.1795459 -84.43  0.001204394    1.702    0.413
       189  -9.9257    112.9207     26.9664   2.9997393956e+01   5.3201465078e+01    0.4471405    0.2790227 -64.07  0.001996274    2.154    0.536
       190 -10.1149    234.0844     25.1082   1.3917097314e+01   2.4420835165e+01    0.3182094    0.2360335 -10.78  0.001944265    1.888    0.470
       191 -10.0435    245.0013     19.2723   1.1959911364e+01   2.2913380780e+01    0.1614286    0.1119146  87.97 0.0008696566    1.439    0.305
       192 -11.1255    246.4334     23.2045   1.2683959035e+01   2.2200290888e+01    0.2511027    0.1812881 -71.22 0.0006890572    1.221    0.181
       193 -11.7653    241.5531     22.8291   1.2920089435e+01   2.3190222000e+01    0.2853402    0.2152797  79.21 0.0005744753    1.409    0.290
       194 -10.9185    176.2027     23.6522   1.8747822555e+01   3.7599433505e+01    0.2886184    0.2379663 -25.63 0.0008686472    1.378    0.275
       195 -10.1610    180.0721     20.1664   1.7366394548e+01   3.7045158901e+01    0.1979295    0.1614451  59.81 0.0005948899    1.312    0.238
       196  -9.3342    117.3516     25.1303   2.8338091363e+01   5.2307256381e+01     0.203729     0.118097 -42.18 0.0008064781    1.855    0.461
       197 -10.6555    118.8555     20.6176   2.6339402417e+01   5.2436973939e+01    0.2413616    0.2364431  28.99 0.0003992902    1.118    0.105
       198 -10.1387    230.4289    103.2798   3.1634992320e+01   1.4496044300e+01    0.3297925    0.1176958 -31.44  0.001262104    2.813    0.645
       199 -11.4798    155.9117    105.1735   4.5079134604e+01   2.9698734978e+01    0.2396815    0.2117569 -79.89 0.0009112044    1.262    0.207
       200  -9.6840    134.6358    105.1865   5.0143185415e+01   3.4466930095e+01    0.2164067    0.1453625 -33.73 0.0005890661    1.618    0.382
       201 -10.7396    144.7668    102.8030   4.7008716361e+01   3.2681940234e+01    0.3935772    0.2958366  27.05  0.001819559    1.575    0.365
       202  -9.4716    102.5030     23.4610   3.1060747002e+01   5.6196345924e+01    0.1406256    0.1268993  52.65 0.0001071536    1.009    0.009
       203 -10.0756     98.1159     21.8645   3.1501718339e+01   5.7450471903e+01     0.279874     0.228289   5.36  0.001558152    1.389    0.280
       204  -9.8526    205.6548     18.8235   1.4647340559e+01   3.1207180765e+01    0.3037702    0.1384688 -58.99 0.0008679576    2.146    0.534
       205 -10.9948    209.1951     21.5526   1.5013460638e+01   3.0113037533e+01    0.2212327    0.1844025 -63.79 0.0002995739    1.021    0.020
       206 -10.0944    212.6224     19.7149   1.4300333074e+01   2.9559554017e+01    0.2300473    0.1471939 -42.57 0.0009577035    1.378    0.275
       207 -12.3685    160.7231     38.5041   2.5088633024e+01   3.9638644504e+01    0.6721208    0.5061935  83.29  0.002754785    1.303    0.233
       208 -11.4115    130.2608     19.4097   2.3804419238e+01   4.9662640726e+01    0.3072053    0.2333515  70.37 0.0003735195    1.191    0.160
       209  -9.6361    135.4994     20.4875   2.3302080858e+01   4.8207029176e+01    0.2398116    0.1273646  82.37  0.000570412    2.092    0.522
       210  -9.6179    103.1618    104.5980   5.8809336219e+01   4.1340415387e+01    0.2087241    0.1475953  27.84 7.825805e-05    1.598    0.374
       211 -12.1949     26.1851     35.9233   6.7990255823e+01   6.8923610556e+01    0.3192119    0.2569492 -12.55 0.0006579998    1.143    0.125
       212 -10.8148    113.1261     17.0072   2.6110133518e+01   5.4268204527e+01     0.445764    0.1906144  60.74  0.001124473    2.001    0.500
       213 -10.6504    173.5330     16.6987   1.7096152624e+01   3.9011715407e+01    0.3090071    0.1613691 -65.21  0.001408664    2.068    0.516
       214 -11.3656     69.4571    102.7762   6.9584798859e+01   4.7940411760e+01     0.379153    0.1352701 -53.11   0.00129524    2.634    0.620
       215 -13.1310     79.0923     58.9525   5.2534819939e+01   5.5983044080e+01    0.8720403    0.4557425  39.22  0.003659954    1.915    0.478
       216 -11.5970    235.4581    102.3618   3.0771553843e+01   1.3719970090e+01    0.2934758    0.2290082  36.84   0.00167061    1.542    0.352
       217 -11.8146     83.4948     82.4244   5.8886789582e+01   5.0245155982e+01     0.466083    0.3108934 -54.90  0.002110652    1.586    0.369
       218 -11.8774    127.1855     58.9044   3.8082827422e+01   4.5047101501e+01    0.6087744    0.3245739  36.80  0.002329672    2.393    0.582
       219 -11.3549    113.1349    246.7976   8.0812153025e+01   9.2248329822e+00    0.3377507    0.2226374 -31.48  0.001966064    2.101    0.524
       220 -13.0696    146.8075     59.2262   3.3877725246e+01   4.0133868432e+01     2.201072     1.274661  81.87  0.008557734    2.485    0.598
       221 -10.3888    102.5676     15.6418   2.7833840236e+01   5.7042128759e+01    0.2589979    0.1776872  24.28 0.0002753436    1.717    0.418
       222 -10.7224     36.1556    248.7290   9.6939113494e+01   1.8423865838e+01     0.193543    0.1250754 -66.13  0.001268962    1.865    0.464
       223 -12.2068    148.0249     84.5088   4.1167859302e+01   3.5470227827e+01    0.6734899    0.4742843 -56.77  0.000795782    1.555    0.357
       224 -12.3853     87.0906     73.8328   5.4879985467e+01   5.1383825028e+01    0.6974792     0.564294  48.41  0.001790181    1.255    0.203
       225 -10.0589     15.8500    238.2162   1.0052907054e+02   2.2467181884e+01    0.1329371    0.1248207  67.57 0.0004010744    1.321    0.243
       226 -11.2443    152.9954    124.1166   5.0522775696e+01   2.6538401789e+01    0.2329415    0.2111826 -41.30  0.000268128    1.096    0.088
       227  -9.6053    220.4911    121.4296   3.7045080947e+01   1.3465145367e+01    0.1322395    0.1170249 -28.14 -1.005861e-05    1.013    0.013
       228  -9.9310    141.0127    119.7446   5.2313308648e+01   3.0004769474e+01    0.2139282    0.1969655  43.44  0.000306608    1.084    0.078
       229 -10.4311    203.7345    115.9862   3.8513078890e+01   1.7541818287e+01     0.377367    0.2354673  73.87  0.001633986    2.654    0.623
       230 -10.4943     90.9601    115.9912   6.5538731506e+01   4.1007157260e+01    0.1843332     0.177471  45.59 0.0003069644    1.038    0.036
       231 -10.2433    181.5057    115.4966   4.2389290492e+01   2.2160703037e+01    0.1445213    0.1372709 -30.06 0.0008106538    1.006    0.006
       232 -13.1767     81.3071     49.7623   4.8220431105e+01   5.7220769359e+01     1.128523    0.5744768  30.66  0.004304371    2.577    0.612
       233 -11.2955    109.3608    102.6932   5.6421995023e+01   4.0494607004e+01      0.27981    0.2392376 -54.28 0.0005531744    1.192    0.161
       234 -10.0018    165.4718    101.9322   4.2186957547e+01   2.8171591075e+01    0.2309006    0.1437523 -40.43 0.0009062935    1.561    0.359
       235 -11.0109     96.0288    101.2494   6.0136598280e+01   4.3536154948e+01    0.2940703    0.2188605 -23.56  0.001052453    1.659    0.397
       236 -12.7510     85.6575     99.0084   6.2941627880e+01   4.6043737144e+01    0.7283335    0.4049508  34.17  0.002974555    1.888    0.470
       237 -10.8086    170.3560     97.6804   4.0094588034e+01   2.7859073102e+01    0.3496053    0.2813616 -41.30  0.001479652    1.200    0.167
       238 -12.1962    153.9534     95.8865   4.3033643863e+01   3.1940107132e+01    0.6314994    0.4310006  39.14  0.002065331    1.595    0.373
       239 -13.2350    136.5875     81.5984   4.2963051474e+01   3.8730731223e+01     1.414308    0.6149604 -46.84  0.001101878    2.423    0.587
       240 -11.7103    199.8433     96.3489   3.4519443738e+01   2.1638145213e+01    0.4128494    0.2621704 -60.17  0.001317855    1.891    0.471
       241 -14.3117     66.1759     83.1991   6.5539838910e+01   5.3162222516e+01     1.977188     1.176107 -37.95  0.003186179    1.809    0.447
       242 -13.0698     50.6622     86.2085   7.2571205866e+01   5.4773897042e+01      1.12821    0.3236636  39.15  0.001181436    3.540    0.717
       243  -9.6981    171.1379    113.9126   4.4059214136e+01   2.4662535728e+01    0.2050485    0.1721259 -10.13 0.0006035753    1.345    0.257
       244 -11.8688     10.8294     81.4992   8.8701708784e+01   5.9862048431e+01    0.4942953     0.251878 -84.97  0.001476879    2.210    0.548
       245 -14.0723      8.3475     69.9103   8.7713546179e+01   6.2839513367e+01     1.981725     1.026868  11.97   0.00927253    2.174    0.540
       246 -14.0614     45.8008     71.8998   7.0652031864e+01   5.8810792029e+01     1.645356     1.105253  33.18  0.005815194    1.545    0.353
       247 -10.3762    143.0812    112.9709   5.0090150029e+01   3.0976909474e+01    0.2338177    0.2279423  76.03 0.0005745987    1.051    0.049
       248 -10.8026    134.1085    113.1876   5.2387758998e+01   3.2889573114e+01    0.2460592    0.2184493   2.09 0.0006688766    1.273    0.214
       249 -12.6270     55.2062     71.7251   6.6511059344e+01   5.7518243690e+01    0.3642874    0.3159671 -66.26 0.0003803674    1.265    0.209
       250 -12.6498     58.6704     62.8361   6.2085044292e+01   5.8921281051e+01    0.9741815    0.7900707 -45.38  0.005294699    1.217    0.179
       251 -12.9609     50.2428     54.0601   6.2666628552e+01   6.2080576866e+01    0.8411169    0.3847236  37.54  0.002358759    2.211    0.548
