#   1 NUMBER                 Running object number                                     
#   2 MAG_AUTO               Kron-like elliptical aperture magnitude                    [mag]
#   3 X_IMAGE                Object position along x                                    [pixel]
#   4 Y_IMAGE                Object position along y                                    [pixel]
#   5 X_WORLD                Barycenter position along world x axis                     [deg]
#   6 Y_WORLD                Barycenter position along world y axis                     [deg]
#   7 A_WORLD                Profile RMS along major axis (world units)                 [deg]
#   8 B_WORLD                Profile RMS along minor axis (world units)                 [deg]
#   9 THETA_WORLD            Position angle (CCW/world-x)                               [deg]
#  10 FWHM_WORLD             FWHM assuming a gaussian core                              [deg]
#  11 ELONGATION             A_IMAGE/B_IMAGE                                           
#  12 ELLIPTICITY            1 - B_IMAGE/A_IMAGE                                       
         1 -13.9428    215.8462      7.7258   3.9082393889e+01   3.0138775346e+01     2.389657     1.505305  36.08   0.01197076    2.280    0.561
         2 -13.4112    190.8390     39.0174   5.0345742384e+01   3.2612090450e+01     1.074304    0.9563426 -40.68  0.003944757    1.147    0.128
         3 -12.8109    195.9531     33.2318   4.8002359211e+01   3.2078177585e+01    0.7410113    0.6238573 -22.53  0.001243617    1.326    0.246
         4 -11.0388    189.7517     14.8084   4.3679283124e+01   3.5815600853e+01    0.3083712    0.2370914 -46.36  0.001011187    1.306    0.234
         5 -13.1748    175.7916     52.6756   5.6785201933e+01   3.4498901980e+01     2.011978     1.279022  31.64  0.005757384    2.052    0.513
         6 -11.0085     68.1646      2.3417   6.4103000007e+01   6.5523342906e+01    0.4003894    0.1111756  52.69  0.001491321    3.690    0.729
         7  -8.6592     87.8187    202.3621   1.1181465083e+02   2.1302652582e+01    0.1710537    0.1162051  30.99 0.0006821299    1.692    0.409
         8 -12.6708    247.6012    242.0357   8.6483868541e+01  -1.0620153890e+01      1.12859    0.4624498 -29.03  0.006002798    2.544    0.607
         9 -10.3038    203.5900    199.5059   8.7123071531e+01   1.8738985718e+00    0.2919512    0.1196751  40.38  0.001230469    2.234    0.552
        10  -8.9900     44.6434    198.5625   1.2043740538e+02   2.7858197949e+01    0.1435526    0.0954662  57.18 0.0003129637    1.298    0.230
        11 -10.8788    150.5048    195.7791   9.7348273631e+01   1.2118590856e+01    0.3089658     0.286869  67.61  0.001870791    1.136    0.120
        12  99.0000     43.2896    221.2647   1.2248923910e+02   2.3401981284e+01      0.18006    0.1475083  18.53  0.001232622    1.897    0.473
        13  -9.6193     82.2168    195.0305   1.1214259454e+02   2.3670881622e+01    0.2117124    0.1718108  56.24 0.0005423874    1.114    0.103
        14  -8.5049     49.8331    216.7471   1.2091432245e+02   2.3508214968e+01    0.3052167    0.2207286  -1.87  0.001656264    3.141    0.682
        15 -10.1820     95.5101    189.4030   1.0848906784e+02   2.2865594930e+01    0.3650621    0.2985137  51.37   0.00102453    1.137    0.120
        16 -10.1169     98.6150    185.8771   1.0729901995e+02   2.3136590078e+01    0.2478261    0.1979962  89.02  0.000680161    1.252    0.201
        17  -9.1800    156.6646    189.9542   9.5023234202e+01   1.2098230463e+01    0.1848177    0.1798942 -48.75 0.0004539291    1.128    0.113
        18 -10.9833    149.7051    187.9945   9.6190845589e+01   1.3769007363e+01    0.4351031    0.2132416  47.74  0.001846314    1.969    0.492
        19 -10.9415    150.8885    179.7212   9.4447285467e+01   1.5189967762e+01    0.4433232     0.301035 -74.98  0.002000363    2.168    0.539
        20 -10.4442     99.4639    180.7690   1.0636318189e+02   2.4117901964e+01    0.2634939     0.239072 -68.93 0.0006039491    1.160    0.138
        21 -11.0815    145.1707    180.6369   9.5890405634e+01   1.6084667726e+01    0.3670651    0.3058339  59.03  0.001124502    1.218    0.179
        22 -11.2057    140.6830    173.6872   9.5639395714e+01   1.8367089245e+01    0.6620007     0.408149  66.73  0.002753009    2.323    0.570
        23 -10.4156    188.7269    176.7457   8.5735034465e+01   8.4689169959e+00     0.741361    0.3990904 -57.56  0.002643414    2.948    0.661
        24  -9.2105     50.3922    172.5798   1.1665334028e+02   3.2899453110e+01    0.2129478    0.1509691  54.55 0.0008055182    1.336    0.251
        25  -9.9805    184.0158    210.8992   9.2977301464e+01   3.4707821870e+00    0.3108435    0.1860875 -41.56  0.001612906    1.881    0.468
        26 -10.5974     37.4929    211.6552   1.2288321688e+02   2.5976248848e+01    0.2122442    0.1192279  86.81  0.001125809    1.601    0.375
        27  -9.7520    240.2029    169.5853   7.4428190580e+01   1.5824209507e-01    0.1810655    0.1168358  27.45 0.0004498197    1.584    0.369
        28 -10.2590     96.4559    202.2057   1.0995582290e+02   2.0023508452e+01    0.4838084    0.3707926 -28.75  0.002678333    2.007    0.502
        29 -10.6196     72.0817    246.2067   1.1914245686e+02   1.5155228053e+01    0.3909166    0.1993421 -74.50  0.002303825    2.140    0.533
        30  99.0000     43.0948    209.3391   1.2162997166e+02   2.5802290154e+01    0.4375248    0.1612882  67.63    0.0017469    3.612    0.723
        31 -11.5752     95.8739    151.6513   1.0248320414e+02   3.1373765759e+01    0.6248998    0.4529739 -34.77  0.003062638    1.739    0.425
        32  -9.6084    187.8950    152.2702   8.0736533070e+01   1.3214724449e+01    0.3279604     0.229546  87.36  0.001303109    2.741    0.635
        33 -10.8335    133.7372    145.2026   9.1599131946e+01   2.5933222866e+01     1.297381     0.338365 -55.49  0.002973742    6.210    0.839
        34 -10.6249     43.8769    205.1827   1.2114487524e+02   2.6563789216e+01    0.1765562    0.1365948 -83.89            0    1.203    0.169
        35  -9.5143    174.7897    148.9245   8.2805381181e+01   1.6619623294e+01    0.2724894    0.2144504 -63.31 0.0007674374    1.528    0.346
        36  -9.4314    143.6040    145.7881   8.9311392671e+01   2.3807351399e+01    0.2213201    0.1449828 -59.31 0.0009536548    1.718    0.418
        37 -10.9765    107.7147    138.3347   9.6808652689e+01   3.2479112439e+01    0.5589087    0.4181791 -44.13  0.002752263    1.386    0.279
        38 -11.7567     95.8729    137.6313   9.9826674685e+01   3.4708233200e+01    0.3069643    0.2759668  84.18 0.0004981748    1.106    0.096
        39 -10.7114    105.4951    131.0895   9.5857777027e+01   3.4591682621e+01    0.4975307    0.3922691 -29.73  0.002456093    1.497    0.332
        40  -9.6327    135.8830    128.6730   8.7297627587e+01   2.9214954107e+01    0.4689432    0.0971475 -46.68  0.001151251    4.778    0.791
        41 -10.0556    114.7874    129.0725   9.2901620421e+01   3.3344058480e+01    0.3263579    0.2833601  -7.67 0.0007927457    1.393    0.282
        42  -9.3466    160.5034    127.5533   8.1016113232e+01   2.4141172874e+01    0.3289565    0.1535755 -43.51  0.001202009    2.134    0.531
        43 -10.4838    102.3707    124.7921   9.5318770043e+01   3.6644345913e+01    0.3011902    0.2385869 -30.78 0.0006219528    1.447    0.309
        44 -10.1029    120.2917    122.8679   8.9971287638e+01   3.3714414832e+01    0.5081345    0.3082062 -22.20  0.001822807    2.864    0.651
        45  -9.0394    135.0000    119.9806   8.5390488179e+01   3.1347955666e+01     0.260035   0.08822911 -46.25 0.0007979346    2.911    0.657
        46  -9.4672    110.0288    118.1104   9.1624321366e+01   3.6807589429e+01    0.2202516    0.2131079 -59.63 0.0003352192    1.008    0.008
        47 -10.0472    231.1660    113.6885   6.3492559043e+01   1.1116603129e+01    0.2765778    0.2674208  61.76 0.0007110504    1.159    0.137
        48  -9.2497    167.5222    112.3712   7.5529903442e+01   2.5708457654e+01    0.3444661    0.2473647 -73.36  0.001437582    1.962    0.490
        49  -8.4708    146.5013    113.4254   8.0793566088e+01   3.0280992834e+01    0.1559862    0.1530448 -88.39 0.0001300654    1.044    0.043
        50 -10.8418    118.3441    110.3286   8.7362930555e+01   3.6974028403e+01    0.5565802     0.417596  67.89  0.002549266    1.648    0.393
        51  -9.5331    205.2614    110.1700   6.7174143775e+01   1.7407808524e+01    0.3057295    0.2253775  48.61 0.0009102879    1.416    0.294
        52  -9.7029    134.5602    105.3734   8.1680075444e+01   3.4664160859e+01    0.4948896    0.1510291 -45.89  0.001455522    3.257    0.693
        53  -8.6692    164.5874     92.2215   7.0688069672e+01   3.0424589493e+01    0.2076187    0.1518537 -26.94 0.0002574136    1.476    0.323
        54 -10.8038     66.9179    205.6220   1.1653639500e+02   2.3583037882e+01    0.3360601    0.2134668 -44.97  0.001445973    2.295    0.564
        55  -9.4535     72.2317    202.5099   1.1511650105e+02   2.3508019101e+01    0.3385851    0.1898866  80.61  0.001691521    2.055    0.513
        56  -9.3591    189.4958    208.4917   9.1483498481e+01   2.9044982063e+00    0.1325964    0.1154488  27.03 0.0001372169    1.041    0.040
        57  -9.3560     68.9444     71.9390   9.1924592302e+01   5.4210055354e+01    0.2034248    0.1853213 -39.59  0.000292465    1.066    0.062
        58  -8.7558    224.3310    206.2413   8.4441186787e+01  -2.6447495172e+00    0.1642282    0.1127267 -37.11 0.0009348523    1.609    0.379
        59  -9.5861    167.8729    232.3442   9.9492106509e+01   2.8251984159e+00    0.2293335    0.1763836  38.80  0.000759332    1.085    0.078
        60 -10.7267     59.2228    230.6417   1.2024681215e+02   1.9651508903e+01    0.1806808    0.1374005  86.38 0.0004281559    1.200    0.167
        61 -10.8401    193.3457    195.7947   8.8456025763e+01   4.2962721201e+00    0.9548887    0.4962063 -61.92  0.003017044    5.574    0.821
        62 -12.2066     58.0025    198.2246   1.1765222406e+02   2.6298532753e+01    0.6677452    0.2439735 -58.48  0.002985195    2.790    0.642
        63 -19.5443     19.9715    145.2521   1.2097099895e+02   4.2349462962e+01     19.14305     4.523596 -75.44   0.06564499    3.974    0.748
        64  -8.6631     76.7996    224.9055   1.1643318491e+02   1.8399625544e+01    0.1294768   0.08828747 -72.41 0.0003294094    1.529    0.346
