#   1 NUMBER                 Running object number                                     
#   2 MAG_AUTO               Kron-like elliptical aperture magnitude                    [mag]
#   3 X_IMAGE                Object position along x                                    [pixel]
#   4 Y_IMAGE                Object position along y                                    [pixel]
#   5 X_WORLD                Barycenter position along world x axis                     [deg]
#   6 Y_WORLD                Barycenter position along world y axis                     [deg]
#   7 A_WORLD                Profile RMS along major axis (world units)                 [deg]
#   8 B_WORLD                Profile RMS along minor axis (world units)                 [deg]
#   9 THETA_WORLD            Position angle (CCW/world-x)                               [deg]
#  10 FWHM_WORLD             FWHM assuming a gaussian core                              [deg]
#  11 ELONGATION             A_IMAGE/B_IMAGE                                           
#  12 ELLIPTICITY            1 - B_IMAGE/A_IMAGE                                       
         1 -11.7072    222.2541    142.2587   9.0646568936e+01   7.6182047332e+00     0.996743    0.6736885 -67.22   0.00347039    2.066    0.516
         2 -12.1573    243.7016     54.8180   6.7436740249e+01   1.8161812779e+01     1.164133    0.5548532 -57.23  0.005146806    2.150    0.535
         3  -8.7769    155.9674     16.9935   6.9880699728e+01   4.4047719897e+01    0.2687767    0.1545316 -37.09  0.001359515    1.905    0.475
         4  -9.8482    105.1974     12.9345   7.8568805180e+01   5.5963788170e+01    0.2290844    0.1522273 -10.92  0.001054852    1.669    0.401
         5  -9.4849    183.4210     11.3874   6.4439173046e+01   3.7976450068e+01    0.2827937     0.125439 -58.27  0.001151372    2.926    0.658
         6  -9.4468    160.5352      9.2948   6.6979333233e+01   4.3705811077e+01    0.2287347    0.1195988 -33.75  0.001135686    2.103    0.525
         7  -9.4296    117.5614      9.2548   7.4515437156e+01   5.3654306853e+01    0.2047298    0.1200515 -26.91 0.0005966627    1.903    0.474
         8  -8.3284    155.3224      9.6717   6.7868003533e+01   4.4918019001e+01    0.1327904   0.09233638 -72.17 0.0007048838    1.692    0.409
         9  -8.7996    148.4798      8.6116   6.8632464395e+01   4.6641016994e+01     0.267905    0.1572731 -59.91  0.001305785    2.246    0.555
        10  -9.9181    139.0889      8.2144   7.0077804466e+01   4.8877698310e+01    0.2384977    0.1522085 -58.89   0.00123766    2.044    0.511
        11  -9.4909    132.9909      8.3009   7.1187400954e+01   5.0277100957e+01    0.2172281    0.1537201 -42.19  0.000875601    1.655    0.396
        12  -9.5083    124.5790      5.7521   7.1936161036e+01   5.2401002585e+01    0.1615471    0.1161951 -36.02 0.0009522159    1.621    0.383
        13 -10.3759    121.5087      6.4777   7.2775040940e+01   5.3023984843e+01    0.3276297    0.1788677 -40.11  0.001684465    2.203    0.546
        14 -10.5282    110.5413      4.7825   7.4459516155e+01   5.5553025022e+01    0.3072064    0.2351798 -46.58 -0.0001541599    1.655    0.396
        15  -9.6638    242.8202      4.8378   5.7068736613e+01   2.4877426520e+01    0.1767995    0.1129438 -66.97 0.0006584651    1.327    0.246
        16  -9.2372     64.7012      4.9998   8.6740663931e+01   6.4299915464e+01    0.1581306    0.1272998   6.73 0.0003937471    1.091    0.084
        17  -8.8760    250.2858      3.9374   5.6326462087e+01   2.3369439910e+01    0.1627955    0.1261169 -65.44 0.0003699418    1.115    0.103
        18  -9.5885    152.8955      3.1234   6.6350925173e+01   4.6079026817e+01     0.281033    0.1871829 -51.74   0.00137072    1.738    0.425
        19  -8.8382    128.0000      3.4358   7.0540754960e+01   5.1822885282e+01    0.2454713   0.07265072 -21.84 0.0009355015    3.941    0.746
        20  -9.8079     50.9023      3.6831   9.0899019437e+01   6.6586679808e+01    0.1949153    0.1439224   0.91 0.0002747536    1.131    0.116
        21  -9.3764    181.2044      2.7662   6.2517169171e+01   3.9349837383e+01    0.3348643     0.159851 -70.80  0.001398078    2.917    0.657
        22  -8.8078    159.0359      3.0056   6.5433011051e+01   4.4631962659e+01    0.2080973     0.139766 -72.63 0.0009298187    1.717    0.418
        23 -10.3693     98.5672      3.3032   7.6630904904e+01   5.8169563568e+01    0.5457871    0.2302002  41.42  0.002641497    2.050    0.512
        24  -8.8306    175.4956      8.4904   6.4698312339e+01   4.0179798202e+01    0.1309796    0.1107375  74.33 -7.150263e-05    1.023    0.022
        25  -7.9757    177.4645      1.4747   6.2632394886e+01   4.0363202711e+01    0.1284739    0.1067025  80.09 -3.619166e-05    1.012    0.012
        26  -8.6729    241.5755    153.3318   8.9655413600e+01   1.7146168114e+00    0.2732009    0.1235433 -42.83  0.001125349    2.064    0.515
        27 -11.2167    240.1540    242.4835   1.0725491808e+02  -1.2088381944e+01     0.886577    0.5200855 -49.95  0.004199403    2.735    0.634
        28 -10.5564    249.7818    246.0546   1.0616485533e+02  -1.3936589239e+01    0.4838694    0.2626559 -28.81  0.001780101    1.857    0.461
        29  -9.2102    248.1247    239.6850   1.0536530113e+02  -1.2893153765e+01    0.2573004    0.1564509 -29.28   0.00106878    1.644    0.392
        30 -11.2463    247.4803    228.2977   1.0347633830e+02  -1.1284458495e+01    0.9886969    0.4244523 -38.91  0.004796722    2.443    0.591
        31 -10.5645    250.1937    200.9156   9.7895342195e+01  -7.7344575276e+00    0.5245304    0.1918555 -37.39  0.001809415    2.599    0.615
        32 -10.6765    247.3951    216.2466   1.0129489174e+02  -9.5748110297e+00    0.5796796    0.2878062 -34.97  0.002938112    1.967    0.492
        33 -10.7023    247.4987    207.1239   9.9561947127e+01  -8.2448996891e+00    0.4933501    0.3767056 -58.75  0.002494066    2.021    0.505
        34 -10.8251    244.7655    189.8606   9.6683909977e+01  -5.0998179827e+00    0.8132189     0.395377 -52.58  0.003211118    3.270    0.694
        35 -11.0807    241.4520    180.5980   9.5405747098e+01  -2.9984226670e+00    0.7970616    0.3374501 -49.09  0.003042442    3.041    0.671
        36  -9.4108    232.4222    246.5046   1.0931578062e+02  -1.1458057901e+01     0.470982    0.1715864 -33.56  0.002128392    3.039    0.671
        37 -10.1121    226.0347    248.7342   1.1083723595e+02  -1.0781202249e+01    0.3902341    0.1915506  40.12   0.00206337    1.821    0.451
        38  -8.9656    168.0411    249.9895   1.2187101636e+02  -1.4755231955e+00     0.188092    0.1545027  39.35 0.0003723669    1.024    0.023
        39 -11.0504    246.2197    163.3197   9.0984015710e+01  -9.0367547895e-01     1.210458    0.3162352 -41.64  0.003953333    3.538    0.717
        40  -9.0531    250.5459    157.8405   8.9093995955e+01  -7.4400897433e-01     0.388821    0.1514085 -36.19  0.001530886    2.389    0.581
        41  -8.8000    237.5698    169.8984   9.3885760526e+01  -4.6124891503e-01    0.2757687    0.1591844 -49.12  0.001262291    1.917    0.478
        42  -9.5193    179.3255    169.9051   1.0540107187e+02   1.1198608146e+01    0.2685825    0.2095911  58.56  0.001312655    1.373    0.271
        43  -9.3504    199.8157    165.7062   1.0020889875e+02   7.7622049167e+00    0.2860193     0.197311 -68.81  0.001234553    2.101    0.524
        44  -9.6714    238.0754    158.6592   9.1411208341e+01   1.4310124079e+00    0.4373418     0.261032 -52.12  0.001998963    1.917    0.478
        45  -8.8257    212.7164    164.1588   9.7305994157e+01   5.4128495149e+00    0.2367963     0.186061 -59.58  0.001191186    1.481    0.325
        46  -9.1700    205.7669    162.9231   9.8406755650e+01   7.0742637271e+00    0.2839322    0.2034799  78.22  0.001242213    2.153    0.535
        47  -9.9135    172.8794    162.5929   1.0523765704e+02   1.4095526062e+01    0.3137467    0.2253516 -56.10  0.001144226    1.493    0.330
        48  -8.9889    187.6636    157.3429   1.0089324807e+02   1.2018926145e+01    0.1581911    0.1220958 -86.32 0.0007050004    1.766    0.434
        49  -8.7663    233.2227    154.0966   9.1286240542e+01   3.1912917217e+00    0.2640087    0.1964695  88.35  0.001231314    2.137    0.532
        50 -10.0286    197.3593    158.3663   9.9104134347e+01   9.7367945004e+00    0.3663498    0.2409922  69.39  0.001516765    2.210    0.548
        51  -8.9644    157.9930    154.4963   1.0681361138e+02   1.9046676261e+01    0.2272512     0.133436  67.11 0.0008105925    2.572    0.611
        52 -10.1665    215.7867    143.3436   9.2095008805e+01   8.7740905113e+00    0.5983046    0.3184327  67.13   0.00206445    3.361    0.703
        53  -9.1141    229.8638    141.7692   8.9164706744e+01   6.1353367547e+00    0.2950162    0.2268603 -51.60  0.001293283    1.315    0.240
        54 -10.1848    228.0924    151.1187   9.1557487918e+01   4.7573266252e+00    0.4814525    0.2877216 -26.53  0.002115351    1.895    0.472
        55  -9.3786    218.6031    245.9045   1.1173014220e+02  -9.2455678696e+00    0.2572373    0.1968839 -18.85  0.001619343    1.371    0.270
        56  -9.6405    235.4298    147.9960   8.9562709286e+01   3.8690333104e+00    0.4369208    0.3112963 -79.51  0.001985207    2.275    0.560
        57  -9.2769    243.8484    148.8560   8.8300605220e+01   2.0778002210e+00    0.4256281    0.2158788 -48.27  0.001789867    2.036    0.509
        58  -9.6176     41.2851    148.7452   1.3478109162e+02   4.0217806377e+01    0.2278316    0.1866744 -63.90 0.0002956014    1.132    0.116
        59 -10.1883    155.7216    144.4428   1.0506723637e+02   2.1768909883e+01    0.3437893     0.189267 -59.19  0.001285153    2.196    0.545
        60  -8.9350    242.2366    134.1019   8.5341952860e+01   5.0383177941e+00    0.3288904    0.1802749 -43.74  0.001325424    1.669    0.401
        61  -8.9037    247.1959    143.9913   8.6687843591e+01   2.3019788564e+00    0.3071097    0.2000019 -57.30  0.001143722    1.832    0.454
        62  -9.4249    243.5270    140.4759   8.6530583346e+01   3.6371811736e+00    0.4233418    0.2034642 -44.16  0.001801434    1.930    0.482
        63  -9.0106    182.1957    142.8103   9.8746633287e+01   1.6244722502e+01    0.2629631    0.1719851 -84.34 0.0009424363    2.813    0.645
        64  -9.9175    249.6187    138.0616   8.5006845036e+01   2.8870256271e+00    0.6385772     0.208712 -48.41  0.002077205    3.552    0.718
        65  -9.3345    247.9592    130.0834   8.3530688372e+01   4.6234219755e+00    0.3546357    0.2272854 -58.76  0.001677736    1.826    0.452
        66  -8.8870    166.3192    140.6895   1.0175219793e+02   2.0250459574e+01    0.1605704    0.1246947 -88.52 0.0003334363    1.643    0.391
        67  -8.6208    172.6328    138.3204   9.9776242866e+01   1.9344521669e+01    0.1657831    0.1246362 -89.26 0.0007037736    1.789    0.441
        68  -8.6912    192.7984    137.6069   9.5296440500e+01   1.4947901680e+01     0.213238    0.1478335  60.08 0.0006071051    1.603    0.376
        69  -9.1070    226.6941    157.5472   9.3220968120e+01   3.8460419645e+00    0.2521659    0.1714354 -56.99  0.001182202    1.763    0.433
        70  -8.6127    225.3081    133.9937   8.8219400390e+01   8.5389371242e+00    0.2167655    0.1809844 -42.19  0.001146715    1.120    0.107
        71  -9.7596    180.2729    133.7342   9.7010124386e+01   1.8585047568e+01    0.3736526    0.2454619  81.57  0.001405922    2.509    0.601
        72  -9.1132    206.1604    131.4515   9.1180626885e+01   1.3193875403e+01    0.2945471    0.1960214 -73.60  0.001187145    2.272    0.560
        73  -8.9591    154.6254    131.2003   1.0218368242e+02   2.4944737230e+01    0.2324193    0.1476163 -36.25 0.0005845028    1.717    0.418
        74  -9.6531    220.7951    129.1925   8.7924798801e+01   1.0413574812e+01    0.3990112    0.2402493 -64.97  0.001576496    2.431    0.589
        75  -8.9609    217.6195    125.8207   8.7714023971e+01   1.1749468901e+01     0.223014    0.1870398 -46.35 0.0005296998    1.128    0.113
        76  -8.9404    241.0278    127.1760   8.4001420088e+01   6.5325424832e+00    0.2659865    0.1993113 -51.99  0.001234013    1.299    0.230
        77 -10.0458    199.8186    126.4752   9.1232665279e+01   1.5610191093e+01    0.3142587    0.2408772 -69.47  0.001262343    1.535    0.348
        78 -10.1356    180.3716    124.9439   9.4849212369e+01   2.0397896480e+01     0.458128    0.2853298 -53.95  0.001907297    1.718    0.418
        79  -9.0902    243.2134    119.5523   8.1948730976e+01   7.4572990983e+00    0.4017273    0.2360459 -84.77  0.001364679    4.115    0.757
        80  -9.1481    248.0078    119.4871   8.1188855096e+01   6.4938312959e+00    0.4488201    0.2261073 -58.96  0.001717538    2.799    0.643
        81  -9.1143    188.0839    124.0345   9.3005986543e+01   1.8798229488e+01    0.2553448    0.1903097 -76.57  0.001125663    1.715    0.417
        82  -8.7096    186.4837    129.4693   9.4662572835e+01   1.8052441235e+01    0.2847972    0.1402619 -52.28  0.001026213    2.264    0.558
        83  -9.1100    194.4893    121.9827   9.1202140047e+01   1.7731215057e+01    0.2245414    0.1272044 -61.79 0.0005745458    2.457    0.593
        84  -8.6195    249.3768    124.1972   8.2015659799e+01   5.3867850293e+00    0.2243367     0.125085 -40.58 0.0009592205    1.591    0.371
        85  -8.7319    186.6179    116.2955   9.1392406072e+01   2.0709594639e+01    0.1640929     0.122001 -85.16 0.0007019538    1.761    0.432
        86  -8.4048     37.3812    113.8029   1.3011994750e+02   4.8786297471e+01    0.1799299   0.09685832 -53.95 0.0002415128    1.526    0.345
        87  -8.3202    247.6003    112.8489   7.9780651202e+01   7.7484533918e+00    0.2071892     0.114843 -49.10 0.0009344879    1.697    0.411
        88  -8.2429    144.0000    112.0086   9.9890089162e+01   3.1509908679e+01    0.2646472   0.08853297 -44.00 0.0008051482    2.961    0.662
        89  -8.7080    182.9804    109.5479   9.0437860209e+01   2.2922317105e+01      0.25566    0.2066682 -44.64 0.0008274965    1.216    0.178
        90  -8.8302    242.6746    108.2963   7.9507819113e+01   9.5731973980e+00     0.458937    0.1406342 -51.31  0.001278431    4.632    0.784
        91  -8.3366    160.6272    108.7941   9.5102297003e+01   2.8367076930e+01    0.2280441    0.1434467 -52.27 0.0009424279    1.667    0.400
        92  -8.2397    248.2995    107.6180   7.8516225202e+01   8.5220448887e+00    0.1503808   0.09844309 -64.27 0.0007021439    1.771    0.435
        93  -9.8388    223.0564    105.3838   8.1954948864e+01   1.4370536455e+01    0.3889206    0.2539182 -69.60  0.001601986    1.979    0.495
        94  -8.0792    171.6658    107.3039   9.2253401918e+01   2.6064466452e+01    0.1621394    0.1231924 -82.89 0.0007037782    1.662    0.398
        95  -9.3638    249.7393    150.6478   8.7699545315e+01   6.5227027486e-01    0.4600155    0.1836148 -44.68  0.001811149    2.401    0.584
        96 -10.1391    229.7888    103.8269   8.0491650503e+01   1.3151185444e+01    0.2675304    0.2274545 -72.01 0.0007873154    1.195    0.163
        97  -8.4182    247.4707    102.9867   7.7608657652e+01   9.4999512985e+00    0.2102963    0.1004202 -56.37 0.0008093279    2.516    0.602
        98  -9.3810    185.2811    102.6380   8.8198976431e+01   2.3733423769e+01     0.291884    0.1798635 -51.55 0.0009035327    1.678    0.404
        99  -8.4497    167.0000    100.9463   9.1597095886e+01   2.8450276285e+01     0.261273   0.08851339 -40.62 0.0008031099    2.947    0.661
       100  -8.9882    160.1719    101.1466   9.3174203820e+01   3.0033011610e+01    0.2249604    0.1881118 -75.78  0.001082566    1.340    0.254
       101 -10.1742    225.1036     99.6668   8.0269077805e+01   1.4946524122e+01    0.2758096     0.216599 -70.38 0.0008982772    1.347    0.258
       102 -10.3622    221.0443     97.5531   8.0427138846e+01   1.6249220064e+01    0.5738033    0.1430009 -46.48  0.001599949    4.152    0.759
       103  -8.1793    202.9688     98.4958   8.3770554442e+01   2.0294336523e+01     0.214188    0.1327733  85.03 0.0008094295    2.497    0.599
       104  -8.4204    195.6107     97.8493   8.4965657848e+01   2.2170186227e+01    0.2289528    0.1337752 -50.46 0.0009469189    1.742    0.426
       105 -10.4614    188.5833     93.4366   8.5171747633e+01   2.4690751736e+01    0.6367477    0.2407053 -43.59  0.002180457    2.578    0.612
       106  -8.7675    216.3717     94.6464   8.0499129940e+01   1.7849691318e+01      0.28844    0.1069245 -50.13 0.0009403786    3.003    0.667
       107  -9.5764    224.8965     94.0372   7.8972254195e+01   1.5998166481e+01    0.2344626    0.1907133 -66.51  0.001236882    1.216    0.178
       108  -8.2086    164.6556     94.3136   9.0328675485e+01   3.0313433692e+01    0.1625113    0.1217128 -81.70 0.0007047149    1.710    0.415
       109  -8.3646    248.1642     93.1292   7.5321051612e+01   1.1047764845e+01    0.1984212    0.1481829 -66.17 0.0007056634    1.352    0.260
       110  -8.6320    177.3693     93.2127   8.7339676104e+01   2.7453577635e+01    0.2308217    0.1374635 -49.52 0.0009528432    1.726    0.421
       111  -8.1186    210.3045     91.6705   8.0792048234e+01   1.9806050355e+01     0.156681    0.1103282 -70.79 0.0005340769    1.653    0.395
       112  -9.4368    216.9922     99.9226   8.1668504439e+01   1.6749913249e+01    0.2384048    0.1725354 -73.51 0.0006930429    1.628    0.386
       113  -8.0694    249.3201     88.6415   7.4170624746e+01   1.1560942178e+01    0.1498529   0.09494458 -65.92 0.0007044318    1.764    0.433
       114  -8.2331    226.4505     88.5047   7.7424191804e+01   1.6614379632e+01    0.1490843    0.1278875 -66.35 0.0001326846    1.095    0.087
       115  -8.3351    175.5180     88.5004   8.6459505403e+01   2.8788036249e+01    0.1555161    0.1453225 -81.72 0.0008097701    1.057    0.054
       116  -8.0662     31.2588     86.6345   1.2643464063e+02   5.5362828304e+01    0.1176408   0.09037562 -85.36 0.0006974316    1.637    0.389
       117  -8.0771    206.2961     85.6402   7.9978556667e+01   2.1833580164e+01    0.1593165    0.1089065 -68.90 0.0007032832    1.705    0.414
       118  -8.4517      9.9239     83.9785   1.3284465106e+02   5.7526961551e+01    0.1364332     0.112231 -47.59 0.0006667564    1.087    0.080
       119  -8.5133    193.1539     83.2204   8.1669487460e+01   2.5439662017e+01    0.2167909    0.1719751 -71.04 0.0008327162    1.341    0.254
       120  -8.3264    210.4533     81.9508   7.8371219651e+01   2.1485218178e+01    0.2212543    0.1088215 -57.42 0.0007461986    2.520    0.603
       121  -8.5430     26.2285     81.3591   1.2689956734e+02   5.6901385651e+01    0.1392495    0.1120205  31.79 0.0002939145    1.520    0.342
       122  -8.5902    183.7818     77.7974   8.1974709391e+01   2.8689578838e+01    0.2112167    0.1695723 -70.13 0.0005686752    1.327    0.246
       123  -8.6198    174.4785     77.9784   8.3819144852e+01   3.0945677297e+01    0.2349736    0.1479787 -39.93  0.001034946    1.603    0.376
       124  -8.7127    166.5817     77.7467   8.5358360656e+01   3.2920738259e+01    0.2896242    0.1511638 -33.25  0.001138583    2.092    0.522
       125  -8.0455    211.2540     76.9548   7.7010415437e+01   2.2148169887e+01     0.193963    0.1201911 -41.05 0.0008844729    1.561    0.359
       126  -7.7117    206.3239     74.6352   7.7224864723e+01   2.3722659226e+01    0.1606476    0.1058076 -69.92 0.0007039183    1.792    0.442
       127  -9.3785    222.2640     71.5772   7.4038756075e+01   2.0437101557e+01    0.2694658    0.1519965 -50.15   0.00080239    1.693    0.409
       128  -8.3673    170.5046     70.9914   8.2683235061e+01   3.3126990214e+01    0.2319269    0.1478838 -37.83  0.001039994    1.611    0.379
       129  -7.8511    102.4291     70.4412   9.9057124566e+01   4.8586883751e+01     0.138267     0.132879 -10.76 8.351517e-05    1.051    0.049
       130  -8.2117    187.4042     69.1432   7.9013977645e+01   2.9264377543e+01    0.2164027    0.1289705 -49.70 0.0009258026    1.722    0.419
       131  -8.8091    163.3138     71.8939   8.4394582772e+01   3.4735969928e+01    0.3036455    0.1230002 -43.87  0.001079098    2.541    0.606
       132  -9.1801    193.7163     68.1244   7.7652942602e+01   2.7876250467e+01    0.2443824    0.1737506 -57.39 0.0009582653    1.445    0.308
       133 -10.3546    248.3376     63.8528   6.8861610696e+01   1.5773792014e+01    0.5586928    0.2797583 -61.56  0.002436984    2.245    0.555
       134  -7.8872    210.4742    242.4994   1.1267837515e+02  -7.4644416389e+00    0.1264232    0.1044062  20.97 0.0001494825    1.028    0.028
       135  -8.3839    197.2295     64.5969   7.6157461664e+01   2.7583127737e+01     0.197866     0.131151  53.89 0.0003746923    1.512    0.339
       136 -10.2802    234.4700     62.1388   7.0185068399e+01   1.9121204355e+01    0.4280433    0.2147187 -54.52  0.001888428    1.986    0.497
       137  -9.0053    250.4680     56.9353   6.7125606611e+01   1.6365098127e+01    0.3298042    0.1430709 -41.28  0.001056944    2.038    0.509
       138  -8.4750    187.3627     63.1389   7.7429887937e+01   3.0247270220e+01    0.2166889     0.125168 -47.84 0.0009451741    1.761    0.432
       139  -9.0617    157.7703     61.8618   8.2669226933e+01   3.7743916693e+01    0.3493517    0.1800579 -47.12  0.001422405    2.118    0.528
       140  -7.7894    182.6431     62.3274   7.8036682118e+01   3.1544150813e+01    0.1585135    0.1088108 -74.94 0.0007044636    1.780    0.438
       141  -8.3968    153.3428     60.1772   8.3102996556e+01   3.9083301770e+01    0.2143147    0.1279669 -46.07 0.0008666204    1.790    0.441
       142  -8.8171    217.4068     58.7346   7.1661771070e+01   2.3617446153e+01    0.2722149    0.1194091 -42.29  0.001121006    2.133    0.531
       143  -8.1413    182.5101     58.4516   7.7016432485e+01   3.2182441489e+01    0.1455644      0.13522  80.30 0.0003143328    1.018    0.017
       144  -7.8503     32.7667     57.9952   1.1845482664e+02   6.0939326934e+01    0.1501998   0.08439281 -47.44 0.0008419803    1.502    0.334
       145  -8.1629    192.4955     55.4811   7.4564576075e+01   3.0164359924e+01    0.1473535    0.1293495 -82.45 0.0008091506    1.079    0.073
       146  -8.3972    153.0000     52.9635   8.1042299193e+01   4.0269847813e+01    0.2238502    0.0831219 -33.45  0.000621088    2.863    0.651
       147 -10.7038    231.2106     51.0225   6.8069469553e+01   2.1543199829e+01    0.3723633    0.2042064 -65.07  0.001669191    2.025    0.506
       148 -11.2283    229.0801     42.0802   6.6300632696e+01   2.3313388740e+01    0.4495855    0.2652558  68.29  0.002297872    1.621    0.383
       149  -8.7813    228.5081     37.9809   6.5443778086e+01   2.4009771314e+01    0.1972124    0.1204673 -42.41 0.0009749311    1.575    0.365
       150  -8.8344    223.3685     67.1567   7.2833361352e+01   2.0892473221e+01     0.210734    0.1146588 -48.85  0.000782657    1.736    0.424
       151  -8.7898    106.5353     40.5249   8.7990964128e+01   5.2518575191e+01    0.1338098     0.121774  22.85 6.638539e-05    1.017    0.017
       152  -7.7284    185.3163     39.3276   7.1449736486e+01   3.4231769283e+01     0.140145    0.1040201  34.77 0.0007045167    1.676    0.403
       153  -8.1371    242.3036     38.6611   6.4098765415e+01   2.0785474942e+01    0.1412114   0.08270194 -66.30 0.0004336888    1.673    0.402
       154  -8.0956    179.4808     37.9765   7.1993215095e+01   3.5851339418e+01    0.2013748    0.1004446 -55.56 0.0008093637    2.463    0.594
       155  -8.2149    149.3483     34.8055   7.6331027494e+01   4.3625542851e+01    0.1881803    0.1328613 -13.23 0.0009527222    1.748    0.428
       156  -8.7470    129.0550     35.4566   8.0747563210e+01   4.8294719523e+01    0.2120576    0.1235652  54.55  0.001019337    1.563    0.360
       157  -7.8778     26.6757     33.7276   1.1289421823e+02   6.5674371296e+01    0.1159932   0.07059126 -15.71   0.00022079    1.577    0.366
       158  -9.9228     54.6286     31.2329   1.0099935260e+02   6.2784266699e+01    0.2686771    0.2558726 -18.99  0.001116582    1.410    0.291
       159  -8.7479      9.0192     32.2995   1.1984037110e+02   6.7342334748e+01     0.148418    0.1126053 -19.07 0.0005265026    1.113    0.102
       160  -9.3125    170.0605     30.5691   7.1462687687e+01   3.9105020488e+01     0.228677    0.1807305  24.43  0.001248881    1.578    0.366
       161  -8.7226    203.4233     67.2148   7.5827187238e+01   2.5648687480e+01    0.2149313    0.1246395 -49.62 0.0009499074    1.711    0.415
       162  -7.5840      8.3297     27.3292   1.1843494065e+02   6.8188261664e+01    0.1170099   0.06058703 -24.74 0.0007051461    1.712    0.416
       163  -9.1460    136.8421     25.1313   7.5788457238e+01   4.7718692470e+01    0.2159619    0.1830426  19.87  0.000285468    1.271    0.213
       164  -8.6713    118.5483     24.9133   7.9629492350e+01   5.1883810821e+01    0.1852933     0.129461 -19.83  0.001017963    1.573    0.364
       165  -8.9508     68.1976     23.7439   9.3285333404e+01   6.1721606054e+01    0.1715126    0.1219052  11.66 0.0006427509    1.315    0.240
       166  -9.2963    246.3752     23.1800   6.0466309018e+01   2.1923081531e+01    0.1824946   0.09289403 -49.52 0.0009437948    1.720    0.419
       167  -7.8335      3.5025     23.5147   1.1923832151e+02   6.9109640027e+01    0.1085408   0.07662802 -26.95 -1.063574e-05    1.023    0.022
       168  -9.7475     84.1835     21.6238   8.7416879402e+01   5.9204246432e+01    0.2527281    0.2116523  75.93  0.001561374    1.773    0.436
       169  -9.5000     73.0419     20.6771   9.0481654341e+01   6.1280364939e+01    0.2535443    0.1617109  60.39 0.0009667244    2.356    0.575
       170  -8.1874    167.7139     18.3791   6.8447440435e+01   4.1062300263e+01    0.1387104   0.09271079 -66.69 0.0007014857    1.729    0.422
       171  -9.1378    224.5588    237.8822   1.0929421364e+02  -9.0734707772e+00    0.4025066     0.192422 -48.47  0.001852674    3.018    0.669
       172  -9.1762    198.4090     16.7701   6.3961842120e+01   3.3782465123e+01    0.1671283    0.1308085 -12.07            0    1.744    0.427
       173  -8.5346     23.4945     15.9099   1.0732647893e+02   6.8577857074e+01    0.1591538    0.1176137   1.27 0.0003766345    1.150    0.130
       174  -8.4928      2.5246     15.9936   1.1690564024e+02   7.0309718869e+01    0.1515223    0.1083959  -9.83 2.591279e-06    1.186    0.157
       175  -8.6017    147.8385     15.0056   7.0642528979e+01   4.6188497346e+01    0.2126103    0.1339956 -55.91  0.001076454    1.962    0.490
       176  -8.8036     97.0029     15.0359   8.1372787219e+01   5.7434888591e+01    0.1880188    0.1573714  29.47 0.0003205454    1.015    0.015
       177  -7.9654     45.7367     14.2898   9.7464673604e+01   6.6177034557e+01    0.0943985   0.08629776 -21.53 0.0002132593    1.497    0.332
       178  -8.3562    164.4444    241.7923   1.2137152048e+02   4.6886250297e-01    0.1593966    0.1237425 -28.66 0.0003769938    1.618    0.382
       179  -8.1656     80.3555     13.6702   8.5452315442e+01   6.0748529432e+01    0.1106646   0.09736493 -73.84 0.0007045084    1.782    0.439
       180  -9.6707     29.8040     13.0532   1.0339092555e+02   6.8283724159e+01    0.1721139    0.1275086   5.31 0.0003436867    1.132    0.117
       181 -10.2460    224.1591    228.7950   1.0779481173e+02  -7.7035680954e+00    0.4972861    0.2466727 -48.14  0.001850006    2.712    0.631
       182  -7.6106    207.5197    231.5193   1.1139895702e+02  -5.3460756949e+00    0.1310062    0.1096894  18.33  0.000264621    1.066    0.062
       183  -9.4105    249.0246    185.4985   9.5061416779e+01  -5.1143453168e+00    0.3842643    0.3096549 -85.79  0.002074425    2.155    0.536
       184  -8.2276     34.4495     10.4737   1.0031820832e+02   6.8061544209e+01    0.1130669    0.0836371  -2.44 0.0001472649    1.036    0.035
       185  -8.4062    216.8863    228.3674   1.0907990766e+02  -6.4412506471e+00    0.1729683    0.1370374  22.90 0.0002965829    1.110    0.099
       186  -9.2629    239.4909    220.9708   1.0357978064e+02  -9.0217301432e+00    0.3200369    0.2229197 -32.52  0.001401197    1.450    0.310
       187  -9.6596    240.5348    216.5123   1.0257144933e+02  -8.5344090959e+00    0.3351688    0.3116351  37.96    0.0022453    1.348    0.258
       188  -8.4867    235.6331    217.8464   1.0370746827e+02  -7.9453485162e+00    0.1693282    0.1145742 -42.24 0.0009441805    1.670    0.401
       189  -9.2211    233.3790    211.7650   1.0299036859e+02  -6.6538161461e+00    0.5612297     0.215798 -29.73  0.002167591    3.200    0.687
       190 -10.0165    240.9887    208.9477   1.0107258530e+02  -7.4726641538e+00     0.395602     0.307065 -57.34   0.00189252    1.884    0.469
       191  -8.6367    229.1669    206.8230   1.0283617740e+02  -5.1692620555e+00    0.2756039   0.08962499 -44.31 0.0009935454    3.495    0.714
       192  -9.0569    200.7774    206.8620   1.0830910761e+02  -1.1593172633e-01    0.3659359    0.1650101  28.79  0.001341683    3.016    0.668
       193  -9.7813    242.7525    200.3261   9.9101804400e+01  -6.4295627718e+00    0.4340323     0.209414 -33.72  0.001861014    2.013    0.503
       194  -9.7530    237.2414    196.4347   9.9338630049e+01  -4.8812893207e+00    0.6220584    0.1711947 -36.95  0.002127523    3.653    0.726
       195  -9.3644    230.8894    193.3399   9.9895856523e+01  -3.2674065586e+00    0.3367294    0.1451592 -41.86  0.001417693    2.337    0.572
       196  -9.7832    236.9568    187.4600   9.7606467239e+01  -3.3561357650e+00     0.358406    0.1698729 -47.03  0.001523437    2.407    0.585
       197  -8.6311    216.6331    193.1103   1.0254947265e+02  -6.4797294333e-01    0.3192508    0.1557358  49.45    0.0011772    2.286    0.562
       198  -8.9582    247.1303    178.4699   9.3969007827e+01  -3.6366665589e+00    0.3551512    0.1511775 -43.47  0.001438506    2.348    0.574
       199  -8.2834    232.5184    175.0251   9.5872219551e+01  -4.2428019036e-01    0.1922395    0.1166498 -58.99 0.0008097855    2.499    0.600
       200  -8.9278    223.7965    174.0615   9.7292016533e+01   1.3906521753e+00    0.2262424    0.1623036 -66.40  0.001040882    2.053    0.513
       201  -8.9563    205.9851    170.6323   1.0002308199e+02   5.5399105939e+00    0.2645834    0.2102631 -69.78  0.001212302    1.624    0.384
