#   1 NUMBER                 Running object number                                     
#   2 MAG_AUTO               Kron-like elliptical aperture magnitude                    [mag]
#   3 X_IMAGE                Object position along x                                    [pixel]
#   4 Y_IMAGE                Object position along y                                    [pixel]
#   5 X_WORLD                Barycenter position along world x axis                     [deg]
#   6 Y_WORLD                Barycenter position along world y axis                     [deg]
#   7 A_WORLD                Profile RMS along major axis (world units)                 [deg]
#   8 B_WORLD                Profile RMS along minor axis (world units)                 [deg]
#   9 THETA_WORLD            Position angle (CCW/world-x)                               [deg]
#  10 FWHM_WORLD             FWHM assuming a gaussian core                              [deg]
#  11 ELONGATION             A_IMAGE/B_IMAGE                                           
#  12 ELLIPTICITY            1 - B_IMAGE/A_IMAGE                                       
         1 -14.8985      8.3514    150.5405   2.9257051045e+02   5.9794900905e+00    0.3070008    0.1152771 -70.09    0.0221143    3.345    0.701
         2 -11.9074      2.1668     35.2654   2.9195622817e+02   7.3476034322e+00   0.06451249   0.01016245 -63.69  0.003145964    6.958    0.856
         3 -12.2241      2.2824     13.0146   2.9182236921e+02   7.6038516363e+00   0.06791804   0.01617916 -64.59  0.004089716    4.602    0.783
         4 -12.6816      3.9780      3.6141   2.9174694942e+02   7.7026118813e+00   0.08442859   0.03793525  36.97  0.007448665    2.176    0.541
         5 -13.5718    205.2794      9.5330   2.8948398634e+02   6.4710936688e+00   0.07937439   0.05566985 -23.86  0.008285969    1.728    0.421
         6 -13.2207    191.7204     28.2290   2.8975035105e+02   6.3341744428e+00   0.05950738   0.05700969 -14.61  0.005916463    1.074    0.069
         7 -10.3996    125.9835    249.5068   2.9181711283e+02   4.1574182671e+00   0.01327673  0.008850074  30.97  0.001396609    1.505    0.336
         8 -10.7323    245.9871    250.0000   2.9045581444e+02   3.4584650449e+00   0.02420787  0.009143823  22.94  0.001836267    3.026    0.669
         9 -10.5883    140.4361    249.9043   2.9165504630e+02   4.0694445822e+00   0.01828698  0.008302659  28.32  0.001595496    2.207    0.547
        10  -9.6247     28.8605    249.6639   2.9292350540e+02   4.7147746158e+00   0.01226644   0.01110467  38.34 0.0007211128    1.122    0.109
        11  -9.3815     25.0036    246.8719   2.9295092036e+02   4.7692386302e+00     0.012558  0.008570652  50.92  0.001311216    1.597    0.374
        12 -10.1943      2.4541    249.6042   2.9322380343e+02   4.8670975836e+00   0.01780964    0.0165963  24.35  0.002223082    1.097    0.089
        13 -10.5926      2.0000    241.9914   2.9318402532e+02   4.9577937559e+00   0.03403545  0.009160015 -64.30  0.002224042    3.865    0.741
        14  -9.9765      5.5147    241.0203   2.9313826558e+02   4.9488595645e+00   0.01195667  0.009087609   0.26 0.0006195526    1.535    0.348
        15 -10.6524    102.2979    247.6008   2.9207533778e+02   4.3160207778e+00   0.01304367    0.0117189  72.76 0.0006423942    1.179    0.152
        16 -10.6443    198.0059    244.9610   2.9097102844e+02   3.7941181796e+00   0.01708927  0.009410106 -81.02  0.001476464    2.448    0.591
        17  -9.0330     72.4652    241.0215   2.9237594353e+02   4.5639683271e+00   0.01024752  0.006337165 -62.58  0.001027437    1.581    0.368
        18  -9.6029     12.8121    240.9834   2.9305494807e+02   4.9073940206e+00   0.01171211  0.009853607  24.08  0.001379781    1.221    0.181
        19  -9.7605     82.5687    243.2973   2.9227440219e+02   4.4794638941e+00    0.0223445   0.01242855  69.15  0.001819176    2.940    0.660
        20  -9.2634    183.4750    238.5118   2.9109791402e+02   3.9526328249e+00  0.006579007  0.006268949 -39.29 -4.169037e-05    1.050    0.048
        21 -11.4229     21.7443    200.7074   2.9271500545e+02   5.3221314307e+00   0.02165311   0.01235055  46.72  0.001513833    1.898    0.473
        22 -13.8467      9.1440    206.9233   2.9289537988e+02   5.3225782761e+00    0.5523814   0.08944815  34.00   0.01993467    4.596    0.782
        23  -8.6441    152.5066    212.9651   2.9129841758e+02   4.4268883506e+00  0.009432307  0.006381123 -63.45 0.0003348911    1.454    0.312
        24 -12.4247     39.9048    233.8344   2.9270415391e+02   4.8344495697e+00   0.01951345   0.01366979 -41.45 0.0007721963    1.484    0.326
        25 -11.1178     65.2086    199.1821   2.9221069232e+02   5.0897812158e+00   0.01990398   0.01176516 -40.47  0.001189977    1.842    0.457
        26  -9.8930    192.8285    194.7777   2.9073149353e+02   4.4040752588e+00   0.03661651   0.01711957 -88.98  0.002064622    6.158    0.838
        27  -8.4202     51.4839    197.4259   2.9235666517e+02   5.1890979395e+00  0.006457734  0.006322422  74.21 0.0001191645    1.037    0.036
        28 -14.0082     45.9812    226.4430   2.9259121414e+02   4.8850277155e+00    0.2048931   0.03865705  28.84  0.003997517    4.742    0.789
        29 -11.5484     70.9035    191.1217   2.9209800204e+02   5.1502356472e+00   0.01482069   0.01167507 -41.31    0.0004785    1.296    0.229
        30 -10.4408    174.0668    222.3854   2.9110909314e+02   4.1934160260e+00   0.02069264   0.01396403  72.78  0.002058929    1.926    0.481
        31 -13.0419     67.4764    176.3387   2.9204934678e+02   5.3409859879e+00   0.02734492   0.01360987 -40.96  0.001660308    2.284    0.562
        32 -10.6283     80.3316    178.3563   2.9191481374e+02   5.2435874444e+00   0.01186964   0.01084382 -37.59 0.0003682969    1.107    0.096
        33  -8.5247    171.3063    173.0712   2.9084720302e+02   4.7794651258e+00  0.008982698  0.008082342 -64.98 0.0003418366    1.094    0.086
        34 -11.5959     87.7893    168.7705   2.9177290034e+02   5.3114784031e+00   0.03260199   0.02700771 -10.24  0.003794868    1.353    0.261
        35 -11.5579      2.5733    152.6859   2.9264914283e+02   5.9878486710e+00   0.03361403   0.01830954 -67.32  0.003166595    1.897    0.473
        36 -10.4446    189.7553    153.2884   2.9051939807e+02   4.9013750243e+00    0.0214191   0.01252443  65.22  0.001281677    2.450    0.592
        37  -9.5604    183.7501    146.9740   2.9055012517e+02   5.0091075349e+00   0.01555703  0.009970417  75.56 0.0007580784    2.166    0.538
        38  -9.7786     99.6625    152.5583   2.9154123073e+02   5.4305017973e+00   0.01554672   0.01267171 -42.93  0.000865777    1.237    0.192
        39  -8.8012    102.4384    148.4944   2.9148542493e+02   5.4614805124e+00  0.009974113   0.00733221 -29.90 0.0007008768    1.532    0.347
        40 -12.1836     67.6758    143.3076   2.9185092306e+02   5.7218993862e+00   0.03566998    0.0225677  80.91  0.002301617    2.228    0.551
        41 -12.1238     64.7554    142.0135   2.9187653725e+02   5.7536894725e+00   0.04900806   0.02386827 -81.28  0.003717446    3.258    0.693
        42 -13.0077     55.1978    213.8779   2.9241183267e+02   4.9773828778e+00    0.1609533   0.05233201  37.98   0.01221313    2.935    0.659
        43  -8.3324    191.9950    144.0372   2.9043877337e+02   4.9953147161e+00  0.007870011  0.007273794 -62.08  0.000365246    1.060    0.057
        44  -8.8239    180.0689    142.8989   2.9056774778e+02   5.0775086517e+00  0.009948044  0.008458215  63.87 0.0004203311    1.269    0.212
        45  -9.5372    110.4192    137.4845   2.9132896077e+02   5.5427255922e+00   0.01700174  0.009012171 -36.99  0.001360555    2.285    0.562
        46 -10.2446     86.2527    136.3150   2.9159751967e+02   5.6956871368e+00   0.01308406   0.01012015  53.23 0.0005392866    1.388    0.280
        47 -10.4758     97.6842    134.8702   2.9145858535e+02   5.6464526582e+00   0.01348298   0.01113154  -9.44 0.0005587825    1.361    0.265
        48 -11.8326     88.2287    152.0198   2.9166836063e+02   5.5026765408e+00   0.01408825   0.01140637 -35.14 0.0005985557    1.297    0.229
        49 -10.9211     32.8241    132.3397   2.9218331618e+02   6.0493706477e+00   0.02214662  0.006661595 -61.39  0.001594027    3.111    0.679
        50  -9.6264    163.0910    127.6089   2.9066995971e+02   5.3524605964e+00   0.01756952  0.009826035  54.58  0.001589533    2.216    0.549
        51 -10.1882      8.0070    226.3262   2.9302306159e+02   5.1045856585e+00   0.01599174   0.01048532  -6.88  0.001547762    2.059    0.514
        52  -9.2261    107.3544    124.1414   2.9128448473e+02   5.7146853213e+00  0.009478137  0.008645644  -4.03 0.0003335491    1.160    0.138
        53  -9.6108    155.4859    228.4910   2.9135674256e+02   4.2301637937e+00  0.006488672  0.006368682 -77.47 3.789687e-05    1.017    0.017
        54 -10.2373    168.0091    113.1817   2.9052792352e+02   5.4907143842e+00   0.01524035   0.01227684  61.56 0.0008010967    1.364    0.267
        55  -8.7179    203.4503    111.5261   2.9011447145e+02   5.3045613188e+00  0.006543136  0.006274648 -43.11 0.0001003436    1.037    0.036
        56  -9.0082    162.3086    249.3386   2.9140290687e+02   3.9497345253e+00  0.007015706   0.00481487 -30.95 0.0007043377    1.684    0.406
        57  -8.8263     74.3619     86.9158   2.9143918375e+02   6.3353461155e+00   0.02152104  0.007237996  47.56  0.001408411    4.089    0.755
        58  -8.1359    184.4889     77.4835   2.9012714525e+02   5.8076143575e+00  0.006546849  0.006304228 -41.62 0.0002075583    1.035    0.034
        59  -8.8636    156.3273     76.3091   2.9044103537e+02   5.9842977361e+00  0.006921822  0.004880972 -27.92 0.0004135586    1.659    0.397
        60 -11.3107      1.8392     61.5683   2.9211650280e+02   7.0456309372e+00   0.02894169   0.01279589 -63.79  0.002478953    2.248    0.555
        61 -11.4259     13.0315     65.0452   2.9200931024e+02   6.9411588910e+00   0.02368705   0.01204699  38.55  0.001214441    1.960    0.490
        62 -11.0638      7.7159     63.1497   2.9205876468e+02   6.9936039179e+00   0.01482159   0.01195515  36.79 0.0003896891    1.254    0.202
        63  -9.8777     30.1257     61.2408   2.9179138953e+02   6.8868308099e+00   0.01413175   0.01015143  41.74 0.0004896585    1.421    0.296
        64  -9.2632      9.4666     53.9620   2.9198409326e+02   7.0897022729e+00  0.009138209  0.005620094  81.73 0.0006264419    2.380    0.580
        65 -10.0700     81.5969    248.5822   2.9231675893e+02   4.4239265724e+00   0.01484546   0.01044927  65.74  0.001540521    1.717    0.418
        66  -8.6751     47.4142    249.4564   2.9271104910e+02   4.6105251749e+00  0.006468187  0.006265641 -60.79 7.198257e-05    1.011    0.011
        67  -9.6702     33.5739    248.2305   2.9286137100e+02   4.7042738338e+00   0.01530207  0.005573079 -56.74  0.001103199    2.490    0.598
        68  -9.9440     35.0647    244.0173   2.9281949035e+02   4.7444539790e+00   0.02201394   0.01131969   4.15   0.00169255    3.289    0.696
