#   1 NUMBER                 Running object number                                     
#   2 MAG_AUTO               Kron-like elliptical aperture magnitude                    [mag]
#   3 X_IMAGE                Object position along x                                    [pixel]
#   4 Y_IMAGE                Object position along y                                    [pixel]
#   5 X_WORLD                Barycenter position along world x axis                     [deg]
#   6 Y_WORLD                Barycenter position along world y axis                     [deg]
#   7 A_WORLD                Profile RMS along major axis (world units)                 [deg]
#   8 B_WORLD                Profile RMS along minor axis (world units)                 [deg]
#   9 THETA_WORLD            Position angle (CCW/world-x)                               [deg]
#  10 FWHM_WORLD             FWHM assuming a gaussian core                              [deg]
#  11 ELONGATION             A_IMAGE/B_IMAGE                                           
#  12 ELLIPTICITY            1 - B_IMAGE/A_IMAGE                                       
         1 -14.2714    164.0615     46.4222   7.9304686427e+01   3.8480077042e+01     1.709335     1.160675  12.63  0.005379716    1.788    0.441
         2 -14.4063    177.1719     31.1891   7.1695839221e+01   3.7118747221e+01     1.199734    0.9801543   0.18   0.00426444    1.250    0.200
         3 -13.5525    181.0697     24.3643   6.8759073477e+01   3.6892570017e+01    0.6253757     0.579477  55.09  0.001180578    1.089    0.082
         4 -12.8383    189.6366     14.7033   6.4323344206e+01   3.5657189716e+01     0.354146    0.3302427 -83.53  0.001111613    1.135    0.119
         5 -13.5268    195.6114      3.4571   5.9961829259e+01   3.5133027157e+01    0.7330853    0.6528863  77.23  0.004174807    1.131    0.116
         6 -10.8278     63.5411      7.5224   9.0924479589e+01   6.6269812779e+01    0.1347981    0.1098152  -8.64 8.379753e-05    1.022    0.022
         7 -12.6125    117.1031    201.5068   1.2444531350e+02   2.0146653366e+01    0.4103392    0.1973012  38.27  0.002252299    1.825    0.452
         8 -11.0315    159.5533    250.1954   1.2244403364e+02   7.6083995622e+00    0.1732887    0.1443629   3.17  0.001022101    1.512    0.339
         9 -10.9786    158.3089    246.6612   1.2227453906e+02   8.1741569220e+00    0.1531627    0.1015573  58.83  0.000560021    1.729    0.422
        10 -19.6822     48.3749    162.8743   1.3406988308e+02   3.5892935603e+01     16.33256     4.800553 -74.23      0.06895    3.564    0.719
        11 -10.7756    158.0326    193.4878   1.1573896196e+02   1.5065296932e+01    0.1929265    0.1674185 -86.59  0.000590212    1.524    0.344
        12 -10.7190    103.3934    215.8012   1.2842674428e+02   1.9843810955e+01    0.1972975    0.1522217  41.56 0.0007175546    1.197    0.165
        13 -11.9378    109.5491    189.3346   1.2446272099e+02   2.3222778493e+01    0.2885724    0.1973642 -11.64  0.001457348    3.242    0.692
        14 -13.7704    108.9551    208.5394   1.2670946066e+02   2.0199718005e+01     0.806794    0.4166126  36.25  0.003796513    1.791    0.442
        15 -11.6580    207.6673    185.3658   1.0540320403e+02   7.8775219418e+00    0.3271294    0.2329129  12.82  0.001136135    1.350    0.259
        16 -11.9447    212.0389    181.3362   1.0393046354e+02   7.6355136135e+00    0.3170735    0.2303562   8.06  0.001110371    1.326    0.246
        17  -9.8880    223.7751    183.9888   1.0238423402e+02   5.3475825180e+00    0.1419142   0.09426002 -22.17  0.000851437    1.574    0.365
        18 -10.4786     15.7309    213.2046   1.4321476825e+02   3.0046220316e+01   0.09008312   0.04695074  59.05 0.0001765324    1.394    0.283
        19 -11.1134    198.0859    176.9147   1.0562802737e+02   1.0607441998e+01     0.324772    0.2525554 -60.05  0.001566785    2.052    0.513
        20 -10.3035    145.5154    178.4533   1.1589857998e+02   1.9429564518e+01    0.1246801    0.1076829  39.52 5.876979e-05    1.020    0.020
        21 -11.8945    126.7346    173.0153   1.1885938804e+02   2.3405080545e+01    0.3470036    0.2299445  56.30  0.001979158    1.510    0.338
        22 -12.4878    136.9325    171.2719   1.1651170703e+02   2.2044592829e+01     0.529796    0.3069454  48.75  0.002813026    1.597    0.374
        23 -10.3454    165.2762    208.1848   1.1648581294e+02   1.1864948955e+01      0.19248    0.1381593  38.75 0.0006413938    1.111    0.100
        24 -10.9146    228.3928    171.2224   9.9250804993e+01   6.0671408161e+00    0.1659755    0.1113013 -34.83 0.0009561942    1.747    0.427
        25 -11.4251    145.0210    168.2861   1.1438509521e+02   2.1189262474e+01    0.3060996      0.20386  48.50 0.0009346237    1.390    0.281
        26 -11.6331     23.2438    166.3024   1.3948030123e+02   3.7663051247e+01    0.3347237    0.1757799 -63.92  0.001477307    1.918    0.479
        27  -9.8861    122.9519    165.9823   1.1859156725e+02   2.5254366670e+01    0.1875626    0.1365857  67.82 0.0003086909    1.547    0.353
        28 -13.6536     11.7253    206.1110   1.4358593089e+02   3.1554026335e+01    0.4821228    0.1923741  34.50  0.003110761    2.434    0.589
        29 -11.5887    102.4548    157.8531   1.2178233535e+02   2.9956316222e+01    0.2733339    0.2452042  34.13 0.0006793302    1.215    0.177
        30 -12.2464    103.9918    153.9775   1.2086761271e+02   3.0473925773e+01    0.4258902    0.2648247  50.57  0.001491995    1.530    0.347
        31 -11.9790    163.8141    156.0261   1.0838702995e+02   1.9897836538e+01    0.3051958    0.2949572  18.84  0.001042109    1.097    0.088
        32 -12.2589    126.0606    204.8321   1.2317228056e+02   1.8326723009e+01    0.3288332    0.1927039  68.58  0.001780902    2.414    0.586
        33 -12.0559    133.8691    145.1443   1.1271612271e+02   2.7243880134e+01    0.9621375    0.2738452 -54.86  0.002833013    5.323    0.812
        34  -9.9699    140.0114    156.3409   1.1340263912e+02   2.4121570695e+01    0.1829556    0.1502335  43.67 0.0003558101    1.114    0.102
        35 -11.6588    111.5816    149.5876   1.1847900632e+02   3.0145643058e+01    0.3372231    0.1783635  54.97  0.001578744    2.084    0.520
        36 -11.1957    174.1793    149.2260   1.0496201190e+02   1.9066944829e+01    0.3384438    0.1743353  41.58  0.001133966    1.778    0.438
        37 -11.1396     92.4422    148.6168   1.2266868450e+02   3.3245765322e+01    0.4153852    0.1682665  49.87  0.001792726    2.555    0.609
        38 -11.8174    144.7750    145.9328   1.1047194164e+02   2.5139058159e+01     0.370601    0.2515549  67.75  0.001799524    2.023    0.506
        39 -12.3081    112.2919    140.7518   1.1681908593e+02   3.1768906081e+01    0.4490476    0.2986945 -34.40  0.002294449    1.932    0.482
        40 -12.5623    101.6504    141.0009   1.1934322346e+02   3.3408818522e+01    0.2501895    0.2326476  43.11 0.0004322749    1.127    0.112
        41 -10.9318    143.5046    139.4894   1.0949056190e+02   2.6549720548e+01    0.2478743    0.1237691  32.98 0.0009943234    2.284    0.562
        42  -9.6156    133.3146    213.3290   1.2284375387e+02   1.6007670180e+01    0.1060949   0.08188816  14.18 0.0002838063    1.675    0.403
        43 -11.8215     17.5749    136.1300   1.3854774977e+02   4.4179769173e+01    0.1806024     0.153447  73.72 0.0001698747    1.147    0.128
        44 -13.4839    195.4048    195.0065   1.0917126801e+02   8.7196948041e+00    0.8466014    0.6790465  80.38  0.004154449    2.240    0.554
        45 -11.6077    118.4641    130.4365   1.1344874248e+02   3.2796059195e+01    0.3845328    0.3260514  -6.17  0.001026121    1.472    0.320
        46 -12.1362    106.2965    129.0063   1.1610843039e+02   3.5127886719e+01    0.5758739    0.3062138 -55.28  0.002711636    1.890    0.471
        47 -11.4845    159.9043    128.0222   1.0345730402e+02   2.5471752157e+01    0.4040161    0.2180907 -34.44  0.001763412    2.018    0.504
        48 -11.8494    135.4382    122.4335   1.0775148832e+02   3.1303477836e+01    0.4880337    0.1860862 -49.03  0.001800178    2.786    0.641
        49 -11.6604    123.8789    126.4713   1.1135756783e+02   3.2638812631e+01    0.5641044    0.3010926  65.57   0.00200473    3.615    0.723
        50 -10.9212    136.3513    197.2459   1.2032203597e+02   1.7935535004e+01    0.2901259    0.1788809  75.23  0.001466974    2.794    0.642
        51 -10.1123    141.1706    126.2156   1.0724793224e+02   2.9480885455e+01    0.1857857    0.1643966  82.94 0.0003609603    1.319    0.242
        52 -10.6146    112.5027    119.5729   1.1270152677e+02   3.6041669566e+01    0.2276323    0.2222662  78.16  0.000198139    1.011    0.011
        53 -11.9003    111.7026    197.2820   1.2497646074e+02   2.1598494306e+01    0.3623585     0.217879  23.97  0.001706105    2.305    0.566
        54 -11.2168    168.3366    113.4808   9.8208631567e+01   2.6310715791e+01    0.3463334    0.2940317  82.02 0.0009078319    1.555    0.357
        55 -10.9857      2.3137    112.7071   1.4038252628e+02   5.0192716596e+01    0.2116719    0.1555506 -53.52    0.0011481    1.509    0.337
        56 -10.5531    205.4558    110.1694   8.9967536635e+01   1.8839701278e+01    0.3131191    0.1957241  38.10 0.0008816506    1.565    0.361
        57 -11.7764    104.9532    201.8132   1.2673998193e+02   2.1816531365e+01    0.3632349    0.2370645  57.55   0.00204888    1.377    0.274
        58 -10.9896    134.5862    103.8129   1.0355820112e+02   3.5129135539e+01    0.4382695    0.1377605 -46.43  0.001409846    3.270    0.694
        59 -11.2074    115.3600    193.2977   1.2381434369e+02   2.1718684493e+01    0.2253937    0.1760128   0.82   0.00141487    1.980    0.495
        60 -11.1728    179.8794    193.3003   1.1168281160e+02   1.1505618924e+01    0.3930345    0.2568748 -67.42  0.001958492    3.232    0.691
        61 -12.0866    104.0708    194.2423   1.2608435820e+02   2.3179808253e+01    0.3698936    0.2266139  34.98  0.002002082    1.609    0.378
        62 -10.0600     13.6280     59.9409   1.3059358713e+02   6.1250296232e+01    0.1721059    0.1177057 -68.10 0.0004461129    1.141    0.124
        63 -10.1841    168.4232    248.4632   1.2085086814e+02   6.5682680422e+00    0.1041996   0.07542854  38.67 6.075563e-05    1.030    0.030
        64 -11.2814    182.4134    241.7492   1.1785080807e+02   5.3119630048e+00     0.206681    0.1802428 -67.24  0.001625508    1.829    0.453
        65 -10.9976    187.7663    221.7850   1.1444011665e+02   6.7183494465e+00    0.1473254    0.1152639  47.82 0.0005787657    1.359    0.264
        66 -11.1003     21.7083     36.9295   1.2200847390e+02   6.5796107387e+01    0.3467731    0.1752863  20.39  0.001879216    2.456    0.593
        67  -9.7358    120.7166     24.7910   8.0885657397e+01   5.2202374728e+01    0.1891858    0.1731477 -62.60 0.0005027061    1.332    0.249
        68 -11.5960    121.0757    217.4894   1.2547315587e+02   1.7164946497e+01    0.3283826    0.1874844  76.03  0.001738761    2.988    0.665
        69 -11.7110    162.8425    217.6511   1.1816022721e+02   1.1004796358e+01    0.2459202   0.08411203  36.28  0.001111253    2.626    0.619
