#   1 NUMBER                 Running object number                                     
#   2 MAG_AUTO               Kron-like elliptical aperture magnitude                    [mag]
#   3 X_IMAGE                Object position along x                                    [pixel]
#   4 Y_IMAGE                Object position along y                                    [pixel]
#   5 X_WORLD                Barycenter position along world x axis                     [deg]
#   6 Y_WORLD                Barycenter position along world y axis                     [deg]
#   7 A_WORLD                Profile RMS along major axis (world units)                 [deg]
#   8 B_WORLD                Profile RMS along minor axis (world units)                 [deg]
#   9 THETA_WORLD            Position angle (CCW/world-x)                               [deg]
#  10 FWHM_WORLD             FWHM assuming a gaussian core                              [deg]
#  11 ELONGATION             A_IMAGE/B_IMAGE                                           
#  12 ELLIPTICITY            1 - B_IMAGE/A_IMAGE                                       
         1 -14.0323    179.1990     33.1419   6.8593927418e+01   3.6586816653e+01     1.143348     1.026025  23.44  0.004208166    1.379    0.275
         2 -13.4559     73.6228     35.2458   9.3400664965e+01   5.9232072325e+01    0.9021712    0.5727615 -24.97  0.003234654    1.547    0.354
         3 -13.8571     83.0872     29.4238   8.8244139425e+01   5.8334092090e+01     1.476009    0.6601704  32.48  0.006224143    2.440    0.590
         4 -12.1030    164.2536     23.8925   6.8401863372e+01   4.1271159317e+01    0.6592426    0.5639604  34.68  0.002621865    1.326    0.246
         5 -15.0225    126.3258      9.2961   7.0620399160e+01   5.1535165463e+01     1.701165     1.001441  74.99  0.007919262    1.886    0.470
         6 -11.3074    189.5376     14.6740   6.2556033777e+01   3.6255252799e+01    0.2354651    0.1865003  71.02 0.0008181995    1.125    0.111
         7 -13.5471     90.9164      2.9215   7.6123967288e+01   5.9519600469e+01     1.318623    0.3438484  55.45  0.005282167    3.132    0.681
         8 -12.5702    200.5757      2.9427   5.8605970500e+01   3.4891333602e+01    0.7628966    0.3103766  71.25   0.00362006    2.064    0.516
         9 -10.7454     64.4179      1.7122   8.3086460256e+01   6.4459192850e+01    0.3001572     0.130219  45.59   0.00134084    1.954    0.488
        10 -10.5374    164.1337    205.3228   1.1303120051e+02   6.7757294305e+00    0.3334338    0.1975757 -46.92  0.001170074    1.792    0.442
        11 -19.6221     32.1177    142.1295   1.3419787788e+02   4.2603715485e+01     18.95121     5.324529 -69.35   0.06630809    3.391    0.705
        12 -11.8151     71.4863    203.4004   1.3307292360e+02   2.3223951622e+01    0.3921979    0.2961774 -51.06  0.001343641    1.566    0.362
        13  -9.4341     91.7426    184.9552   1.2593596869e+02   2.4400899684e+01    0.2608235    0.1835882  80.34 0.0004057359    1.563    0.360
        14 -10.0504     87.2646    182.8757   1.2666464842e+02   2.5611542417e+01    0.2983993    0.1984163  34.03  0.001060771    1.694    0.410
        15 -11.3533    193.5352    193.3562   1.0456219367e+02   3.5441753739e+00     0.734448    0.4544835 -56.49  0.003309848    2.006    0.502
        16 -11.0616    208.0289    180.0455   9.8930853198e+01   3.3369052884e+00    0.6468091    0.3795368  24.17   0.00271887    2.254    0.556
        17 -11.7517     98.5907    180.6775   1.2362889798e+02   2.4281454999e+01    0.4709534    0.2775963  35.85  0.001594754    1.837    0.456
        18 -11.8123     81.0201    192.6284   1.2954584254e+02   2.4286948741e+01    0.6111452    0.4007152  62.11  0.002502253    1.531    0.347
        19  -9.9282    196.9932    175.9932   1.0032123804e+02   6.2779909131e+00    0.6519508    0.4043485  80.56  0.002036425    4.653    0.785
        20 -10.8090    196.1077    171.1841   9.9489114125e+01   7.4187079022e+00    0.3532488    0.3363168 -19.53 0.0009311844    1.021    0.021
        21  -9.2998    224.2786    164.6640   9.2557128829e+01   3.1542468751e+00    0.1393994    0.1114831 -69.01 0.0002979493    1.613    0.380
        22  -9.7197    119.9975    163.7024   1.1532044441e+02   2.4495560485e+01    0.2109144    0.1913474  60.48  0.000457403    1.092    0.084
        23 -10.3693    115.1110    162.2859   1.1625141051e+02   2.5750173065e+01    0.2612946     0.198275 -48.46  0.000621413    1.334    0.250
        24 -11.1399     97.1617    161.9174   1.2068618656e+02   2.9034419028e+01    0.2988831     0.252393 -65.06 0.0003933395    1.117    0.105
        25 -12.5857     86.4563    156.7270   1.2245725994e+02   3.2061884841e+01     0.440797    0.2966556 -37.62  0.000829437    1.811    0.448
        26 -10.3449    120.1327    156.6218   1.1384941676e+02   2.6157417922e+01    0.2676936    0.2121149 -69.09   0.00120289    1.294    0.227
        27 -13.2404    103.3038    153.5897   1.1751284444e+02   2.9991503291e+01     1.265425    0.8793544  10.87  0.005417337    2.291    0.563
        28 -12.5163    111.2619    139.7935   1.1252004427e+02   3.1867819223e+01    0.7082592    0.4810888 -24.32  0.002973166    2.119    0.528
        29 -13.1862    134.2037    145.7628   1.0797189194e+02   2.5935609548e+01     1.686573     0.344875 -51.33   0.00394422    5.332    0.812
        30  -9.3054    174.9912    149.2335   9.9158260580e+01   1.6453077178e+01    0.2052889    0.1303364  46.20 0.0004153209    1.602    0.376
        31 -13.2191     68.5442    143.6900   1.2477784667e+02   3.7928004797e+01     1.785267    0.7514533 -64.63  0.002989061    2.354    0.575
        32 -12.9661     67.7291    133.8217   1.2313058863e+02   4.0437957378e+01     1.172375    0.9103829  46.44  0.006419538    1.411    0.291
        33 -11.5927    100.3490    140.0688   1.1548238680e+02   3.3787314650e+01    0.3016712    0.2742644 -53.68 0.0003698057    1.069    0.065
        34 -11.3944    106.1222    130.8604   1.1186946967e+02   3.4950711911e+01    0.3634603    0.3332503 -67.26  0.001153428    1.060    0.056
        35 -10.8325    105.4920    126.5129   1.1102455985e+02   3.6092855519e+01    0.3620925    0.2519903 -41.77   0.00109989    1.445    0.308
        36 -11.5100    117.5573    130.0780   1.0861744404e+02   3.2960062882e+01    0.3716707    0.3052941 -33.26 0.0009334239    1.312    0.238
        37 -12.1795    135.1201    124.0011   1.0256773957e+02   3.0761615817e+01     1.252172    0.2240905 -47.76  0.002817849    5.646    0.823
        38 -10.6093    160.7055    127.7293   9.7283920835e+01   2.4311487186e+01    0.4391791    0.2654229 -64.84  0.001656701    2.254    0.556
        39 -11.6882    126.3510    127.9098   1.0578590341e+02   3.1701076786e+01    0.3730316    0.2881251  89.92  0.001695593    1.656    0.396
        40 -10.5043    112.1357    119.2151   1.0743110637e+02   3.6533397080e+01    0.2521304    0.2481462  -0.75  0.000270573    1.065    0.061
        41 -10.0379    168.5179    113.3086   9.1891061025e+01   2.5605766451e+01    0.3701096    0.2661968 -71.99   0.00126318    1.762    0.432
        42 -10.9696    134.6203    106.1575   9.8072688563e+01   3.4791416061e+01    0.7798725    0.1577238 -43.43  0.001902326    4.934    0.797
        43  -9.8694    205.4291    110.3512   8.3714352177e+01   1.7672582370e+01    0.2881387    0.2384826  37.88 0.0009170824    1.377    0.274
        44 -11.8010     81.9918    188.1964   1.2869109308e+02   2.5176133408e+01    0.6674575      0.42335  50.06  0.003312315    1.537    0.349
        45 -11.4471    145.3742    146.0366   1.0528873629e+02   2.3544862906e+01    0.3935605    0.3228781  86.23 0.0004891287    1.429    0.300
        46  -9.5867    153.4175    103.5322   9.2772049633e+01   3.1119343242e+01    0.3193361    0.2173341  83.99 0.0007778612    2.250    0.555
        47  -9.2835     90.8870    194.0086   1.2750481013e+02   2.2421117832e+01    0.2297556    0.1517019  74.82  0.001106444    1.696    0.411
        48  -9.2532    180.0204    192.3074   1.0718908416e+02   6.3443927555e+00    0.2018619    0.1801049  44.94 0.0004419498    1.112    0.101
        49 -10.1119    167.1152    191.3007   1.0977783821e+02   9.0639438798e+00    0.3673698    0.1815049  27.46  0.001277866    3.017    0.669
        50 -13.0925    165.9534     49.1077   7.5081788329e+01   3.7662206623e+01    0.7395682    0.6228876 -13.08  0.001441722    1.436    0.304
        51 -11.8821    247.0853    237.3239   1.0247420936e+02  -1.2559324844e+01    0.3626539    0.3322772 -26.56  0.001415156    1.419    0.295
        52 -12.5182    184.2680     27.1513   6.6327357568e+01   3.6098562838e+01     0.456264    0.4248316  85.54  0.001229513    1.103    0.093
        53 -11.4152    184.4176    216.7350   1.1081629468e+02   8.5214111221e-01    0.3802068    0.2860272  75.06  0.001915229    1.989    0.497
        54 -10.0468     63.9382    213.0751   1.3579122589e+02   2.2127683481e+01    0.2188572    0.1619395  84.12 0.0004413571    1.186    0.157
        55 -10.3046    114.3619     40.2333   8.3407611109e+01   5.0779188597e+01    0.2647127    0.2345361  20.14  0.001486476    1.087    0.080
        56 -11.4014    111.5281     30.5291   8.0854075188e+01   5.2593395574e+01    0.5330316     0.398459  21.62  0.003054702    1.389    0.280
        57 -15.9963      9.3053    185.0597   1.4428009011e+02   3.4702751300e+01      1.74942    0.7942405 -64.33  0.007602992    1.857    0.462
        58 -10.1181    110.2183     20.3618   7.7700014767e+01   5.3992854884e+01    0.2659104    0.1999795 -42.48  0.001398608    1.594    0.373
        59 -10.7672     93.2850    206.9617   1.2880853922e+02   1.9089999478e+01    0.3684027    0.2795741 -76.28  0.001209467    1.281    0.220
        60 -10.7307     94.8820    200.2675   1.2751573247e+02   2.0339128029e+01    0.5050194    0.2778873  82.88  0.001964516    2.889    0.654
        61 -11.1308     11.5345    206.1438   1.4551365634e+02   2.9842976803e+01    0.2973069    0.2205919  53.82   0.00208543    1.372    0.271
        62 -11.1114      7.2871    206.2718   1.4631755007e+02   3.0223723415e+01    0.1501902     0.124046  73.29 0.0004965689    1.212    0.175
