#   1 NUMBER                 Running object number                                     
#   2 MAG_AUTO               Kron-like elliptical aperture magnitude                    [mag]
#   3 X_IMAGE                Object position along x                                    [pixel]
#   4 Y_IMAGE                Object position along y                                    [pixel]
#   5 X_WORLD                Barycenter position along world x axis                     [deg]
#   6 Y_WORLD                Barycenter position along world y axis                     [deg]
#   7 A_WORLD                Profile RMS along major axis (world units)                 [deg]
#   8 B_WORLD                Profile RMS along minor axis (world units)                 [deg]
#   9 THETA_WORLD            Position angle (CCW/world-x)                               [deg]
#  10 FWHM_WORLD             FWHM assuming a gaussian core                              [deg]
#  11 ELONGATION             A_IMAGE/B_IMAGE                                           
#  12 ELLIPTICITY            1 - B_IMAGE/A_IMAGE                                       
         1 -13.7287    188.6916     14.3520   6.7350057565e+01   3.5502240449e+01     2.407111     1.439029 -65.08  0.008784226    1.848    0.459
         2 -15.3626    242.2188     92.5722   8.1901766474e+01   1.3546683136e+01     6.812973     1.372816 -28.96   0.02080546    4.355    0.770
         3 -14.9218    206.2661     31.0534   7.0385193981e+01   2.9203066361e+01     1.824274     1.491659 -76.34   0.01011031    1.268    0.211
         4 -13.0392    183.3071     80.8893   8.8354785922e+01   2.8088680283e+01     4.172436    0.2895939 -38.44   0.00793531    8.788    0.886
         5 -14.3830    167.0874     50.2963   8.2130480989e+01   3.6897455581e+01     6.050009     2.175314  72.62   0.01342108    6.793    0.853
         6 -13.4545    216.3378     20.8336   6.6487358789e+01   2.7834742147e+01     0.615552    0.3755994  46.15  0.002032316    1.873    0.466
         7 -11.2046    224.5819     19.4113   6.5378400871e+01   2.6018888678e+01    0.4091828     0.195607 -55.99  0.001796058    2.226    0.551
         8 -11.8174    138.2232     20.6900   7.7028282100e+01   4.8688260842e+01    0.3702038    0.2468726 -40.60 0.0009947644    1.585    0.369
         9 -11.7363    150.3826     10.1733   7.0817763429e+01   4.6414001265e+01     0.607941    0.2270209 -37.46  0.002187169    2.649    0.622
        10 -13.0847     92.1691      5.5841   8.1272946936e+01   6.2676513726e+01    0.9159542    0.6065546  47.45  0.004479486    1.357    0.263
        11 -13.4603    117.5509      2.9752   7.3587088429e+01   5.6234426701e+01     1.551485    0.3449703  61.06  0.004735101    3.285    0.696
        12 -12.7426    106.9898      5.9111   7.7372944294e+01   5.8808466395e+01    0.8440667    0.2791898  55.80  0.002982459    2.465    0.594
        13 -11.6329    105.0309      2.0788   7.5940321309e+01   5.9697236872e+01    0.7372321    0.2301007  54.21  0.002581225    2.546    0.607
        14 -11.6910    144.2531      6.6230   7.0388444083e+01   4.8468363150e+01    0.4684129     0.194119 -46.11  0.001676918    2.756    0.637
        15 -11.3309    249.0201      3.2990   5.9673704373e+01   2.2101877457e+01    0.4165246    0.2521431 -54.01  0.002347256    1.459    0.315
        16 -11.4769    134.8997      5.2756   7.1359601924e+01   5.1214529067e+01    0.3536046    0.1794863 -33.02   0.00146908    2.028    0.507
        17 -10.5308    154.2065      2.0791   6.7250781463e+01   4.6075091870e+01    0.2943261    0.1884823 -45.02  0.001376012    1.627    0.385
        18 -11.2994    233.8554      3.7187   6.0654537851e+01   2.5380752146e+01    0.4813551      0.30083  65.57  0.002672341    1.698    0.411
        19 -10.5890     65.8774      1.9679   8.8822758185e+01   6.9244330586e+01    0.2070525    0.1884894  15.02 0.0005726161    1.072    0.067
        20 -12.2931    186.1598     52.1741   7.9392890636e+01   3.1659600469e+01    0.3510206    0.2695754  29.13  0.001718975    1.455    0.313
        21 -12.0908    214.9049    117.6208   9.2022388940e+01   1.5509801433e+01    0.3158201    0.3116737 -88.42   0.00196245    1.318    0.241
        22 -11.9773    197.9991    119.5238   9.5554703057e+01   1.8647965941e+01    0.5438027    0.3122374  68.12   0.00195826    3.642    0.725
        23 -11.7068    219.6793    114.6718   9.0519036704e+01   1.4986668415e+01    0.2736751    0.2067425  16.29  0.001217107    1.315    0.240
        24 -12.6366    222.0000    111.9661   8.9499757462e+01   1.4909117826e+01    0.5060122    0.2526381 -46.41  0.001912373    2.625    0.619
        25 -12.1623    204.7746    110.5498   9.2131644249e+01   1.8618237077e+01    0.5045317     0.294021  27.91  0.002231429    1.975    0.494
        26  -9.4389    167.0313    112.7529   1.0035962899e+02   2.6417039754e+01    0.1979376     0.123893  45.65  0.000528356    1.536    0.349
        27 -11.8679    177.4003     61.3522   8.3709832284e+01   3.2582160374e+01    0.2919088    0.2656957  25.72 0.0003812287    1.121    0.108
        28 -15.0740     46.4220    200.0876   1.4418560958e+02   2.8710086978e+01     1.148341    0.9440418 -22.96  0.005263516    1.851    0.460
        29 -13.0675    170.9505     68.3445   8.7091723222e+01   3.3141429512e+01     0.908437    0.7449528  12.27  0.001394048    1.359    0.264
        30 -14.5598     57.6986    187.9461   1.4077736380e+02   2.9802518949e+01    0.9815595    0.7802213  49.79  0.003043668    1.031    0.030
        31  -9.2630    158.6618    106.2356   1.0063178079e+02   2.9473428414e+01     0.146312    0.1206168  74.56 0.0001853648    1.544    0.352
        32  -9.3900    141.3029    100.2868   1.0338021727e+02   3.4532923015e+01    0.1563571    0.1207896  10.61 0.0002099892    1.562    0.360
        33  -9.2093    123.9853     99.6846   1.0799190879e+02   3.8464806251e+01    0.2595966    0.1220549  25.77 0.0007045657    4.247    0.765
        34 -12.3074    225.3451     93.5595   8.4545208950e+01   1.6779689479e+01     0.380324    0.3443119  75.07  0.001306749    1.381    0.276
        35 -10.9935    146.8905     93.7394   1.0012601921e+02   3.4538153630e+01    0.3510734    0.2920371  -5.52 0.0008335695    1.348    0.258
        36 -10.5190    133.4519     92.0890   1.0320955575e+02   3.7956468618e+01     0.281164    0.2363084  81.13 0.0006491013    1.476    0.322
        37 -12.0887    154.3474     85.3733   9.5876556354e+01   3.4341926182e+01    0.6704233    0.4002164 -14.39  0.001964036    2.504    0.601
        38 -11.6085    157.5187     82.4894   9.4277346308e+01   3.4093874757e+01     0.340748    0.3066793  58.52 0.0008599806    1.154    0.133
        39 -11.5629    140.1902     81.9520   9.8400303465e+01   3.8387606814e+01    0.3539055    0.3177507 -32.87 0.0008962463    1.144    0.126
        40 -12.7045    153.7417     71.4944   9.1793551198e+01   3.6968855925e+01    0.3947214    0.3116141 -26.79 0.0008072758    1.312    0.238
        41 -10.4897    135.0482    105.4566   1.0642380588e+02   3.4869988212e+01    0.4905941    0.3183752 -19.52  0.001981688    2.162    0.537
        42 -12.2605    196.9066     26.2250   7.0044559316e+01   3.2110624592e+01    0.5179929     0.256348 -55.31  0.001794634    2.325    0.570
        43 -10.3740    232.4894     43.2666   7.0868562142e+01   2.1627320303e+01    0.2837783    0.2453483  57.56  0.001422293    1.266    0.210
        44 -10.2902      5.1826    170.2171   1.5224711557e+02   3.8345690220e+01    0.1611505   0.09651197  59.26 0.0003989508    1.307    0.235
        45  -9.8110    189.8534     36.0236   7.3905219185e+01   3.2799410549e+01    0.2277288    0.1826416 -56.03 0.0006955518    1.275    0.216
        46 -11.9121    133.1429     27.1133   8.0671557177e+01   4.9294679385e+01    0.3644506     0.225404 -55.35  0.001497817    2.016    0.504
        47 -12.2430    123.5409     24.4356   8.1793407997e+01   5.2242828282e+01    0.5187818    0.2970073 -49.25    0.0020935    2.106    0.525
        48 -10.3611    249.3244     25.4056   6.4926220962e+01   1.9921476770e+01    0.2253734    0.1423223  81.30  0.001257056    1.790    0.441
        49  -9.8067    153.4908     26.0000   7.6204249831e+01   4.3829304625e+01    0.3480029   0.08376056  65.36 0.0009382244    3.963    0.748
        50 -10.3188    228.6431     22.3139   6.5798058721e+01   2.4780693543e+01    0.2435789    0.1739677 -60.12 0.0008961502    1.376    0.273
        51 -11.2530    229.8049    166.3147   9.9767529083e+01   6.2951257069e+00    0.2063112    0.1560526 -25.32  0.001098451    1.399    0.285
        52  -9.0458    214.2755    160.2696   1.0132879681e+02   9.6312539548e+00    0.1291347   0.08576879  10.08 0.0002203047    1.483    0.326
        53 -10.9252     38.7074     18.8747   1.1433352912e+02   7.1231794308e+01    0.2371265    0.1728182   8.27  0.001316719    1.430    0.301
        54 -10.0068    220.8138     12.7160   6.3903469638e+01   2.7570637464e+01    0.1807742    0.1510617 -63.16  0.000492342    1.115    0.103
        55 -11.5796    222.1742     27.2938   6.7694898215e+01   2.5763559320e+01    0.5329292    0.3509779  87.76 0.0009132145    1.682    0.405
        56 -10.1668    202.1623    248.1620   1.1762391381e+02   1.0554143408e+00    0.1629235    0.1037224  18.40 0.0003197447    1.165    0.142
        57 -14.3041     18.1048    228.3402   1.5119971152e+02   2.6457732553e+01    0.7274547    0.5050788  53.97  0.004146127    1.019    0.018
        58 -12.6054    191.2034     47.2539   7.7121631061e+01   3.1031819555e+01    0.5569401    0.3278984  27.81  0.001988712    2.331    0.571
        59  -9.2311    205.2471    223.6400   1.1376169981e+02   3.2098498655e+00   0.09484845   0.08397156  34.19 0.0004011311    1.604    0.377
        60 -12.4516     67.8115    144.3145   1.3373203876e+02   3.7906815525e+01    0.6662169    0.3546199  55.29  0.002383641    1.938    0.484
        61 -13.3579    237.3032     57.9080   7.4067298234e+01   1.8859339001e+01     1.598582    0.8220401  68.69  0.001580206    2.339    0.572
        62 -11.0869    184.0833    134.9392   1.0189963217e+02   1.9008902128e+01    0.3658409    0.2267845  53.42  0.001461753    1.881    0.469
        63 -12.2080    210.9520    133.9326   9.6433883157e+01   1.3917445780e+01     0.600637    0.2216407  48.62  0.002298165    2.900    0.655
        64 -10.1808    218.3665    131.2746   9.4525224424e+01   1.2899812328e+01    0.1428107   0.09251919  15.21 0.0007004869    1.672    0.402
