#   1 NUMBER                 Running object number                                     
#   2 MAG_AUTO               Kron-like elliptical aperture magnitude                    [mag]
#   3 X_IMAGE                Object position along x                                    [pixel]
#   4 Y_IMAGE                Object position along y                                    [pixel]
#   5 X_WORLD                Barycenter position along world x axis                     [deg]
#   6 Y_WORLD                Barycenter position along world y axis                     [deg]
#   7 A_WORLD                Profile RMS along major axis (world units)                 [deg]
#   8 B_WORLD                Profile RMS along minor axis (world units)                 [deg]
#   9 THETA_WORLD            Position angle (CCW/world-x)                               [deg]
#  10 FWHM_WORLD             FWHM assuming a gaussian core                              [deg]
#  11 ELONGATION             A_IMAGE/B_IMAGE                                           
#  12 ELLIPTICITY            1 - B_IMAGE/A_IMAGE                                       
         1 -15.0178      9.3618    155.4243   1.4337914814e+02   4.1311538340e+01     9.932664     3.255541  65.00   0.04922806    3.086    0.676
         2 -12.0433      3.1041     20.4478   1.2778029320e+02   7.0295257472e+01    0.4316757    0.1888179 -57.08  0.002436917    1.582    0.368
         3 -12.5764      2.5125      6.0660   1.2316072113e+02   7.3235634342e+01    0.9294692     0.552783 -18.41  0.005952766    1.870    0.465
         4 -13.6900    207.0601      8.5355   6.3323705909e+01   3.1533708433e+01     1.692976     1.064751  37.31  0.007883179    1.707    0.414
         5 -13.4788    192.6715     27.5141   7.1240105839e+01   3.3401119309e+01     1.456214     1.351648  23.81  0.005805193    1.054    0.051
         6  -8.7130     47.4340    249.5277   1.4180087352e+02   2.2394995746e+01   0.09065244   0.06036521  60.07 0.0001470105    1.008    0.008
         7  -9.8609    174.4896    249.5140   1.2265335676e+02   6.4905304023e+00     0.136821   0.09807655 -62.25  0.001034894    2.355    0.575
         8 -11.3343    124.7974    250.0388   1.3030142148e+02   1.3198713486e+01    0.4152758    0.1018802  41.03   0.00200438    3.030    0.670
         9 -10.2003      3.6032    248.9004   1.4788480949e+02   2.6604202110e+01    0.2545802    0.1687803  43.86  0.002457984    1.514    0.340
        10 -10.6960     34.9856    245.2077   1.4339940737e+02   2.4234286055e+01    0.3098566    0.1796858 -64.70  0.002568035    2.277    0.561
        11 -11.6308    139.3040    249.2453   1.2801157868e+02   1.1362176409e+01    0.3031415    0.1550952  47.23  0.002107469    1.426    0.299
        12  -9.9981    198.4857    246.4657   1.1866570282e+02   3.4110878123e+00    0.1043734   0.07272864  34.60 8.232045e-05    1.011    0.011
        13  -9.2819     82.0030    242.9967   1.3631172174e+02   1.9441255516e+01    0.1617302   0.08149965  61.41  0.001132793    1.736    0.424
        14  -9.0365     11.8976    240.8815   1.4652031192e+02   2.6988859784e+01     0.123898   0.09402364  60.56  0.001221262    1.264    0.209
        15  -9.3395    126.3122    238.3370   1.2903824618e+02   1.4414327590e+01    0.0934679   0.07137482  21.97 0.0007045605    1.688    0.408
        16 -12.7874     10.0506    206.6419   1.4562864781e+02   3.2279787452e+01    0.7963156    0.3072179  45.73    0.0047207    1.925    0.480
        17  -9.5702    249.2245    249.6175   1.1160764486e+02  -3.8123462925e+00     0.149051   0.06206037  33.66  0.000779195    1.653    0.395
        18 -12.7191     38.5434    234.9447   1.4243312520e+02   2.5319342598e+01    0.2159782    0.1821272  74.36 0.0007241335    1.344    0.256
        19 -10.4213    173.1043    221.9893   1.1968709306e+02   9.6596695919e+00    0.2417711     0.156168  40.03  0.001471115    1.172    0.147
        20  -8.2385     94.2417    216.3009   1.3232163203e+02   2.1676303915e+01   0.08325471   0.07823653  24.50 0.0001905084    1.485    0.326
        21  -8.5722     24.4460    238.2205   1.4464192289e+02   2.6220704011e+01    0.1148132   0.06049762  75.48 0.0006462096    1.536    0.349
        22  -8.9623    152.6487    213.0571   1.2200748460e+02   1.3860957294e+01    0.1389094    0.1219593  41.03 0.0003422842    1.125    0.111
        23 -11.5681     64.1160    200.0993   1.3619205395e+02   2.7915355502e+01     0.231198     0.195881 -58.96 0.0005461893    1.591    0.371
        24 -11.5099     19.1899    199.3901   1.4384286510e+02   3.2654967107e+01    0.3714473    0.1104074  52.33  0.001793253    2.412    0.585
        25  -9.6223    192.0033    193.4934   1.1249462350e+02   1.0057849029e+01    0.3116462    0.1573432 -55.61  0.001304542    4.642    0.785
        26 -14.2099     44.4427    227.5287   1.4117532145e+02   2.5796076756e+01    0.8258582    0.5736705  53.62  0.003205004    1.160    0.138
        27 -11.8431     70.0115    191.8276   1.3446515862e+02   2.8597735307e+01    0.2100521    0.1886746 -81.40 0.0004212311    1.316    0.240
        28 -10.9322     79.6560    178.8573   1.3143146525e+02   2.9644243377e+01    0.1960104    0.1721425  78.80 0.0003847059    1.120    0.107
        29 -13.2405     66.6902    176.9249   1.3375339066e+02   3.1598887884e+01    0.3884784     0.238085 -47.26  0.001685159    2.317    0.568
        30 -10.5923    149.5051    229.4961   1.2442607825e+02   1.2259491486e+01    0.1888607    0.1150373  38.62  0.001299589    1.300    0.231
        31  -9.0013    102.9799    179.0998   1.2692704087e+02   2.6428649774e+01    0.1888767    0.1183933  68.04  0.001079717    1.747    0.428
        32 -11.8382     87.0671    169.3068   1.2891784119e+02   3.0382889900e+01    0.5265778    0.4646917  47.21  0.003838528    1.214    0.176
        33  -9.3982      3.5625    228.1605   1.4732676897e+02   2.9532879873e+01    0.2035359   0.07546663  54.95   0.00149369    1.764    0.433
        34  -9.1381    101.9429    148.9699   1.2306574938e+02   3.2060312048e+01      0.17305    0.1664149 -32.42 0.0003862638    1.263    0.208
        35 -12.0316     87.7668    152.4781   1.2665510775e+02   3.3446536793e+01    0.2349709     0.222753 -49.64 0.0005700632    1.293    0.226
        36 -12.5202     67.1663    143.9008   1.3007953125e+02   3.7846691331e+01    0.6870416    0.4006047  66.34   0.00335115    1.839    0.456
        37 -11.5279     57.6686    132.4027   1.3081047485e+02   4.1334133617e+01    0.6877801    0.3035083 -82.70  0.002992985    2.978    0.664
        38  -8.4796    192.2445    144.3165   1.0354098748e+02   1.6652044783e+01    0.1320617   0.09640554   8.37 0.0002203171    1.516    0.341
        39 -10.0069     99.0369    153.1236   1.2431122711e+02   3.1703123464e+01    0.2607602     0.228656 -78.22 0.0007967083    1.139    0.122
        40 -10.6148     97.4598    135.0662   1.2186437145e+02   3.5469475650e+01    0.2695792    0.2177864  47.58 0.0004478191    1.217    0.178
        41  -9.4009     84.9910    135.5083   1.2483335721e+02   3.7202994364e+01    0.2089839    0.1559355  83.88 0.0006367295    1.396    0.284
        42  -9.1335      7.7794    226.2129   1.4665330563e+02   2.9461363130e+01     0.119364   0.09764142  34.69 0.0004082651    1.753    0.430
        43  -9.8015    110.0734    138.0055   1.1947401869e+02   3.2907530747e+01    0.3443662    0.2340988 -17.64  0.001558148    2.719    0.632
        44  -9.2798    107.1835    124.2617   1.1763849760e+02   3.6110069290e+01    0.1745156     0.169249  35.43 0.0004104644    1.127    0.113
        45  -8.8615    183.7653    146.9626   1.0569363516e+02   1.7907191083e+01    0.1992213    0.1552847 -69.10   0.00105439    1.959    0.489
        46 -10.3464    167.9123    112.9936   1.0132844588e+02   2.6623013871e+01    0.3124034    0.2694518 -78.26 0.0009131784    1.499    0.333
        47  -9.4711    203.4921    111.5150   9.3964397768e+01   1.9176519148e+01    0.2463658    0.1350401 -17.00 0.0009001624    2.146    0.534
        48  -9.3839    177.4480    227.2606   1.1963408896e+02   8.4104241059e+00    0.1145376    0.1054551 -74.90 0.0009316571    1.574    0.365
        49 -10.5761    241.3854     85.8103   8.1154522882e+01   1.4384001528e+01    0.2133441     0.123627 -11.50 0.0009607412    1.753    0.430
        50  -8.9305     73.1653     86.2134   1.1865810099e+02   4.9381664277e+01    0.1762966    0.1441214  73.17 0.0005593949    1.389    0.280
        51 -10.8899      6.4058     63.3961   1.3558160300e+02   6.0840477654e+01    0.2518083     0.133106 -12.62  0.001365959    3.030    0.670
        52 -10.8720     28.0431     60.4904   1.2748216814e+02   6.0036103208e+01    0.2809134      0.20017  48.07 0.0005976706    1.712    0.416
        53 -10.0181     19.7177     57.1526   1.2977352815e+02   6.1402024002e+01    0.1754344    0.1533376  66.48 0.0006012995    1.354    0.261
        54 -11.7545      2.4100     48.0057   1.3447532625e+02   6.4426401228e+01    0.5966642   0.09989807 -70.33  0.002041195    4.373    0.771
        55 -11.3760      2.2889     37.8113   1.3252647417e+02   6.6648621788e+01    0.4166622    0.1489907 -75.30  0.001886092    2.683    0.627
        56 -10.5577    152.8957    248.8851   1.2589162495e+02   9.5515556901e+00     0.153954    0.1068496  34.57 0.0005180379    1.241    0.194
        57 -10.4799     98.9905    249.2668   1.3416429797e+02   1.6577553127e+01    0.1545709    0.1126462  55.11 0.0006946677    1.048    0.046
        58  -9.7638     81.2727    248.6320   1.3678626187e+02   1.8787023797e+01    0.1579618   0.09765643  81.62   0.00124724    1.730    0.422
