#   1 NUMBER                 Running object number                                     
#   2 MAG_AUTO               Kron-like elliptical aperture magnitude                    [mag]
#   3 X_IMAGE                Object position along x                                    [pixel]
#   4 Y_IMAGE                Object position along y                                    [pixel]
#   5 X_WORLD                Barycenter position along world x axis                     [deg]
#   6 Y_WORLD                Barycenter position along world y axis                     [deg]
#   7 A_WORLD                Profile RMS along major axis (world units)                 [deg]
#   8 B_WORLD                Profile RMS along minor axis (world units)                 [deg]
#   9 THETA_WORLD            Position angle (CCW/world-x)                               [deg]
#  10 FWHM_WORLD             FWHM assuming a gaussian core                              [deg]
#  11 ELONGATION             A_IMAGE/B_IMAGE                                           
#  12 ELLIPTICITY            1 - B_IMAGE/A_IMAGE                                       
         1 -14.3464    246.3502     56.6987   3.5794330642e+02   2.0342532481e+01     1.648998    0.7941127 -30.14  0.008977931    1.870    0.465
         2 -13.5659    224.8467     23.8220   3.5243773567e+02   2.8152687810e+01    0.9864178    0.6382684  27.24  0.004196561    3.080    0.675
         3 -12.8928    234.2926     24.5287   3.5200005417e+02   2.6302795375e+01     0.787679    0.3067175 -46.29  0.002032732    1.877    0.467
         4 -12.5208    222.0972     11.5182   3.4985669401e+02   3.0007390207e+01    0.7087098    0.2782312 -57.08  0.003584462    2.174    0.540
         5 -12.5793    226.9133      7.7200   3.4876904559e+02   2.9469284857e+01    0.6988162    0.2399065 -45.28  0.002398969    2.034    0.508
         6 -13.5360    244.3551     21.8835   3.5086620097e+02   2.4785314761e+01    0.9703327    0.5313631 -60.92  0.004617291    1.561    0.360
         7 -14.4690    245.0677      8.3335   3.4806049568e+02   2.6080503748e+01     1.154951    0.5997534 -65.56   0.00683018    1.670    0.401
         8 -13.2065    245.6376     42.0121   3.5495132358e+02   2.2265726475e+01    0.7914523    0.6110904 -54.71  0.005709211    1.082    0.076
         9 -11.7123     68.5132     38.0624   2.4464163514e+01   6.2325884054e+01    0.7974524    0.4801069 -57.38  0.001830898    2.259    0.557
        10 -13.1491     60.1353     29.9412   2.4114380244e+01   6.5427674900e+01       1.0726    0.8137728  29.79  0.004486274    1.338    0.253
        11 -12.7155    234.1245     37.1490   3.5473184550e+02   2.4881124713e+01    0.9495981    0.2499436 -53.99  0.003473111    4.193    0.761
        12 -12.1805     53.0214     22.5305   2.3479944492e+01   6.8037895260e+01     1.051216    0.7076831 -50.79  0.005335512    1.819    0.450
        13 -13.3595     15.6704     47.2327   5.6823320379e+01   6.8542658743e+01     1.051962     0.682851 -80.78  0.005228593    1.880    0.468
        14 -12.0592      3.4191     27.5519   5.9037684249e+01   7.3958214144e+01    0.6593518    0.3323827 -42.19   0.00331419    1.727    0.421
        15 -11.0928     42.2187     21.1005   2.8224110942e+01   7.0331857673e+01    0.6003098    0.3800725  59.64  0.002857033    2.186    0.542
        16 -11.3497     32.3837     20.4649   3.3756399966e+01   7.2118675322e+01    0.5282245    0.2931032 -33.38  0.001591014    1.883    0.469
        17 -11.2970    136.2700     27.2152   2.3985986305e+00   4.7597457296e+01    0.5683374    0.3389842 -79.71  0.001309369    1.988    0.497
        18 -11.5221    123.9043     22.0568   2.6103326019e+00   5.1305617198e+01    0.4886592    0.2833185 -22.53  0.002290037    1.981    0.495
        19 -10.4361     20.3434     22.1538   4.3126217676e+01   7.3517963091e+01    0.4557212    0.1631648 -56.73  0.001136983    3.574    0.720
        20 -10.3647    203.2728     18.4879   3.5266471438e+02   3.3063195389e+01    0.3723413    0.2130193  38.35  0.001804862    3.063    0.674
        21 -12.2973     69.0996     14.4699   1.2557137259e+01   6.5641643218e+01    0.5954655    0.3747415  77.89  0.002530254    2.075    0.518
        22 -10.7783    212.7390     15.6407   3.5134823421e+02   3.1426451264e+01    0.2590286    0.1369258 -54.39 0.0002638487    1.545    0.353
        23 -10.7003    109.1135     11.4459   1.1081842629e+00   5.6180818698e+01    0.2884207    0.2216833  46.43  0.001269702    1.346    0.257
        24 -10.5547     37.9510     12.4033   2.5374676811e+01   7.2440454242e+01    0.2320304    0.1816103   2.36 0.0008523666    1.327    0.246
        25 -10.1265    125.7267     12.0206   3.5864175399e+02   5.1928142242e+01    0.1865769    0.1678002 -72.57  0.000379962    1.061    0.057
        26 -10.0898     88.3606     12.4762   5.9346837672e+00   6.1262792208e+01       0.1971    0.1388332  40.32 0.0006245642    1.460    0.315
        27 -10.8080     13.8396     12.0413   4.2497817132e+01   7.6194486851e+01      0.17533    0.1539458 -10.50 0.0002750616    1.047    0.045
        28 -10.0023    130.0984     10.5702   3.5750570666e+02   5.0972049395e+01    0.2108857     0.164396 -20.16   0.00119672    1.469    0.319
        29  -9.5390     96.0000     10.9617   3.4810074546e+00   5.9524705072e+01    0.2115136   0.07859357 -24.31 0.0008048175    2.959    0.662
        30 -10.3453     54.9837     10.4828   1.5682452114e+01   6.9270431944e+01    0.3236868    0.1872538 -55.78  0.001423141    2.719    0.632
        31 -10.1313    143.9827      9.8762   3.5555510169e+02   4.7583053731e+01    0.1925453    0.1632951 -81.26 0.0003184821    1.039    0.038
        32  -9.7209     78.4596      9.5723   7.1086453683e+00   6.3976384407e+01    0.2276789    0.1536758  59.85 0.0005055922    1.331    0.249
        33 -11.2764     75.6992      6.9752   6.5416836431e+00   6.4901161736e+01     0.387934     0.297886  27.80   0.00219412    1.395    0.283
        34 -11.0236    194.2450      7.8326   3.5064566454e+02   3.6095305381e+01    0.2194714    0.1899707 -35.71 0.0007965557    1.269    0.212
        35 -12.5190    173.2799      6.2489   3.5171448359e+02   4.0930677601e+01     0.339512    0.2516193 -31.07 0.0008610827    1.400    0.286
        36 -10.3805     56.1412      4.0967   1.1331597856e+01   6.9728090105e+01    0.5167506    0.1953898  65.20  0.001394094    3.120    0.679
        37 -10.9215     70.6934      3.3743   6.0405453656e+00   6.6439479213e+01    0.3817249    0.1997085  20.72  0.001554538    2.828    0.646
        38 -12.0498     64.4484      7.3299   1.0228746407e+01   6.7511498598e+01     0.499367    0.2861319  76.81  0.002258435    2.274    0.560
        39 -11.3039     65.3511      3.8776   7.9565815301e+00   6.7649445633e+01    0.2889087    0.2096887  64.50 0.0007920426    1.302    0.232
        40 -10.8644     46.8896      6.6798   1.6931987041e+01   7.1437566648e+01    0.5124633    0.2192296  43.34  0.002251133    2.151    0.535
        41 -11.0553     45.9960      2.7875   1.4774485801e+01   7.2065042275e+01    0.1968459    0.1791362 -20.20 0.0002503458    1.202    0.168
        42 -10.1145    210.6800      6.4227   3.4932061514e+02   3.2793296681e+01    0.2007658    0.1022121  89.34  0.001107415    1.958    0.489
        43 -10.8986    219.8800      1.8136   3.4780462485e+02   3.1410560096e+01      0.43252    0.1492059  70.40  0.002123402    2.977    0.664
        44 -10.7726    213.2932      2.2436   3.4821794562e+02   3.2675084290e+01    0.2611968    0.2126481 -49.35  0.001012328    1.138    0.121
        45 -10.3082      2.7350      6.3591   4.9452089603e+01   7.8383411754e+01    0.2469955    0.1371872   9.25  0.001109259    1.830    0.453
        46 -10.5174    189.2514      5.0247   3.5025644979e+02   3.7457417871e+01    0.2480274    0.1549283  76.70 0.0008540638    1.578    0.366
        47  -9.2800    184.4727      3.1822   3.5008920843e+02   3.8689008946e+01    0.3204493    0.1019988  65.24  0.001365417    3.021    0.669
        48 -12.2916    116.3848      7.9140   3.5849198020e+02   5.4683089515e+01    0.4379875     0.327442 -46.57  0.002470863    1.362    0.266
        49  -9.7662    208.3815      2.7914   3.4859484965e+02   3.3618026269e+01    0.1593472    0.1154772 -65.39 0.0005618325    1.118    0.106
        50  -9.5848    154.7825      2.9995   3.5229308364e+02   4.5595199676e+01    0.1541092    0.1003739 -29.48 0.0003811413    1.589    0.371
        51 -11.4309     88.1980      1.3024   6.7069753590e-01   6.2353581958e+01    0.2155867     0.107624  67.49 0.0002631643    1.760    0.432
        52 -10.4790     26.1057      9.8390   3.1328656549e+01   7.4859362437e+01    0.2329952    0.1773654   5.34 0.0005805788    1.312    0.238
        53 -11.7846     11.7916     79.4273   6.6457585582e+01   6.0659130896e+01    0.4072548    0.1863137 -30.61  0.001618269    2.602    0.616
        54 -11.3692    221.9637     84.6043   6.3427577498e+00   2.0758464328e+01    0.3045017    0.1583789 -33.75  0.001565948    1.646    0.393
        55  -9.8780    203.8181     79.3742   7.4003578778e+00   2.4902892858e+01    0.1901462    0.1441852 -47.83 0.0007863402    1.141    0.123
        56  -9.6865     81.5386     79.4607   3.5187048521e+01   5.1272671351e+01    0.1508494    0.1491947 -31.43 5.274413e-05    1.016    0.016
        57 -13.0903    117.4033     61.6240   1.8114709269e+01   4.7048372098e+01    0.5871425    0.4859419  -1.42 0.0009115335    1.544    0.352
        58 -13.3090    247.6929     72.4950   1.0876133064e+00   1.8082867371e+01    0.5934448    0.5459776 -80.76   0.00458462    1.302    0.232
        59 -11.6897    227.3800    242.6606   3.4573821161e+01  -2.6210973271e+00     0.210315    0.1695763 -37.25  0.001646555    1.889    0.471
        60 -10.3055    180.3286    243.6768   4.2819700771e+01   1.9959122076e+00    0.1003424   0.08253356  39.03 0.0007049318    1.695    0.410
        61 -11.5529     15.5103    242.9884   7.7617276149e+01   2.0040197719e+01    0.1576177    0.1036275  88.48  0.001038544    1.607    0.378
        62 -11.8547    220.6887     37.9994   3.5593782920e+02   2.7297467140e+01       0.3545    0.2271705 -55.72  0.001220431    1.315    0.240
        63 -11.0870    211.6531    242.0076   3.7056901335e+01  -1.0336024222e+00    0.2107983    0.1180477   1.20  0.001341635    1.665    0.399
        64 -10.9967    218.8786    240.0480   3.5580266474e+01  -1.5026075461e+00    0.2137088    0.1249864  16.68   0.00147302    1.445    0.308
        65 -12.3198    238.0100     50.9809   3.5741012065e+02   2.2494065395e+01    0.3948773    0.2320374 -53.04  0.001286981    1.433    0.302
        66 -13.7883    230.2098     46.4468   3.5705961286e+02   2.4463064664e+01    0.7413735    0.5729934 -69.63  0.003800575    1.249    0.199
        67 -10.9585    238.9863    230.9863   3.1080823875e+01  -2.3366224082e+00     0.155423    0.1364651  83.94 0.0002452258    4.128    0.758
        68 -10.6226    248.4665    224.4895   2.8694600588e+01  -2.4544861824e+00    0.1051968   0.07292611 -10.04 0.0001186545    1.007    0.007
        69 -10.4597    127.9479     76.0506   2.0130054939e+01   4.1917550126e+01    0.2181161    0.2113875 -73.36  0.000364903    1.010    0.010
        70  -9.5779     94.0711     78.9555   3.0686245613e+01   4.8841969809e+01    0.1731723    0.1696434 -68.47 0.0009264085    1.014    0.014
        71 -11.0989     73.1394     74.8318   3.6865126777e+01   5.3941032669e+01    0.4106806    0.2645319  54.96  0.001398698    1.802    0.445
        72  -9.8358     74.1950     70.8187   3.5118235637e+01   5.4648708157e+01    0.2299662    0.1816985  -9.53 0.0004460795    1.588    0.370
        73 -11.7526     54.9404     72.9708   4.3893424406e+01   5.7531239603e+01    0.4997782    0.2177374 -56.68  0.001116862    2.312    0.567
        74 -12.0824      8.1725     71.3990   6.6955369768e+01   6.2990225106e+01    0.3878101    0.2462626  11.26  0.001969825    1.722    0.419
        75 -12.6381      7.4756     67.6786   6.6670113914e+01   6.3997074045e+01     1.160319    0.3941626 -39.33  0.004212712    3.068    0.674
        76 -10.8895    177.9666     71.7934   9.1725026172e+00   3.1378591193e+01    0.3378077      0.23594 -72.83 0.0009929104    1.683    0.406
        77 -11.4512      3.7720    213.8844   7.9279899741e+01   2.6879692201e+01    0.2525978    0.1326393 -81.09  0.001399408    1.932    0.482
        78 -11.9646    221.7465     70.4253   3.2016706053e+00   2.2833369874e+01    0.2842561    0.1947955 -72.40   0.00166004    1.689    0.408
        79 -11.3902    217.2528     70.9525   3.8132338234e+00   2.3589156694e+01    0.2139146    0.1869116  57.01 0.0006364934    1.388    0.279
        80 -10.7831    209.3947     71.1910   4.7730184587e+00   2.5044591225e+01    0.2389171    0.1864256  69.82  0.001292924    1.474    0.321
        81 -11.6256    208.9240     66.9994   3.8407251512e+00   2.5741179616e+01    0.2439038    0.1908844 -43.10 0.0003018386    1.076    0.071
        82  -9.6859    186.7634     70.9799   7.6617552933e+00   2.9635179651e+01    0.1808249    0.1031163 -36.76  0.000656281    1.573    0.364
        83 -10.0589     78.3111     71.6748   3.3834152539e+01   5.3656980640e+01     0.153894    0.1213592  85.58 0.0007039847    1.658    0.397
        84 -11.7005    202.8434     69.2170   5.0957392571e+00   2.6615086709e+01    0.3375194     0.198045  78.15  0.001679763    2.209    0.547
        85 -10.0608    190.1018     69.0802   6.7144783265e+00   2.9228599622e+01    0.1866455    0.1710044 -24.70  0.001152383    1.206    0.171
        86 -10.4150    193.5354     66.2536   5.5458314441e+00   2.8940732799e+01    0.1876328    0.1554732  11.24 0.0008048029    1.647    0.393
        87 -10.4505    123.7764     68.2672   1.8708759441e+01   4.4343274886e+01    0.3658516    0.1802448 -53.49  0.001360618    2.393    0.582
        88 -13.3824     27.4471     64.1910   5.4873041125e+01   6.3310398306e+01    0.8672341    0.5718843 -66.22   0.00428248    1.507    0.336
        89 -13.0422     37.5249     56.2822   4.6915234907e+01   6.4027463506e+01     1.495964    0.7628987  20.09  0.006196998    2.293    0.564
        90 -13.1039     51.5264     44.4973   3.4981982162e+01   6.4425212302e+01    0.6176862    0.4358482   7.50 0.0009326324    1.820    0.451
        91 -13.1694     60.9442     43.3182   3.0033902266e+01   6.2912360141e+01    0.6693146    0.5549014 -86.29 0.0004603489    1.617    0.382
        92 -10.2841    198.0997    204.3886   3.3752631562e+01   5.5616921676e+00    0.2150694    0.1392934  38.81   0.00128891    1.846    0.458
        93 -11.8370    229.1856    118.9660   1.2767088536e+01   1.4417115676e+01    0.2075864    0.1859233  36.61 0.0003869861    1.365    0.267
        94 -11.0528     50.8103     56.8064   4.0290426562e+01   6.1940416987e+01    0.2841703    0.2162375  28.92 0.0003829492    1.334    0.250
        95 -11.6653     48.5276     52.9007   3.9930460635e+01   6.3169228164e+01    0.3674293    0.2871505 -66.40 0.0009283415    1.497    0.332
        96 -10.4819    161.3219     66.2788   1.0369575973e+01   3.5955184849e+01    0.4108167     0.228083 -28.43  0.001236279    2.008    0.502
        97 -11.3129    213.9556     66.9251   3.2533588606e+00   2.4782380308e+01    0.1937128     0.158571 -46.82 0.0003448547    1.007    0.007
        98 -10.7453    154.7490     65.3409   1.1258748699e+01   3.7614565226e+01    0.4540575    0.1967233 -42.06  0.001806087    2.129    0.530
        99 -10.2842    143.7064     67.2484   1.3939769392e+01   3.9858646934e+01    0.3022257    0.1971785  47.78  0.001406667    1.642    0.391
       100 -11.7111     92.6325     65.5962   2.6681901431e+01   5.1957655814e+01     0.488578    0.3390146   4.76  0.001979321    2.418    0.586
       101 -10.3779    204.6650    118.0467   1.6108995001e+01   1.8562713923e+01    0.3208087    0.1660688 -50.27 0.0008585265    2.066    0.516
       102 -10.7453    167.8168     64.4276   8.7747414401e+00   3.4782225406e+01    0.3943742    0.3028824  40.88  0.001411489    1.566    0.361
       103 -12.2519    229.1322     64.0030   1.0197691509e+00   2.2377914357e+01    0.2484721    0.1772256 -83.38  0.001549691    1.640    0.390
       104 -11.0485    145.3894     59.4310   1.1232540415e+01   4.0768691036e+01    0.3153906    0.2859295 -40.50  0.001180161    1.119    0.106
       105 -10.0323     85.7132     64.4125   2.8612104364e+01   5.3688626760e+01    0.2219472    0.1768095 -89.01 0.0005969169    1.612    0.380
       106 -10.4209     51.3915     63.6738   4.2473182203e+01   6.0288460388e+01    0.2225588    0.1763031  74.23 0.0007468832    1.644    0.392
       107 -10.6227    247.4307    117.8049   1.0241839212e+01   1.1879409211e+01    0.1958508    0.1547813  86.82  0.001300834    1.989    0.497
       108 -11.4126     16.4275     62.9546   6.0670938253e+01   6.4618638903e+01    0.4285926    0.2759327  23.69  0.001737994    1.634    0.388
       109 -11.1539    199.2465     62.5668   3.9147156179e+00   2.8306952041e+01    0.3456223     0.187925 -76.42 0.0009879712    2.825    0.646
       110 -12.4066    209.6093     58.6449   1.7859585963e+00   2.6782013180e+01    0.3575144     0.282171 -66.64  0.000600495    1.219    0.180
       111  -9.8889    184.0015     61.4891   5.5943016643e+00   3.1664147515e+01    0.2188535    0.1647426 -61.25 0.0007896407    1.274    0.215
       112 -10.0998    180.1922     60.1189   5.7568289274e+00   3.2695566062e+01    0.3007094    0.1885726 -62.04 0.0008282064    1.703    0.413
       113 -13.6406     76.7940     58.6473   2.9751037768e+01   5.6729013394e+01    0.8490151    0.4038283  40.92  0.003299947    2.135    0.532
       114 -12.9468     79.7243     42.0509   2.1982631693e+01   5.9210951092e+01    0.8824899    0.4597822  50.14  0.003764707    1.849    0.459
       115 -10.9948     75.8626     51.8757   2.7472939420e+01   5.8260893802e+01     0.305282    0.2241693 -38.33  0.000366314    1.395    0.283
       116 -12.3445     79.7839     48.2704   2.4557186420e+01   5.8098247856e+01    0.9173849    0.3833401  51.65  0.003402934    2.434    0.589
       117 -10.5365    192.4894     60.5568   4.2449863693e+00   2.9995150330e+01    0.2683975    0.1178478 -34.56  0.001175248    2.044    0.511
       118 -11.2358    151.5511     59.5441   1.0126611723e+01   3.9298081671e+01    0.3147275    0.2555596   8.33 0.0004981801    1.673    0.402
       119 -11.2061      1.4891     60.0905   6.8709267519e+01   6.6236392425e+01    0.2634484    0.1202374 -73.86 0.0006335038    1.994    0.498
       120 -12.3063      6.1967     56.1096   6.5115456181e+01   6.7017983315e+01    0.6608418    0.4456474   0.46  0.003011267    1.595    0.373
       121 -10.3210    102.0354     60.0095   2.1765799998e+01   5.0931272246e+01    0.2236029    0.2135708 -75.91 0.0003424753    1.054    0.051
       122 -11.1405    162.1352     58.0719   7.8938420171e+00   3.7065955764e+01    0.2834196    0.2482768  -7.63  0.001597657    1.394    0.283
       123 -11.4105    173.7005     56.9998   5.8324422341e+00   3.4597510608e+01    0.2257569    0.1931048  75.18 0.0002152381    1.216    0.178
       124 -10.8984    215.9902     55.9261   4.8725282148e-01   2.5908995041e+01    0.1879225    0.1563651 -51.71 0.0003362214    1.029    0.028
       125 -12.1093    220.5447     54.6682   3.5975412860e+02   2.5207084584e+01     0.359788    0.2459264 -87.98  0.002165938    1.675    0.403
       126 -10.5150    221.0453     50.3141   3.5871537869e+02   2.5681883005e+01    0.2502777    0.1282342 -47.07  0.001233971    1.582    0.368
       127 -10.9074    196.8228     55.4820   2.4442787042e+00   2.9811662186e+01    0.2372826    0.1775677 -64.86 0.0004545579    1.280    0.219
       128 -10.2359     98.2648     54.4631   2.0869260177e+01   5.2817708509e+01    0.3332395    0.2512121 -18.09  0.001590339    1.633    0.387
       129  -9.8060    102.1731     53.5172   1.9368374343e+01   5.2077257845e+01    0.2952574    0.1671049  37.92 0.0004439863    2.094    0.523
       130  -9.8708    142.1487     55.2723   1.0561690525e+01   4.2207011283e+01    0.2432802    0.1545652  22.31 0.0009581493    2.821    0.646
       131 -10.0888    167.0521     52.6452   5.5859785390e+00   3.6748858565e+01    0.3493903    0.1746545 -35.76  0.001280326    1.865    0.464
       132 -10.0085    123.0962     53.7759   1.4070950308e+01   4.7039634184e+01    0.2188997    0.1889768 -81.80 0.0005922486    1.197    0.165
       133 -10.4973    146.1190     52.3922   8.9250104303e+00   4.1705671953e+01    0.2111299    0.1914348 -30.73 0.0003250315    1.188    0.158
       134 -10.6559    213.7334     49.7735   3.5927380511e+02   2.7163927758e+01    0.3427837    0.1393773 -31.25  0.001547904    2.269    0.559
       135 -10.5196    211.8189    112.0260   1.3718889013e+01   1.8315913015e+01     0.183662    0.1785227  24.31 0.0002786854    1.212    0.175
       136  -9.9434     24.9721    111.5037   6.5473917988e+01   5.0971382445e+01    0.2004743    0.1438329  20.80 0.0004126753    1.500    0.333
       137 -10.8746     11.3825     25.2732   5.1647350944e+01   7.3846069040e+01     0.454775    0.3799151 -15.22   0.00153826    1.084    0.077
       138 -12.0879      5.6122     34.7587   5.9820022881e+01   7.2193804599e+01    0.5043418    0.3376537  18.37  0.001106571    1.554    0.356
       139 -11.3854     11.8540     32.1343   5.4183580755e+01   7.2324962951e+01    0.4228572    0.2515386  11.08  0.001868245    1.746    0.427
       140 -12.6776      8.8029     42.9963   6.0100051054e+01   7.0065020556e+01    0.8221957    0.2592138 -49.43  0.003245235    2.548    0.608
       141 -11.2500      6.0603     39.5087   6.0980012354e+01   7.1063201842e+01     0.276569    0.2109909  18.15 0.0006353738    1.389    0.280
       142 -11.5967    171.9626     44.6275   2.6392986354e+00   3.6758133636e+01     0.470861    0.3209677  42.34  0.002292815    1.873    0.466
       143 -11.3989    133.5005     46.5652   9.4216536618e+00   4.5645896155e+01    0.2709615    0.2449647 -85.03 0.0006058872    1.060    0.056
       144 -11.7237    126.0679     44.9667   1.0387007667e+01   4.7707548452e+01    0.4405665    0.3088404  58.53  0.002191634    1.393    0.282
       145 -11.4241     25.5766     44.4967   4.9572915395e+01   6.8203832163e+01    0.4921237    0.4453201   7.15  0.002187009    1.105    0.095
       146 -11.0869     26.2146     36.5912   4.5972093159e+01   6.9864537185e+01    0.4036488    0.2371115 -44.36  0.001250223    1.601    0.376
       147  -9.3730    142.3081     46.3769   7.7113157883e+00   4.3528359123e+01     0.144255    0.1110177  21.85 0.0007028705    1.781    0.439
       148 -10.2302     41.6814     45.2602   4.0434501308e+01   6.5886527983e+01    0.2400288    0.2218769  85.15  0.001264227    1.316    0.240
       149 -10.9229    214.9024     44.3874   3.5790468523e+02   2.7629511850e+01    0.2857412    0.1444272 -39.40  0.000544748    1.590    0.371
       150 -11.8054    194.6573     43.3463   3.5962479197e+02   3.1909398111e+01    0.3661511    0.2064331 -26.25  0.001825937    1.904    0.475
       151 -10.0506     98.3350     43.7853   1.6757793502e+01   5.4629556703e+01    0.4071796    0.1968697 -55.34  0.001067355    2.945    0.660
       152 -10.1249    189.3904     43.3347   1.9064620209e-01   3.3043206160e+01    0.2498575    0.2018874  60.59  0.001515557    1.402    0.287
       153 -11.0730    182.2043     49.4301   2.6418237387e+00   3.3791905636e+01    0.1992849     0.194237 -32.47 0.0004248421    1.205    0.170
       154 -10.8481    147.9313     40.6785   4.9489851657e+00   4.2976646989e+01    0.5026197    0.2503115 -55.89  0.002079616    2.257    0.557
       155 -10.9574    133.0710     40.6930   7.5315468376e+00   4.6610464213e+01     0.321509    0.2646397 -81.03  0.001044692    1.221    0.181
       156 -10.1898    159.9343     40.9593   3.2230552227e+00   4.0060623967e+01    0.2016596    0.1787755 -76.47   0.00046216    1.041    0.039
       157  -9.8264    121.2564     41.3542   1.0138363270e+01   4.9429853352e+01    0.1401485    0.1124643  17.65 0.0006965158    1.609    0.378
       158 -10.4216     35.6242     41.1683   4.2127243037e+01   6.7646318785e+01    0.2645688    0.1777559   5.98 0.0007040157    1.796    0.443
       159 -10.6023     40.9798     39.4212   3.8287255097e+01   6.7203199222e+01    0.2878947    0.2195004  12.94   0.00096327    1.395    0.283
       160 -11.5771    200.6526     37.9535   3.5767169542e+02   3.1333081445e+01    0.2765781    0.2064893 -16.82  0.001621905    1.650    0.394
       161  -9.7017    110.8895     39.3483   1.1752345184e+01   5.2278577409e+01    0.2195229    0.1196341  50.08 0.0009431216    1.809    0.447
       162 -10.4660    185.9563     38.0023   3.5916774461e+02   3.4486358861e+01     0.215251    0.2046216 -66.89 0.0007563171    1.159    0.137
       163 -11.1327    189.3909     34.3307   3.5784719011e+02   3.4193638230e+01    0.2466716    0.2274113   5.84 0.0009518749    1.418    0.295
       164 -10.7448    180.2682     37.4403   3.5964424470e+02   3.5824836329e+01    0.3122378    0.1797306 -81.01  0.001138241    2.018    0.504
       165 -10.2765    173.9349     36.3279   6.9378345133e-02   3.7405234423e+01    0.2668906    0.1849632 -65.63  0.001178644    1.387    0.279
       166  -9.5632    168.9987     37.0000   8.5932216566e-01   3.8458160004e+01    0.2138764    0.1079438  85.93 0.0005455081    2.441    0.590
       167 -10.3140    165.9662     33.4244   2.0557875412e-01   3.9623315153e+01    0.3946237   0.09752908 -43.79  0.001333009    3.419    0.708
       168 -10.5118    161.1199     35.6572   1.4836309856e+00   4.0482033049e+01    0.2381879    0.1910626 -22.97 0.0003166251    1.413    0.292
       169 -11.3648    131.6743     33.7647   5.4176746441e+00   4.7907555353e+01    0.2752073     0.206229 -57.50 0.0003070088    1.334    0.250
       170 -11.3887     91.7334     33.6534   1.4515268276e+01   5.7767623475e+01    0.4431892    0.3201616  12.18  0.002111493    1.894    0.472
       171 -10.3784     87.5022     34.5066   1.6150445420e+01   5.8643306960e+01    0.2706334    0.2424245 -57.54 0.0008853322    1.192    0.161
       172 -10.6031     72.3098     33.3586   2.0819491479e+01   6.2285505818e+01    0.3683203     0.247608  83.68  0.001582653    2.444    0.591
       173  -9.9384    111.1626     32.6355   9.1208165024e+00   5.3165648380e+01    0.2228109    0.1717211  87.56 0.0007360242    1.382    0.276
       174  -9.9179    205.5956     31.7912   3.5571843650e+02   3.1059750518e+01    0.1773971   0.09128989 -43.75 0.0003677431    1.569    0.363
       175  -9.5340     80.2693     30.3939   1.6635510243e+01   6.0941947026e+01     0.173258    0.1315874  66.33 0.0002517743    1.374    0.272
       176 -10.2597     38.5549     29.7106   3.5005308306e+01   6.9471577216e+01    0.3084174    0.2297395 -31.10   0.00125131    1.341    0.254
       177 -10.3973     41.0685     26.0571   3.1629292407e+01   6.9705580645e+01     0.278596    0.2179665  59.54   0.00128213    1.632    0.387
       178 -10.7235     37.0834     23.6597   3.2646404357e+01   7.0799351445e+01    0.2865855    0.2398432  51.03  0.001077286    1.391    0.281
       179 -10.7375    197.9920    107.9970   1.4913118326e+01   2.1413607917e+01    0.3104896    0.2624198  19.68  0.001862717    1.401    0.286
       180 -10.1460     85.9342    107.1696   4.1474895497e+01   4.3806380639e+01    0.2319651    0.2064459  69.35 0.0004634566    1.199    0.166
       181 -10.8101     15.3819    106.7310   6.8747045874e+01   5.3033663200e+01     0.246859     0.215765 -56.77 0.0003297489    1.115    0.103
       182 -10.1609     85.3418     29.4647   1.4595267773e+01   5.9890696399e+01    0.3453991     0.117724  52.30  0.001076378    2.634    0.620
       183  -9.7735     90.2432     27.5905   1.2316976965e+01   5.8981072169e+01    0.2035341    0.1213258  49.59 0.0009418605    1.587    0.370
       184 -12.2445     68.9289     26.5566   1.8832745132e+01   6.4071795493e+01    0.5561219    0.4945718  70.16  0.001999153    1.217    0.179
       185 -11.0237     73.8301     24.0284   1.5804032939e+01   6.3328643520e+01    0.2828828    0.2302094  30.58 0.0007312106    1.261    0.207
       186 -10.3885     75.8620     20.6136   1.3436651649e+01   6.3314323232e+01    0.2527468    0.1819936  78.89  0.001275601    1.655    0.396
       187 -12.6968     81.6602     21.6271   1.2101571271e+01   6.1819950845e+01    0.4164393     0.270685  59.63  0.002081461    1.444    0.307
       188 -12.1480    159.0305     26.4549   3.5899414175e+02   4.2121564721e+01    0.2317815    0.2210566 -71.99  0.001471056    1.127    0.113
       189 -10.0447    198.2024     26.1334   3.5494565110e+02   3.3273883757e+01    0.1745352    0.1596709 -53.61 0.0005657326    1.170    0.145
       190 -10.1418    176.3215     25.1797   3.5670498333e+02   3.8218860579e+01     0.296923    0.2178607 -77.58  0.001730796    1.277    0.217
       191 -10.0419    148.4750     25.5970   8.3059802957e-02   4.4779220306e+01    0.3031586    0.1468968 -56.79  0.001287269    2.238    0.553
       192  -9.7566    189.9966     24.0027   3.5510425429e+02   3.5290450551e+01    0.1513242    0.1258259 -65.28 0.0003515447    1.028    0.027
       193 -10.4355    209.0985    105.0230   1.2571245252e+01   1.9906759407e+01    0.3634007    0.1912508 -60.94  0.001487555    3.127    0.680
       194  -9.6570    160.7000    104.3730   2.0718232859e+01   2.9315765792e+01    0.1513813    0.1104568 -69.98 0.0007029334    1.749    0.428
       195 -10.9607    211.8662     21.0353   3.5266879382e+02   3.1016630426e+01    0.4483256    0.2381225  61.48  0.002477951    2.163    0.538
       196  -9.7907    102.0129     22.6766   7.2007656779e+00   5.6724892661e+01    0.1966045    0.1774667  73.26   0.00114167    1.035    0.034
       197 -10.2840    151.5948     22.1006   3.5857119440e+02   4.4423552012e+01    0.2169932    0.1671923 -79.90 0.0005999204    1.217    0.179
       198 -10.6704    113.6069     21.9842   4.4672630354e+00   5.3905066762e+01    0.2859849    0.2009827  68.70 0.0006839415    1.327    0.247
       199 -10.3118     97.5848     22.0791   7.9907615670e+00   5.7895746831e+01    0.1939753    0.1733703 -32.50  0.001027466    1.200    0.167
       200 -10.1923     77.5428     16.9872   1.1105084058e+01   6.3370153944e+01     0.211615    0.1795883 -81.85 0.0005206861    1.347    0.258
       201 -10.6022    162.1066     20.2737   3.5678775471e+02   4.2097511334e+01    0.3937208    0.2325778  89.93  0.001457203    1.719    0.418
       202 -10.0416    102.8901     28.9547   9.5889062783e+00   5.5709675735e+01    0.3518615    0.1834823 -50.20  0.001037399    2.202    0.546
       203 -10.4538    169.7290     98.0290   1.7360055816e+01   2.8639390684e+01    0.3018256    0.2232022 -24.99 0.0009274636    1.463    0.316
       204 -12.0467     58.1571     60.9887   3.8387934067e+01   5.9777303347e+01     1.077425    0.6261195 -76.97  0.003601723    3.806    0.737
       205 -11.1537    249.4681     97.3677   5.9615694941e+00   1.4441447602e+01    0.2064751    0.1531738 -37.62 0.0001682551    1.026    0.025
       206 -11.4162    249.9573     92.1411   4.8624277565e+00   1.5085267132e+01    0.3800846    0.1331597 -35.97  0.001807992    2.151    0.535
       207 -10.3288    102.0903     15.6693   4.2319051101e+00   5.7509924539e+01     0.234369    0.1904711  -8.72 0.0008411208    1.444    0.307
       208  -9.9114    154.5185     15.5222   3.5617758794e+02   4.4434351688e+01    0.1314472    0.1171646 -78.81 0.0001160497    1.041    0.040
       209 -10.5620    160.0073     14.0323   3.5514438566e+02   4.3269750933e+01     0.191183    0.1630729 -73.91  0.001187788    1.014    0.014
       210 -10.3422    150.2178     13.1681   3.5591654539e+02   4.5724255736e+01    0.1806859    0.1704123 -71.11 0.0005525669    1.119    0.106
       211 -11.6331    199.5916     96.2957   1.1971732730e+01   2.3045215420e+01    0.2538892    0.2049958 -49.72 0.0003049014    1.146    0.127
       212 -10.2513     11.6076     98.1472   6.9273186160e+01   5.5629001490e+01    0.2123334    0.1089192 -61.97 0.0009425214    1.700    0.412
       213 -10.7707    102.1239     96.5316   3.3380098549e+01   4.3236446410e+01    0.2837371    0.2198396 -40.89 0.0005474634    1.310    0.237
       214 -11.0012    160.2074     96.0173   1.8677196192e+01   3.0991704446e+01    0.2496811    0.2071877  72.12 0.0005790123    1.366    0.268
       215  -9.9819    140.4478     96.2218   2.2978670701e+01   3.5176012218e+01    0.2121383    0.1371809 -53.12 0.0009381505    1.593    0.372
       216 -10.1244    200.6173     15.9083   3.5222214076e+02   3.3899648649e+01    0.1702492    0.1242348 -49.16 0.0004013364    1.134    0.118
       217 -10.2587    182.9331     94.8064   1.4231179958e+01   2.6527932497e+01    0.1983185    0.1798732 -12.86 0.0003779795    1.205    0.170
       218 -10.7374    129.0096     94.9543   2.5398452533e+01   3.7905877556e+01    0.2349277    0.1833016 -79.19 0.0004908891    1.590    0.371
       219 -10.2494     95.0576     89.9431   3.3729781951e+01   4.6179796589e+01    0.3297989    0.2673209  62.12  0.001596185    1.350    0.259
       220 -10.5099    127.7102     89.8785   2.4291622511e+01   3.9234773905e+01    0.2551929    0.2048717  37.95 0.0005378168    1.342    0.255
       221 -12.7143    235.9028     86.4178   5.1591194228e+00   1.8111449832e+01    0.5180712    0.3263444  78.45  0.002644527    2.316    0.568
       222 -10.5431    114.6114     86.7280   2.6854321243e+01   4.2760972974e+01    0.2739879    0.2081358  46.89 0.0006821891    1.338    0.252
       223 -11.6872     66.1967     82.3309   4.1967685826e+01   5.3413720523e+01    0.4939796    0.3920512  73.09  0.001459714    1.542    0.352
       224 -12.9778    248.8248     83.1709   3.1622188206e+00   1.6478427305e+01     0.309824    0.2504013 -34.53 0.0005456332    1.112    0.101
       225 -12.7093    238.3862     80.7812   3.7085413337e+00   1.8487458880e+01    0.5332208    0.2713889  70.60  0.001006595    2.827    0.646
       226 -10.3535     48.0767     85.7608   5.0597978173e+01   5.5345238108e+01    0.2177914    0.1966448  62.80 0.0004655013    1.187    0.157
       227 -10.4369    178.8261     83.4805   1.2069124708e+01   2.9286385692e+01    0.2655005    0.1852539   2.65  0.001203123    2.378    0.580
       228 -10.9839    162.0001     83.7800   1.5087815694e+01   3.2830808547e+01    0.3492732    0.2605368  61.50   0.00149592    1.448    0.309
       229 -10.3737    147.4465     84.0216   1.8049884246e+01   3.5997384901e+01    0.2945581    0.2498014 -89.84  0.001547046    1.306    0.235
       230 -11.2793    147.2135     78.9293   1.6653423194e+01   3.6985957545e+01    0.3239633    0.2167308 -36.08  0.000620778    1.482    0.325
       231 -11.1719     35.8891     82.6134   5.5363571238e+01   5.7686472155e+01    0.4537387      0.30339 -30.10  0.002115996    1.691    0.408
       232 -12.1156     39.4333     77.1867   5.2317771507e+01   5.8668278337e+01     0.329381    0.2924211  83.45 0.0003500713    1.240    0.194
       233 -10.4925     18.7419     82.4958   6.3566495937e+01   5.9354423018e+01    0.3995926    0.1921585 -28.61  0.001557942    2.647    0.622
       234 -11.7882    169.1496     80.6913   1.2970761093e+01   3.1815183158e+01    0.3545496    0.3189304  62.42  0.001244884    1.197    0.165
       235 -11.8722    197.1465     80.5087   8.5713644410e+00   2.6034168409e+01    0.2463421    0.1912119 -45.71 0.0002563999    1.112    0.101
       236 -10.2225    138.6680     81.5008   1.9246030888e+01   3.8440323570e+01     0.321258    0.1499187  58.84  0.001193529    2.464    0.594
       237 -10.5254    114.4996     80.5715   2.5018856060e+01   4.4066622470e+01    0.3901731    0.2495822  48.21  0.001221671    1.581    0.368
       238 -10.0942      1.3126     83.8290   7.2220407331e+01   6.0035418802e+01    0.2018975    0.1020448 -66.36 0.0003215576    1.675    0.403
       239 -10.9884     98.5599     77.6354   2.8815181898e+01   4.8173701105e+01    0.6334357    0.3569044 -59.80  0.002255776    2.238    0.553
       240  -9.3175    102.6050     10.7242   2.0251555866e+00   5.7892849508e+01     0.146957   0.08981396  43.11 0.0004204982    1.743    0.426
       241 -11.9810    101.4403     68.1484   2.4781302202e+01   4.9497426393e+01     1.537567     0.631028  33.23  0.003992632    5.214    0.808
