#   1 NUMBER                 Running object number                                     
#   2 MAG_AUTO               Kron-like elliptical aperture magnitude                    [mag]
#   3 X_IMAGE                Object position along x                                    [pixel]
#   4 Y_IMAGE                Object position along y                                    [pixel]
#   5 X_WORLD                Barycenter position along world x axis                     [deg]
#   6 Y_WORLD                Barycenter position along world y axis                     [deg]
#   7 A_WORLD                Profile RMS along major axis (world units)                 [deg]
#   8 B_WORLD                Profile RMS along minor axis (world units)                 [deg]
#   9 THETA_WORLD            Position angle (CCW/world-x)                               [deg]
#  10 FWHM_WORLD             FWHM assuming a gaussian core                              [deg]
#  11 ELONGATION             A_IMAGE/B_IMAGE                                           
#  12 ELLIPTICITY            1 - B_IMAGE/A_IMAGE                                       
         1 -13.1164    247.0188     73.7893   6.9918339317e+01   1.4651529502e+01     2.348886    0.9057501 -32.96  0.008847071    3.034    0.670
         2 -12.9317    245.5343     38.7176   6.2654542824e+01   2.0197110795e+01     1.577627     0.565796 -42.36   0.00691783    2.410    0.585
         3 -12.2648    245.2127     24.0273   5.9687586485e+01   2.2197522634e+01    0.8205274     0.497934 -80.74  0.004637164    1.532    0.347
         4 -11.3666    248.5869      5.5644   5.5798423297e+01   2.3679980717e+01    0.6913133    0.3848844 -42.91  0.004097091    1.707    0.414
         5  -9.5816      1.4106     17.3261   1.1666934665e+02   7.0276582935e+01    0.2714933    0.1089019 -44.12 0.0009389638    1.984    0.496
         6 -10.2049      6.4636     17.4351   1.1432972090e+02   6.9907734646e+01    0.4601183    0.2153057 -18.52   0.00237043    2.219    0.549
         7 -11.3937     40.0020      3.2613   9.3434405054e+01   6.8143230504e+01    0.7710367     0.431459  -0.31   0.00422561    1.860    0.462
         8 -11.6107      9.2372      3.3965   1.0709190554e+02   7.1560345911e+01    0.7765098    0.2456852  28.74  0.004119101    3.144    0.682
         9 -11.7463     25.6786      5.5417   1.0045631951e+02   6.9667039499e+01    0.7202564    0.5911601  43.96  0.004402544    2.056    0.514
        10 -10.6372     16.8544     10.0296   1.0643072955e+02   7.0038496084e+01    0.2786039    0.1886927  -2.06 0.0003644624    1.199    0.166
        11 -10.2904     10.6157     10.0780   1.0936715686e+02   7.0593316363e+01    0.2817445    0.2081349  -8.40 0.0006556896    1.074    0.069
        12 -11.0143     26.6032     15.3608   1.0435341003e+02   6.8374497440e+01    0.5268935     0.414708 -36.33  0.003265069    1.574    0.365
        13 -11.3854     20.0238     14.9606   1.0709144039e+02   6.9095608926e+01    0.7421739     0.358734 -20.86  0.004256794    2.045    0.511
        14 -12.2381     68.7954     11.7695   8.6846741464e+01   6.2905063615e+01    0.3400663     0.224687  34.17 0.0002531426    1.291    0.225
        15  -8.8720     48.9661     10.0183   9.2981495021e+01   6.6195802946e+01    0.1768076    0.1322864   7.82 0.0004497905    1.068    0.064
        16 -10.7592     80.8557      6.4759   8.1097930497e+01   6.1253786350e+01    0.3800668    0.2804301  52.01 0.0009789108    1.363    0.267
        17  -8.6287    144.5852      4.4552   6.6850967462e+01   4.7810609145e+01    0.2945578    0.1473122  36.51  0.001378088    2.369    0.578
        18  -9.3906    158.2595      1.4227   6.3981681014e+01   4.4855319258e+01    0.3645242    0.1064276  68.42  0.001070689    2.899    0.655
        19  -8.4354     55.8288      1.6164   8.6859999788e+01   6.5983247606e+01     0.147301   0.09844213  49.80  0.000733049    1.707    0.414
        20 -10.8980    234.0216    243.5605   1.0694905907e+02  -1.1413258134e+01    0.2588451    0.2143098  -1.97 0.0003645634    1.102    0.092
        21  -9.0433    249.9974    250.4326   1.0526366729e+02  -1.4586925683e+01    0.1610441     0.114373  22.76 0.0003899851    1.191    0.161
        22  -8.5898    231.9865    250.7309   1.0851600333e+02  -1.2065362336e+01    0.2531278   0.08982299  37.93  0.001034016    2.478    0.596
        23  -9.2385    202.5211    250.0513   1.1385363755e+02  -7.4263712273e+00    0.3221965    0.2954516 -19.73  0.001944711    1.253    0.202
        24  -8.9606    197.9982    250.6104   1.1479630664e+02  -6.7768193439e+00    0.1823627    0.1028572  38.77 0.0003305388    1.507    0.337
        25  -8.4067    190.0245    249.9099   1.1620415905e+02  -5.3678311969e+00    0.2795317    0.1473297  20.09  0.001215869    2.761    0.638
        26  -8.4138    183.2082    250.6930   1.1762831204e+02  -4.3558149667e+00    0.1680836   0.09780322  34.51 0.0002992821    1.496    0.332
        27  -8.5823    166.5096    250.2412   1.2078053226e+02  -1.4751741442e+00    0.1886363    0.1494641  57.29  0.001158889    1.310    0.237
        28  -9.9388    157.0001    246.1593   1.2204657700e+02   8.2079202999e-01     0.353351    0.2513177  10.85 0.0005074751    1.997    0.499
        29  -9.4556    151.8544    244.4644   1.2281644777e+02   1.9955917859e+00      0.23388    0.2124802  78.11 0.0004751791    1.212    0.175
        30  -7.9369    150.0147    249.9552   1.2394030598e+02   1.3772886878e+00    0.1467683    0.1305926  49.73 0.0004178862    1.070    0.065
        31  -8.5301    136.0014    250.4480   1.2672259096e+02   3.6675714852e+00    0.1962851    0.1063675  43.48 0.0004420422    1.537    0.349
        32 -10.1721    124.9371    248.6577   1.2863580510e+02   5.8381294371e+00    0.2599101    0.2174393 -79.83 0.0004506128    1.322    0.244
        33  -7.7880     91.2847    250.2804   1.3521895455e+02   1.0948149021e+01    0.1026658   0.09654212  24.26 0.0001962418    1.516    0.341
        34  -9.7463     71.8510    250.1298   1.3877218374e+02   1.3864210569e+01    0.2853714    0.1690545  60.85 0.0004565743    1.400    0.286
        35 -10.3789     61.8620    248.9529   1.4046220714e+02   1.5493316945e+01     0.227463    0.2113666  69.38 0.0004365499    1.406    0.289
        36 -10.5844     47.4812    250.2910   1.4309265264e+02   1.7157845925e+01    0.3691634    0.1373211  40.58  0.001767869    2.493    0.599
        37 -10.0958     16.5212    249.1271   1.4817874039e+02   2.1088027364e+01     0.211338    0.1996659  63.61 0.0005299883    1.651    0.394
        38  -9.9593      8.9701    248.5755   1.4935218758e+02   2.2008188286e+01     0.201864       0.1657  81.43  0.000589066    1.321    0.243
        39  -8.4219    236.4628    239.4841   1.0581077505e+02  -1.1223251701e+01    0.2117952    0.1119608 -31.27 0.0006923171    1.940    0.485
        40  -9.0549    163.4680    244.6069   1.2055260771e+02  -3.3013159863e-02    0.2150953    0.1852494  40.15 0.0004681424    1.016    0.016
        41  -8.7394    133.6810    245.0572   1.2647211737e+02   5.0095360479e+00    0.1659576    0.1538417  77.56 0.0003680031    1.152    0.132
        42  -9.6117    113.8033    244.2166   1.3025136705e+02   8.4946952211e+00    0.2034455    0.1871829  64.89 0.0002684858    1.161    0.139
        43  -9.9124     81.1637    244.5092   1.3652194460e+02   1.3577072866e+01    0.2172709    0.1897739  63.99  0.000404273    1.197    0.165
        44  -9.8474     41.1224    244.4943   1.4375555592e+02   1.9082920709e+01    0.2132144    0.1775215  61.55 0.0006200949    1.292    0.226
        45  -8.6413    219.6201    244.0015   1.0966694513e+02  -9.2766472189e+00    0.2337915    0.1528133  47.25  0.001282663    1.713    0.416
        46  -8.3640     47.8262    244.1696   1.4255775315e+02   1.8293423034e+01    0.1483197    0.1266965 -81.55  0.001074659    1.365    0.267
        47  -8.6329     19.7024    244.0543   1.4735470658e+02   2.1703151290e+01    0.1524017    0.1106302  80.32 0.0005355206    1.070    0.065
        48  -8.4409    210.3935    241.8455   1.1103769886e+02  -7.5013265384e+00    0.1621231    0.1521407 -36.29 0.0003960003    1.336    0.251
        49  -7.6226    142.2665    242.6776   1.2445958537e+02   3.9626622540e+00    0.1268547   0.09274343  70.89 0.0002281422    1.562    0.360
        50 -10.3347    104.1981    241.0053   1.3173940910e+02   1.0668400560e+01    0.2996496    0.2489334 -81.80 0.0006896309    1.250    0.200
        51 -10.1611    202.3026    239.9122   1.1225787390e+02  -5.8892765578e+00    0.2218313    0.1942442  19.24 0.0003461488    1.041    0.040
        52  -9.3248    199.4002    235.5898   1.1209977768e+02  -4.7369452078e+00     0.612324    0.2010783 -40.74  0.002410409    3.407    0.706
        53 -11.3528    207.7003    232.4565   1.0996873133e+02  -5.6429932292e+00    0.8371341    0.4677041  21.85  0.003987636    2.106    0.525
        54 -10.0493    222.0306    225.6400   1.0604840233e+02  -6.9632543809e+00    0.6913501    0.3523104  17.20  0.002792153    3.120    0.679
        55 -10.4644    239.0902    217.6453   1.0143669780e+02  -8.4904527417e+00     0.371718    0.2289522  32.02 0.0006111055    1.543    0.352
        56 -10.1871    233.2383    203.0330   9.9752773759e+01  -5.2540938419e+00    0.5605201    0.3772111  22.02  0.003013277    1.543    0.352
        57 -11.2696    227.2393    215.7675   1.0327505439e+02  -6.2887277343e+00    0.7689407    0.5955366   7.38  0.003812116    1.252    0.201
        58 -10.4089    233.7092    210.6008   1.0110759478e+02  -6.5420756967e+00    0.4216432    0.3032322 -15.81  0.001101014    1.393    0.282
        59  -9.7415    170.4644    239.9859   1.1847932412e+02  -4.7329505985e-01    0.2726285    0.2104675  58.29  0.001594879    1.395    0.283
        60  -8.0482    155.3550    240.8437   1.2160349035e+02   2.0136321107e+00    0.1525292    0.1236451 -37.26  0.000250721    1.485    0.327
        61  -9.7030    126.5378    240.5611   1.2729089429e+02   7.0426554015e+00    0.2358966    0.2060404  60.25 0.0001638058    1.047    0.045
        62  -9.9084     69.1990    240.1741   1.3833328439e+02   1.6171796905e+01    0.2192829    0.1791375  62.31 0.0003337359    1.141    0.123
        63 -10.3000     25.2878    239.5208   1.4612506286e+02   2.1953769748e+01    0.2173126    0.1784619 -80.52   0.00062917    1.384    0.278
        64  -9.5989    214.9327    239.0369   1.0971179452e+02  -7.8202991806e+00    0.2020231    0.1733157 -24.57 0.0004122315    1.262    0.208
        65  -9.4288    135.6523    239.3338   1.2531417939e+02   5.7067439444e+00    0.3833519    0.2173479  58.72  0.001866222    1.881    0.468
        66  -9.2882    118.3446    239.2559   1.2874620146e+02   8.6707670990e+00    0.2154234    0.1740016  52.87  0.000390953    1.061    0.058
        67  -9.4340     61.9430    239.7496   1.3963819223e+02   1.7275070498e+01    0.1954588    0.1630386  86.01 0.0003872227    1.175    0.149
        68  -9.2607     35.4753    240.0323   1.4440675407e+02   2.0652511773e+01    0.1942616    0.1535994  67.69 0.0004417653    1.167    0.143
        69  -8.0303     29.3524    235.2741   1.4512948428e+02   2.2325258762e+01     0.122811   0.08605652  74.65  0.000343604    1.064    0.060
        70  -8.9130     32.1741    237.4404   1.4479311241e+02   2.1561602087e+01    0.1618853    0.1234641  68.28 0.0004666031    1.121    0.108
        71 -10.6537     35.5962    232.0445   1.4378434145e+02   2.2235113052e+01    0.4099401    0.1848527 -70.42  0.001285409    2.013    0.503
        72 -10.3501     10.6018    239.0521   1.4855193215e+02   2.3658232213e+01    0.2274811    0.1715078  74.53 0.0004461072    1.129    0.114
        73  -9.1961    245.1690    229.7608   1.0254101657e+02  -1.1174833120e+01    0.2441754     0.157986 -21.59  0.001164207    1.498    0.333
        74 -10.2527    247.7093    238.6163   1.0364887260e+02  -1.2750190274e+01    0.2628396    0.1762589  25.34 0.0005996171    1.317    0.241
        75  -9.6602    243.3874    234.5390   1.0370490604e+02  -1.1572771734e+01    0.3370858    0.2640961 -68.94  0.000779009    2.640    0.621
        76  -9.5092    149.3766    238.2955   1.2242478244e+02   3.5060797574e+00    0.2258743    0.2136899  42.26 0.0004146106    1.117    0.104
        77  -8.1650    148.6674    233.1450   1.2181222159e+02   4.5603140949e+00    0.3083972    0.2003108 -68.01  0.001568003    2.013    0.503
        78  -9.6942     41.7709    236.9674   1.4306345201e+02   2.0486160219e+01    0.2812008    0.1730814 -84.57  0.001396639    1.419    0.295
        79  -9.4331    220.5203    238.0232   1.0849206441e+02  -8.5640376298e+00    0.2214692    0.1581842  31.78 0.0004398008    1.236    0.191
        80  -9.1284    112.3307    237.4845   1.2971565432e+02   1.0012210740e+01    0.2852473    0.1619609 -55.30  0.000936969    1.992    0.498
        81  -8.4976     98.0000    237.9651   1.3259607289e+02   1.2251160713e+01    0.1916399   0.07061097 -61.69 0.0008026046    2.944    0.660
        82  -8.0452     48.4527    238.5427   1.4199188986e+02   1.9321321391e+01    0.1190642   0.09148904  74.84 8.589968e-05    1.032    0.031
        83  -8.1232    183.6953    237.0838   1.1541205155e+02  -2.2897982821e+00    0.1678808    0.1558311  15.83  0.000399564    1.097    0.088
        84 -10.1181     91.4599    236.3652   1.3369147445e+02   1.3597654999e+01    0.2338646     0.211295 -88.44 0.0003908889    1.219    0.180
        85 -11.1414     93.1965    228.3993   1.3242970287e+02   1.4926074026e+01    0.4163862    0.3786914  81.22  0.001481724    1.165    0.141
        86  -9.7543     78.7368    236.2111   1.3613641925e+02   1.5569423736e+01    0.2587738    0.1838484  57.29 0.0003577129    1.177    0.150
        87  -8.1888    225.3079    236.2285   1.0729341350e+02  -9.0594767473e+00    0.1583544    0.1095943 -41.51 0.0005081714    1.679    0.405
        88  -8.7288    129.9733    235.4467   1.2592110845e+02   7.4090538641e+00    0.1806943    0.1647355  70.73 0.0001659302    1.097    0.089
        89  -9.6654      3.5193    235.6291   1.4951558958e+02   2.5051675719e+01     0.195677    0.1499316  80.99 0.0005938921    1.167    0.143
        90  -8.3894    238.8507    234.6962   1.0454773734e+02  -1.0920298194e+01    0.1977776    0.1639887 -64.44  0.001208126    2.078    0.519
        91 -10.0737    171.8046    233.5871   1.1721350640e+02   3.7594517973e-01    0.3067721    0.2419439  52.99 0.0009963799    1.267    0.211
        92  -9.4850    140.3597    234.9839   1.2376139992e+02   5.6872204488e+00     0.231126    0.1722461  40.62 0.0004180676    1.213    0.176
        93 -10.2037    192.1934    233.3368   1.1312879066e+02  -3.1483285945e+00    0.2462105    0.2169732  22.96 0.0003996668    1.027    0.026
        94  -8.9711    108.4311    233.2946   1.2997031126e+02   1.1473678299e+01    0.2104151    0.1738287  53.51  0.000412854    1.095    0.087
        95  -8.5302     64.8670    234.1866   1.3857533797e+02   1.7982703067e+01    0.1799318    0.1327028  71.42 0.0003315859    1.095    0.087
        96  -8.9859    231.0175    233.0044   1.0567865470e+02  -9.4864714535e+00     0.186388    0.1594541  16.15 0.0005204495    1.084    0.077
        97  -8.6292    176.8196    232.9321   1.1610601608e+02  -3.9779730720e-01    0.1895735    0.1636928  13.60 0.0003632159    1.199    0.166
        98  -8.0655    166.2226    232.7930   1.1820891253e+02   1.5031371902e+00    0.1734593     0.142072  21.11 0.0002895677    1.285    0.222
        99  -8.9912    153.1564    233.1039   1.2089637723e+02   3.7711854468e+00    0.1967896     0.170577  50.21 0.0004895547    1.040    0.038
       100 -10.1595     10.3789    231.7432   1.4815143967e+02   2.5118384179e+01    0.2272909    0.1831557  88.79 0.0006760819    1.259    0.206
       101 -10.3565      7.9381    216.1133   1.4757987679e+02   2.8537224698e+01    0.2968307    0.1992952 -50.47 0.0005989747    2.161    0.537
       102 -10.3453      7.4674    226.3852   1.4831641987e+02   2.6487231179e+01    0.3624479    0.2579935 -68.70  0.001697377    1.542    0.351
       103 -10.2747      1.9870    225.7004   1.4920417067e+02   2.7165469819e+01    0.6264822    0.1060141 -72.27  0.002480227    4.203    0.762
       104 -10.1564    250.3161    231.5936   1.0195497353e+02  -1.2180465356e+01     0.208032    0.1523128 -28.26 0.0007872233    1.352    0.260
       105  -9.4549    123.5257    231.1399   1.2663940538e+02   9.3448972615e+00    0.2373637    0.1942907  51.23 0.0003665925    1.073    0.068
       106  -9.8869    100.5227    231.3443   1.3131426946e+02   1.3156069442e+01    0.2286631    0.2036094  65.28 0.0002963683    1.117    0.105
       107  -9.2512     85.0548    231.5098   1.3440473004e+02   1.5562176505e+01    0.2167423    0.1709612 -75.30 0.0004455421    1.290    0.225
       108  -9.3599     55.3571    231.2697   1.4009323423e+02   1.9880343703e+01     0.196952    0.1783111 -61.16 0.0005184026    1.523    0.343
       109  -8.4537    226.2407    230.2335   1.0607507645e+02  -8.3325407023e+00    0.1566198    0.1376261  39.47 0.0004283751    1.318    0.241
       110  -9.0891    158.8887    229.5211   1.1918181046e+02   3.3958801040e+00    0.2175265    0.1910044 -33.69 0.0002713827    1.320    0.243
       111  -9.6805    113.9937    229.0037   1.2829492473e+02   1.1392139509e+01    0.3223529    0.2303613  57.98 0.0009931892    1.245    0.196
       112  -9.9796     45.1770    229.2865   1.4181531322e+02   2.1613998963e+01    0.2654209    0.2134935  31.04 0.0005390166    1.738    0.425
       113  -8.7496    144.8443    229.1748   1.2200001301e+02   5.9754503235e+00    0.2369294    0.1836963  33.63  0.001190917    1.285    0.222
       114  -9.1627     79.0704    228.9233   1.3529818220e+02   1.6997260923e+01    0.1859527    0.1579957  71.68 0.0004129306    1.084    0.078
       115  -9.2534     29.8277    228.6080   1.4455664742e+02   2.3616264113e+01    0.2670975    0.1587278 -59.26 0.0005658838    1.969    0.492
       116 -10.4624    236.3629    226.5739   1.0355906287e+02  -9.3854025150e+00     0.272685    0.2375176  16.84   0.00113087    1.129    0.114
       117  -8.6726    153.0107    228.0517   1.2015478544e+02   4.7211666553e+00    0.1977644    0.1805619  38.96 0.0003721498    1.073    0.068
       118  -8.3773    107.3249    228.5289   1.2959083219e+02   1.2605010575e+01    0.1630462    0.1195122  38.12 0.0009105215    1.412    0.292
       119 -10.1544     19.4920    226.9660   1.4627240093e+02   2.5112145825e+01    0.2286271    0.1934365  81.84 0.0005992333    1.266    0.210
       120  -8.6259    175.6715    227.1186   1.1538746701e+02   8.0849681975e-01    0.1712012    0.1619304   3.68 0.0003495787    1.121    0.108
       121  -8.0566    138.8345    227.4242   1.2297503253e+02   7.3786500040e+00    0.1745161     0.119905  33.46 0.0002724624    1.493    0.330
       122  -9.3059    133.4017    230.2509   1.2450061040e+02   7.7981368274e+00    0.2530375    0.2250059  74.31 0.0008754646    1.117    0.104
       123  -9.6473    229.3761    225.7706   1.0469943056e+02  -8.1687691611e+00    0.2168959    0.1784187  -0.11 0.0004042769    1.096    0.088
       124  -9.4923    200.0842    225.2515   1.1020192875e+02  -3.1961048055e+00     0.204831    0.1865906 -25.61 0.0003508744    1.190    0.160
       125  -8.2922    185.0710    226.3222   1.1336318619e+02  -7.3363349185e-01    0.1837023    0.1531466  37.72 0.0004040172    1.082    0.076
       126  -9.9250    160.4244    218.5411   1.1709787665e+02   5.1491041886e+00    0.4354092    0.3092804  89.28 0.0009172721    2.149    0.535
       127  -9.2301    163.2410    225.2045   1.1760588984e+02   3.3952550291e+00    0.2649311    0.2553839 -57.33 0.0009051414    1.168    0.144
       128  -9.5069    160.3100    222.6637   1.1779783000e+02   4.3970414049e+00     0.259288    0.2198104  63.90  0.000817281    1.240    0.193
       129 -10.1965    129.7044    223.7611   1.2432911028e+02   9.7131531209e+00    0.2861069    0.2322829 -53.09 0.0003375687    1.393    0.282
       130  -9.0160    120.9421    224.9756   1.2632135851e+02   1.1005920870e+01    0.1982014     0.172907  60.24 0.0003182679    1.019    0.019
       131  -8.6097    109.9981    224.6438   1.2853766910e+02   1.2943501824e+01    0.1897175     0.148947  52.32 0.0003990094    1.128    0.113
       132 -10.5782    248.9568    223.1269   1.0067275670e+02  -1.0802323683e+01    0.2709531    0.2363755 -24.66 0.0005081666    1.274    0.215
       133  -8.9389    191.6528    224.0773   1.1166477185e+02  -1.5206684313e+00    0.2109496    0.1724967  32.90 0.0004897823    1.094    0.086
       134  -8.0876    170.7813    223.9723   1.1586037942e+02   2.2493880193e+00    0.1739299    0.1677579  34.74  0.000329044    1.084    0.077
       135  -8.6093    155.9586    223.9649   1.1890651856e+02   4.9478347909e+00    0.1982532    0.1804645  46.57  0.001200977    1.024    0.024
       136  -8.5181    104.6975    223.9001   1.2953216705e+02   1.3981624312e+01    0.1800184    0.1716667  63.97 0.0005645891    1.213    0.176
       137  -8.8330    136.1173    223.2186   1.2291304964e+02   8.6786568322e+00    0.1995064    0.1763466  33.30 0.0007223025    1.204    0.170
       138  -8.8537     83.0410    223.0742   1.3385114584e+02   1.7610520771e+01    0.1897208    0.1604142  71.65 0.0003553674    1.047    0.045
       139 -10.1747     50.3226    221.5849   1.4015883506e+02   2.2557990653e+01    0.3087164    0.2951861 -68.74   0.00122133    1.474    0.322
       140 -10.3900     48.9420    217.6387   1.4005600551e+02   2.3574257939e+01    0.4765615     0.311403 -89.47   0.00287104    1.335    0.251
       141  -8.5905     18.9738    240.4712   1.4725164165e+02   2.2478617465e+01    0.1542417   0.09430189  46.40  0.001029092    1.591    0.371
       142  -8.6614    175.1777    221.7013   1.1458185242e+02   1.8576404357e+00    0.1981549    0.1855982 -67.94 0.0004861668    1.238    0.192
       143  -8.5918    115.1229    221.9111   1.2710537560e+02   1.2629039988e+01    0.1977774    0.1776455  62.72 0.0004827023    1.068    0.063
       144  -8.7622     97.8890    222.0217   1.3069367220e+02   1.5487969271e+01    0.1912329    0.1718676  73.16  0.000393836    1.104    0.094
       145  -8.1665     92.7961    222.1388   1.3175465849e+02   1.6282936104e+01    0.1575267     0.148063 -70.07 0.0003645552    1.294    0.227
       146  -9.6598     15.9170    221.4830   1.4652558371e+02   2.6616696157e+01    0.2101927    0.1872115  89.09 0.0007592546    1.379    0.275
       147  -8.9427    216.8239    220.9045   1.0618559142e+02  -5.3611330943e+00     0.241221    0.1895674  27.75 0.0003444424    1.154    0.133
       148 -11.0701    203.6287    216.9550   1.0803077941e+02  -2.4378804306e+00    0.5350008    0.3488303 -47.74  0.001701864    1.765    0.434
       149 -10.6767    212.1579    217.4343   1.0645298873e+02  -4.0063169330e+00     0.635911    0.3824188  27.58  0.002142842    1.685    0.407
       150  -8.2008    181.0249    221.2803   1.1331956698e+02   8.6962070783e-01    0.1872429    0.1596607  35.64  0.000392984    1.055    0.052
       151  -9.2244    141.3026    220.5752   1.2142657469e+02   8.2624915569e+00    0.2207758    0.1889454 -62.34  0.000598069    1.283    0.221
       152  -8.3910     68.3167    221.0737   1.3658325412e+02   2.0211885657e+01    0.1723979    0.1382361  86.70 0.0006162713    1.088    0.081
       153  -9.5144     59.8122    220.8244   1.3823987842e+02   2.1454051510e+01    0.2050343    0.1858082 -79.86 0.0003982932    1.313    0.239
       154  -9.6023     40.3340    220.8222   1.4199540022e+02   2.3978787592e+01    0.2017307    0.1698182 -88.57 0.0004057474    1.211    0.174
       155  -8.8900    186.0745    220.1493   1.1210169343e+02   1.5411795715e-01    0.1982717    0.1789069  25.51 0.0004141758    1.018    0.018
       156  -8.6190    109.0463    219.7038   1.2807222535e+02   1.4119376385e+01    0.1855656    0.1554117  58.64 0.0003675057    1.055    0.052
       157  -8.4270     75.3318    222.8647   1.3537709519e+02   1.8813844649e+01    0.1699801    0.1435447 -87.79 0.0005034179    1.145    0.127
       158  -7.9282    104.4561    219.3891   1.2898953305e+02   1.4956083246e+01    0.1336803    0.1154169  63.25 0.0001383634    1.043    0.041
       159  -9.0071    136.8617    218.2115   1.2199639317e+02   9.5352653611e+00    0.1789476    0.1587148  19.31 0.0003175822    1.325    0.245
       160  -8.3622    120.0624    217.6623   1.2546747697e+02   1.2644037601e+01    0.1897404    0.1571181  50.04 0.0003550054    1.110    0.099
       161  -9.6929    194.6214    216.8107   1.0979317498e+02  -8.0696200139e-01    0.2502069    0.2205389  12.81 0.0004395037    1.090    0.082
       162  -8.1486     72.4968    217.4339   1.3534524606e+02   2.0384157186e+01     0.128828    0.1079835  75.45 0.0001092078    1.045    0.043
       163  -9.0755     56.0289    216.7954   1.3858193500e+02   2.2825633166e+01    0.2100126    0.1433606 -82.92 0.0007968019    1.300    0.231
       164  -8.6655     21.8462    216.8821   1.4512242423e+02   2.6940593690e+01    0.1628388    0.1314749 -79.38   0.00047319    1.287    0.223
       165  -9.5160    180.3240    216.0379   1.1255275750e+02   1.9357959411e+00    0.1827993    0.1762478  25.35  0.000573821    1.071    0.066
       166  -8.8083    124.9236    215.7429   1.2415383120e+02   1.2181201152e+01    0.1952149    0.1618768  56.12 0.0002529108    1.074    0.069
       167  -7.9931     91.3895    216.4920   1.3134156389e+02   1.7700062801e+01     0.131243     0.114305  77.32 9.672283e-05    1.054    0.051
       168  -9.0935     83.0529    215.9294   1.3300482089e+02   1.9125293439e+01    0.1915089    0.1686795  77.17 0.0003866881    1.096    0.087
       169  -9.5492    171.9634    214.4180   1.1399494887e+02   3.7826331615e+00    0.2301845     0.200591 -31.39   0.00132974    1.262    0.208
       170  -8.6999    144.0743    214.9867   1.1996014135e+02   8.8603209674e+00    0.2078244    0.1882731  51.66  0.000384994    1.018    0.017
       171  -9.9330    248.7674    212.8412   9.8807952537e+01  -9.2762646742e+00    0.3162536    0.2072642 -16.82  0.001244508    1.521    0.343
       172  -8.6929    132.8541    213.8472   1.2217236022e+02   1.1144561702e+01    0.1934895      0.18012  35.57 0.0003523267    1.170    0.145
       173  -8.6038    111.6878    213.4129   1.2663704205e+02   1.4987246540e+01     0.199233    0.1606576 -39.53 0.0003094527    1.598    0.374
       174 -10.3468    187.1208    212.3348   1.1050424166e+02   1.3514117993e+00    0.3841976    0.2117502 -32.96  0.001721386    2.163    0.538
       175  -9.0169    117.9611    212.8776   1.2521639038e+02   1.4008869792e+01    0.1956689     0.184759  33.70 0.0003930458    1.237    0.192
       176  -8.1391     74.9336    212.9753   1.3433502063e+02   2.0988920065e+01    0.1549228    0.1284498  77.14  0.000298746    1.006    0.006
       177  -8.7695     41.9218    212.9382   1.4098675199e+02   2.5464857968e+01    0.1804156    0.1446805  83.53 0.0003841445    1.058    0.055
       178  -8.8208     98.7048    211.8356   1.2918960179e+02   1.7513996774e+01    0.2137764    0.1736804  40.51   0.00064735    1.314    0.239
       179  -9.2944     25.0928    211.3598   1.4408707953e+02   2.7756379855e+01    0.2058034     0.157164 -81.61 0.0005663453    1.190    0.159
       180  -9.5713     17.6262    211.4048   1.4548935102e+02   2.8543746586e+01    0.2229005    0.1649674 -85.49 0.0004149187    1.138    0.121
       181  -8.8827     15.3605    208.3174   1.4567929737e+02   2.9432558280e+01    0.2531132    0.1532276 -52.59  0.001507649    2.152    0.535
       182  -8.9609    209.0670    211.5273   1.0596781196e+02  -2.4831343516e+00    0.2021822     0.124332  39.45 0.0003653366    1.536    0.349
       183  -9.2484    125.3196    211.0811   1.2336327085e+02   1.3078503715e+01    0.2177682    0.1771634  40.11 0.0002461791    1.229    0.186
       184  -7.7658    101.2459    215.5542   1.2915132984e+02   1.6297851076e+01    0.1428109   0.09227473  80.71 0.0006880515    1.796    0.443
       185  -8.8087    107.0868    210.2965   1.2717955331e+02   1.6440562433e+01    0.1955549    0.1583826  53.24  0.001111454    1.132    0.117
       186 -10.0755    194.0266    208.6646   1.0843084175e+02   7.3647380393e-01    0.2615431    0.2063795 -52.51 0.0006699745    1.466    0.318
       187  -8.0920    162.0339    209.5091   1.1522582927e+02   6.5838366373e+00    0.2095745     0.129727  43.24 0.0004475421    1.483    0.326
       188  -8.2228     93.5943    209.2349   1.2993181191e+02   1.8913308358e+01    0.1713682    0.1218361 -55.44 0.0002744205    1.539    0.350
       189 -10.2021     67.3042    208.1863   1.3536486727e+02   2.3145622543e+01    0.2910269    0.2153477 -74.78  0.000813229    1.260    0.206
       190 -10.5650    206.6858    206.2557   1.0544861813e+02  -1.1520781095e+00    0.3011242     0.233105 -11.18 0.0003768705    1.408    0.290
       191  -8.9530    149.7190    207.9826   1.1759548713e+02   9.2135818433e+00    0.1862473    0.1781246 -71.22 0.0003630798    1.120    0.107
       192  -8.8341    133.9013    208.5375   1.2110689946e+02   1.2049031499e+01    0.2058557    0.1299223  42.18 0.0002641354    1.476    0.322
       193  -8.7882    115.0294    207.5857   1.2506289575e+02   1.5649447332e+01     0.201337    0.1782845 -78.51 8.474213e-05    1.142    0.124
       194  -8.4639     78.9243    208.3169   1.3293882388e+02   2.1412137235e+01     0.180902    0.1537543  65.16 0.0004991916    1.094    0.086
       195  -8.6124     72.5156    208.4620   1.3430714560e+02   2.2333281308e+01    0.1308816    0.1120056  80.21 6.213185e-05    1.055    0.052
       196  -9.0339    120.1535    206.8960   1.2384082569e+02   1.4889944074e+01    0.2122016    0.1740066  72.06 0.0004250764    1.183    0.155
       197  -9.6357    184.4060    206.2697   1.0995571961e+02   2.9684217180e+00    0.2584156    0.1607883  32.31 0.0007721424    1.620    0.383
       198  -8.8064    127.2555    206.3413   1.2220266968e+02   1.3727294035e+01    0.2115179    0.1672434  48.69 0.0004140062    1.166    0.142
       199  -9.4771    124.0258    206.0068   1.2285608068e+02   1.4384417191e+01    0.2033429    0.1833347  65.22  0.001178462    1.007    0.007
       200  -8.4772     47.9136    206.3331   1.3915565828e+02   2.6159629558e+01    0.1652042    0.1390725  67.79 0.0004318446    1.157    0.136
       201  -8.2608     39.4856    206.0001   1.4081978773e+02   2.7269642997e+01    0.1737343    0.1024776 -73.58 0.0003661674    1.477    0.323
       202  -8.0672     32.5353    206.5533   1.4224627100e+02   2.7961142858e+01    0.1245475   0.09280791  80.33 8.529918e-05    1.059    0.056
       203  -9.4593    247.1040    204.7139   9.7565105143e+01  -7.7840182214e+00    0.2260389    0.1682564 -28.36  0.000382269    1.249    0.199
       204  -9.6045    223.1262    204.2582   1.0188237347e+02  -3.7277033816e+00    0.5644906    0.2971224  56.67  0.001686056    3.129    0.680
       205 -11.3173    211.7662    199.2616   1.0310920879e+02  -8.5063870132e-01    0.6486198    0.3974565  27.01  0.003093882    1.778    0.438
       206 -11.4213    199.4943    201.5024   1.0597986778e+02   1.0126765101e+00    0.4896578    0.2964835 -35.08  0.001792599    1.751    0.429
       207 -12.4516    204.7330    195.6184   1.0378979911e+02   1.1011434900e+00    0.8365247    0.6141181 -40.58  0.003842015    1.397    0.284
       208  -9.1346     93.9226    203.9039   1.2913487525e+02   2.0033833751e+01    0.2319816    0.1485912  71.52  0.001133984    1.700    0.412
       209 -10.1800     81.5577    200.9595   1.3143375326e+02   2.2649829710e+01    0.3461148    0.2558631  82.62   0.00107561    1.290    0.225
       210  -8.0871     43.4752    203.5068   1.3977383015e+02   2.7336463975e+01    0.1257346    0.1009146  85.50  9.50616e-05    1.032    0.031
       211  -9.5457     21.5485    202.6131   1.4405182396e+02   3.0021879362e+01    0.2137404    0.1591233  54.64  0.001146628    1.340    0.254
       212 -10.1125    193.9056    201.2148   1.0705791967e+02   2.1130064521e+00    0.3040959    0.2053309  14.65 0.0006824752    1.907    0.476
       213 -10.0671    132.2337    200.1453   1.2009553224e+02   1.4132306627e+01    0.4070623    0.2825324 -24.03 0.0007715365    2.295    0.564
       214  -8.0693    104.0107    205.9580   1.2722473508e+02   1.7904571191e+01    0.1637755     0.144126  79.48 0.0009590501    1.035    0.034
       215  -8.3074    110.4938    202.5045   1.2529122509e+02   1.7547817528e+01    0.1408768    0.1266636  70.92 0.0008105455    1.022    0.022
       216  -8.8626     98.6824    202.1254   1.2784075235e+02   1.9645250620e+01    0.2498816    0.1928098  38.64 0.0006947832    1.384    0.278
       217  -9.8788     69.2386    200.7836   1.3407835616e+02   2.4520645378e+01     0.351771    0.2336008  64.07   0.00153089    1.417    0.294
       218 -11.0980     64.1477    195.7090   1.3455851470e+02   2.6390772682e+01    0.5275201    0.3213546  60.37   0.00118252    1.591    0.371
       219  -8.4141     29.1804    201.8063   1.4248514892e+02   2.9376657184e+01    0.1565587    0.1233998 -68.28 0.0004370983    1.346    0.257
       220  -8.6747    224.0912    200.8436   1.0104111540e+02  -3.3237155874e+00    0.1871689    0.1466328  -3.26 0.0003553525    1.313    0.238
       221  -7.7874    187.4244    201.5182   1.0844598234e+02   3.2843288245e+00    0.1393082    0.1317561  25.46 0.0001606922    1.021    0.021
       222  -7.8948     34.4855    201.5155   1.4139927674e+02   2.8843097278e+01    0.1237821   0.09749334  86.40 0.0002295227    1.028    0.027
       223  -9.4680    250.3986    199.3248   9.5947678337e+01  -7.4688970522e+00    0.2088549    0.1487137 -28.91  0.000621293    1.283    0.221
       224  -9.3559    243.3559    198.4031   9.7015764009e+01  -6.1877390915e+00    0.2142422    0.1931705  -7.17 0.0005716277    1.079    0.073
       225 -10.5240    140.1392    197.7898   1.1793867159e+02   1.3146381048e+01    0.3839261    0.2853766   6.80  0.001783414    2.059    0.514
       226  -8.1910     42.1887    199.5536   1.3964055737e+02   2.8372173176e+01    0.1376928    0.1223648  31.09  0.000287196    1.528    0.345
       227  -8.2942    230.9670    197.8938   9.9176334536e+01  -4.0226256669e+00    0.1986057    0.1612777  -3.47 0.0003531711    1.199    0.166
       228  -8.6623     21.4827    197.7592   1.4365629178e+02   3.1089759229e+01    0.1584951     0.136302  55.96  0.000524475    1.339    0.253
       229  -8.0662     89.5270    197.4965   1.2920712203e+02   2.2181104253e+01    0.1379627    0.1221031  80.51 4.530522e-05    1.034    0.033
       230  -9.1723    238.0597    196.0536   9.7512186947e+01  -4.9269199760e+00    0.1949078    0.1709509  -3.57 0.0003350608    1.013    0.013
       231  -9.7354    114.0829    195.1195   1.2333548343e+02   1.8552000304e+01      0.24745    0.2026581 -85.87 0.0004120884    1.232    0.188
       232  -8.1423    176.3020    195.6670   1.0966734947e+02   6.5568602446e+00    0.1436858    0.1148214  83.03  0.000465582    1.656    0.396
       233  -8.3709    103.9725    199.0197   1.2621239588e+02   1.9445482461e+01    0.1665045    0.1470226  73.03  0.000316873    1.007    0.007
       234  -9.4818    186.8199    193.8511   1.0710255339e+02   4.8586939480e+00    0.2165422    0.1894352  10.78 0.0003489169    1.194    0.162
       235 -10.5153    190.6288    191.6223   1.0587449823e+02   4.5459149532e+00    0.2919056    0.2729747  52.44 0.0009244466    1.129    0.114
       236  -8.5494    119.9872    193.7813   1.2178033587e+02   1.7785495747e+01    0.2125402    0.1525961 -86.59  0.000584132    1.633    0.388
       237  -8.1287     56.7493    202.6409   1.3694377728e+02   2.5832332949e+01    0.1637264    0.1046329  52.98 0.0002717785    1.454    0.312
       238  -8.6692     27.6549    192.9210   1.4198037745e+02   3.1512170264e+01    0.3026181    0.1316598  70.87  0.001228511    2.797    0.642
       239  -9.0889    226.2793    192.0027   9.8891500594e+01  -2.2035032249e+00    0.1963181    0.1734295 -15.23 0.0008577651    1.055    0.052
       240 -12.0411    154.8432    188.0124   1.1288344132e+02   1.2367157985e+01    0.5999504    0.5877113 -59.96   0.00307806    1.072    0.067
       241  -7.7226     31.3076    190.3132   1.4097435540e+02   3.1701763758e+01    0.1154979   0.08629157 -52.10 0.0007026324    1.624    0.384
       242  -8.7176      9.2195    190.6156   1.4548799096e+02   3.3856247343e+01    0.1233277     0.113503  33.39 0.0003068576    1.542    0.352
       243  -8.9284     94.5875    189.0980   1.2683140856e+02   2.3278007342e+01    0.2425295    0.1777347  59.34 0.0005332754    1.307    0.235
       244  -8.3218     14.3183    188.8252   1.4432409168e+02   3.3773918327e+01    0.2335681    0.1142564  87.91  0.001222859    1.892    0.472
       245  -9.4423    222.8438    187.9070   9.8721776840e+01  -8.7025392643e-01    0.2272408    0.1978732  50.98 0.0007404217    1.315    0.239
       246 -10.1329      7.4369    203.7787   1.4682356641e+02   3.1176485280e+01    0.2192831    0.1979613 -74.75 0.0006791484    1.433    0.302
       247  -9.6365    231.5124    185.9098   9.6693980603e+01  -2.0838986254e+00    0.3048293    0.2310968 -32.95  0.000899625    1.251    0.201
       248  -9.5978    229.5109    182.4900   9.6371077244e+01  -1.1287988530e+00    0.2416027    0.2171188  30.79 0.0006168506    1.154    0.133
       249 -10.0068    233.2736    181.3815   9.5451017378e+01  -1.6130974679e+00    0.4338642    0.3510807  51.84  0.002108442    1.448    0.309
       250 -11.0422    177.2819    183.6650   1.0711097081e+02   8.7686261791e+00    0.4559849    0.3330097 -29.80  0.002203891    1.549    0.354
       251  -9.8706    141.9834    185.3262   1.1527671294e+02   1.5488533728e+01    0.2147592    0.1922512  52.34 0.0007792825    1.065    0.061
       252  -9.3345    135.1558    183.8622   1.1656922093e+02   1.7144140350e+01    0.1972033    0.1805924  -3.95 0.0004597171    1.325    0.245
       253  -8.7270    224.4358    183.2110   9.7468524400e+01  -3.2984423136e-01    0.1846079     0.128271 -48.26 0.0004731574    1.560    0.359
       254 -10.1076    183.5391    182.9961   1.0563919700e+02   7.6429920516e+00    0.2942148    0.2015938  28.74  0.001365946    1.609    0.379
       255  -9.0260      8.3105    182.9503   1.4504382583e+02   3.5628810843e+01    0.1665271    0.1189103 -82.56 0.0004621648    1.087    0.080
       256  -8.2857      1.4266    188.0116   1.4681475423e+02   3.5114585390e+01    0.1697645   0.08619232 -76.74 0.0004078798    1.518    0.341
       257 -11.5815    209.9709    193.2265   1.0227889231e+02   5.5527694873e-01    0.6485039    0.3197036 -31.86  0.002689062    2.310    0.567
       258  -8.7868    122.3279    182.2917   1.1926030412e+02   1.9944623384e+01     0.211179    0.1772977 -14.24 0.0005291204    1.624    0.384
       259 -11.6363    116.8665    179.2240   1.1999490652e+02   2.1664081474e+01    0.6927186    0.4806781  48.88   0.00254893    1.397    0.284
       260  -9.9501     29.9702    180.6349   1.4027693983e+02   3.4046871483e+01    0.4796959    0.2458018  55.70  0.002514305    1.971    0.493
       261 -10.5161    179.0466    202.2884   1.1033399836e+02   4.7384486746e+00    0.3663363    0.2697068 -43.47  0.001682275    1.444    0.307
       262  -8.0415     43.2278    180.0022   1.3728861376e+02   3.2708527746e+01    0.1742819   0.09152775 -70.63 0.0008741209    1.640    0.390
       263  -7.7367     14.4867    180.4731   1.4355622345e+02   3.5621635055e+01    0.1205499   0.09302247 -85.03 0.0008094783    1.047    0.045
       264 -10.1998      9.1552    176.8526   1.4434614749e+02   3.6913671869e+01    0.3617936    0.3032458 -22.27  0.002525107    1.843    0.457
       265  -9.7411      8.9831    171.9886   1.4394585484e+02   3.8021171130e+01    0.2674496    0.1520705  48.88  0.001173027    1.818    0.450
       266  -8.6404    100.7620    175.9593   1.2325824099e+02   2.5302730176e+01    0.1983833    0.1729611 -82.74  0.001090823    1.078    0.072
       267  -8.4559    141.0054    203.9718   1.1880713406e+02   1.1678771145e+01    0.2031042    0.1728241  -1.16            0    1.537    0.349
       268  -7.9779     77.0000    172.9413   1.2847554561e+02   2.9857165487e+01    0.2267071   0.07369114 -61.48 0.0005399192    2.872    0.652
       269  -9.1522     40.7837    171.9966   1.3688612324e+02   3.4861046598e+01    0.2063802    0.1784046  64.48 0.0006059899    1.200    0.167
       270 -10.7079    180.4015    167.7907   1.0314634970e+02   1.1400348789e+01    0.3378462    0.2282459 -39.20   0.00154263    1.523    0.343
       271 -11.4310    186.1048    166.1952   1.0158131547e+02   1.0534094203e+01    0.5354505     0.389124  38.87  0.001594205    1.394    0.282
       272 -12.1662    149.5761    166.1223   1.0972536569e+02   1.8225893740e+01     0.792609    0.5529522  11.56  0.003249393    2.288    0.563
       273 -10.4268      6.6249    163.4786   1.4366348541e+02   4.0138501325e+01    0.4390413    0.2449681 -59.53  0.001952385    1.614    0.381
       274 -10.5776    192.9536    164.0655   9.9679462963e+01   9.5341205985e+00    0.4042083    0.3019374 -22.17   0.00190735    1.552    0.356
       275 -10.4900    217.3400    161.4587   9.4245475180e+01   5.0442052238e+00    0.6749708    0.4112647  50.94  0.002973821    1.793    0.442
       276  -9.7390    217.2498    156.6496   9.3216015304e+01   5.9800224864e+00    0.2856299    0.2488544  -2.74 0.0008687392    1.238    0.192
       277  -8.8329     40.0249    162.4811   1.3586611443e+02   3.7187465393e+01    0.1654208    0.1119798 -15.30 0.0008102132    2.680    0.627
       278 -11.7562    171.7273    158.8559   1.0310704260e+02   1.5136504404e+01    0.5986906    0.4327579  58.68  0.002750945    1.508    0.337
       279  -8.8186    100.5683    157.2319   1.1991056748e+02   2.9800183204e+01    0.2122843    0.1323249 -47.10 0.0009464371    1.656    0.396
       280  -8.2355    228.9847    156.2845   9.0958405486e+01   3.7127078641e+00    0.1906704    0.1822364  21.18 0.0004933798    1.098    0.089
       281  -9.6278     84.4454    154.8150   1.2357651037e+02   3.3070450883e+01    0.2870476    0.2164578  73.01 0.0009618253    1.449    0.310
       282 -10.6097    123.5280    155.7404   1.1383300500e+02   2.5889454726e+01    0.3837939    0.3343062  36.01  0.001031881    1.229    0.186
       283  -9.3765    245.4855    149.9295   8.6717578644e+01   1.7115483208e+00    0.2605032    0.2099847  45.88 0.0007785355    1.378    0.274
       284 -10.0285    149.8658    149.6906   1.0609212143e+02   2.1866672617e+01    0.3182667    0.1834428 -34.87  0.001229718    2.100    0.524
       285  -8.0840     58.3025    150.3123   1.2954137550e+02   3.7910277881e+01    0.1344975   0.09827127 -39.23 0.0002285711    1.611    0.379
       286 -10.2383    160.6067    160.5237   1.0598201216e+02   1.7152856224e+01    0.3866187    0.1476219 -51.35  0.001261498    2.834    0.647
       287 -10.1745    134.1942    147.9841   1.0951285984e+02   2.5556234649e+01    0.3928483    0.2471933 -54.08  0.001247046    1.599    0.374
       288 -11.3060     84.4395    146.1298   1.2194918139e+02   3.5170793669e+01    0.5800962     0.524735  35.52  0.001712183    1.236    0.191
       289  -9.6254     26.8511    148.6089   1.3726754893e+02   4.1809637732e+01    0.2672256    0.1513297 -51.49   0.00112116    1.713    0.416
       290  -9.2571     11.6071    146.2097   1.4070563490e+02   4.3683831944e+01    0.2313488    0.1589317  71.87  0.001412649    1.496    0.331
       291  -7.9894    236.2307    145.9757   8.7437560861e+01   4.1959824227e+00    0.1857932    0.1094173 -40.11 0.0005349236    1.553    0.356
       292  -9.3881     48.6841    143.5437   1.3095221622e+02   4.0714443221e+01    0.3172519    0.2496557  32.24  0.001457519    1.496    0.331
       293  -8.7326    200.4725    141.5284   9.3087772222e+01   1.2493912075e+01    0.1506791    0.1460097 -34.98 3.965677e-05    1.022    0.021
       294  -9.0162    150.7357    141.4595   1.0399702180e+02   2.3533713021e+01    0.2123605    0.1520677  33.46 0.0009307259    1.560    0.359
       295 -10.2600     98.9479    137.7442   1.1636225834e+02   3.4759045235e+01    0.4275594    0.3288767 -79.92  0.001272215    1.453    0.312
       296  -9.3784    225.0261    138.5817   8.7771921031e+01   7.8311557788e+00    0.3997553    0.2821976 -12.29  0.001831486    1.919    0.479
       297  -8.0333    246.3024    138.6763   8.4168780133e+01   3.5676823052e+00    0.1393886    0.1043173 -66.57 0.0003046286    1.636    0.389
       298  -9.6089    249.7288    134.7203   8.2768696994e+01   3.6180170763e+00    0.2691181    0.2284785 -53.40 0.0008407908    1.156    0.135
       299 -10.2286    245.0520    133.5355   8.3257779510e+01   4.7316840681e+00    0.3795114    0.2570151  79.21  0.001574958    2.277    0.561
       300  -9.6616     42.2143    134.4566   1.3120109540e+02   4.3603186700e+01     0.251822    0.2475582   9.66 0.0007866559    1.236    0.191
       301  -7.8727    234.4090    133.1771   8.4934134075e+01   6.9164558083e+00    0.1944426     0.124661 -49.28 0.0003928524    1.509    0.337
       302  -9.8170    173.5070    129.5414   9.5902860541e+01   2.1037828170e+01    0.2717761    0.2174198   5.83 0.0007851213    1.670    0.401
       303  -9.8226    149.9847    129.2824   1.0126218645e+02   2.6418399732e+01    0.2268469    0.2150064  59.41 0.0008803023    1.056    0.053
       304  -9.5548    242.2535    125.8438   8.2024592257e+01   6.6716179374e+00    0.2547342    0.1816928 -24.84 0.0005721067    1.552    0.356
       305  -8.0843    222.7196    126.6473   8.5476970364e+01   1.0578906324e+01    0.1464194    0.1155183  -5.44 0.0007013419    1.653    0.395
       306  -9.8953    150.4941    123.7694   9.9773219500e+01   2.7518395619e+01    0.3047368    0.2263594  48.10  0.001131523    1.355    0.262
       307  -8.7502    165.3478    120.6989   9.5535981753e+01   2.4790235026e+01    0.1634942    0.1247134 -87.99 0.0007038487    1.688    0.408
       308 -10.7036    100.7219    116.9461   1.1107278295e+02   3.9312605252e+01    0.4993613    0.3838906 -48.87 0.0007355231    1.239    0.193
       309  -8.7788    249.8469    117.8178   7.9098097959e+01   6.5901527549e+00    0.1888583    0.1524068 -67.76 0.0005379269    1.317    0.241
       310 -10.7639     18.1567    115.3238   1.3478809094e+02   5.0256005384e+01    0.3877056    0.2632096 -73.19 0.0008823207    1.285    0.222
       311  -8.7184    231.7840    116.4414   8.1614117891e+01   1.0547169316e+01    0.2592573    0.1442589  59.86  0.001127151    2.059    0.514
       312  -9.3976    129.2921    109.0461   1.0127931871e+02   3.5393947551e+01    0.4106168    0.2122071 -42.73  0.001605692    1.933    0.483
       313  -9.2583     34.0362    109.5085   1.2911042098e+02   5.0224655839e+01    0.2840181    0.1915746 -49.51 0.0009952716    1.272    0.214
       314 -11.2926    249.7625    102.6532   7.5816241133e+01   9.2559778379e+00    0.5570996    0.5095757 -49.74  0.003407072    1.081    0.075
       315 -12.2109    241.6442     95.1760   7.5324930547e+01   1.2237118185e+01     1.123576    0.7002763 -50.72  0.005568523    1.465    0.317
       316 -10.1582    225.3075    248.0220   1.0928435062e+02  -1.0707491985e+01    0.2211576    0.2004869 -13.10 0.0003965226    1.266    0.210
       317  -8.6547    114.4664     96.0128   1.0170462715e+02   4.1248403099e+01    0.2881476     0.211654  25.07  0.001030779    1.583    0.368
       318  -8.3376     54.3009     95.9302   1.1986000377e+02   5.1084326886e+01    0.1924226    0.1547399 -48.71   0.00046601    1.088    0.081
       319  -9.0786      2.1877     94.3443   1.3610064656e+02   5.5935017855e+01    0.2163411    0.1663657 -65.35  0.001519992    1.089    0.082
       320 -10.4468      8.1060     99.3958   1.3513680793e+02   5.4495630146e+01    0.3130587    0.2584737 -45.62  0.001068363    1.160    0.138
       321  -8.6560    158.2854     91.2190   8.9380244022e+01   3.2429361323e+01    0.2547444    0.2029402  42.76 0.0005677557    1.291    0.225
       322  -9.7537     17.3845     89.8120   1.3045593083e+02   5.5945958639e+01    0.5048154    0.1743615 -41.26  0.002194737    2.788    0.641
       323  -9.0254     16.4721     85.9690   1.2997286938e+02   5.6827339057e+01    0.2629224    0.1742189 -64.62  0.001257105    1.348    0.258
       324  -8.7823     33.9270     89.0098   1.2485593031e+02   5.4756899746e+01    0.1928277    0.1560245 -46.74 0.0004364635    1.020    0.020
       325  -9.7543    154.6265     82.2618   8.7715144916e+01   3.4977656266e+01    0.3926438    0.3442453  20.50  0.001169495    1.301    0.231
       326  -9.8458    156.9345     78.0245   8.6013867180e+01   3.5188444741e+01    0.3372535    0.3056709   8.89 0.0006772246    1.264    0.209
       327 -10.1271    220.6121     79.8445   7.4896511116e+01   1.9533685997e+01    0.3217507    0.2625266  78.33 0.0004793757    1.224    0.183
       328 -12.6509     79.9703     76.0518   1.0614030707e+02   5.1562671095e+01    0.3671453    0.3417526 -30.06 0.0003867104    1.082    0.076
       329 -11.0449    115.7674     74.2757   9.4980480181e+01   4.5209570186e+01    0.4725206    0.4039332  75.23  0.001663205    1.415    0.293
       330 -12.2645     22.2288     74.5146   1.2544406349e+02   5.8770632005e+01    0.4080689    0.3788212  -9.88  0.003014277    1.226    0.184
       331 -10.8511    227.2090     70.7775   7.1838697219e+01   1.9515581510e+01    0.4292555    0.3120296 -82.95 0.0006739417    1.439    0.305
       332  -8.6056    101.7847     73.2136   9.8596798722e+01   4.8216691845e+01    0.1990668    0.1625973   3.02 0.0005320922    1.341    0.254
       333  -9.8255     45.0390     75.2307   1.1761530643e+02   5.6483546664e+01     0.301535    0.2557952 -72.66  0.001112547    1.479    0.324
       334  -7.8915     47.3008     69.2876   1.1514341183e+02   5.7395121798e+01    0.1282528   0.08526456 -21.76 0.0006977897    1.559    0.358
       335 -10.7598    143.8390     63.9546   8.4852058283e+01   4.0699225276e+01    0.5111957    0.3787148 -16.61   0.00161663    1.636    0.389
       336  -8.3231    141.7932     98.0109   9.5124303663e+01   3.4937908557e+01    0.2262108    0.1720186  74.69 0.0005539448    1.606    0.377
       337  -8.6670     52.3093     65.2897   1.1217769700e+02   5.7556049041e+01     0.248907    0.1968676 -74.84  0.001359112    1.909    0.476
       338  -9.5565     58.8957     61.0589   1.0852908715e+02   5.7478368878e+01    0.3402802    0.2232562 -11.93  0.001254583    1.758    0.431
       339 -11.4812     79.9553     54.5807   9.9257195832e+01   5.5386343489e+01    0.8978876    0.5111583  13.89  0.001772356    2.677    0.626
       340  -8.1535    221.4950    248.4465   1.1005488765e+02  -1.0184178963e+01     0.192731    0.1295283  36.62 5.488974e-05    1.342    0.255
       341  -8.9186     27.3214     55.6614   1.1849688589e+02   6.1982701916e+01    0.1647088    0.1439563 -89.59  0.001114542    1.761    0.432
       342  -7.4117    171.9845     49.9979   7.5208692569e+01   3.6009239067e+01    0.1615866    0.1426742  71.20            0    1.043    0.041
       343  -9.6027     15.0565     56.7067   1.2351578575e+02   6.2767482424e+01    0.3452904    0.1732773 -21.32  0.001844743    2.276    0.561
       344 -10.5116     24.5150     38.5233   1.1412085110e+02   6.5194233229e+01    0.2359091    0.1747233  -9.90 0.0005802999    1.187    0.158
       345 -12.6428     19.7979     41.1458   1.1694960456e+02   6.5169172985e+01    0.4918693    0.2721823 -18.13  0.001174187    1.865    0.464
       346 -12.4200     13.0263     39.0970   1.1910104975e+02   6.6040366203e+01    0.5650672    0.3357454  -3.54  0.002015234    1.768    0.434
       347  -8.6217     32.2181     40.5938   1.1170296830e+02   6.4116886820e+01    0.1518784    0.0986694   6.76 0.0005715674    1.572    0.364
       348  -9.5443     53.4842     36.2921   1.0189553517e+02   6.2243882005e+01    0.2871991    0.1764184   4.49  0.001092253    1.878    0.468
       349  -9.0650     29.7019     36.6549   1.1133328550e+02   6.4999928355e+01    0.2043291    0.1292079 -25.77 0.0006137223    1.337    0.252
       350  -9.6346     33.0262     34.5186   1.0920234145e+02   6.4990676851e+01    0.2956546     0.256288  30.94  0.002149532    1.534    0.348
       351  -9.2668    145.7593     34.6243   7.5641106592e+01   4.4420549902e+01    0.3829124    0.2071663  54.72   0.00115708    1.628    0.386
       352  -9.7691     45.9623     32.3953   1.0326825172e+02   6.3799347307e+01     0.435265    0.1689513 -34.72   0.00207994    2.393    0.582
       353  -9.9905     13.7248     26.8329   1.1457641191e+02   6.7955813601e+01    0.3163872    0.2407851   1.44  0.001305399    1.250    0.200
       354  -9.6494     22.7011     28.8297   1.1140587474e+02   6.6879271397e+01    0.3493374    0.2184781  11.07  0.001035212    1.575    0.365
       355  -9.7722     18.5015     28.5599   1.1311719511e+02   6.7295837600e+01    0.2575528    0.1162216 -36.64  0.000693216    1.795    0.443
       356  -9.6335      4.4170     32.4389   1.2062878482e+02   6.7731906102e+01    0.3440649     0.167274  29.24  0.002095276    2.499    0.600
       357  -9.3507     75.7769     32.1857   9.2597789936e+01   5.9374389385e+01    0.2714947    0.1624427  35.00 0.0006855781    1.550    0.355
       358  -8.5894     79.3011     31.3449   9.1158762971e+01   5.8871412740e+01    0.2011502    0.1443231   1.46 0.0006764053    1.422    0.297
       359  -8.2071    205.2687     31.4034   6.5505124947e+01   3.0392414345e+01    0.1901868    0.1147089  82.96 0.0008575916    1.629    0.386
       360  -9.1466     66.6518     30.6434   9.5047334897e+01   6.1079261317e+01    0.2115564    0.1891934   6.09 0.0005547005    1.155    0.134
       361  -8.0817    119.9676    248.7430   1.2960550531e+02   6.6477284139e+00    0.1707277    0.1357318  55.56 0.0003572767    1.033    0.032
       362  -8.2238    108.5155    249.5126   1.3188994181e+02   8.3774141053e+00    0.1266931    0.1037474  58.86 0.0003363722    1.029    0.028
       363 -10.0672     66.3685     25.3316   9.3083794432e+01   6.1798062594e+01    0.3263286    0.1854491  24.52  0.001765121    1.782    0.439
       364  -9.3258      3.0814     25.0369   1.1871189575e+02   6.9000055092e+01    0.4023662    0.1066749 -46.96  0.001955083    2.770    0.639
       365 -10.4291     33.0763    248.2381   1.4539803842e+02   1.9347841720e+01    0.2177385    0.1841637  72.40   0.00045543    1.296    0.228
       366  -9.1132     24.8218    248.8707   1.4681254067e+02   2.0199862119e+01    0.2094114    0.1772626  15.95  0.001253158    2.204    0.546
       367 -11.0813    211.5048    246.8636   1.1165276224e+02  -8.4047573104e+00     0.324513    0.2133579  36.59 0.0004855527    1.328    0.247
       368  -9.6335    140.8127    247.2946   1.2537282874e+02   3.4002670135e+00    0.2141064    0.1877938  40.41 0.0003426588    1.125    0.111
       369  -8.2839     75.8390    246.8385   1.3773784799e+02   1.3914859693e+01    0.1644267    0.1506101  82.82 0.0007176655    1.305    0.234
       370 -10.0335    243.2028    245.3345   1.0560161831e+02  -1.2988138962e+01    0.2342177     0.168656 -15.50 0.0003448025    1.313    0.239
       371  -8.4142    187.1781    245.7682   1.1610865412e+02  -4.2629776238e+00    0.1662431    0.1318213  12.78 0.0003461903    1.307    0.235
       372  -9.2889    193.0529    243.3978   1.1460154966e+02  -4.8819440421e+00    0.4675219    0.3026993  61.70 0.0009063164    2.319    0.569
       373  -7.9861    171.2220    246.6041   1.1933165814e+02  -1.6912766590e+00    0.1678648    0.1066196  33.38 0.0003154465    1.430    0.301
       374  -7.7433    128.4757     22.5369   7.5346753654e+01   4.9822041529e+01    0.1314852     0.116151  52.52 0.0008088758    1.027    0.026
       375  -9.0833     83.6835     19.6446   8.5395397403e+01   5.9449193249e+01    0.2248666    0.1651277  16.57 0.0007419359    1.280    0.218
       376  -9.8568     75.1697     18.2889   8.7442849476e+01   6.1129697986e+01    0.2970021    0.1645415 -17.93  0.001609829    1.914    0.477
       377  -9.4212     58.4762     18.3873   9.3040024242e+01   6.3859820937e+01    0.2400975    0.1662132  12.25  0.000657916    1.307    0.235
       378  -8.2727    147.8523    245.2051   1.2370793333e+02   2.5574694077e+00    0.2587257   0.09421795 -56.91  0.001001179    3.712    0.731
       379  -8.6264    161.1873     10.5795   6.6081093631e+01   4.3337699807e+01    0.1856322   0.09943897  56.89 0.0004854749    1.592    0.372
       380 -10.1302     94.7832    245.0754   1.3401064484e+02   1.1387332403e+01    0.2289197    0.1936178  49.66 0.0003575897    1.226    0.184
       381  -9.1021     90.5162    245.4810   1.3486304654e+02   1.1971986217e+01    0.1987202    0.1544514 -80.77 0.0006481353    1.308    0.236
       382  -8.2763    248.9774    245.4879   1.0460713311e+02  -1.3823715984e+01    0.1619277   0.09944738  30.23 0.0003472248    1.444    0.307
       383  -9.2143    240.7093    239.0755   1.0497511605e+02  -1.1796630643e+01    0.2390215    0.1538767  18.74 0.0003851236    1.448    0.310
