#   1 NUMBER                 Running object number                                     
#   2 MAG_AUTO               Kron-like elliptical aperture magnitude                    [mag]
#   3 X_IMAGE                Object position along x                                    [pixel]
#   4 Y_IMAGE                Object position along y                                    [pixel]
#   5 X_WORLD                Barycenter position along world x axis                     [deg]
#   6 Y_WORLD                Barycenter position along world y axis                     [deg]
#   7 A_WORLD                Profile RMS along major axis (world units)                 [deg]
#   8 B_WORLD                Profile RMS along minor axis (world units)                 [deg]
#   9 THETA_WORLD            Position angle (CCW/world-x)                               [deg]
#  10 FWHM_WORLD             FWHM assuming a gaussian core                              [deg]
#  11 ELONGATION             A_IMAGE/B_IMAGE                                           
#  12 ELLIPTICITY            1 - B_IMAGE/A_IMAGE                                       
         1 -13.2008    246.9790    146.0796   6.8458671161e+01   2.3792529321e+00     2.352648    0.8575366 -33.73  0.007360772    2.509    0.601
         2 -10.9216    212.3682     25.2044   4.3875686849e+01   2.8773194272e+01    0.5887254    0.3877198  47.70  0.001130412    1.730    0.422
         3 -11.9367    219.4721     17.7156   4.1227496058e+01   2.7926142118e+01    0.7753117    0.7002457 -67.71  0.003049982    1.067    0.063
         4 -12.3348    205.0666     33.4144   4.6915483256e+01   2.9561984131e+01    0.9764193    0.8966154  70.23  0.005589358    1.110    0.099
         5  -8.5791     32.6259     10.2077   8.3539530190e+01   7.0044038956e+01    0.1756885   0.08959015 -27.24  0.000956916    1.726    0.421
         6 -10.1859      8.4590      7.2204   9.5060487369e+01   7.2825356951e+01    0.3341233   0.08150315 -46.52  0.001448829    3.173    0.685
         7 -10.4784     49.3792    235.3170   1.2288560180e+02   1.9948415209e+01    0.2755088     0.200748 -72.88  0.001966453    1.502    0.334
         8 -11.7554    112.8606    243.7063   1.1194086882e+02   9.6868333189e+00    0.6234454    0.4589429  35.60  0.004056382    1.338    0.252
         9 -10.1961     58.0040    240.8116   1.2174207547e+02   1.7880320839e+01    0.6119778    0.2065169 -83.70  0.002377512    4.864    0.794
        10 -11.6848     98.2805    246.6367   1.1494385352e+02   1.1365128955e+01    0.9734608    0.3160001  44.50  0.004514048    2.336    0.572
        11  -9.4440     63.8472    245.2413   1.2103303855e+02   1.6347708400e+01    0.3204935    0.1847112 -83.25  0.001835638    1.793    0.442
        12 -10.6388     84.4162    249.8806   1.1774759032e+02   1.2789592516e+01     0.958777     0.195468  39.19  0.003582329    3.980    0.749
        13 -11.1036     82.5872    245.1315   1.1767281240e+02   1.3854052930e+01    0.5917487    0.2783099  36.54  0.003172163    2.050    0.512
        14 -10.6678     71.0954    248.6208   1.2001051265e+02   1.4811951690e+01    0.5782011    0.3267971  56.14   0.00347619    1.380    0.275
        15 -10.1935     63.2028    250.3099   1.2151298757e+02   1.5551796728e+01    0.5873775    0.1449377  39.60  0.001407319    3.219    0.689
        16  -9.4596     51.5970    249.8814   1.2347188977e+02   1.7080749358e+01    0.2596748    0.1112249  49.73  0.001518937    1.734    0.423
        17 -11.7520     47.5499    222.0617   1.2226751345e+02   2.2674985509e+01    0.6948475    0.4547646 -80.03  0.004593585    1.442    0.306
        18 -11.4921      8.5772    187.6818   1.2738151228e+02   3.3772724596e+01    0.3677803    0.2985111 -84.97 0.0007226908    1.218    0.179
        19 -14.4565      5.1905    156.7786   1.2599401056e+02   4.0790437940e+01     11.78638     1.229866 -76.84    0.0278521    9.312    0.893
        20  -9.7451     41.0559    235.8433   1.2438909803e+02   2.0843365251e+01    0.3150378    0.1363915  59.12  0.001778173    1.901    0.474
        21 -10.5958     63.5213    237.8464   1.2053232665e+02   1.7708369237e+01    0.3849237    0.2077142  48.27  0.001478483    1.472    0.321
        22 -11.1650     94.9461    223.5552   1.1325007886e+02   1.5967794477e+01      1.15594    0.5043254  63.93  0.004630762    3.352    0.702
        23 -11.0216     89.5912    229.1389   1.1487827023e+02   1.5716751023e+01    0.4121807    0.2817649  86.76  0.001227906    1.547    0.354
        24 -11.0558     83.4114    224.8170   1.1564977860e+02   1.7415761544e+01    0.5789444    0.3941211 -76.79  0.003481149    1.538    0.350
        25  -9.6004    142.2050    229.7441   1.0460326343e+02   7.3596734701e+00    0.3828152     0.201684  69.89  0.001310639    5.083    0.803
        26 -13.0178      9.2715    207.5336   1.2838535902e+02   2.9636399653e+01    0.9331895    0.8232387  35.06  0.004419084    1.597    0.374
        27  -9.0799    167.8529    224.8486   9.8826103082e+01   3.8575387707e+00    0.1670609    0.1447167  59.87 0.0005652893    1.320    0.243
        28  -9.5247    164.6745    220.5235   9.8802431177e+01   5.0964335494e+00    0.2019146    0.1233027 -46.37 0.0008303961    1.934    0.483
        29  -9.8689    250.1911    210.4910   8.0917151382e+01  -7.4738648405e+00    0.3601429    0.1540226 -30.10  0.001767182    2.279    0.561
        30 -12.0977    248.4234    199.0070   7.9083785614e+01  -5.7030252369e+00      1.02335    0.4520755 -28.09  0.004489624    2.221    0.550
        31 -10.1127    126.5347    246.8067   1.0971184646e+02   7.0835702739e+00    0.2955249    0.2041753  29.41  0.001818751    1.528    0.345
        32 -13.6456    235.5585    176.7497   7.6974097254e+01  -3.9357718821e-01      1.95982     1.671555 -41.85  0.008561651    1.428    0.300
        33  -9.6355     53.8425    231.5995   1.2181595858e+02   2.0088332207e+01    0.1999159    0.1416698  87.72 0.0007306046    1.274    0.215
        34  -8.6439    194.2450    192.0386   8.7935643163e+01   4.5722410768e+00    0.3962129    0.1840512 -28.81   0.00156714    2.815    0.645
        35 -10.2069     16.3705    191.4503   1.2608915849e+02   3.2270254608e+01    0.1924098    0.1721598 -88.76 0.0008188735    1.310    0.237
        36  -8.4455     51.4952    182.0106   1.1794369851e+02   3.0559456612e+01    0.3033444    0.1621533  73.75  0.001485185    2.039    0.510
        37 -10.0708     65.0780    180.0658   1.1468363082e+02   2.9270783369e+01    0.3802816    0.2534005 -40.56  0.001984659    2.130    0.530
        38 -10.1950     69.9716    174.5275   1.1287446978e+02   2.9863412404e+01    0.3549051    0.2546477 -42.64  0.000899309    1.795    0.443
        39  -9.7466     54.8039    185.2087   1.1754783490e+02   2.9444485216e+01    0.3383114    0.1497603  60.64  0.001500422    2.486    0.598
        40 -11.9176     38.9217    208.1057   1.2286171233e+02   2.6462974331e+01    0.7490165    0.5711424 -18.78  0.004519538    2.628    0.619
        41  -7.9879    193.6570    166.3050   8.2900231231e+01   9.2137397931e+00      0.14105    0.1187174  83.82 0.0007041338    1.686    0.407
        42  -9.9070     79.1402    164.7321   1.0933100568e+02   3.0822556948e+01    0.3080568    0.2616958 -55.89 0.0004674069    1.262    0.208
        43 -10.6577     85.4192    158.6817   1.0683914826e+02   3.1298684545e+01    0.7138311    0.3781016 -43.21  0.001260734    2.362    0.577
        44 -11.6803     66.7376    160.7311   1.1180826769e+02   3.3502421296e+01    0.4716784    0.2936084 -44.39  0.001377865    1.961    0.490
        45 -12.0570     69.6509    146.4487   1.0893093399e+02   3.6511737730e+01     1.496613    0.7421344 -89.47  0.005167954    3.675    0.728
        46  -9.1587    100.9634    142.0741   9.9833175389e+01   3.2705725623e+01    0.5474545     0.260474 -39.17  0.001969043    2.848    0.649
        47  -8.8254    133.6494    142.1571   9.1372787302e+01   2.6531247262e+01    0.4253507    0.1387662 -58.62 0.0009484492    6.415    0.844
        48 -10.3837     87.9189    142.0975   1.0331940337e+02   3.4860580703e+01    0.2954654    0.2522853 -43.46 0.0004021673    1.267    0.211
        49  -8.8291     83.0020    142.5797   1.0472511466e+02   3.5509333742e+01     0.244755    0.1859382 -78.27 0.0006891899    1.321    0.243
        50  -8.4619     32.3491    137.9662   1.1754979727e+02   4.2874071941e+01    0.1869937    0.1373754 -75.71 0.0005600862    1.126    0.112
        51  -9.0438    108.4977    131.7219   9.5642121161e+01   3.3820622056e+01    0.5553266    0.1964872  41.86  0.001870253    2.845    0.648
        52 -13.6400     48.3344    199.3698   1.2027556287e+02   2.7175644893e+01     3.253889     1.187529  62.08   0.01303725    3.378    0.704
        53 -11.3474     24.8643    225.2447   1.2658567719e+02   2.4629647472e+01    0.4993312    0.4711044  25.82  0.002227852    1.678    0.404
        54 -11.4746     16.0798    124.5114   1.2026166463e+02   4.7439118897e+01    0.6285024    0.2467427 -61.56  0.003038363    1.974    0.493
        55  -7.8944    107.4457    119.9880   9.3241528375e+01   3.6785665757e+01    0.2164859    0.1449998 -50.67 6.696162e-05    1.439    0.305
        56  -7.9882    168.8649    113.8453   7.5896580349e+01   2.4952085523e+01    0.2192409    0.1921227 -84.74 0.0005619496    1.342    0.255
        57  -9.1725     97.7914    127.8275   9.7737742795e+01   3.6657195264e+01    0.2933442    0.2453488  -5.76  0.001018047    1.520    0.342
        58 -14.3884      8.3099    240.7581   1.3012102079e+02   2.3465967216e+01     2.176021     1.593383  65.07    0.0031601    1.144    0.126
        59  -9.1240    134.4068    102.7842   8.1360616211e+01   3.5175869454e+01    0.3427463    0.1451605 -36.96  0.001126514    2.627    0.619
        60 -13.3545    224.0377    190.3510   8.1811582729e+01  -4.7822640059e-01     1.915358     1.029036 -25.41  0.007581902    1.982    0.495
        61  -7.5113     61.4710     71.5143   9.4972397603e+01   5.5331609386e+01    0.1382863     0.121712 -37.03  0.000809694    1.023    0.022
        62  -8.0345     51.9508     64.3293   9.6347372863e+01   5.8077201438e+01    0.2102737   0.09048198  49.73 0.0006093623    4.638    0.784
        63 -10.1963     13.3924     60.2704   1.1046946693e+02   6.2397011829e+01    0.2260477    0.1776707 -61.42 0.0007751404    1.155    0.134
        64  -9.0984    141.7384     47.2549   6.2124830404e+01   4.3833466610e+01    0.3000452    0.2332765 -72.81 0.0007262495    1.646    0.392
        65 -10.3958    125.3464    240.8469   1.0926050415e+02   8.2328476542e+00    0.3335172    0.1560453  35.44  0.001647305    1.991    0.498
        66 -11.9126    113.0622    229.8661   1.1037477816e+02   1.2037318643e+01     1.095479    0.2897276  44.79  0.004198652    3.028    0.670
        67 -11.9900    194.9763     39.9155   5.0075762344e+01   3.1252988247e+01    0.6561233    0.6177082  64.65  0.002460024    1.091    0.084
        68 -11.1385    134.0780    230.3357   1.0628705717e+02   8.5937454544e+00    0.4866139     0.360181 -61.17  0.002999924    1.628    0.386
        69  -8.6515     33.0000     19.0155   8.7578988972e+01   6.8679302049e+01    0.1955509   0.05843179 -42.44 0.0005926672    2.949    0.661
        70 -11.5763    124.7466    227.8033   1.0781680503e+02   1.0545235801e+01     1.623277    0.8265502  72.16  0.005674463    4.891    0.796
