#   1 NUMBER                 Running object number                                     
#   2 MAG_AUTO               Kron-like elliptical aperture magnitude                    [mag]
#   3 X_IMAGE                Object position along x                                    [pixel]
#   4 Y_IMAGE                Object position along y                                    [pixel]
#   5 X_WORLD                Barycenter position along world x axis                     [deg]
#   6 Y_WORLD                Barycenter position along world y axis                     [deg]
#   7 A_WORLD                Profile RMS along major axis (world units)                 [deg]
#   8 B_WORLD                Profile RMS along minor axis (world units)                 [deg]
#   9 THETA_WORLD            Position angle (CCW/world-x)                               [deg]
#  10 FWHM_WORLD             FWHM assuming a gaussian core                              [deg]
#  11 ELONGATION             A_IMAGE/B_IMAGE                                           
#  12 ELLIPTICITY            1 - B_IMAGE/A_IMAGE                                       
         1 -14.6676     13.2545    161.1816   1.4238546303e+02   3.9274009770e+01     5.357472     1.560023 -89.25    0.0237137    3.775    0.735
         2 -13.1657    193.0779     28.7933   6.9300600653e+01   3.3056965018e+01     1.444908     1.335515  18.41  0.006686945    1.033    0.032
         3 -13.3715    207.4477      9.6614   6.1324061808e+01   3.1224438681e+01     1.712787     1.062502  32.86  0.007884728    1.765    0.433
         4  -9.4289     33.0000      5.0095   1.0652591644e+02   7.0712964853e+01    0.3489041   0.05807818 -46.03  0.001054971    4.967    0.799
         5 -11.1388      2.3611     26.5345   1.3035016511e+02   6.8575978959e+01    0.5657933   0.06447926 -66.05  0.001804097    4.974    0.799
         6 -11.9135      2.2467     11.0182   1.2605857297e+02   7.1835830834e+01     1.110281    0.1635819 -51.03  0.004576762    3.022    0.669
         7  -8.4806     69.4914    234.4639   1.3676208481e+02   2.1484953488e+01    0.1231241    0.1158198  26.15 0.0006861883    1.571    0.363
         8 -10.9725    140.2213    249.9607   1.2657454058e+02   1.0621344338e+01    0.3524377    0.1072348  39.86  0.001837448    2.372    0.578
         9 -10.5761    122.7478    249.9968   1.2936893482e+02   1.2926655444e+01    0.2658902   0.09291781  40.91  0.001520304    2.037    0.509
        10 -10.9561    109.7067    249.9857   1.3143713272e+02   1.4594809648e+01    0.4252755    0.1106818  50.01  0.001991821    3.405    0.706
        11 -10.5038     97.6231    249.5369   1.3330654258e+02   1.6146026423e+01     0.226368    0.1520189  23.53  0.001593388    2.049    0.512
        12  -9.0533     29.0951    249.6355   1.4364461660e+02   2.3521926102e+01    0.1626087   0.08854341  58.96 0.0008338071    1.253    0.202
        13  -9.3580     33.2005    249.1803   1.4303652414e+02   2.3196719824e+01    0.1767369   0.09729454 -63.58  0.001420964    2.439    0.590
        14 -10.2303     34.9153    244.0373   1.4258388387e+02   2.3739308632e+01    0.2493886    0.1735937  35.55  0.002193632    1.631    0.387
        15  -9.3754      2.5657    249.1777   1.4734716866e+02   2.5913699883e+01    0.1820053    0.1567693  -8.97  0.001756029    2.515    0.602
        16 -10.6547    232.4851    235.1260   1.0997909012e+02  -9.1088084009e-01    0.2472275    0.1836561 -54.64  0.001561478    3.438    0.709
        17  -9.5058    229.3349    229.8641   1.0973074072e+02  -2.7033002627e-03    0.1434052    0.1279281  10.93  0.001168789    1.482    0.325
        18 -14.1070    100.7193    228.7168   1.3119237420e+02   1.8544825712e+01     6.123079          nan  43.40   0.01512549   10.630    0.906
        19  -8.6582    152.4924    212.9251   1.2049318589e+02   1.3460894494e+01     0.132026    0.1153966 -44.06 0.0003913341    1.472    0.321
        20 -12.2950     37.9721    232.9236   1.4164762256e+02   2.5023386944e+01     0.223234    0.1934941  75.37  0.000782443    1.350    0.259
        21 -11.0570     20.9764    200.2517   1.4291676512e+02   3.1697412169e+01    0.2006765    0.1285557  60.44 0.0003988546    1.165    0.141
        22 -11.3505     17.5242    198.4295   1.4342123042e+02   3.2299990493e+01    0.2010255    0.1342292  56.68  0.000543202    1.167    0.143
        23 -11.1816     63.8869    198.4685   1.3523294094e+02   2.7684480900e+01    0.2458016    0.1949671 -45.81  0.001332538    1.827    0.453
        24  -9.5856    192.7667    194.7830   1.1063208894e+02   9.3877405794e+00    0.4430368    0.2447872 -59.67  0.001651346    6.048    0.835
        25 -13.9904     43.8009    224.5914   1.4032849972e+02   2.5678760203e+01     1.184433     1.072764 -42.66  0.007160005    1.822    0.451
        26 -13.0002      9.6869    206.5045   1.4503878376e+02   3.1637822507e+01     1.732782     0.661974  74.81    0.0109575    2.323    0.570
        27 -11.4792     69.6462    190.5076   1.3351381721e+02   2.8371224264e+01    0.2119881    0.2025059 -86.89 0.0006929921    1.315    0.239
        28  -7.9465     47.6921    192.7243   1.3778231598e+02   3.0417127845e+01   0.08370271   0.08019679 -39.45 0.0002367243    1.551    0.355
        29 -12.9234     66.2945    175.7740   1.3285018898e+02   3.1383431563e+01    0.3868049     0.238467 -45.72  0.001686136    2.271    0.560
        30 -10.4597     79.3225    177.7956   1.3042080977e+02   2.9436077820e+01    0.1912307    0.1656962  57.35 0.0003976393    1.089    0.081
        31  -8.1836    101.3152    177.6936   1.2594089101e+02   2.6519177340e+01    0.1212336   0.07948431  65.45 0.0005395004    1.626    0.385
        32 -11.4621     86.8554    168.1902   1.2780592254e+02   3.0220950737e+01     0.537216      0.48611  25.62  0.003847684    1.324    0.244
        33  -8.7464      7.3593    226.2665   1.4605043033e+02   2.8773419055e+01   0.06892614   0.06625779  73.72 0.0006579682    1.638    0.390
        34 -11.7617     87.5662    151.5739   1.2554637879e+02   3.3304738191e+01    0.2411565    0.2254073 -36.03 0.0005203157    1.300    0.230
        35 -12.2160     67.0904    143.9384   1.2925430837e+02   3.7460290099e+01    0.6685928    0.4267027  70.86  0.003867054    1.680    0.405
        36  -8.5312    185.9769    149.2273   1.0369283641e+02   1.6896609592e+01    0.2538712    0.1748942 -64.47  0.001155338    2.711    0.631
        37  -8.8213    101.8172    147.9370   1.2176896631e+02   3.1979398482e+01    0.1828906    0.1667969 -18.56 0.0006122299    1.339    0.253
        38  -8.6209     94.2806    216.3266   1.3124535501e+02   2.1165493439e+01    0.1739631   0.09083516  63.63  0.001031963    2.089    0.521
        39  -8.2787    192.0121    143.9771   1.0140064825e+02   1.6515553739e+01    0.1646691    0.1414998  19.16 0.0003564873    1.005    0.005
        40  -9.5835     98.9062    152.3864   1.2309734058e+02   3.1543951307e+01    0.2372646    0.2145799  56.48 0.0007457979    1.035    0.034
        41  -9.2068    110.1811    137.1052   1.1802808188e+02   3.2819653905e+01    0.3046615    0.1894507 -30.18   0.00138842    2.352    0.575
        42 -10.1953     97.4447    134.5327   1.2064763494e+02   3.5312987826e+01    0.2322841    0.2084551 -20.42 0.0007944942    1.342    0.255
        43  -9.4282     93.1508    132.8823   1.2141949258e+02   3.6285826187e+01    0.2361519    0.1606138  57.20  0.000559326    1.542    0.351
        44  -9.9098     83.1824    134.2244   1.2407295312e+02   3.7412078677e+01     0.241057    0.1839311  61.63 0.0005704233    1.313    0.239
        45 -10.5356     58.0339    133.2195   1.3007193746e+02   4.0726893241e+01    0.2887317     0.151082 -89.59  0.001400267    2.374    0.579
        46  -8.9233    107.0330    123.9995   1.1637805682e+02   3.5977870954e+01    0.1822137    0.1807028  62.46            0    1.040    0.038
        47 -10.0265    173.4300    222.4185   1.1800983938e+02   9.0971447714e+00     0.267222    0.1616283  45.95  0.001721181    1.419    0.295
        48 -10.4238    248.9515    248.6602   1.0932420035e+02  -4.2346550020e+00     0.261979    0.1409078  13.05  0.001810474    1.672    0.402
        49 -10.1078    167.7369    112.8910   9.9362426517e+01   2.6540251175e+01    0.3103378    0.2822496  81.18 0.0007445713    1.398    0.285
        50  -9.3122    203.0004    111.6833   9.1769679106e+01   1.9106321091e+01     0.211573    0.1763418  23.42  0.000528322    1.090    0.083
        51  -8.8667     72.6611     85.9599   1.1792500909e+02   4.9306541945e+01    0.2232058     0.170751  66.99 0.0007205174    1.598    0.374
        52  -9.8325     13.4383     64.7460   1.3331215829e+02   5.9646940302e+01    0.2210397    0.1236899  39.12  0.001299809    2.153    0.536
        53 -10.5327      1.8871     62.1704   1.3694499920e+02   6.0779163768e+01    0.3250436   0.09999625 -76.09  0.001442767    2.639    0.621
        54  -9.2869     32.8223     62.1211   1.2592169384e+02   5.8925429473e+01    0.1820733     0.146818 -76.05 0.0004020299    1.206    0.170
        55 -10.4097     27.2578     60.0144   1.2750539378e+02   5.9825313760e+01    0.4052833    0.1872531  39.53  0.001597729    2.626    0.619
        56  -9.7836     21.3376     57.7085   1.2922299546e+02   6.0749754657e+01    0.2203896    0.1539893  39.05  0.001029998    1.756    0.431
        57 -11.1526      2.3522     46.0473   1.3432971486e+02   6.4328523801e+01    0.5210395     0.127968 -55.67  0.002373267    2.524    0.604
        58  -9.7733     81.5596    248.8529   1.3576447541e+02   1.8140200485e+01    0.2069668   0.07977765  50.58  0.001319526    1.898    0.473
        59  -9.1231     46.9795    249.4754   1.4103461618e+02   2.1804989609e+01    0.1313905   0.06339831  44.44 0.0003315436    1.499    0.333
        60  -8.9580      5.8269    240.9185   1.4668677568e+02   2.6783354470e+01    0.1153826   0.08786208  64.89 0.0004279352    1.220    0.180
        61  -8.9020     70.6361    238.3156   1.3681837601e+02   2.0813543387e+01    0.2112266   0.08601148  51.48  0.001364606    1.823    0.452
