#   1 NUMBER                 Running object number                                     
#   2 MAG_AUTO               Kron-like elliptical aperture magnitude                    [mag]
#   3 X_IMAGE                Object position along x                                    [pixel]
#   4 Y_IMAGE                Object position along y                                    [pixel]
#   5 X_WORLD                Barycenter position along world x axis                     [deg]
#   6 Y_WORLD                Barycenter position along world y axis                     [deg]
#   7 A_WORLD                Profile RMS along major axis (world units)                 [deg]
#   8 B_WORLD                Profile RMS along minor axis (world units)                 [deg]
#   9 THETA_WORLD            Position angle (CCW/world-x)                               [deg]
#  10 FWHM_WORLD             FWHM assuming a gaussian core                              [deg]
#  11 ELONGATION             A_IMAGE/B_IMAGE                                           
#  12 ELLIPTICITY            1 - B_IMAGE/A_IMAGE                                       
         1 -10.3753      9.7020     19.1681   1.1148682006e+02   7.0271358659e+01     1.218753    0.3662329 -29.28  0.003946878    6.294    0.841
         2 -11.2248     23.6211     32.5689   1.0954533003e+02   6.6752036991e+01     1.700354     0.411659 -42.12  0.003994538    3.476    0.712
         3 -10.1434      5.0037     41.7585   1.2042914203e+02   6.6159159770e+01     0.824216      0.31614 -66.37  0.003429298    2.280    0.561
         4  -9.9854     69.3145     40.2842   9.3535580291e+01   5.9882003151e+01    0.8924714     0.392452 -39.32  0.002440869    2.092    0.522
         5 -10.2602     73.6322     17.3469   8.2361030081e+01   6.2757651350e+01     1.324123     0.348499 -28.79  0.004228081    4.442    0.775
         6  -8.2928     71.9775      8.5175   7.8824398232e+01   6.4182412108e+01    0.2619963    0.1623399 -23.57 0.0008529836    1.532    0.347
         7  -9.6997     79.6775     23.9232   8.3156086132e+01   6.0752270639e+01    0.5979688    0.3165489  19.40  0.002181268    2.821    0.646
         8  -9.9465     63.6010      3.2559   7.9272891132e+01   6.6275581577e+01    0.6607621    0.4380445  -9.16  0.003624749    1.424    0.298
         9  -9.8494     60.7444     31.9945   9.3530104791e+01   6.2609787737e+01    0.8638673    0.3730129 -32.44  0.003031877    2.347    0.574
        10  -9.5732     63.0829     20.9650   8.7921260564e+01   6.4010929514e+01    0.5304465    0.2401311 -45.71  0.001433779    2.686    0.628
        11  -9.8902     64.6094     13.1012   8.3715489837e+01   6.4877622522e+01    0.4083449    0.2842654 -17.69   0.00179405    1.313    0.238
        12  -9.0002     47.1166     19.4740   9.3816312353e+01   6.6551228317e+01    0.4857314    0.2192924 -28.17  0.002245026    2.329    0.571
        13  -9.9847     52.8172     13.3546   8.8554278978e+01   6.6682763915e+01    0.7399336    0.3446787  25.59  0.003397379    2.632    0.620
        14  -9.2115     96.0836     15.1643   7.4154010601e+01   5.8673150014e+01    0.6465526    0.2674219 -16.27  0.002141331    3.229    0.690
        15  -9.0202    102.9030     21.6765   7.4961413729e+01   5.6419393399e+01     0.407761    0.2153001 -21.19 0.0008304234    2.014    0.504
        16  -8.8105    112.1982     15.6732   7.0022167209e+01   5.5075441921e+01    0.3414161    0.2065157 -35.35  0.001371037    1.766    0.434
        17 -10.7586     37.0021      9.2501   9.3618878403e+01   6.9397150970e+01    0.8791507    0.3814225 -47.22  0.002663461    2.802    0.643
        18  -8.5104    101.7813      7.8746   6.9419701964e+01   5.8255855978e+01    0.2787752    0.2015928 -27.81 0.0009098987    1.452    0.311
        19  -9.2198    123.8441      5.4931   6.3263199319e+01   5.3382076772e+01    0.7014664    0.1949066  53.67  0.002516123    2.797    0.642
        20  -9.4459    131.0348     17.1092   6.6225997267e+01   5.0448483821e+01    0.4955291    0.2823824  71.38  0.002164735    2.043    0.511
        21  -9.0815    114.3819      9.9396   6.7148867086e+01   5.5191196446e+01    0.4032804    0.1883612  40.36 0.0003777461    2.073    0.518
        22  -8.2933    104.3044      2.6425   6.6511089287e+01   5.8207430601e+01    0.3125524    0.1835701  28.49   0.00153422    1.736    0.424
        23  -8.9685    125.0991     13.0654   6.5959732458e+01   5.2327704595e+01    0.2393069    0.2202333 -44.94 0.0006610437    1.236    0.191
        24  -8.7506    126.8317      9.1836   6.4082621247e+01   5.2303987727e+01    0.2679697    0.1636509  40.82 0.0003840285    1.541    0.351
        25  -8.6039    109.8723      7.8116   6.7348534647e+01   5.6446705143e+01    0.2237369     0.156832 -24.91 0.0006331857    1.485    0.327
        26  -9.1501    115.3799      4.0984   6.4526504649e+01   5.5527804217e+01    0.3975063    0.2521498 -40.16    0.0012935    1.829    0.453
        27  -8.8075    110.1964      3.7175   6.5553813851e+01   5.6768071850e+01    0.4179634    0.2734586 -81.13  0.001898684    2.593    0.614
        28  -8.2080    104.4113     15.1396   7.1820989866e+01   5.6883628170e+01    0.3372847    0.1930701   6.12  0.001436557    2.339    0.573
        29 -10.0433     28.2737     11.4514   9.8901046003e+01   7.0039633712e+01    0.6926081    0.2965166  32.56  0.003626133    2.596    0.615
        30  -9.2497     19.8446      8.8813   1.0200745907e+02   7.1268657702e+01    0.4207065    0.2525108 -12.79  0.001837361    1.703    0.413
        31  -9.8370     18.1452      3.7870   1.0049044512e+02   7.2232231991e+01    0.4936921    0.2671483  34.12  0.002513016    2.281    0.562
        32  -9.7483      2.1876     14.4114   1.1364887770e+02   7.1582951705e+01     0.699103    0.1804417 -59.97    0.0028021    3.910    0.744
        33 -10.0607      6.2419      5.1067   1.0770337414e+02   7.2960956262e+01     0.347629    0.2184646 -25.82  0.001272623    1.309    0.236
        34  -9.5866      2.5473      3.4944   1.0910307253e+02   7.3469571051e+01    0.3388658    0.1626728 -36.23  0.002087742    1.587    0.370
        35  -9.4140     85.2986     13.1979   7.6553131478e+01   6.1104544091e+01    0.3859545    0.2590728 -53.40  0.001529561    2.268    0.559
        36  -7.6134     80.4730     12.4007   7.7751221275e+01   6.2136215937e+01    0.2479194    0.1671162 -43.85  0.001081485    1.847    0.459
        37  -8.5914    141.2510     12.2817   6.2391654488e+01   4.8418877947e+01    0.2459579    0.2297315 -80.82 0.0008119316    1.180    0.153
        38  -9.0923    133.7481     12.1845   6.3811426216e+01   5.0304503974e+01    0.4733282    0.1927973 -43.73  0.001748869    3.074    0.675
        39  -8.5921    131.4979      6.2001   6.1996806495e+01   5.1446458810e+01    0.3516737    0.2679108   0.76  0.001508941    1.419    0.295
        40  -8.1273     85.2996      6.5115   7.3490570797e+01   6.1869600475e+01    0.2868508    0.1444744  27.21  0.001273914    2.273    0.560
        41  -9.1282     78.0892      4.2837   7.4716191429e+01   6.3525448273e+01    0.4386958    0.2471477  -6.55  0.001528184    1.973    0.493
        42  -8.1960    143.1292      5.1360   5.9469246326e+01   4.8631658939e+01    0.3402081     0.169681 -61.71  0.001228322    3.442    0.710
        43  -9.0325     96.2536      4.7320   6.9514734887e+01   5.9776633630e+01    0.3796035    0.2724937 -32.62  0.002129259    1.529    0.346
        44  -8.5063     89.1486      2.5481   7.0507842499e+01   6.1493643195e+01    0.2350619    0.1690632 -13.87 0.0007257778    1.371    0.270
        45  -7.1046    146.6993      1.7115   5.7650461181e+01   4.8026510793e+01    0.1444705   0.09257741  38.42 0.0002257673    1.560    0.359
        46  -8.0567    135.8605      1.5504   5.9433181047e+01   5.0778407487e+01    0.2678928    0.1148273  60.06  0.001122524    1.991    0.498
        47 -10.6281    126.8213    103.6170   9.5611998241e+01   3.6759403289e+01     1.147041    0.6384755 -20.97   0.00373011    3.690    0.729
        48 -10.3690    203.0313    249.3726   1.0672830377e+02  -2.2731890740e+00    0.4215474    0.1914787  36.65  0.002386517    1.671    0.401
        49 -10.6530    187.5458    248.1046   1.0919777373e+02   2.2995766447e-01    0.4225903    0.2674821  51.26  0.002684292    1.632    0.387
        50 -10.4662    108.4597     99.7309   9.9559442337e+01   4.1208264883e+01    0.9208367    0.5856395  69.16  0.002312907    2.440    0.590
        51  -7.4361     87.0278    134.0000   1.1283312357e+02   3.7224744369e+01      0.21312   0.07647365  37.42 0.0007500743    2.874    0.652
        52  -8.2150     82.3268    130.4883   1.1342492893e+02   3.8724287532e+01     0.489511    0.2166668 -76.51  0.001499019    4.700    0.787
        53  -9.7107     98.5421    128.6472   1.0882648112e+02   3.6579259423e+01    0.5735469    0.3459941  75.80  0.002281008    2.737    0.635
        54 -10.3242     70.2137    126.5172   1.1593668565e+02   4.1341541529e+01     0.649079    0.5218287 -49.70  0.001694326    1.288    0.224
        55 -10.1281     58.3531    124.5696   1.1880007286e+02   4.3302825761e+01     0.634744    0.3430088  77.87  0.002243937    2.874    0.652
        56  -9.7308    117.2694    125.6749   1.0336292205e+02   3.3912773886e+01    0.5759981     0.374221  78.92  0.001643583    2.489    0.598
        57  -9.2197    117.0148    120.1854   1.0220473883e+02   3.5152844522e+01    0.3123279    0.2446408   3.22  0.001333247    1.758    0.431
        58  -9.9176     27.0099    122.9620   1.2694503709e+02   4.6903350254e+01    0.5331359    0.3071832  70.40  0.002059074    1.915    0.478
        59  -9.5804     41.4892    122.3094   1.2300453151e+02   4.5693379576e+01    0.4698361     0.218374 -84.28  0.001574503    2.664    0.625
        60  -8.0570    158.6954    122.6750   9.2600273197e+01   2.6053791217e+01    0.2994393    0.1813396  67.21 0.0009505505    2.460    0.594
        61 -10.0584     91.9395    112.8702   1.0730820075e+02   4.1204944020e+01     0.606365    0.4176052 -79.88  0.001765443    1.823    0.452
        62  -8.9117     92.3543    103.7689   1.0511671255e+02   4.3173069802e+01    0.6753519    0.3831584  19.88  0.002656591    2.895    0.655
        63  -9.3122    152.1504    115.7605   9.2425699318e+01   2.8858028250e+01    0.3790375    0.2067798 -26.43  0.001370654    2.630    0.620
        64  -7.9963      1.4059    116.4064   1.3291645646e+02   5.0219699802e+01    0.2372123   0.08652086 -76.43 0.0008835381    2.138    0.532
        65 -10.3530     78.1154    112.5899   1.1113032960e+02   4.3406183067e+01    0.6748133    0.3580566 -71.66  0.001731612    2.349    0.574
        66  -9.6963     81.5655     99.4367   1.0724250483e+02   4.5863127773e+01    0.7750409    0.2849734 -50.00  0.001281617    2.486    0.598
        67  -8.5078    248.1442    114.1756   7.3511413487e+01   7.9818848528e+00    0.1838491    0.1566522 -51.70  0.000434502    1.353    0.261
        68  -7.9823    167.0407    113.9987   8.8577243426e+01   2.5882741718e+01    0.2468141    0.1917683 -81.94 0.0007866476    1.775    0.437
        69  -9.8967     66.0438    103.5234   1.1276066234e+02   4.7144513369e+01    0.7570424    0.4401328  21.24  0.003570518    2.322    0.569
        70 -10.4168     62.9871     95.7655   1.1203376898e+02   4.9301035921e+01    0.6701868     0.384993 -77.68  0.001535447    2.334    0.572
        71  -8.7744     64.7722     85.9938   1.0921721539e+02   5.1258945288e+01    0.6767052    0.4113883 -42.82  0.003391323    1.585    0.369
        72 -10.1281     65.4821    110.9782   1.1441427868e+02   4.5516888180e+01    0.5653331    0.4336966  49.05   0.00125684    1.396    0.284
        73  -8.9396     59.1876    109.2577   1.1590428675e+02   4.6703506412e+01    0.3548034    0.1984779 -73.98 0.0009460531    1.925    0.481
        74  -9.0426    158.9103    112.3128   8.9987211905e+01   2.8040981883e+01    0.2845405    0.2100834 -58.07 0.0006038392    1.563    0.360
        75  -9.7678     14.0859    111.3028   1.2902070497e+02   5.0524185958e+01    0.4056959    0.1952948  77.66  0.001830164    2.553    0.608
        76  -8.7801     14.0744    105.0183   1.2826757012e+02   5.1927584999e+01    0.2370462    0.1360695 -47.89 0.0008264871    1.758    0.431
        77  -9.5555     35.9411    111.2338   1.2291851930e+02   4.8754043921e+01    0.2860096    0.1709743  80.46 0.0008917683    1.987    0.497
        78  -9.0309    149.9812    109.8008   9.1434225704e+01   3.0527391712e+01    0.2762604    0.1954354 -56.54  0.000649692    1.599    0.375
        79 -10.8822     44.8560    102.5680   1.1890103212e+02   4.9850061509e+01    0.8228751    0.4176801  67.86  0.002988237    3.467    0.712
        80 -10.9003     20.7795    100.5850   1.2574130696e+02   5.2441297273e+01     1.013327     0.472166  84.26  0.004309265    3.125    0.680
        81 -10.0531     34.5840     90.9384   1.1995781725e+02   5.3483569992e+01    0.6024457    0.2758376 -80.94  0.001893076    3.033    0.670
        82  -9.9143     20.3601     85.0203   1.2346588593e+02   5.5959282116e+01     0.611074     0.178786 -64.77   0.00190508    2.572    0.611
        83 -10.4416     37.7100     80.5338   1.1688767631e+02   5.5527910114e+01    0.8017489    0.3966842 -20.01  0.003071228    4.273    0.766
        84 -10.5096     25.8381     78.2291   1.2042796398e+02   5.7058925449e+01    0.6671929    0.3931499  74.22  0.001848791    2.541    0.606
        85  -9.6075    149.5412    103.2294   8.9824570227e+01   3.1933856289e+01    0.4351448    0.3179815 -65.70 0.0009559236    1.733    0.423
        86  -8.8641    149.4848     97.4879   8.8291041505e+01   3.3077635368e+01    0.3871852    0.2325266  28.70  0.001513027    2.200    0.545
        87  -8.8033     35.8682    105.0661   1.2198420759e+02   5.0163889088e+01    0.1911846    0.1514481  87.22 0.0004972384    1.247    0.198
        88  -9.6741      6.1662    103.5166   1.3031895768e+02   5.2770369348e+01    0.3876541    0.2324583  72.71  0.001549523    1.770    0.435
        89  -8.5317    165.9654    103.8936   8.6206098839e+01   2.8054176262e+01    0.2567651    0.2190579 -40.11 0.0005084465    1.187    0.157
        90  -8.3864     74.0051    102.7405   1.1023278111e+02   4.6233959739e+01    0.3164997    0.1761516 -53.41 0.0009068968    1.631    0.387
        91  -8.3610    159.2213    101.3991   8.7067106087e+01   3.0088766793e+01    0.2740052    0.2402305 -64.80 0.0004473355    1.271    0.213
        92 -10.6038    123.7612     92.2541   9.3366311503e+01   3.9754346762e+01    0.8055806    0.7418469 -57.02  0.001783455    1.115    0.103
        93  -9.5491     94.3079     97.2116   1.0295177339e+02   4.4294945982e+01    0.3421787    0.2570359 -69.88 0.0006256626    1.501    0.334
        94  -8.8735     96.2751     90.8380   1.0072503517e+02   4.5343382484e+01    0.5252656    0.3184837 -15.35  0.001917192    3.314    0.698
        95  -8.7070    238.4988     93.5275   7.0070488607e+01   1.3054562987e+01    0.2110096    0.1317577 -19.22 0.0002249401    1.721    0.419
        96  -9.1582    172.1441     93.3570   8.2011266904e+01   2.8557401867e+01    0.4092942    0.2810537 -13.31  0.001488142    1.884    0.469
        97  -8.9570    164.7242     94.6039   8.3975520358e+01   3.0091185031e+01    0.2908372    0.2395313 -57.93  0.000769012    1.349    0.259
        98  -9.2968    140.4906     82.1225   8.6117419739e+01   3.8103630268e+01    0.7367684    0.3491609 -36.24  0.001447715    2.178    0.541
        99  -8.9848    140.1265     75.2177   8.4129734369e+01   3.9483664589e+01    0.5939633    0.2684703 -32.85  0.001398775    2.414    0.586
       100  -9.5705    138.6766     92.5439   8.9574744037e+01   3.6483125366e+01    0.4410944    0.3716156 -61.43  0.001273731    1.310    0.237
       101  -8.5607    139.0208     87.9894   8.8195899451e+01   3.7303906609e+01    0.3651233     0.262958  23.67  0.001367216    1.695    0.410
       102 -10.1834      4.2339     89.5693   1.2920006130e+02   5.5962498238e+01    0.6753145    0.2660984 -86.77  0.001965506    2.943    0.660
       103  -9.6742      7.0062     78.0703   1.2670461250e+02   5.8339624446e+01    0.7232363    0.2411266 -38.73  0.003042659    3.743    0.733
       104  -9.1936    157.7181     90.9622   8.4546926953e+01   3.2425007778e+01    0.3966759    0.2047913 -36.26  0.001057338    1.981    0.495
       105  -9.2284    150.2805     89.5566   8.5889479668e+01   3.4429160807e+01     0.581022    0.2488189 -30.00  0.001833125    3.067    0.674
       106  -8.8618    108.5311     91.0226   9.7226655090e+01   4.3056075523e+01    0.4923171    0.3600364  31.85  0.001875431    1.491    0.330
       107  -9.2944    113.5011     89.4644   9.5395428751e+01   4.2416153977e+01    0.3528097    0.2882927 -57.63  0.001814234    1.283    0.221
       108 -10.2705     47.9433     84.4707   1.1433796299e+02   5.3617129778e+01    0.5143822    0.3345967 -88.73  0.001572993    2.080    0.519
       109  -9.4382     48.9758     77.2196   1.1232261156e+02   5.5112068022e+01    0.5363091     0.361978 -17.04  0.002863197    1.948    0.487
       110 -10.2070     85.3521     86.6487   1.0290139016e+02   4.8092294470e+01    0.4754988    0.3514034  88.24 0.0009454303    1.945    0.486
       111  -9.6258     87.6690     78.7155   9.9992285582e+01   4.9409331312e+01    0.5676141    0.3586785  17.71  0.001664201    2.238    0.553
       112  -8.9959    241.5746     86.7599   6.7966855219e+01   1.3385652883e+01     0.213642    0.1160826 -41.62 0.0009558015    1.760    0.432
       113 -10.3290     31.6404     65.2129   1.1557406043e+02   5.9428985748e+01     1.185606     0.436877 -32.76  0.004017556    4.929    0.797
       114  -8.6081    163.2632     87.2454   8.2241841201e+01   3.1797909321e+01    0.3275813     0.215701 -31.78 0.0008362607    1.575    0.365
       115  -9.7990    228.4079     84.6235   6.9390638069e+01   1.6639821669e+01    0.2633918    0.2550145 -32.71 0.0002134507    1.035    0.034
       116  -8.7386    232.7246     80.8026   6.7777966297e+01   1.6230409680e+01    0.2908989    0.2000669  31.07  0.000760044    1.737    0.424
       117 -10.3420    103.9836     82.5811   9.6163418067e+01   4.5689316453e+01    0.5564581    0.3203542 -56.71  0.001075864    1.995    0.499
       118  -9.4921    104.9610     71.4767   9.2536150009e+01   4.7752139806e+01    0.8420832    0.3417377 -36.62  0.003016648    2.664    0.625
       119  -8.7695    157.7351     83.5495   8.2425281466e+01   3.3797373311e+01    0.3331419    0.2377648 -50.61 0.0009258231    1.519    0.342
       120  -9.1249    157.4051     76.9665   8.0564261433e+01   3.5066970675e+01      0.60495    0.2990625 -52.97   0.00196815    2.724    0.633
       121  -9.4074    150.1190     79.6724   8.3053880981e+01   3.6321125040e+01    0.6044986    0.2956905 -27.91  0.001933071    2.512    0.602
       122  -9.4846    115.1979     73.3272   9.0152516295e+01   4.5330928039e+01    0.5962474     0.258335 -38.21  0.002224318    2.334    0.572
       123  -8.8944    118.9718     80.4560   9.1270695244e+01   4.3142640452e+01    0.3531519     0.238422 -54.81 0.0007245993    1.650    0.394
       124  -8.4310    119.8289     76.3555   8.9795578389e+01   4.3772021204e+01    0.3427663    0.2255001  33.82 0.0007622326    1.664    0.399
       125  -9.2752     74.2110     79.1755   1.0441102161e+02   5.1432983367e+01    0.6470584    0.2506199 -49.81  0.001596201    2.317    0.568
       126  -7.9226     68.6088     80.2760   1.0652927435e+02   5.1996914092e+01    0.1954185    0.1140762 -46.08 0.0009470669    1.557    0.358
       127  -8.6805    166.1797     78.6138   7.9113370088e+01   3.2639543648e+01    0.2567268    0.2055222 -46.11  0.000988878    1.292    0.226
       128  -7.9418    184.1965     78.0798   7.5271934636e+01   2.8289446849e+01    0.2275984    0.2044271   5.88 0.0005354122    1.190    0.159
       129  -7.6495    174.0608     78.7453   7.7489550234e+01   3.0680760754e+01    0.1957297    0.1322293  55.84 0.0003978223    1.491    0.329
       130  -9.4297    127.3975     75.2529   8.7409328589e+01   4.2353286496e+01    0.3818108    0.2960725 -72.17 0.0006676892    1.702    0.413
       131  -8.8274    129.5024     68.9790   8.4890160671e+01   4.3059819055e+01    0.5898132    0.3094851  24.04  0.001844187    3.794    0.736
       132  -8.8184    130.4977     64.9674   8.3342872573e+01   4.3561391555e+01    0.3920604    0.2587869 -25.37  0.001191172    1.660    0.398
       133  -7.6207    237.6877     75.2959   6.5687153295e+01   1.5914352726e+01     0.142489    0.1036806 -61.99 0.0005492548    1.598    0.374
       134  -9.9585     81.6070     72.3238   1.0006043693e+02   5.1743775329e+01    0.4485805    0.3266819 -72.66  0.000965565    1.841    0.457
       135  -9.1327     83.3452     64.5887   9.7113688480e+01   5.3035846836e+01    0.4695809    0.3051162 -16.92  0.002146494    2.075    0.518
       136 -10.6521     55.6915     71.1850   1.0847694163e+02   5.5646842199e+01    0.6838652    0.4114584  58.05  0.001860344    2.558    0.609
       137  -9.4773     55.3829     63.1952   1.0635911562e+02   5.7377448234e+01    0.4091659    0.2774348   2.11  0.001401053    1.939    0.484
       138 -10.2267     62.9395     60.7680   1.0291766552e+02   5.6899198374e+01     0.950012    0.2884454  32.55  0.003382076    3.876    0.742
       139  -7.9936    230.6930     73.8094   6.6304768159e+01   1.7724386061e+01    0.1953143    0.1783675  36.73 0.0007548642    1.162    0.139
       140  -9.1687    162.7626     72.7535   7.8117425690e+01   3.4497697122e+01      0.44409    0.2268763 -41.71  0.001381563    1.988    0.497
       141 -12.0239    237.2569    246.6755   1.0066991949e+02  -7.0154583288e+00    0.2218611    0.1820415  21.30  0.001733392    1.237    0.191
       142 -10.2710    177.8976    245.2708   1.1049974310e+02   2.0661089149e+00     0.365064    0.2278876  63.03  0.002051641    2.425    0.588
       143  -9.7959     16.0297     70.5172   1.2233529499e+02   5.9453480008e+01     0.434913    0.2117243 -62.14  0.001483352    1.583    0.368
       144  -9.7775     17.1250     62.3004   1.2028470069e+02   6.1159421637e+01    0.5402187    0.4878905 -50.36  0.004006843    1.137    0.120
       145 -10.6878    195.6438    247.9805   1.0779566654e+02  -9.9583317505e-01    0.5066187    0.2405729  32.03  0.002639717    1.796    0.443
       146  -8.7913     10.0139     47.3179   1.1967674836e+02   6.4750874699e+01    0.2307013    0.1721227 -59.76 0.0007602342    1.122    0.109
       147 -10.0295     14.5283     44.8068   1.1717513754e+02   6.4993295427e+01    0.4838143    0.2518481 -41.88  0.001296744    1.601    0.375
       148  -9.7069      6.8912     32.5067   1.1715256777e+02   6.7909327187e+01    0.2610468    0.1889724 -19.03 0.0008966254    1.409    0.290
       149 -10.0472      7.1309     28.2044   1.1576614796e+02   6.8732031827e+01    0.2781153    0.2485821  28.38  0.001086441    1.474    0.322
       150  -8.2538    169.6496     71.3921   7.6248953769e+01   3.3024593584e+01    0.2761573    0.1762239 -44.86  0.000646686    1.633    0.388
       151  -9.3969    147.1040     69.3637   8.0629487885e+01   3.8895991135e+01    0.4335262    0.2761546 -58.11  0.001004238    2.053    0.513
       152  -8.1776    147.4613     63.7238   7.8770056261e+01   3.9785935992e+01    0.2983145    0.2109936  25.70  0.001104996    1.681    0.405
       153  -8.5954    156.1198     70.2790   7.8834260526e+01   3.6554371435e+01    0.2199143    0.1963474  51.51 0.0005924075    1.112    0.100
       154  -7.9724     95.1498     54.0998   8.9786846864e+01   5.2938867667e+01    0.3689802     0.130734 -44.73  0.001302386    2.877    0.652
       155  -9.8550     94.8370     68.2876   9.4609341306e+01   5.0293307602e+01    0.3929484    0.2602395 -52.22 0.0008773124    1.587    0.370
       156  -9.4211     96.9105     59.0298   9.0932537293e+01   5.1695492816e+01    0.7247139    0.3980463 -14.81  0.002464387    3.675    0.728
       157  -9.1345     40.0029    106.7487   1.2104793347e+02   4.9386091051e+01    0.2280647    0.1424641 -82.27 0.0007549283    1.621    0.383
       158  -8.1282     75.6763     67.0759   1.0044022760e+02   5.3761441524e+01     0.267159    0.1200709 -54.50 0.0008498417    2.384    0.581
       159  -9.2011    138.0976     65.4230   8.1564296335e+01   4.1724205579e+01      0.68722    0.2636178 -36.15  0.001252267    2.621    0.618
       160  -9.3863    140.4252     42.0789   7.3196816336e+01   4.4931715977e+01    0.7770436    0.3213931 -43.38  0.002473566    2.724    0.633
       161  -9.3624    139.0253     56.3755   7.8383815374e+01   4.3047438797e+01    0.7112432    0.2465177 -39.21   0.00176791    2.863    0.651
       162  -8.7395    141.9092     48.6354   7.5104040069e+01   4.3585685690e+01    0.3367668    0.2456612 -13.28  0.001181982    1.550    0.355
       163  -9.1649    121.2232     65.9550   8.6132096989e+01   4.5447849020e+01     0.381983    0.2744017 -49.29 0.0006437943    1.493    0.330
       164  -8.1827    122.2006     61.5706   8.4425902738e+01   4.6028853274e+01    0.3700757    0.2220859  27.30  0.001342639    2.167    0.539
       165  -8.3714    170.9411     65.7602   7.4298797960e+01   3.3633320105e+01    0.2810153    0.2168879  84.31  0.001087498    1.585    0.369
       166  -9.2882    109.9507     63.9331   8.8647496786e+01   4.8205218154e+01    0.3577634    0.2612344 -55.39 0.0006003889    1.582    0.368
       167  -9.1666    110.9157     58.0877   8.6408453471e+01   4.9077010160e+01     0.466031    0.3068756  22.13  0.001133189    1.918    0.479
       168  -8.6597    157.6366     63.0980   7.6276918354e+01   3.7395495004e+01    0.2466231    0.2135325  82.04 0.0007078839    1.304    0.233
       169  -8.4978    164.8145     60.7863   7.4032809930e+01   3.5977472180e+01    0.2121415    0.1788006 -62.95 0.0006092686    1.333    0.250
       170 -10.2178     89.8573     38.2755   8.5636043448e+01   5.6665088605e+01    0.8774068    0.3491423  32.27  0.002977585    3.655    0.726
       171  -8.7412     80.0178     46.4699   9.2038519938e+01   5.7036850432e+01    0.3118886    0.2201761 -21.57 0.0008176339    1.453    0.312
       172  -9.9782     72.9973     59.0325   9.8822386846e+01   5.5795179450e+01    0.5274714    0.2555945 -54.15  0.001016843    2.278    0.561
       173  -9.0725     75.5863     50.6098   9.5066534536e+01   5.7012103242e+01    0.5894778    0.3215891  22.27  0.002162385    2.511    0.602
       174  -8.1127    152.6759     59.5780   7.6259011408e+01   3.9201628982e+01    0.2901803    0.1392766 -34.50  0.001108929    2.093    0.522
       175  -8.4093    146.5261     59.0215   7.7477548985e+01   4.0801047597e+01    0.2778195    0.2181875 -53.44 0.0008871842    1.423    0.297
       176  -9.0157    147.2499     54.2600   7.5757118438e+01   4.1396306442e+01    0.4930198    0.2650122 -18.09  0.001642816    2.502    0.600
       177  -9.7129    130.5885     46.1562   7.6961969248e+01   4.6686560398e+01    0.8920172    0.3696321 -21.47   0.00145596    3.662    0.727
       178  -8.7699    132.9579     35.9608   7.2759858922e+01   4.7621417201e+01    0.3878947    0.2260346 -43.24 0.0005034883    1.892    0.472
       179 -10.6524    134.0942     30.8454   7.0645182469e+01   4.8037744660e+01    0.3612324    0.2704443   2.56 -0.000430966    1.516    0.340
       180  -8.8689    129.9975     58.0193   8.1182348271e+01   4.4890721184e+01    0.3625151    0.2316223 -38.56 0.0004889253    1.571    0.364
       181  -9.4813    128.1074     52.8311   7.9908516491e+01   4.6197468042e+01    0.3171876    0.2839078  72.09 0.0002692898    1.266    0.210
       182  -8.6171     87.6210     58.6202   9.3757306609e+01   5.3470220425e+01    0.2667339    0.2275306 -62.02 0.0007417586    1.383    0.277
       183  -8.1165    122.5505     41.1141   7.7197672017e+01   4.9328843294e+01    0.2969456    0.2112563  14.90  0.001400155    1.675    0.403
       184  -9.4908    118.3110     54.7237   8.3168594594e+01   4.8084219168e+01    0.5491059    0.3173734 -42.25  0.001281228    1.769    0.435
       185  -8.9476    121.1041     46.8564   7.9648672579e+01   4.8766803968e+01     0.356122    0.2075435 -31.68 0.0005518853    1.728    0.421
       186 -10.1466     50.1039     54.1661   1.0560194407e+02   5.9868375568e+01    0.6367285     0.338618 -64.22  0.002386783    2.468    0.595
       187  -9.6846     56.4591     43.1354   9.9460512031e+01   6.1222812578e+01    0.7887895    0.4210623  -7.55  0.002825851    4.319    0.768
       188  -9.7777    162.4941     53.0496   7.2083958489e+01   3.7773700324e+01    0.5100149    0.3846142 -25.60  0.001991224    1.381    0.276
       189  -9.2070    105.4817     51.4745   8.5696046253e+01   5.1368165455e+01    0.7166947    0.2666128 -38.52  0.002403094    2.619    0.618
       190  -8.5463     88.9070     53.0947   9.1436943543e+01   5.4276661646e+01    0.4334213    0.2687613   6.78  0.001787473    2.649    0.623
       191  -8.8817     43.8731     53.3521   1.0774200877e+02   6.0735809273e+01    0.3040398    0.2086284 -56.04 0.0008466395    1.368    0.269
       192  -7.8145     40.3467     49.8569   1.0805709558e+02   6.1815544887e+01     0.195363    0.1067866 -52.03 0.0005726338    1.568    0.362
       193  -8.1389    152.6691     53.5483   7.4317116130e+01   4.0167578960e+01       0.2627     0.140309 -32.50 0.0007166218    1.900    0.474
       194  -8.2445    149.9481     47.8815   7.3046996982e+01   4.1715414011e+01    0.2517279    0.2100323 -32.86 0.0004883929    1.225    0.184
       195  -8.6232    111.8677     46.6680   8.2116392646e+01   5.0835890983e+01    0.2898882     0.219714 -35.56  0.000598325    1.317    0.241
       196  -9.9726     37.8144     41.9967   1.0656977175e+02   6.3631267755e+01    0.3798412    0.2802342 -82.17  0.001372166    2.166    0.538
       197 -10.5089     35.9213     37.9546   1.0599587461e+02   6.4601476543e+01    0.5318059    0.2982169 -18.78 0.0003617077    2.245    0.555
       198  -9.8166    166.6795    248.2153   1.1281628672e+02   3.4358807480e+00     0.405098     0.192548  25.00  0.001835897    3.220    0.689
       199  -8.5136      1.5034    237.6476   1.3976426062e+02   2.6538567150e+01    0.1556021   0.08542397 -86.48 0.0002292799    1.572    0.364
       200 -10.1988    187.7621    233.8096   1.0723128837e+02   1.9489140938e+00    0.3052737     0.247995  46.04  0.001620017    1.250    0.200
       201 -10.0083     76.2068     32.0128   8.7769808881e+01   6.0140568507e+01     0.440168    0.3651799  78.87  0.001126023    1.931    0.482
       202  -7.2635    114.2953    231.6665   1.2027955049e+02   1.3873282265e+01     0.118646   0.07446563  65.48 0.0005063728    1.642    0.391
       203  -8.9824     84.6860     21.9106   8.0604449311e+01   6.0099399121e+01    0.2595191    0.2355986  11.18 0.0007419667    1.081    0.075
       204  -8.7642    152.0094     30.7513   6.6832927078e+01   4.3572217042e+01    0.3084975    0.1939291 -13.71   0.00103337    1.862    0.463
       205 -10.2862    153.1806     40.5858   6.9926591049e+01   4.1961472054e+01    0.8816239    0.4454746  48.07  0.003331743    1.895    0.472
       206  -9.3456    101.0508     31.8564   7.9627022504e+01   5.5421931086e+01    0.5498533    0.2407257 -34.06  0.001898632    2.243    0.554
       207  -8.9685    105.0087     40.9185   8.1968320225e+01   5.3217555183e+01    0.3920818    0.2345274 -45.29 0.0009982573    1.863    0.463
       208  -8.4769    106.0109     36.4567   7.9976178362e+01   5.3695390807e+01    0.2893661    0.2224794  37.16 0.0007011165    1.260    0.206
       209  -7.8837    114.6101     39.7998   7.8826557296e+01   5.1320947281e+01    0.5299808    0.2241892 -18.74  0.001598515    4.252    0.765
       210  -8.3556     53.2141     39.3211   9.9347415060e+01   6.2355786991e+01    0.2714933    0.1688742 -34.44  0.001084525    1.433    0.302
       211  -8.2300     54.5250     35.5210   9.7388453388e+01   6.2870330954e+01    0.2165436    0.1558521  10.58 0.0007037347    1.505    0.336
       212  -8.5286     71.1524     32.1453   8.9647713912e+01   6.0968396194e+01    0.2554158    0.2045165 -64.24 0.0005254617    1.856    0.461
       213  -8.4554    153.6333     34.8282   6.7898021342e+01   4.2629918722e+01    0.3280376    0.1297011 -34.79 0.0007934973    2.500    0.600
       214  -9.4630    223.3437     36.3434   5.7548880764e+01   2.4598049101e+01     0.391507    0.2725468 -22.12  0.001486311    1.533    0.348
       215  -8.8813    144.2107     36.6041   7.0456378019e+01   4.4768698965e+01    0.2887902    0.2234934 -65.16 0.0005579658    1.602    0.376
       216 -10.0877    149.3512    223.6358   1.1285382313e+02   9.6179846119e+00    0.2136815      0.19012  49.60 0.0004320589    1.116    0.104
       217  -7.1397     55.7350    217.2559   1.2965719338e+02   2.4345661608e+01    0.1089379   0.06338425  64.91 0.0006807639    1.445    0.308
       218  -7.7011     22.5603    217.2082   1.3549423014e+02   2.8022537405e+01    0.1266129   0.08188231 -75.52  0.000451068    1.546    0.353
       219  -7.5361    151.1557    209.1814   1.1054005065e+02   1.1577236655e+01    0.1672662    0.1289467  57.39 0.0002650408    1.279    0.218
       220 -10.8416     21.9582     53.6381   1.1642050638e+02   6.2658386203e+01    0.7902482    0.4409565 -86.78  0.002781225    3.183    0.686
       221  -8.7580    118.9300     34.5199   7.5694442515e+01   5.1124744537e+01    0.3003871    0.1981889 -28.47 0.0007210391    1.532    0.347
       222  -9.1418    110.2774     33.0858   7.7467967202e+01   5.3268944557e+01    0.3886569    0.2235726 -43.75  0.001109337    1.967    0.492
       223  -8.0830    110.3781     26.8000   7.4976359753e+01   5.4115463870e+01     0.274762    0.1692435 -13.55  0.001229839    1.835    0.455
       224  -7.5851     50.3028     35.3022   9.9013719407e+01   6.3459590806e+01    0.1292085   0.08615126 -16.93  0.000224467    1.591    0.372
       225 -10.2293     85.0951     48.0234   9.0882938079e+01   5.5877193044e+01    0.4309342    0.3136544 -64.77 0.0009242249    2.004    0.501
       226 -10.1375     10.9342    207.2632   1.3698372802e+02   3.0937045108e+01     0.467968    0.2282342  27.18  0.002816568    2.841    0.648
       227  -9.2605    191.5421    193.4585   1.0021731998e+02   6.9109715317e+00    0.6259476     0.328967 -60.09  0.002319697    4.539    0.780
       228 -10.1194     46.3357     29.7501   9.8497636303e+01   6.4939284503e+01    0.4442657    0.2606192 -57.54  0.001106902    2.346    0.574
       229  -8.5442     42.3066     28.2759   9.9636640193e+01   6.5680504448e+01    0.2293754    0.1425738 -27.91            0    1.472    0.320
       230  -7.3895    196.9798     29.0000   5.8896387940e+01   3.2131876092e+01    0.1664542    0.1593336 -85.87 0.0003122728    1.010    0.010
       231  -8.1993    156.5900     27.7382   6.4936670711e+01   4.2773584870e+01    0.2048544    0.1317065 -38.92 0.0007902379    1.630    0.387
       232  -8.0992    149.7038     25.6786   6.5534991505e+01   4.4786972536e+01    0.2149622     0.125209  11.14 0.0006668234    2.571    0.611
       233  -7.2993     26.2855    175.6021   1.3216281602e+02   3.5613836503e+01    0.1280971    0.1066333  29.78 0.0007594055    1.581    0.367
       234  -9.0591     91.3976     26.2083   8.0273186775e+01   5.8195189817e+01    0.3776412    0.2390089 -50.72  0.001318732    2.150    0.535
       235  -8.9554     91.8535     21.2175   7.8024393915e+01   5.8785134353e+01    0.2784679    0.1965079  25.11 0.0008163181    1.407    0.289
       236  -8.9607    144.3922     25.1428   6.6394393152e+01   4.6198028129e+01    0.3729547    0.1836243 -22.56  0.001424002    2.216    0.549
       237  -8.6725    128.6083     25.2849   6.9842830900e+01   5.0078370133e+01    0.4624512    0.2926025   0.66  0.001600739    2.008    0.502
       238  -7.1355    168.3300    174.3059   1.0139937927e+02   1.4354090029e+01     0.139698     0.104003  12.07 0.0005117629    1.657    0.397
       239  -7.7479    155.3874     23.2466   6.3636066911e+01   4.3617977926e+01    0.1962013    0.1315331 -37.10 0.0003324501    1.565    0.361
       240  -8.3484    111.8453     21.0294   7.2281900211e+01   5.4523900772e+01    0.4000173     0.142985 -31.15  0.001510201    2.748    0.636
       241  -9.0499    242.9179    169.2779   8.6311386895e+01   1.1308265706e+00    0.2555755    0.2023765  34.94 0.0003666121    1.254    0.202
       242  -7.7587    140.3262     22.7013   6.6346779394e+01   4.7509703775e+01    0.1438049    0.1107168 -69.08 0.0003488933    1.633    0.388
       243  -9.2784    118.8552     21.3218   7.0633460218e+01   5.2877435138e+01    0.3283671    0.2300747 -20.89 0.0007227439    1.470    0.320
       244  -8.6931    120.8980     15.2591   6.7762841700e+01   5.3096074397e+01    0.2805077     0.167385  17.96  0.001244111    2.080    0.519
       245  -8.8020     40.9210     20.8306   9.7146254322e+01   6.7109423409e+01     0.233479    0.1493597 -40.52 0.0003715734    1.410    0.291
       246  -7.3356     24.3322    170.3062   1.3216040247e+02   3.6886255060e+01    0.1031764   0.07965192 -52.02 0.0007039123    1.663    0.399
       247  -7.4937    169.5785     20.1722   6.0221650275e+01   4.0283654383e+01    0.1888164    0.1393605  -0.14 0.0005584728    1.615    0.381
       248  -7.3504    151.3042     20.6045   6.3474597727e+01   4.4969194961e+01    0.1535315    0.1048502 -60.38 0.0007005373    1.823    0.451
       249  -8.3405    139.7746     18.5917   6.4969837956e+01   4.8118067236e+01     0.263365     0.206746 -63.18   0.00112057    1.545    0.353
       250  -8.8322     15.4259    170.1321   1.3398068338e+02   3.7730597250e+01     0.226657    0.1247633  43.15  0.001451716    1.753    0.429
       251  -8.0626      7.7770    169.4767   1.3548554154e+02   3.8509753200e+01    0.2542602   0.08953495  59.45  0.001271621    2.694    0.629
       252  -7.8120    230.4881    168.4751   8.8296118613e+01   3.4630918413e+00    0.2724977   0.09960509 -47.69 0.0008102544    5.672    0.824
       253  -9.6673    244.0882    164.3763   8.5124847510e+01   1.5882829614e+00    0.3640005    0.2113475  36.57  0.001518128    1.633    0.388
       254  -9.0642     98.9339    164.6008   1.1498661001e+02   2.8693808641e+01    0.2141728     0.179243 -68.30 0.0003003049    1.211    0.174
       255  -8.5449    165.0005    161.5989   9.9683477788e+01   1.7279455081e+01    0.2249572    0.1894972 -16.13 0.0001882883    1.355    0.262
       256  -8.7570    243.9686    159.5457   8.4154544163e+01   2.2717568054e+00    0.2378839    0.1766566 -18.80 0.0004476852    1.259    0.206
       257 -10.3439    211.8445    157.4466   8.9420375965e+01   8.6434015857e+00     0.261871    0.2302673  37.10 0.0003940452    1.144    0.126
       258  -8.5914    133.6319    145.5066   1.0350799151e+02   2.6588074383e+01    0.6029937    0.1402849 -50.85  0.001684251    4.739    0.789
       259  -8.5227     97.8530    149.1340   1.1276423597e+02   3.2173067679e+01    0.1907595    0.1767413  82.48 0.0002693876    1.020    0.020
       260  -8.1326    232.4777    147.4982   8.3567899436e+01   6.1386752169e+00     0.138342    0.1207345   4.95  0.000810181    1.021    0.020
       261  -8.7741     68.3252    145.3307   1.1940338392e+02   3.7351896463e+01    0.2696664    0.2409919  49.78  0.001615501    1.197    0.165
       262  -8.7773     65.6815    143.3193   1.1976643556e+02   3.8145925871e+01    0.2428913    0.1808129 -70.02 0.0006472635    1.231    0.188
       263  -8.8865    231.0412    139.9544   8.2165188068e+01   7.5511656410e+00    0.2020554    0.1813819   2.70 0.0002961144    1.009    0.009
       264  -7.5988    159.3973    138.8000   9.6161349526e+01   2.2741700331e+01    0.1857253    0.1413179 -30.02 0.0002384259    1.455    0.313
       265  -7.2844    216.9864    138.7604   8.4403476848e+01   1.0575091998e+01    0.1825983    0.1152449  44.92 0.0006015691    1.561    0.360
       266  -8.9204     65.8434    136.6585   1.1873359977e+02   3.9620142625e+01    0.3246836    0.1433085 -49.69  0.001417962    2.408    0.585
       267  -8.2571    241.3033    137.3092   7.9841195441e+01   5.9375773866e+00    0.1401137   0.09769279   8.94 0.0004453674    1.607    0.378
       268  -8.4824    112.1341    133.8441   1.0638619070e+02   3.3076621621e+01    0.2850019     0.200784  76.13   0.00109304    1.833    0.455
       269 -10.4142    140.9075    117.2342   9.5483629736e+01   3.0980026845e+01    0.9841747    0.4281473 -43.35  0.001402464    2.345    0.574
       270  -9.8196    134.3019    131.4692   1.0039540197e+02   2.9376341380e+01    0.5788181    0.4597809  43.55  0.002990491    1.231    0.188
       271 -10.1689    135.4678    122.4706   9.8067689309e+01   3.1024079144e+01     0.454415    0.3744531 -57.32  0.001652749    1.267    0.211
       272 -10.2536    139.5179    103.6052   9.2371383258e+01   3.4072507623e+01    0.7448474    0.3621525 -45.35  0.002122897    2.078    0.519
       273  -8.6821    125.9212     84.0449   9.0444504009e+01   4.0959357292e+01    0.5607737    0.3315742  13.60  0.001809203    3.786    0.736
       274  -9.7669    130.3427    118.7750   9.8472254478e+01   3.2844215837e+01    0.3856815     0.279957 -74.76 0.0007548956    1.803    0.445
       275 -10.9691    133.2304    109.5415   9.5483051975e+01   3.4189780003e+01    0.9321014    0.4883401 -44.57  0.003123447    1.917    0.478
       276 -10.5026    109.3006    112.6232   1.0249683040e+02   3.8243777938e+01     1.220121    0.5865427 -50.37  0.002021067    2.038    0.509
       277 -10.9956    120.8562    110.0843   9.8810987083e+01   3.6591214602e+01     1.206456    0.5786071 -51.81   0.00308876    2.160    0.537
