#   1 NUMBER                 Running object number                                     
#   2 MAG_AUTO               Kron-like elliptical aperture magnitude                    [mag]
#   3 X_IMAGE                Object position along x                                    [pixel]
#   4 Y_IMAGE                Object position along y                                    [pixel]
#   5 X_WORLD                Barycenter position along world x axis                     [deg]
#   6 Y_WORLD                Barycenter position along world y axis                     [deg]
#   7 A_WORLD                Profile RMS along major axis (world units)                 [deg]
#   8 B_WORLD                Profile RMS along minor axis (world units)                 [deg]
#   9 THETA_WORLD            Position angle (CCW/world-x)                               [deg]
#  10 FWHM_WORLD             FWHM assuming a gaussian core                              [deg]
#  11 ELONGATION             A_IMAGE/B_IMAGE                                           
#  12 ELLIPTICITY            1 - B_IMAGE/A_IMAGE                                       
         1 -10.6398    240.9590     18.0422   6.0517675161e+01   2.3603438959e+01    0.2672996    0.1965867 -24.09  0.001413685    1.820    0.451
         2  -8.8784    201.7759     11.6983   6.3059886530e+01   3.3487014598e+01    0.2045136    0.1378662  59.87  0.000647906    1.413    0.292
         3  -9.3145    229.4427      9.0091   5.9657032883e+01   2.7268826990e+01    0.1919982    0.1415111  84.22 0.0004746166    1.155    0.134
         4  -8.4987    211.6545      8.7034   6.1300506730e+01   3.1448778935e+01    0.1264782    0.0887905  48.82  0.000703366    1.672    0.402
         5  -9.3020    249.1373      4.3360   5.7061184586e+01   2.3405538319e+01    0.1890221    0.1598475 -48.49  0.001005043    1.341    0.254
         6  -9.7102     33.6922    247.9227   1.4671249008e+02   1.9684075210e+01    0.2246075    0.1225002  55.99  0.001426045    1.444    0.307
         7 -10.1678    236.4674    229.2283   1.0646387850e+02  -9.6778680716e+00    0.3402639    0.2696975 -45.50  0.001626074    1.651    0.394
         8 -10.9761    226.9787    219.8444   1.0652800610e+02  -6.7807810029e+00    0.5453457    0.4624278  72.17  0.002812828    1.811    0.448
         9 -11.7412    248.5990    215.1561   1.0173409645e+02  -9.6041361386e+00     1.216216    0.4925137 -34.97  0.005567111    2.442    0.591
        10 -10.8977    224.2301    245.2445   1.1142469204e+02  -9.9311145067e+00    0.6611488    0.5322607 -61.85  0.004128455    2.050    0.512
        11 -10.6533    216.2553    234.1059   1.1103566286e+02  -7.0953499727e+00    0.6971501     0.458937 -68.05  0.003123834    3.649    0.726
        12 -10.5525    239.6493    221.4490   1.0449383087e+02  -9.0868930584e+00    0.6072446    0.4873909 -39.85  0.003408062    1.484    0.326
        13 -10.9505    228.2747    202.8069   1.0310593587e+02  -4.3585235171e+00     1.101852    0.3731855 -29.41  0.003424143    4.746    0.789
        14 -11.4563    224.4347    193.1120   1.0193961982e+02  -2.0776618014e+00      1.17841    0.5982155  38.40  0.005354457    1.932    0.482
        15 -10.1260    231.3314    186.6374   9.9350551095e+01  -2.2431796221e+00    0.5323529    0.3148784 -36.93  0.002279001    1.656    0.396
        16 -10.3538    232.7447    213.7411   1.0433968042e+02  -6.8270285014e+00    0.4508951    0.2548646 -27.67  0.001806659    1.864    0.464
        17 -10.8869    245.5353    203.9076   1.0015721067e+02  -7.4591595129e+00    0.6360195    0.4839641  69.95  0.003193636    2.356    0.576
        18 -10.7580    231.8373    237.1857   1.0868793199e+02  -1.0041760509e+01    0.5790468    0.4196597 -51.40  0.003438907    2.031    0.508
        19 -12.1152    236.6226    197.2612   1.0048381172e+02  -4.9245324112e+00     2.163677    0.6303757 -39.37  0.007787636    3.398    0.706
        20 -12.3539    246.3059    190.0399   9.7310648405e+01  -5.4366286914e+00      1.58463    0.6409245 -47.48  0.006111783    3.224    0.690
        21 -10.8982    249.9189    180.2667   9.4709773122e+01  -4.4866004140e+00    0.9043084    0.2124963 -38.25  0.002906903    3.989    0.749
        22 -11.1490    233.7941    247.0238   1.0998973578e+02  -1.1639234044e+01    0.5140026    0.4129248 -10.70  0.002476383    1.231    0.187
        23 -12.4360    248.8882    243.8528   1.0678355593e+02  -1.3475533412e+01     1.383222    0.3292394 -38.08  0.005282101    4.549    0.780
        24 -12.3289    242.3983    244.0009   1.0795136354e+02  -1.2544232883e+01    0.9450545    0.4087756 -38.74  0.004775906    2.597    0.615
        25 -10.0604    210.7097    246.1835   1.1406191937e+02  -7.8970496871e+00    0.4862721    0.2575828 -48.53   0.00247913    2.584    0.613
        26  -8.9694    214.0026    241.0463   1.1261631138e+02  -7.7159671263e+00    0.2071494    0.1665273 -20.25 0.0007122348    1.332    0.249
        27  -9.4950    200.4613    249.7734   1.1653024485e+02  -6.7213179398e+00    0.3069255    0.1819906  19.54  0.001592281    1.997    0.499
        28 -10.0974    166.3203    249.4393   1.2290443868e+02  -9.0812116491e-01    0.2676062    0.2143529  30.36  0.001452954    1.201    0.167
        29  -8.9780    150.2929    250.3466   1.2606348678e+02   1.6922699117e+00    0.1187163   0.09487804  11.52 0.0007029687    1.666    0.400
        30  -9.3239    140.0965    250.0974   1.2795606757e+02   3.4695039132e+00     0.188036    0.1579342  32.57 0.0009999721    1.285    0.222
        31  -9.3141     48.9956    250.2223   1.4435168968e+02   1.7351273150e+01    0.1487146   0.07639167  46.28 0.0007675847    1.704    0.413
        32 -10.0170    176.5626    245.5004   1.2038640994e+02  -2.0547784755e+00    0.3815306    0.2591349   9.32  0.002006016    2.116    0.527
        33 -10.2994    157.1120    245.5286   1.2411024119e+02   1.3064321960e+00    0.2713642    0.2130792  -0.20  0.001589527    1.806    0.446
        34 -10.8092    132.1658    244.7799   1.2878365275e+02   5.7250291156e+00    0.3449483      0.25933   3.98  0.001860491    2.336    0.572
        35 -10.4811    121.3986    241.3947   1.3041799768e+02   8.1462778575e+00    0.2927589    0.1527059  32.34  0.001353418    2.364    0.577
        36 -10.3223    113.3793    244.7127   1.3233656462e+02   8.8758529635e+00    0.2796529    0.2127371 -25.89  0.001576957    2.338    0.572
        37  -9.9873     94.5246    245.1609   1.3589574910e+02   1.1804784601e+01    0.2174257     0.146076  25.86  0.001171734    2.295    0.564
        38 -10.9395      3.4116    242.6831   1.5119279997e+02   2.4002428252e+01    0.3745625    0.1998343  77.48  0.002584976    1.386    0.278
        39 -10.5428    146.6866    241.7132   1.2558926897e+02   3.7573279098e+00     0.425079    0.2565021 -44.79   0.00193545    2.052    0.513
        40  -9.3397     45.9721    245.0000   1.4447136647e+02   1.8715498795e+01    0.1755174   0.05490392  40.58 0.0008038812    2.952    0.661
        41  -9.4987    201.6277    241.4072   1.1499261881e+02  -5.7142950287e+00    0.2929275     0.189814 -29.49  0.001172545    1.795    0.443
        42 -10.3517    204.1443    234.7725   1.1343173046e+02  -5.1563496040e+00    0.4645575    0.2911458 -45.33  0.002546859    1.910    0.476
        43  -9.6477    169.2897    242.2510   1.2129935645e+02  -2.7962053275e-01    0.2449605    0.1837748 -38.60  0.001216131    1.606    0.377
        44  -9.4717    183.5427    238.7478   1.1801952399e+02  -2.2100928515e+00    0.3996044    0.2908222 -48.60   0.00235621    1.656    0.396
        45  -9.7605     28.4388    241.7581   1.4716473412e+02   2.1462777600e+01    0.3161161    0.0756507  50.94  0.001430937    3.111    0.679
        46 -10.5188    159.5246    237.7592   1.2253325471e+02   2.1782856931e+00    0.4001821    0.2621221 -44.57  0.002213274    1.821    0.451
        47 -10.7856     13.4842    238.5577   1.4939004602e+02   2.3732904738e+01    0.4344453    0.1762173  52.63  0.002587101    1.959    0.490
        48  -9.6423    195.1550    238.0543   1.1568161003e+02  -4.1135422139e+00    0.2719036    0.1868803 -39.72  0.001571021    1.678    0.404
        49  -9.6701    194.9216    231.4802   1.1465304419e+02  -3.0565208300e+00    0.4265597    0.2580037 -45.29  0.002255845    1.932    0.482
        50  -9.8042    136.5500    237.7389   1.2701858378e+02   6.2161331654e+00    0.2230221    0.1259173 -49.62  0.001141611    2.106    0.525
        51  -9.0282    189.5245    237.1355   1.1661339232e+02  -2.9992630661e+00    0.1670471    0.1290269 -41.92 0.0007305045    1.511    0.338
        52 -10.0664     49.9723    236.1846   1.4309521600e+02   1.9894813356e+01    0.2227343     0.141532  88.01 0.0009164165    1.351    0.260
        53 -10.1707    173.8866    230.2504   1.1856524649e+02   8.8395720183e-01     0.354739    0.2715037 -11.37  0.001981875    1.729    0.422
        54  -9.2353     76.9565    235.5057   1.3815733952e+02   1.6298172781e+01    0.1793824    0.1028319  47.42 0.0004657624    1.524    0.344
        55  -8.6238    153.4002    233.7576   1.2315021023e+02   3.9544001084e+00    0.1679533    0.1256479 -36.91 0.0009496579    1.676    0.403
        56  -9.5941    157.4903    230.8733   1.2191151431e+02   3.7284133366e+00    0.2544534    0.2370318  59.88 0.0007699178    1.103    0.093
        57  -9.1460    132.6465    231.5154   1.2694238169e+02   8.0296532317e+00    0.2150674    0.1248244 -56.51  0.001098685    1.959    0.490
        58  -9.6467    122.5042    231.9780   1.2900996456e+02   9.6988293052e+00    0.1848078    0.1276316 -62.34  0.001040384    1.612    0.380
        59  -9.6225    185.8758    229.8819   1.1614879661e+02  -1.2023862588e+00    0.3164608    0.1865181 -52.31  0.001408559    2.134    0.531
        60  -9.4431    230.9047    227.3394   1.0714460878e+02  -8.5231280216e+00    0.3028276    0.2005871   9.42  0.001470068    1.645    0.392
        61  -9.5534    223.1790    227.0651   1.0852523065e+02  -7.2177516194e+00    0.2536703     0.202759 -33.95  0.001025941    1.383    0.277
        62  -9.5889    149.0733    225.3985   1.2277278982e+02   6.2325579365e+00    0.3411768    0.1966647 -66.71  0.001580398    2.392    0.582
        63  -9.6101    199.5064    224.7595   1.1263050957e+02  -2.7979313469e+00    0.3882609    0.2754718  27.49  0.001957374    1.330    0.248
        64  -9.6382    161.7594    225.0422   1.2015993792e+02   3.9873150487e+00    0.3768691    0.1935935 -53.60  0.001740356    2.318    0.569
        65  -9.9191    216.7699    223.1322   1.0903430176e+02  -5.5503180854e+00    0.3998529    0.2291953 -40.40  0.001776596    1.916    0.478
        66  -9.3342    206.6174    224.1214   1.1114571736e+02  -3.9479277300e+00    0.3039169    0.1536327 -43.59   0.00144558    2.242    0.554
        67  -9.5010    180.9968    224.3222   1.1619422585e+02   6.0039474421e-01     0.233509    0.1906331  85.24  0.001317238    1.669    0.401
        68  -9.0431    128.3690    224.2334   1.2679125202e+02   1.0157408439e+01    0.1756845    0.1235005 -73.44  0.000945768    1.630    0.387
        69  -8.8780    172.9675    222.0143   1.1741727222e+02   2.4675465793e+00    0.2114295    0.1622487  74.37 0.0007911731    1.695    0.410
        70  -8.5047    113.4143    221.8022   1.2948662072e+02   1.3225374104e+01    0.1708428    0.1226914 -50.30 0.0009427057    1.663    0.399
        71 -10.0114    192.1029    220.0289   1.1326440471e+02  -6.9590000764e-01    0.3584844    0.2592164 -40.02   0.00177996    1.534    0.348
        72  -9.7896    210.9427    218.3649   1.0929579874e+02  -3.7977605620e+00    0.4066337    0.2724486 -21.83  0.001854004    1.703    0.413
        73  -9.3635      4.7217    226.8433   1.5012854228e+02   2.6884085045e+01    0.2030517   0.09100811  52.31  0.001256343    1.859    0.462
        74  -9.2902    168.6466    215.4733   1.1720522600e+02   4.4407872290e+00    0.2918587    0.1643557 -46.77  0.001382382    1.986    0.496
        75  -9.8969    185.5074    212.7469   1.1330737492e+02   1.7701712124e+00    0.3244622    0.2453225 -35.51  0.001104432    1.461    0.316
        76  -8.8657    154.4824    213.4880   1.1979561097e+02   7.4678250316e+00    0.2288676    0.1345814 -64.21  0.001030618    2.236    0.553
        77  -9.4518    131.8782    211.9833   1.2427895692e+02   1.1943998397e+01      0.34669    0.1934539 -50.08  0.001636593    1.998    0.500
        78 -10.9251    215.3320    209.0681   1.0675009225e+02  -3.0797255155e+00    0.5351497    0.4080441 -16.40  0.002036293    1.387    0.279
        79 -10.3533    204.9216    207.6217   1.0850577603e+02  -9.5064670615e-01    0.7358469    0.2747974 -35.47  0.002740703    3.188    0.686
        80  -9.1273    199.3237    210.2194   1.1008946903e+02  -3.6066640984e-01    0.2299685    0.1764276 -51.37 0.0008759728    1.542    0.351
        81  -9.4503    175.1444    209.1425   1.1478285837e+02   4.3747618861e+00    0.5348289    0.2806524 -59.52   0.00219732    2.750    0.636
        82  -9.5648    191.9671    208.5764   1.1125839889e+02   1.2935684431e+00    0.3266196    0.1963903 -40.40   0.00159174    1.805    0.446
        83  -9.1281    147.6750    207.9086   1.2030599564e+02   9.8320819683e+00     0.451936      0.13332 -52.54  0.001494516    3.840    0.740
        84  -9.4656    124.6744    206.0773   1.2490093479e+02   1.4457268015e+01    0.3286793    0.1627354  50.41            0    1.890    0.471
        85  -9.8555    196.2668    204.3941   1.0962484839e+02   1.2206016598e+00     0.333892     0.264235  68.44  0.001134482    1.642    0.391
        86  -9.4748    163.7048    201.8785   1.1588406247e+02   7.9505744646e+00    0.3426705    0.1767594 -55.04  0.001448764    2.281    0.562
        87  -9.5666    210.9642    201.1920   1.0610835457e+02  -9.7180742076e-01    0.2930764    0.2002736 -39.40  0.001117237    1.533    0.348
        88  -9.7447    209.9395    195.6696   1.0524203549e+02   1.7267842860e-01    0.3190375    0.2671516 -82.85  0.001135487    1.716    0.417
        89  -9.1600    203.3353    198.0879   1.0701729362e+02   9.9632220328e-01    0.2882174    0.1712316 -48.57  0.001347655    1.913    0.477
        90  -9.2400    148.5826    197.2380   1.1830185404e+02   1.1810684568e+01    0.2699128     0.141512 -55.63  0.001147636    2.122    0.529
        91  -8.3061    140.6565    198.2810   1.2020007673e+02   1.3115532713e+01    0.1478564    0.1049479  70.73 0.0005746517    1.634    0.388
        92  -8.2008    176.2941    197.2946   1.1239887587e+02   6.3797776123e+00    0.1396456    0.1107196   6.56 0.0002344992    1.559    0.359
        93  -9.2320    185.1852    192.8851   1.0970778503e+02   5.4698972243e+00    0.2771604    0.2085747 -17.46  0.001381453    1.633    0.388
        94  -8.8473    184.6734    201.4043   1.1142363390e+02   3.9745863134e+00    0.1948034    0.1263434  34.78 0.0007000451    1.500    0.333
        95  -9.0353    210.1769    189.5352   1.0398529572e+02   1.2099817426e+00    0.2742842    0.1838907 -57.11  0.001263543    1.954    0.488
        96  -9.0957    216.3371    187.2150   1.0231559540e+02   4.4595469130e-01    0.2471978    0.1818943 -46.38  0.001289719    1.475    0.322
        97  -8.7253    191.4758    187.0399   1.0726146809e+02   5.3312405306e+00    0.2159169    0.1426375 -41.45 0.0007390851    1.579    0.367
        98  -8.9033    224.9676    183.7331   9.9955697641e+01  -5.7296833162e-01    0.1942426    0.1768008  17.80   0.00114561    1.057    0.054
        99  -8.5694    132.3409    182.6932   1.1932276662e+02   1.8046361891e+01    0.1542389    0.1097772  75.35 0.0007042446    1.685    0.406
       100  -9.9865    147.6492    179.0449   1.1517763144e+02   1.5832280558e+01    0.4578537    0.1315573 -45.58  0.001372923    3.809    0.737
       101  -8.5046     25.4676    179.0104   1.4269296346e+02   3.4841048596e+01    0.1710628   0.07294068 -53.96 0.0008090808    2.530    0.605
       102  -9.0657    217.9059    177.5083   1.0002661176e+02   1.8753859169e+00    0.2869865    0.1834614 -54.49  0.001316387    1.945    0.486
       103  -8.5320    191.4686    177.4689   1.0532560335e+02   7.1755640695e+00    0.1448674    0.1407574  39.63  0.000162064    1.044    0.042
       104  -8.4931    211.5442    176.4425   1.0104607008e+02   3.3186677972e+00    0.1406788    0.1358101   6.59  0.000529737    1.043    0.041
       105  -8.5702      9.5273    166.5184   1.4484991660e+02   3.9099419498e+01    0.1183653    0.0891814 -83.74 0.0001933488    1.023    0.023
       106  -8.7287    184.4189    164.7375   1.0412725566e+02   1.1190354893e+01    0.2072519    0.1442961 -32.06  0.000902064    1.582    0.368
       107  -8.4198    246.2938    157.3554   9.0566200085e+01   1.3365726372e-02    0.1427085    0.1031421  -4.49 0.0003902504    1.689    0.408
       108  -9.3121    132.3108    157.3219   1.1442380985e+02   2.3773218583e+01    0.1502561     0.123688  -9.78 0.0002841451    1.650    0.394
       109  -8.7134    197.0000    155.9925   9.9570680597e+01   1.0262993698e+01    0.2513533   0.08513681 -42.28 0.0008022496    2.941    0.660
       110  -8.9005    243.1358    155.4949   9.0712934960e+01   9.3257923851e-01    0.1896999    0.1386608  46.69 0.0005539574    1.487    0.328
       111  -8.9412    229.0511    153.5055   9.2789100537e+01   4.0438183932e+00    0.2024049    0.1427223  47.56 0.0004333909    1.502    0.334
       112  -9.0018    118.3001    152.9419   1.1694512243e+02   2.7533422965e+01    0.2165906    0.1915505 -61.45 0.0007158195    1.105    0.095
       113  -9.7400    133.4981    151.5038   1.1290995392e+02   2.4868013260e+01      0.15333    0.1469484  87.12 -0.0002650975    1.003    0.003
       114 -10.2435    241.1331    149.3657   8.9734372064e+01   2.4000474018e+00    0.4117313    0.2639693  48.05  0.000921085    1.692    0.409
       115  -9.1945    248.7418    143.5664   8.7185461662e+01   1.9526489191e+00    0.2327372    0.2222465  81.51  0.001410562    1.214    0.176
       116  -9.2379    225.1363    146.5868   9.1975510991e+01   6.1212055447e+00    0.2541777    0.1664791 -34.03 0.0009915627    1.494    0.331
       117  -9.4002    244.9664    144.7211   8.8067527625e+01   2.4781404702e+00    0.3019565    0.2573811 -48.08  0.001204937    1.174    0.148
       118  -8.6862     73.5938    143.1947   1.2645136089e+02   3.7382923764e+01    0.2051571    0.1153702 -51.38  0.000947608    1.681    0.405
       119 -10.1496    242.1615    138.6627   8.7211419497e+01   4.1075659384e+00     0.386074    0.2911987 -83.89  0.001831483    1.923    0.480
       120  -8.2203    162.6816    136.3559   1.0251681746e+02   2.1987788765e+01    0.1656317    0.1248823 -85.38 0.0007045651    1.752    0.429
       121  -8.2005    216.2890    135.7048   9.1147500880e+01   1.0060448829e+01    0.1465525    0.1165517 -74.55 0.0003529045    1.551    0.355
       122  -8.6094    113.4825    134.5125   1.1421678403e+02   3.2764832390e+01    0.1504822     0.144422 -64.30 0.0001711467    1.036    0.034
       123  -8.9893    121.7028    133.6997   1.1190410227e+02   3.1354406316e+01    0.1492203    0.1229156 -11.89 0.0001873565    1.576    0.366
       124  -9.4354    231.2749    130.0711   8.7147463324e+01   7.9043428126e+00    0.3662755    0.2006768 -41.24  0.001196843    1.696    0.410
       125  -9.6492    236.0182    130.2466   8.6372495900e+01   6.8784403839e+00    0.3128657    0.2237621  75.01  0.001491602    1.880    0.468
       126  -8.0853    118.3247    132.3051   1.1245540049e+02   3.2343313314e+01    0.1515089    0.1227877 -10.14 0.0007033617    1.644    0.392
       127  -9.1266    247.9648    129.5410   8.4242027998e+01   4.5738214204e+00    0.2032493    0.1401255  49.87  0.001031953    1.601    0.375
       128  -8.6987    186.6121    128.2072   9.5269801475e+01   1.8238415785e+01    0.2185337    0.1481097 -31.91 0.0006518236    1.613    0.380
       129  -9.1596    200.8283    125.5939   9.1739320650e+01   1.5491421540e+01    0.3357234    0.2017348 -42.43  0.001429177    1.617    0.382
       130  -9.6064    249.6133    123.1321   8.2565344675e+01   5.3738337778e+00    0.2936342    0.1666197  49.13  0.001368883    1.949    0.487
       131  -8.2782    240.2171    123.3960   8.4126534994e+01   7.2462895765e+00    0.1843106    0.1386885  69.07 0.0009315349    1.583    0.368
       132  -9.4086    213.0623    122.4354   8.8640754577e+01   1.3324259263e+01    0.3786009    0.2018183 -31.81  0.001490867    2.082    0.520
       133  -9.4520    232.0693    121.0167   8.4939817614e+01   9.4002532734e+00    0.2244316    0.2038739 -43.77 0.0004882027    1.024    0.024
       134  -9.3104    192.3558    118.3694   9.1671216836e+01   1.8893403951e+01    0.3104256    0.2413419 -78.33 0.0008727976    1.570    0.363
       135  -8.4676    165.7341    119.3157   9.7629046476e+01   2.4944259289e+01    0.1572505    0.1233669 -77.99 0.0002742232    1.549    0.354
       136  -8.4734    226.6205    116.7950   8.4889868122e+01   1.1362317174e+01    0.2092494    0.1275968 -48.80 0.0004369479    1.599    0.375
       137  -8.5305    178.0182    116.0000   9.4072026497e+01   2.2750258489e+01    0.2525747   0.08949971  50.23 0.0003335637    2.839    0.648
       138 -10.3562    109.5731    114.5262   1.1051833033e+02   3.8102000160e+01    0.4514762    0.2088053 -52.85  0.001710251    2.175    0.540
       139  -8.9898    153.3921    114.1776   9.9183154793e+01   2.8886044564e+01    0.2312562    0.1452454 -54.76 0.0008826164    1.724    0.420
       140  -9.0501    241.9577    112.9313   8.1482594598e+01   8.7534699887e+00      0.23977    0.1674217 -70.92  0.001138352    1.806    0.446
       141  -9.7605     25.5993    111.1248   1.3389039797e+02   5.0307889977e+01    0.2237418    0.1537141 -18.31  0.001312047    1.923    0.480
       142  -8.5685    201.5603    110.4364   8.7897220892e+01   1.8287446060e+01    0.1518107     0.145962 -65.56 0.0002290919    1.002    0.002
       143  -9.8090    236.8418    107.4565   8.1040196355e+01   1.0822397382e+01    0.2935732     0.234118  38.59 0.0009869748    1.465    0.318
       144  -8.2595    209.4949    107.5498   8.5707955908e+01   1.6978500349e+01    0.1514892    0.1432016 -66.82 0.0001378564    1.017    0.017
       145  -8.4827    197.0423    107.0108   8.7912682026e+01   2.0016638373e+01    0.1884969    0.1727698 -50.00 0.0005450002    1.064    0.060
       146  -9.1754    209.3548    114.0007   8.7304018844e+01   1.5786348399e+01    0.2562097    0.2089851 -77.76  0.000717213    1.394    0.283
       147 -10.6942    247.1643    103.1481   7.8485123694e+01   9.3725892255e+00    0.4672752    0.2911217 -54.70  0.001568498    1.610    0.379
       148  -9.7531    228.7347    104.1819   8.1581739803e+01   1.3195861487e+01    0.2860582    0.2340124  76.21 0.0006024623    1.329    0.248
       149  -9.2993    214.2947    104.5756   8.4123834760e+01   1.6417693988e+01    0.2723194    0.2273368 -23.93 0.0005990196    1.333    0.250
       150  -8.4757    205.4769    105.5278   8.5948045950e+01   1.8302297436e+01    0.1524499    0.1444449 -67.34 0.0003201082    1.012    0.012
       151  -8.5468    223.7360    104.6075   8.2508920508e+01   1.4244908934e+01    0.2023243    0.1409545  71.45   0.00046799    1.663    0.399
       152  -9.8332    205.6049     98.6592   8.4220646690e+01   1.9557988596e+01    0.3796668     0.294014  -6.29  0.001625239    1.782    0.439
       153  -8.0859    188.3638    100.6788   8.8007560668e+01   2.3316616328e+01    0.1655333    0.1200757 -79.71 0.0007040536    1.781    0.439
       154 -10.2709    234.0314     95.7001   7.8761174553e+01   1.3518468388e+01    0.4323578    0.2867517 -62.27  0.001918024    1.651    0.394
       155  -9.5765    245.1514     93.7312   7.6660338589e+01   1.1421244235e+01    0.2691282    0.1987991 -73.74 0.0008013281    1.502    0.334
       156  -9.4211    150.8949     92.5513   9.3964729459e+01   3.3899274951e+01    0.2311045     0.213195 -47.47 0.0006426971    1.090    0.083
       157  -9.9768    244.9064     87.9442   7.5390570539e+01   1.2455028114e+01    0.3239666    0.1842951 -31.71  0.001467554    1.882    0.469
       158  -9.1680    250.1427     88.0941   7.4702329026e+01   1.1303803728e+01    0.2026352    0.1888133 -17.55 0.0006628326    1.280    0.219
       159  -8.3060    221.2787     97.3813   8.1193034057e+01   1.6114727275e+01    0.1466078    0.1178955   1.31  0.000700539    1.716    0.417
       160 -10.5630    237.1240     86.8926   7.6260431715e+01   1.4346819721e+01    0.4645161    0.1934588  64.01  0.001533927    2.823    0.646
       161  -8.1304    193.2935     86.6976   8.3439812112e+01   2.4723544016e+01    0.1550549     0.115145 -74.07 0.0002545478    1.573    0.364
       162  -9.6521    171.4395     83.5747   8.6910162526e+01   3.0658065181e+01    0.3918183    0.2412015 -77.25  0.001407381    2.830    0.647
       163 -10.7666    240.7815     76.6583   7.3405194144e+01   1.5236373982e+01    0.3458664    0.3174034  43.80  0.001539944    1.321    0.243
       164  -9.6393    249.8153     76.6915   7.2220406548e+01   1.3247843146e+01    0.2703679     0.204392 -52.74  0.001508146    1.167    0.143
       165  -9.8910    244.8785     80.8285   7.3792917737e+01   1.3646442084e+01    0.2582156    0.1829146 -56.63 0.0006786425    1.313    0.238
       166  -8.7966    189.4173     76.1846   8.1402246322e+01   2.7532254610e+01    0.2264073    0.1318169 -49.82 0.0009524115    1.777    0.437
       167  -8.6323    107.6720     72.2828   9.9221758048e+01   4.7197155205e+01    0.1375133    0.1157241  89.63 0.0003706373    1.604    0.377
       168  -9.0243     85.4985     72.5251   1.0592263893e+02   5.1206021561e+01    0.1380602     0.125354 -16.14 0.0008101237    1.013    0.013
       169 -10.9672    228.8054     70.4557   7.3626399418e+01   1.8973031470e+01    0.4520332    0.2935264 -89.89  0.002121932    1.833    0.455
       170  -9.6658    239.5034     67.9974   7.1610240336e+01   1.6917063385e+01    0.2817318    0.2165515 -46.30 0.0004684001    1.213    0.175
       171  -9.4458    234.9046     66.8378   7.1951067601e+01   1.8145085919e+01    0.3686504    0.2103045 -25.02  0.001595754    2.347    0.574
       172  -8.6606    188.0137     69.4967   7.9882633636e+01   2.9010726920e+01    0.2046891    0.1273147  89.82 0.0005465214    2.296    0.564
       173  -8.4608    219.6786     68.7556   7.4535945881e+01   2.1394564125e+01     0.133947      0.10974  36.62 0.0001616919    1.525    0.344
       174 -10.8441    244.9729     65.3629   7.0323309921e+01   1.6108151757e+01    0.4130581    0.2613613 -68.06  0.001617815    1.677    0.404
       175  -9.2227    121.8548     65.8271   9.3318115923e+01   4.5406801189e+01    0.2000153     0.178478 -75.45  0.001085413    1.343    0.255
       176  -8.4338    176.5001     67.5088   8.1476983795e+01   3.2202220644e+01    0.1491887    0.1417753  76.55  5.20059e-05    1.015    0.015
       177  -9.4508    214.4795     61.9518   7.3646145985e+01   2.3723300034e+01    0.2121868    0.1360813 -39.70 0.0005846965    1.544    0.352
       178  -8.4697    205.5146     61.5553   7.4899388772e+01   2.5966010598e+01    0.1442234    0.1331524 -88.81  6.70057e-05    1.031    0.030
       179  -8.5539    174.1452     59.1926   7.9617444477e+01   3.4123288891e+01    0.2014907    0.1661987 -86.40 0.0006108293    1.290    0.225
       180  -9.5525     44.2445     67.4126   1.1815376405e+02   5.7856655437e+01    0.1626016     0.114145  38.32 0.0009595554    1.727    0.421
       181  -9.1004    225.3443     56.6923   7.0864998151e+01   2.1940563160e+01     0.150234   0.09681581 -71.43  0.000704352    1.695    0.410
       182  -9.0095    208.2647     54.7880   7.2789722637e+01   2.6332658795e+01    0.3913856    0.1870731 -71.05  0.001199948    4.299    0.767
       183  -8.9959    140.1799     54.8163   8.5368103916e+01   4.3057771572e+01    0.2089298    0.1702793  21.59  0.001088871    1.361    0.265
       184  -8.8948    190.7655     53.4874   7.5162298351e+01   3.0849518248e+01    0.2881282    0.1291718 -19.90 0.0008818421    4.408    0.773
       185  -8.5878     24.6754     46.3507   1.1914349486e+02   6.3615345566e+01    0.1017738   0.09066667 -86.51 0.0007048467    1.755    0.430
       186  -8.3812    220.6257     44.7391   6.8663571425e+01   2.4813094186e+01    0.1343805    0.1008283  43.26 0.0006978909    1.660    0.398
       187  -9.0912     48.2185     40.2347   1.0798842030e+02   6.2212285728e+01    0.2641378    0.1522872 -61.85  0.001082839    4.293    0.767
       188 -10.7165    248.8515     37.8193   6.3911245789e+01   1.9287893910e+01    0.3291864    0.2669473 -49.38 0.0008287131    1.217    0.179
       189  -9.3792     93.1490     40.1487   9.2766901167e+01   5.5218356977e+01    0.1687386    0.1645627 -80.28  0.001080729    1.330    0.248
       190  -9.9915    242.1068     37.7065   6.4584055990e+01   2.0805880760e+01    0.1854121    0.1500794  84.89  0.000692343    1.146    0.128
       191  -9.5606    229.3142     37.2005   6.5875345838e+01   2.3807694980e+01    0.2441447    0.2163939 -80.05 0.0006844059    1.074    0.069
       192  -9.1931    218.5240     34.2650   6.6461177500e+01   2.6748082893e+01    0.2292544    0.1198709 -41.24 0.0005651762    1.855    0.461
       193  -9.2056    104.4236     34.2188   8.7459628136e+01   5.3810373393e+01    0.1770734    0.1207467 -40.65 0.0005392924    1.666    0.400
       194  -8.5704    164.4403     32.4824   7.3797793131e+01   4.0269446293e+01    0.1966508    0.1250579 -42.75 0.0001562251    1.689    0.408
       195  -8.7620    162.7257     29.3527   7.3191726378e+01   4.1070798478e+01    0.2075939    0.1950751 -69.38 0.0005215685    1.129    0.114
       196  -8.9143    126.6753     32.6736   8.1384659576e+01   4.9222581667e+01    0.1444957   0.09582962  26.96 0.0007049162    1.693    0.409
       197  -9.0354    173.5582     40.2463   7.4433535399e+01   3.7014437232e+01    0.1818151    0.1418311 -12.31 0.0009445494    1.609    0.378
       198  -8.5395    142.0005     29.7477   7.7157235007e+01   4.6029646304e+01    0.1827834    0.1074827  58.77 0.0004605505    1.533    0.348
       199  -8.8554    249.6422     22.6962   6.0694899161e+01   2.1103939856e+01     0.176275    0.1476067  40.64  0.001104241    1.736    0.424
       200  -8.6143    220.4782     23.6005   6.3772388206e+01   2.7642668810e+01    0.1311962    0.1111163  88.74 0.0001187562    1.053    0.050
       201  -8.8091    206.3127     20.1110   6.4555154277e+01   3.1447610793e+01    0.1813183    0.1569819 -64.68 0.0004832272    1.140    0.123
       202 -10.1873    192.0466    246.3732   1.1758149157e+02  -4.8291134851e+00    0.3742842    0.2824271 -13.78  0.002280357    1.605    0.377
       203  -9.5419    227.0113     17.9445   6.1824559414e+01   2.6796550378e+01    0.1974474     0.162447 -85.32 0.0005543068    1.021    0.021
       204  -8.8245     90.2912     18.6641   8.5673249909e+01   5.8427825745e+01    0.1129306   0.09939218 -63.75 0.0002262169    1.638    0.390
       205  -8.3913    113.5327     15.4765   7.8555916435e+01   5.4024701922e+01    0.1312396    0.1094081  36.24 0.0001448375    1.048    0.046
       206  -8.3906    212.6431     13.3011   6.2252956162e+01   3.0709748758e+01    0.1402683   0.08369113 -72.01 0.0007037655    1.710    0.415
       207  -8.4645    131.6370     13.6903   7.4100112306e+01   5.0165583093e+01    0.1428722   0.08403114  36.12 0.0007039841    1.748    0.428
       208  -9.6378     63.0527    249.3548   1.4189940590e+02   1.5637942128e+01    0.2437169    0.1386714  34.41   0.00136547    2.247    0.555
       209  -8.4019    218.3337     10.7223   6.1085182977e+01   2.9653246770e+01    0.1346165   0.08187627 -72.86 0.0002324207    1.606    0.377
       210  -8.5513    160.5224     10.5412   6.8148743205e+01   4.3633178411e+01    0.1327731    0.1132846  66.00 0.0001264449    1.015    0.014
       211 -10.3810     19.9569    248.8248   1.4896196797e+02   2.1106692204e+01    0.3549367    0.1515154  44.88  0.002147917    2.058    0.514
       212  -9.4544     75.9864    247.9841   1.3952018847e+02   1.4065540337e+01    0.2035954    0.1127969  68.62  0.001142357    1.689    0.408
