#   1 NUMBER                 Running object number                                     
#   2 MAG_AUTO               Kron-like elliptical aperture magnitude                    [mag]
#   3 X_IMAGE                Object position along x                                    [pixel]
#   4 Y_IMAGE                Object position along y                                    [pixel]
#   5 X_WORLD                Barycenter position along world x axis                     [deg]
#   6 Y_WORLD                Barycenter position along world y axis                     [deg]
#   7 A_WORLD                Profile RMS along major axis (world units)                 [deg]
#   8 B_WORLD                Profile RMS along minor axis (world units)                 [deg]
#   9 THETA_WORLD            Position angle (CCW/world-x)                               [deg]
#  10 FWHM_WORLD             FWHM assuming a gaussian core                              [deg]
#  11 ELONGATION             A_IMAGE/B_IMAGE                                           
#  12 ELLIPTICITY            1 - B_IMAGE/A_IMAGE                                       
         1 -15.4800    179.2861    174.9146   2.6438585771e+01   1.3098682859e+01     5.942705     4.289826 -66.79   0.01551676    2.216    0.549
         2 -15.9185    207.8403    178.1971   2.1970708401e+01   8.7815537102e+00     4.071756     3.073905 -67.10   0.01101954    2.371    0.578
         3 -15.5521    247.0074    113.9955   4.6350230240e+00   1.3458466982e+01     5.491343     2.773124 -60.72   0.02584202    3.442    0.709
         4 -16.9642    244.0493    146.0520   1.0918004582e+01   9.2050221067e+00     4.708063     3.959358 -68.86   0.03434915    1.764    0.433
         5 -12.1227    217.6194     32.1336   3.5056643201e+02   2.9294756087e+01    0.9491586    0.4308613 -69.42    0.0048273    2.435    0.589
         6 -11.8987    223.3947      1.5570   3.4372793179e+02   3.1516891282e+01      1.61763   0.04852438  75.48  0.004629789   10.099    0.901
         7 -12.3095    246.8232      3.6909   3.4327026004e+02   2.7249197459e+01     1.481225    0.7563836 -29.82  0.009586893    1.887    0.470
         8 -12.4722    211.0042     14.5217   3.4710911951e+02   3.2513472990e+01     1.369469    0.4125263  55.36  0.003144897    5.224    0.809
         9 -12.0825    223.3665     13.2497   3.4617315536e+02   3.0341577900e+01    0.6917514    0.2528785  63.95  0.003573909    3.185    0.686
        10 -12.6428    231.7456      4.5627   3.4400702480e+02   2.9729383540e+01     1.180598    0.4593618  75.97  0.006712988    2.725    0.633
        11 -10.8519    190.1515     10.6377   3.4746340402e+02   3.7068289096e+01    0.2731058    0.1623262  85.05  0.001160425    1.619    0.382
        12  -9.7632    119.4277     10.0266   3.5387343919e+02   5.3282705053e+01    0.4404578    0.2483361  58.18  0.002246748    1.704    0.413
        13 -11.0593    182.8760      4.8606   3.4649606354e+02   3.9163927258e+01    0.4068362    0.2162402  88.14  0.002300256    1.771    0.435
        14  -8.5949    125.5032    233.4728   4.6782273173e+01   9.4551539384e+00    0.1243429     0.103781   9.78 0.0004165968    1.015    0.015
        15  -8.3645    155.0459    250.2343   4.2763920547e+01   3.4958507447e+00    0.1605541    0.1227904  10.19 0.0005204666    1.055    0.052
        16  -9.1787    120.7671    233.0321   4.7766007453e+01   1.0081308749e+01    0.1800068    0.1557897  44.11  0.001190721    1.328    0.247
        17  -9.5050     69.9126    195.5160   5.5673911173e+01   2.4002888501e+01    0.3496122    0.2403919 -28.94  0.001454043    1.809    0.447
        18  -9.0352    201.9909    230.9235   3.1456163618e+01   1.5127353915e+00    0.2415864    0.1390216 -19.13  0.001517313    1.555    0.357
        19  -8.5396    154.9903    190.0324   3.4002210486e+01   1.3691184053e+01    0.1565093    0.1373144  -7.66 0.0003136808    1.008    0.008
        20  -9.9846    164.6464    186.8909   3.1455862054e+01   1.2953541744e+01    0.2340112    0.2101687 -34.12 0.0006390114    1.188    0.158
        21 -14.3287    229.3839    169.8444   1.7159705941e+01   7.4587593004e+00     1.218583     0.785594 -34.07  0.007476319    1.218    0.179
        22  -9.0462    141.8478    186.1594   3.6218582035e+01   1.6274779640e+01    0.1833954    0.1447901 -11.83 0.0002997387    1.278    0.217
        23 -11.0713    120.1996    179.1815   4.0149427955e+01   2.0871218984e+01    0.7339761    0.5195519 -27.54  0.003540099    1.556    0.357
        24  -8.3186      8.4627    184.4903   7.1908374464e+01   3.2932462187e+01    0.1319855    0.1186086  67.00 0.0008090553    1.042    0.041
        25  -8.4559    155.6760    226.3090   3.9465607415e+01   7.1868549332e+00    0.1107837   0.09227183  47.93 0.0003126988    1.651    0.394
        26 -10.1014    129.1302    239.9170   4.6791095184e+01   7.9331269726e+00    0.2324468    0.1818807 -63.04 0.0006399656    1.721    0.419
        27  -9.5315    181.6375    224.0150   3.4080316081e+01   4.6370731920e+00    0.2466336    0.1000962 -43.50  0.001228777    2.410    0.585
        28 -10.3985     67.8976    143.9625   4.8928305109e+01   3.7252981265e+01    0.7739525    0.4193462  58.49  0.002917489    2.420    0.587
        29  -8.8835    113.0716    145.8253   3.5779697979e+01   2.9585133368e+01    0.2534667    0.2078733 -55.14 0.0004850863    1.219    0.179
        30  -8.3363    113.1476    141.1835   3.4791283461e+01   3.0661912659e+01    0.2232262    0.1961903 -24.60 0.0004180775    1.193    0.162
        31  -8.4799    108.4191    135.7561   3.4928001585e+01   3.2776402485e+01    0.2824687    0.1473119 -56.19  0.001113178    1.966    0.491
        32 -10.1796    192.4770    223.1283   3.1971778155e+01   3.6050719846e+00    0.3264171    0.1847059  23.16  0.001987366    1.674    0.403
        33 -11.2822    176.3112    223.4415   3.4996497609e+01   5.3119231256e+00    0.5079448    0.3686342 -66.01   0.00291916    2.583    0.613
        34  -8.5364    234.4136    240.5030   2.7599589611e+01  -2.6821807077e+00    0.1466226   0.08357394  30.93 0.0008603267    2.135    0.532
        35  -9.1572     65.7027    131.9643   4.7470845840e+01   4.0761022122e+01    0.2113234     0.194481 -73.02 0.0002529541    1.069    0.064
        36  -8.1872    101.7387    127.0289   3.4894916387e+01   3.6068733775e+01    0.2246872     0.188472 -52.08 0.0008346949    1.164    0.141
        37 -10.5450    120.3397    118.9538   2.7800117026e+01   3.4472660160e+01    0.4619052    0.2850073  56.97  0.001950502    1.966    0.491
        38  -8.5471    102.9007    108.8085   3.0110058898e+01   4.0196640767e+01    0.2566559    0.2071522 -61.82  0.000453553    1.265    0.209
        39  -8.7710    105.0000    119.1176   3.2079656809e+01   3.7365510517e+01    0.3687784    0.1939738 -45.28 0.0009226478    1.887    0.470
        40  -9.5987    103.4851    115.4930   3.1633257723e+01   3.8511345131e+01    0.6840212    0.4054399  19.27  0.002528063    2.669    0.625
        41  -9.0192    103.2924    112.3277   3.0896479938e+01   3.9295543326e+01    0.4450944     0.260844  33.42  0.001580005    1.900    0.474
        42  -9.6327    129.0587    118.0310   2.5350107627e+01   3.2985041193e+01    0.2266787    0.2113907 -42.65 0.0004509114    1.032    0.031
        43 -10.0288    110.1928    108.9989   2.8055837020e+01   3.8718159546e+01    0.2914971    0.1823752 -45.90  0.001195296    1.557    0.358
        44 -10.4758    122.7006    108.6690   2.4606279065e+01   3.6288520351e+01    0.3448988    0.2729277 -20.99 0.0007623688    1.519    0.342
        45 -11.0458    125.0237    104.9987   2.3061237586e+01   3.6610378318e+01    0.6263676    0.3340499 -49.39  0.002384075    1.820    0.450
        46  -8.5967     42.9958    109.0729   5.1442869811e+01   5.0062486101e+01    0.2234535    0.2143677 -76.93 0.0003429215    1.013    0.013
        47 -11.4059     70.8417    101.3971   3.8784888423e+01   4.7938764958e+01     1.226875     0.965004 -38.95  0.005939968    1.332    0.249
        48 -11.5880     59.8846    102.2910   4.3168380082e+01   4.9502549197e+01    0.5709363    0.5418506  -3.35  0.001264766    1.117    0.105
        49 -12.7980     52.8829     96.9457   4.4654176458e+01   5.1955576133e+01     1.287567    0.9479564  26.98    0.0043667    1.421    0.296
        50  -8.6992     95.6986    105.0852   3.1319956621e+01   4.2471827713e+01    0.2480181    0.2054522  50.95 0.0001643583    1.243    0.195
        51 -11.3812    118.8328    107.9671   2.5432377910e+01   3.7222031587e+01     1.031134    0.4183304 -34.54  0.003044096    3.870    0.742
        52 -11.9098     18.1097     92.6196   5.9224138816e+01   5.7163093281e+01     1.086224    0.5360983 -60.93  0.004385029    1.786    0.440
        53 -12.4493     11.6693     91.5584   6.2111017341e+01   5.7944643333e+01     1.040668    0.9061866 -53.35  0.004324153    1.077    0.072
        54 -10.0153    173.5619     92.1982   9.7736564526e+00   2.9176815500e+01    0.3237879    0.2294037 -46.94 0.0004353379    1.244    0.196
        55 -10.0116    169.0798     90.8807   1.0199373014e+01   3.0300662885e+01    0.4882743    0.3328374  -7.35  0.002048346    2.513    0.602
        56  -7.8750    154.4319     94.4588   1.3769821632e+01   3.2640292333e+01    0.1428985    0.1295734 -51.36 9.377264e-05    1.011    0.011
        57  -9.5714     45.9209    236.2652   6.5409386070e+01   1.7712511089e+01    0.1915131    0.1819188 -29.87 0.0003400012    1.265    0.210
        58 -11.3964     43.6212     95.4083   4.8195647340e+01   5.3655782795e+01     0.479405    0.4185814  43.37 0.0009437863    1.185    0.156
        59  -8.5482    128.3134     87.5995   1.7509001873e+01   3.9506875129e+01     0.264945    0.1770627 -25.63  0.001161683    1.909    0.476
        60  -9.9641    124.2030    238.9632   4.7732778060e+01   8.6500942141e+00    0.3841105    0.2501428 -89.19  0.001853099    3.430    0.708
        61  -8.5281    137.9027     96.3503   1.7711562635e+01   3.5722181313e+01    0.1912848    0.1867717  74.56 0.0004343398    1.081    0.075
        62  -8.5771    139.0028     83.5069   1.3963792979e+01   3.7966896337e+01    0.2141938    0.1865781 -50.71 0.0003321155    1.077    0.071
        63  -8.8222     86.5198     81.3784   2.7450546973e+01   4.9739802556e+01    0.2339589    0.2194053  28.39 0.0003531343    1.124    0.110
        64  -9.4869    141.2119     77.7678   1.1891249683e+01   3.8536365008e+01    0.3520606    0.2748708   7.13  0.001210075    1.906    0.475
        65  -8.6359    140.2862    233.6585   4.3643275552e+01   7.7253904765e+00    0.1855875    0.1481971 -58.03 0.0006667289    1.644    0.392
        66 -10.0508    169.3067     71.5032   5.2298737164e+00   3.3516780967e+01     0.411218    0.2329418 -39.37  0.002000668    1.592    0.372
        67  -8.5020    150.4472     72.5002   8.6386754324e+00   3.7421226747e+01    0.2247854    0.1342694 -28.37 0.0005239371    1.963    0.491
        68  -9.1624    146.1348     69.8439   8.6836267068e+00   3.8829110832e+01    0.2536829    0.1908168 -45.83 0.0007041772    1.237    0.192
        69  -7.7822     58.3412     70.7358   3.4698129195e+01   5.7519706045e+01    0.1482737    0.1152015  68.28 0.0005013438    1.596    0.373
        70  -8.3508     11.4083     68.8079   5.7939208054e+01   6.4001248071e+01    0.2046158    0.1117053 -55.10 0.0006974074    1.615    0.381
        71  -8.7085    215.8587     66.5884   3.5827006026e+02   2.5163856700e+01    0.2017967    0.1738654 -14.69  0.001364348    1.481    0.325
        72  -9.1054      2.3979     66.1991   6.2589013372e+01   6.5246494246e+01    0.1992937    0.1244007 -87.41 0.0009608977    1.742    0.426
        73  -8.4388    182.9179     64.8611   1.6246950581e+00   3.1722836948e+01     0.179795    0.1674515 -37.49            0    1.207    0.172
        74  -8.9300    178.9461     65.2016   2.2337617596e+00   3.2487719451e+01    0.2035919     0.144922  35.94  0.001071783    2.007    0.502
        75  -9.2844    173.5465     64.9159   2.9024240913e+00   3.3658384907e+01    0.2872186    0.2063263  31.55  0.001485787    2.074    0.518
        76  -9.3395    144.1597     60.3671   6.3026812978e+00   4.0838151593e+01    0.3829734     0.241757 -25.96   0.00153704    1.904    0.475
        77 -10.9130    243.8000     58.5476   3.5414325339e+02   2.1518583846e+01     0.385889     0.208533  56.21  0.002375642    2.471    0.595
        78  -9.0204    219.0463     55.9178   3.5563899313e+02   2.6048670475e+01    0.3281678    0.1557525  43.37  0.001460278    3.978    0.749
        79  -8.3936    157.4366     53.5198   2.1640709205e+00   3.8884988827e+01    0.1359086    0.1205215 -63.32 6.539564e-05    1.021    0.021
        80  -9.3027    226.0923    232.8287   2.7781676760e+01  -1.0087835219e+00    0.1475224    0.1193877  -8.53 0.0005800672    1.277    0.217
        81  -9.0018    130.8793     46.4528   4.4360409502e+00   4.6073234076e+01    0.2331593    0.1980177 -27.34 0.0004248221    1.326    0.246
        82  -7.9286    129.2972    233.3157   4.5939576824e+01   9.0445667049e+00     0.124939   0.08407889 -11.28 0.0001850082    1.608    0.378
        83 -10.1220    189.3654     40.9784   3.5496529561e+02   3.3727162531e+01    0.3994502    0.2552723  35.25  0.001320292    2.693    0.629
        84  -9.3417    201.5009     35.1716   3.5247676692e+02   3.2010124814e+01    0.1964034    0.1621367  83.40 0.0004747569    1.305    0.234
        85  -9.4611    204.6698     31.8978   3.5146387642e+02   3.1783607357e+01    0.2409718    0.2250164   8.62 0.0005127563    1.534    0.348
        86  -9.2498    209.3224     34.2069   3.5163282856e+02   3.0608236045e+01     0.272518    0.2078558  48.43  0.001780841    1.836    0.455
        87 -10.6483    220.8794     38.7726   3.5177351697e+02   2.7901523170e+01    0.4516919    0.2281812 -66.15  0.001944036    2.004    0.501
        88  -7.7665    144.6557    217.7153   4.0534309392e+01   9.9623741766e+00    0.1305423   0.08619468  -7.64 0.0006256146    1.643    0.391
        89 -10.6698    241.6288     22.5862   3.4715146845e+02   2.6148045899e+01    0.3326691    0.2031396 -14.98  0.001957716    2.614    0.617
        90  -9.9234    178.6421     23.6013   3.5157706024e+02   3.8098053755e+01    0.3551592    0.2509955 -52.37  0.002127446    1.183    0.154
        91  -9.0033    250.2274     38.4215   3.4977000906e+02   2.2951254861e+01     0.203972    0.1108216 -40.54 0.0009707218    1.345    0.256
        92  -9.3136    232.8604    216.0745   2.4242473707e+01   5.5280039721e-01    0.2413186    0.1385386  35.62  0.000916706    2.287    0.563
        93 -10.8453    202.2077    220.9883   2.9943209199e+01   2.8990391970e+00    0.4342979    0.2186186  27.48 0.0009774509    1.967    0.492
        94 -14.3394    239.4460    162.7384   1.4497245524e+01   7.3268809863e+00    0.7934685    0.4330362 -52.71  0.003344327    2.554    0.609
        95  -9.2457    167.4099    211.7564   3.4961076959e+01   8.2320854051e+00    0.2120341    0.1945826 -17.70 0.0005951693    1.238    0.192
        96 -14.0160    244.5755    129.7135   7.8584074431e+00   1.1514670715e+01    0.7757521    0.3540431 -31.70  0.002277386    1.868    0.465
        97  -8.0997    110.9678     18.7090   3.5836544473e+02   5.4470039741e+01    0.1865863    0.1579362  83.63 0.0004411397    1.070    0.065
        98  -7.8586     93.6173     22.4466   3.3241378836e+00   5.8288161974e+01    0.1323218    0.1233828  77.92 0.0001092651    1.023    0.023
        99  -9.5940    189.8940     15.1268   3.4857264111e+02   3.6653700747e+01    0.1974226    0.1263428 -59.89 0.0007431574    1.277    0.217
       100  -8.7462    139.5138    205.1031   3.9784961637e+01   1.2917016774e+01    0.2915302    0.1891273 -72.38  0.001378394    2.680    0.627
       101  -8.5878    154.5177     11.5509   3.5044048724e+02   4.4775720756e+01    0.1277541    0.1050483 -71.75  0.000155068    1.016    0.016
       102 -10.0428     55.9193    202.8608   6.0206597316e+01   2.3922837435e+01    0.4619665    0.2078664 -75.84  0.001941793    2.587    0.613
       103 -11.5833    173.4628    220.5277   3.5108714741e+01   6.0909414023e+00    0.4573103     0.338607 -25.40  0.003019155    1.215    0.177
