#   1 NUMBER                 Running object number                                     
#   2 MAG_AUTO               Kron-like elliptical aperture magnitude                    [mag]
#   3 X_IMAGE                Object position along x                                    [pixel]
#   4 Y_IMAGE                Object position along y                                    [pixel]
#   5 X_WORLD                Barycenter position along world x axis                     [deg]
#   6 Y_WORLD                Barycenter position along world y axis                     [deg]
#   7 A_WORLD                Profile RMS along major axis (world units)                 [deg]
#   8 B_WORLD                Profile RMS along minor axis (world units)                 [deg]
#   9 THETA_WORLD            Position angle (CCW/world-x)                               [deg]
#  10 FWHM_WORLD             FWHM assuming a gaussian core                              [deg]
#  11 ELONGATION             A_IMAGE/B_IMAGE                                           
#  12 ELLIPTICITY            1 - B_IMAGE/A_IMAGE                                       
         1 -11.9451     76.8354     25.0398   8.8426154579e+01   6.3910728230e+01     0.508155    0.3627664 -10.42  0.001470479    1.624    0.384
         2 -11.4578     92.2059      8.6551   7.4311714976e+01   6.2285795282e+01    0.5099491    0.4394804  44.56  0.001763153    1.056    0.053
         3 -11.5263     90.1203     16.0501   7.8827531501e+01   6.1973147868e+01    0.8240324    0.2929932 -20.56 0.0004208174    3.731    0.732
         4 -10.5519     87.2886     12.2158   7.7704676728e+01   6.3150655653e+01    0.3342508    0.2535788  51.42  0.001176483    1.194    0.163
         5 -11.3957     13.2155     20.6990   1.2596823022e+02   7.4461635489e+01    0.2986733    0.2386483 -68.31 0.0007946875    1.327    0.247
         6 -10.8471     41.1246     18.5631   1.0366540930e+02   7.1891898158e+01    0.4635777    0.3474993 -24.52  0.002582178    1.270    0.212
         7 -10.9352     30.9547     20.4905   1.1190276883e+02   7.2904582064e+01    0.3199546    0.2168531 -59.69  0.001194844    1.727    0.421
         8 -10.6187    100.1309     18.6963   7.7136448690e+01   5.9064055805e+01    0.4601341    0.2656699 -54.58  0.001863192    2.313    0.568
         9 -10.2039     38.4881      2.5151   9.4661747144e+01   7.4986393986e+01    0.3962044    0.1231991 -34.96   0.00147755    3.234    0.691
        10 -10.9497     22.3630      9.3193   1.1233379021e+02   7.6091552618e+01    0.4216918    0.2484599  -1.45  0.002114237    1.982    0.495
        11 -11.7220     30.3374      7.4956   1.0444304974e+02   7.5448946447e+01    0.3936114    0.3190036  17.22  0.001204878    1.179    0.152
        12 -11.6574     35.0345     13.1185   1.0458476155e+02   7.3789015555e+01    0.4922168    0.3017348 -53.82  0.002195519    2.029    0.507
        13 -11.9912     39.9083      8.7538   9.8217363107e+01   7.3787321480e+01     0.534083    0.3490617 -13.35   0.00165339    1.693    0.409
        14 -11.2314    155.8625     14.0354   6.4266340597e+01   4.4238158137e+01    0.4331878    0.2660857  43.26  0.001953005    1.832    0.454
        15 -10.1925     56.6704     14.7072   9.1981740227e+01   6.9801336351e+01    0.4985812    0.2109291 -39.94  0.002011334    2.497    0.600
        16 -10.3053     50.1512      2.0226   8.6981068157e+01   7.2874744650e+01    0.3351216    0.3042475 -86.58  0.001253247    1.567    0.362
        17 -10.6283     55.4713      7.4848   8.7942330162e+01   7.1083634716e+01    0.3638546    0.3014108  57.98  0.001315463    1.412    0.292
        18 -11.7951     56.4970      3.7615   8.4866604279e+01   7.1348333351e+01    0.8619069    0.2895002  42.11  0.003178087    2.819    0.645
        19 -10.3485    119.1593     12.0478   6.9480706773e+01   5.4669302157e+01    0.2590567    0.1999504  66.49 0.0003454999    1.179    0.152
        20 -11.3349    151.4928      7.3355   6.2452871034e+01   4.6109277772e+01    0.3683798    0.2661245 -20.47  0.001854035    1.540    0.351
        21 -11.7003     10.6352      6.6978   1.2176080433e+02   7.7643648648e+01    0.6135677    0.4939696  40.83  0.003201967    1.603    0.376
        22 -10.0620      2.3026      2.9842   1.2853803515e+02   7.8863381773e+01    0.2486384    0.1372283 -30.27  0.001299298    1.565    0.361
        23 -11.2921      4.4040      9.8174   1.2942456631e+02   7.7311828748e+01    0.2545425    0.2268136   8.40 0.0001990416    1.280    0.218
        24 -10.1959      2.6995      6.3516   1.2965901990e+02   7.8128923541e+01    0.2015269    0.1512938   8.32 0.0006319892    1.430    0.301
        25 -10.4223    210.1973      7.4779   5.7046405732e+01   3.0787988809e+01     0.219364    0.1393121 -37.04  0.001184707    1.411    0.291
        26 -11.4840     69.2767      6.4534   8.0868127443e+01   6.8188267884e+01    0.9652808    0.2676661  54.40  0.003262177    3.108    0.678
        27 -10.0416    144.7178      5.5249   6.2657112415e+01   4.8160966275e+01    0.2411959    0.1317186 -20.80 0.0008431924    2.022    0.506
        28 -11.0381    194.2577      3.9960   5.7237932330e+01   3.5031657046e+01    0.3187912    0.1406992 -34.03  0.001423834    2.013    0.503
        29 -10.8789    120.4777      4.4308   6.5899342787e+01   5.5033235992e+01    0.3718393    0.2056735  52.19  0.001045643    1.656    0.396
        30  -9.7997    235.4964      4.5167   5.4782643230e+01   2.5349608150e+01    0.1243998    0.1009279 -55.10 -5.121115e-06    1.018    0.017
        31 -11.4342    130.3635      3.6498   6.3951195761e+01   5.2341635502e+01    0.3181138    0.2437434 -86.04  0.001021691    1.285    0.222
        32 -11.2093     18.2190      2.8982   1.1188791126e+02   7.7744100369e+01    0.3917621    0.2177751   7.72 0.0008016264    2.005    0.501
        33 -10.8114    172.4073      3.2144   5.8815983279e+01   4.0781539463e+01    0.2328447    0.1644382 -54.70 0.0005660991    1.332    0.249
        34 -10.9686    159.9462      2.2455   5.9712273859e+01   4.4239698354e+01    0.4102757    0.2393302 -73.72  0.001865484    1.763    0.433
        35 -11.8370     80.3789      1.8346   7.4051923412e+01   6.5987756202e+01    0.4360007    0.1972594  57.85   0.00167855    1.907    0.476
        36  -9.2504    204.0136      1.2491   5.5798010060e+01   3.2873828613e+01    0.1615344    0.1033409  83.79 0.0001918493    1.487    0.327
        37  -9.6372    100.0351      1.9608   6.8834635478e+01   6.0853688225e+01     0.230545      0.16459 -61.62  0.001108998    1.670    0.401
        38  -9.3947     29.2160      1.4168   1.0087324741e+02   7.6626570434e+01    0.1661497    0.1160641  40.06 0.0008218415    1.600    0.375
        39 -10.4323     21.9175    143.3300   1.4166900377e+02   4.2748729212e+01    0.2364264    0.1585697  79.46 0.0009970452    1.340    0.254
        40 -12.1230     17.5426    249.1271   1.4715114017e+02   2.1120349368e+01     0.544484    0.1866278  21.68   0.00243232    3.927    0.745
        41 -12.1428      5.0206    240.6429   1.4935074023e+02   2.3677140571e+01    0.5360219    0.1284088  42.46  0.002867379    2.191    0.544
        42 -11.6032      2.7229    248.8739   1.4991814882e+02   2.2488276754e+01    0.5075927    0.2201888  35.67  0.003305945    1.640    0.390
        43 -12.7351      9.4829    245.1674   1.4858882154e+02   2.2516421757e+01     0.551126    0.2038914  30.60  0.003166037    2.120    0.528
        44 -10.9119      3.0528    138.7627   1.4711760065e+02   4.5197312395e+01    0.3174246    0.1211128  32.94  0.001481734    2.322    0.569
        45 -11.0190     12.3419    130.1103   1.4380449737e+02   4.6768853775e+01    0.5003002    0.1705161  54.57  0.001607972    2.791    0.642
        46  -9.4236     21.0529    125.9819   1.4064718931e+02   4.7205045189e+01    0.1855794    0.1612253  80.49 0.0004207145    1.006    0.006
        47 -11.7802     23.6766    121.6961   1.3938284804e+02   4.8110642552e+01    0.6221557    0.2636546  75.03 0.0007850393    2.736    0.634
        48 -10.9112      3.3913    118.8967   1.4612054123e+02   5.0126643784e+01    0.2441659    0.2004111 -43.77 0.0006883314    1.409    0.290
        49  -9.6121    132.0760    114.1650   1.0191262200e+02   3.3119768386e+01    0.2371015    0.2077078   7.64 0.0004562951    1.260    0.207
        50 -10.0904    249.1465    111.8126   7.8381918137e+01   9.4647545916e+00    0.1750363    0.1338811  -1.25  0.001067261    1.323    0.244
        51 -11.1530     58.0863    108.0094   1.2494135112e+02   4.8150768709e+01    0.3619941      0.25581  -9.20  0.001237241    1.949    0.487
        52 -11.6668      4.6603    108.7375   1.4511745737e+02   5.2657046565e+01      0.39751    0.2427073   5.42  0.002116024    1.997    0.499
        53  -9.9011     34.4606    107.9518   1.3391966003e+02   5.0810428424e+01    0.2136091    0.1291873 -76.44 0.0005336839    1.544    0.352
        54  -9.4996     79.2782    107.0045   1.1692390123e+02   4.5239066545e+01     0.216152    0.2027266 -71.46 0.0004578551    1.063    0.059
        55  -9.5321     20.6359    107.3034   1.3909765473e+02   5.2099185061e+01    0.1484728   0.08641836  57.39 0.0007036514    1.734    0.423
        56  -9.7336    113.5018    102.5240   1.0428557299e+02   3.9766837522e+01    0.1598966    0.1554353  39.99 0.0003039424    1.012    0.011
        57 -10.1407     66.6148    101.7219   1.2042674571e+02   4.8604682237e+01      0.21349     0.143653 -74.73  0.000947425    1.612    0.380
        58 -10.8108     57.4602    101.5905   1.2393247523e+02   4.9926085381e+01    0.3298513    0.2496365  46.92  0.001336436    1.337    0.252
        59 -10.3397     62.0967     98.8287   1.2154085096e+02   5.0016353418e+01    0.2392208    0.1986826  69.49 0.0006754221    1.278    0.217
        60 -10.7437     15.3123     96.6861   1.4009528236e+02   5.5234559996e+01    0.3819821    0.1683223  40.53   0.00168657    2.280    0.561
        61 -11.8924     17.5524     94.4909   1.3895129653e+02   5.5678504806e+01    0.5245223     0.395887  68.51  0.002616658    1.309    0.236
        62  -9.4341    129.4997     97.5101   9.8147848770e+01   3.7338278509e+01    0.1606129    0.1561379  32.72 6.437185e-05    1.016    0.015
        63 -10.7203     78.9412     94.9569   1.1412846305e+02   4.8362664004e+01    0.2259544    0.2244363 -38.80 0.0003203108    1.034    0.033
        64  -9.5352      3.4887     95.4676   1.4470432208e+02   5.6131401611e+01    0.1306692    0.1114829 -86.64 0.0002054317    1.004    0.004
        65 -11.2218     27.1461     90.9498   1.3447798575e+02   5.5950260405e+01    0.6217006    0.3018435  42.68  0.002729731    2.141    0.533
        66 -10.6113     25.3096     85.1107   1.3440123204e+02   5.7637072457e+01    0.3130143    0.2237719 -82.09 0.0008801298    1.314    0.239
        67 -10.9118      1.8507     89.9387   1.4497939593e+02   5.7622283736e+01    0.2665354    0.1538305 -85.43 0.0002691558    1.486    0.327
        68 -10.4810     17.2744     88.6984   1.3839882137e+02   5.7223189628e+01    0.4795645    0.2490824 -19.24  0.002023687    2.576    0.612
        69 -10.2114     10.6742     90.7034   1.4140307777e+02   5.7053977486e+01    0.2434014    0.2119476 -83.79 0.0007123685    1.007    0.007
        70 -11.4746     11.2980     86.4075   1.4070971540e+02   5.8148741805e+01    0.4107847    0.2187909  83.33  0.001766499    1.870    0.465
        71  -9.6397    118.6502     90.3292   9.9230248206e+01   4.1397782399e+01    0.1691193    0.1297132  86.12 0.0007048548    1.765    0.433
        72 -11.4212     76.3315     89.2507   1.1362242476e+02   5.0252030967e+01    0.2889047    0.2638975 -49.31 0.0003865332    1.092    0.084
        73 -10.4642     98.8293     89.1686   1.0531697301e+02   4.5991679007e+01    0.2245676    0.1951944  -4.26  0.001075387    1.335    0.251
        74  -9.7376     43.7816     89.5527   1.2710990638e+02   5.4767966612e+01     0.208203     0.124377  41.28 0.0009425686    1.728    0.421
        75  -9.5017    124.1849     86.8080   9.6517240315e+01   4.0883265145e+01    0.2232952     0.194157   4.63 0.0006090225    1.324    0.245
        76  -9.0894     40.3386     87.1667   1.2812853749e+02   5.5765294291e+01    0.1933306    0.1261463 -85.51            0    1.653    0.395
        77  -9.5767     72.2104     84.1797   1.1386684041e+02   5.2225759885e+01    0.3297016     0.166278 -42.22  0.001239625    2.177    0.541
        78 -10.4479     54.5611     84.5175   1.2135764005e+02   5.4788024463e+01    0.2841583     0.234822 -81.05  0.001117706    1.260    0.206
        79  -8.9754    129.2896     83.7383   9.4109485077e+01   4.0316223648e+01    0.1553778     0.127667  89.21 0.0001733678    1.494    0.331
        80 -10.1705     77.9140     83.1929   1.1130280789e+02   5.1485513763e+01    0.2299892    0.2020867  56.98 0.0003811921    1.192    0.161
        81 -10.6069      4.0087     82.7926   1.4352256486e+02   5.9396780421e+01    0.2457324    0.1689095 -81.65   0.00116325    1.246    0.197
        82 -11.3903     63.8245     80.2381   1.1626156477e+02   5.4564639340e+01    0.5344008    0.3683542 -60.77  0.002487703    1.440    0.306
        83  -9.8315    250.2521     80.9945   7.1416630470e+01   1.3378329210e+01    0.1720515    0.0916566 -31.04 0.0006290104    1.550    0.355
        84 -10.0615     89.3018     80.2150   1.0602176858e+02   5.0049918302e+01    0.2893141    0.2194919 -73.18  0.000868594    1.611    0.379
        85  -9.4886    124.3653     79.1253   9.4055122075e+01   4.2462272246e+01    0.2205389    0.1491512 -53.40 0.0003499864    1.629    0.386
        86 -10.4985     58.4743     91.3995   1.2133113640e+02   5.2465703672e+01    0.3287836    0.2471345 -13.42 0.0009239094    1.680    0.405
        87 -10.3944    176.4800     77.3604   8.1212093622e+01   2.9848035818e+01    0.3309827    0.2592475  25.55  0.001591116    1.501    0.334
        88  -9.5700    100.5675     81.7404   1.0245238141e+02   4.7354008165e+01    0.3270254    0.1543173 -42.77  0.001162095    2.206    0.547
        89 -11.6741     55.7896     75.5140   1.1849247581e+02   5.6938010098e+01    0.4134479    0.3200152  -5.47  0.002033038    1.543    0.352
        90 -10.2818     15.2645     75.7251   1.3763270531e+02   6.0745974300e+01    0.2125705    0.1667408  20.88 0.0007254785    1.429    0.300
        91 -10.1428     32.2622     72.9886   1.2897122065e+02   6.0266349351e+01    0.2561482    0.1974541  32.20 0.0002801179    1.390    0.281
        92 -11.0323     35.9792     72.0137   1.2694598961e+02   6.0176232171e+01    0.4527283    0.2748117 -68.74 0.0004493922    1.562    0.360
        93  -9.1743    224.0379     74.2283   7.2942550755e+01   1.9436553041e+01    0.1563487    0.1139603  59.72  0.000382085    1.540    0.351
        94  -9.3631    136.4869     74.4768   8.9219164462e+01   4.0404081965e+01    0.1598223    0.1564938  52.22 0.0005932872    1.005    0.005
        95 -11.1070      3.6538     73.6972   1.4286214426e+02   6.1762414833e+01    0.3399233    0.2283489   2.38   0.00122387    1.749    0.428
        96  -9.3231     96.1093     73.3675   1.0129577403e+02   5.0214003420e+01    0.2252889    0.1459499  53.43 0.0004645797    1.658    0.397
        97  -9.5762     92.3974     72.2300   1.0226663944e+02   5.1261935194e+01     0.249536     0.195082  79.38 0.0004974434    1.681    0.405
        98 -10.7267    106.0345     71.3655   9.7170960283e+01   4.8437366165e+01    0.2879606     0.237627 -36.87 0.0005457119    1.251    0.201
        99  -9.4745     81.0179     72.5047   1.0674919080e+02   5.3491506215e+01    0.2219425    0.1305401  60.44 0.0008092204    2.444    0.591
       100  -9.0188     46.0605     68.6327   1.2117078491e+02   5.9950614587e+01    0.3269671    0.1766808  70.84  0.001084086    3.779    0.735
       101 -10.2582    114.3102     66.7076   9.2883753814e+01   4.7445625943e+01    0.2815149    0.2338294  79.52 0.0003204778    1.409    0.290
       102 -11.7491     34.1687     65.1067   1.2621719865e+02   6.2129806349e+01    0.5439923    0.3021972 -36.80 0.0004151881    1.928    0.481
       103 -11.2239     39.0054     62.5102   1.2303612392e+02   6.2303135642e+01    0.8773313    0.2826315 -40.15   0.00262812    4.134    0.758
       104 -10.4257    131.6981     64.6174   8.7178896348e+01   4.3494685825e+01    0.4211281    0.2905023  65.73  0.001797192    1.585    0.369
       105  -9.8476     72.7304     63.7284   1.0720925596e+02   5.7091701701e+01    0.2054489    0.1802228 -89.54  0.001035448    1.355    0.262
       106 -11.2092      4.0162     61.5489   1.4137467650e+02   6.4872633449e+01    0.5270376    0.2276079  50.75  0.001362717    2.785    0.641
       107 -10.8750      9.9298     60.0390   1.3803349594e+02   6.5056625254e+01    0.3692075    0.2256849 -47.20 0.0003432218    1.483    0.326
       108 -10.4880     62.6665     61.8667   1.1109393527e+02   5.9265763296e+01    0.3350296    0.2616965 -45.49   0.00103882    1.239    0.193
       109 -10.0412     60.4918     58.0230   1.1077142610e+02   6.0522684132e+01    0.3190998    0.2674301 -81.88  0.001159615    1.453    0.312
       110 -11.4629      5.7309     51.2230   1.3900940023e+02   6.7441227387e+01       0.8583    0.1571049 -41.35  0.002630654    4.794    0.791
       111 -11.0986     11.4665     48.3046   1.3508598100e+02   6.7962755910e+01    0.6017527    0.2774591  28.67  0.002795008    2.378    0.580
       112 -11.5033     16.7339     44.9733   1.3108804810e+02   6.8524811611e+01    0.4846956    0.4120596  53.40  0.002758057    1.379    0.275
       113  -9.3648     23.7787     62.0133   1.3095862475e+02   6.3782509078e+01    0.2538243    0.1768092 -62.69 0.0006528184    1.265    0.209
       114 -13.0122     20.6650     56.8649   1.3154445191e+02   6.5307620948e+01    0.4643606    0.3873207  56.69   0.00273082    1.362    0.266
       115 -10.5898     20.3675     51.0916   1.3038527301e+02   6.6782365271e+01    0.3544972    0.2036899 -50.83 0.0008507028    1.499    0.333
       116 -10.2243     15.7380     64.2905   1.3564521318e+02   6.3693555807e+01    0.3447577    0.2675384  21.25  0.001998046    1.441    0.306
       117 -10.8790     54.6628     58.3443   1.1373956242e+02   6.1342979628e+01    0.4643852    0.3150724 -83.91  0.001925341    2.205    0.546
       118  -9.7041     51.3626     57.7220   1.1518854929e+02   6.1964522820e+01     0.516283     0.306459 -82.86  0.001925623    3.019    0.669
       119  -9.0877     67.4297     60.5119   1.0841856508e+02   5.8781790050e+01    0.1509961    0.1426399 -21.83 0.0001288387    1.033    0.032
       120 -11.2061     83.4982     56.9503   1.0016427219e+02   5.6492297650e+01    0.2935084    0.2635136 -40.90 -0.0003406054    1.126    0.112
       121 -11.8841     87.5231     53.8766   9.7354215607e+01   5.6275023241e+01    0.5878599    0.3641228  45.49  0.001975884    1.590    0.371
       122 -10.1170    225.0424     55.5684   6.8159950652e+01   2.1765938779e+01    0.3432476    0.2182482   3.87  0.001553794    2.501    0.600
       123 -10.1783     99.7183     56.0811   9.3733130109e+01   5.3063994958e+01    0.2186115    0.1973879 -30.72 0.0004458986    1.139    0.122
       124 -11.3340    114.6298     53.9342   8.8088000616e+01   4.9828188418e+01    0.3858921    0.3221109  42.85  0.000998894    1.175    0.149
       125 -10.0283     78.7194     45.5956   9.7480358281e+01   5.9831949308e+01    0.4071774    0.1807371  45.21  0.001510751    2.227    0.551
       126 -12.4213     65.8016     52.6368   1.0620959423e+02   6.0855443304e+01    0.5401251    0.2693328  33.02  0.002140841    2.110    0.526
       127 -10.4026     75.6107     49.9239   1.0065370622e+02   5.9588352219e+01    0.5094482    0.3225081   4.35  0.001880645    2.800    0.643
       128 -10.0444     34.3963     53.4478   1.2292085499e+02   6.5040160809e+01    0.3100238    0.1917754 -38.42 0.0009776698    1.589    0.371
       129  -9.1608    198.5551     53.5165   7.0848264134e+01   2.8119534616e+01    0.1436825    0.1311547 -52.20  4.54385e-05    1.012    0.012
       130 -10.0718    105.9918     52.9352   9.0392156209e+01   5.2165576086e+01    0.2444949    0.2316647  62.10 0.0007219657    1.070    0.065
       131  -9.9607     97.9994     50.2112   9.1996052771e+01   5.4608405143e+01    0.2681168    0.1784313  22.18  0.001081757    2.002    0.501
       132  -9.4405    211.9021     48.8683   6.7914290481e+01   2.5591776970e+01    0.1873548    0.1437599 -60.22  0.001019484    1.274    0.215
       133  -9.9102     38.0750     49.0974   1.1943854902e+02   6.5709337684e+01    0.2141186     0.167883 -30.84 0.0005048914    1.240    0.194
       134  -9.2285     87.4972     48.5000   9.5160058253e+01   5.7357542238e+01    0.1549626    0.1474467  16.99 0.0008105885    1.022    0.022
       135  -9.9511     53.0479     48.3030   1.1087423304e+02   6.3923960795e+01    0.3327689    0.1842682  23.72  0.000780345    2.037    0.509
       136 -10.2312    103.4384     47.2412   8.8937114304e+01   5.3841823007e+01    0.4660852    0.1986383  41.74  0.001578053    2.515    0.602
       137 -10.1829     30.6944     45.4128   1.2256710442e+02   6.7357092266e+01     0.311202    0.2332411  79.26  0.001510933    1.772    0.436
       138 -11.0491     25.5924     43.8400   1.2521242407e+02   6.8186325571e+01    0.3168262    0.2662334 -88.30  0.001115948    1.370    0.270
       139  -9.9938     30.4927     30.5421   1.1708120814e+02   7.0819159858e+01    0.2548405    0.1816366  35.57  0.001381594    1.563    0.360
       140 -10.5734     22.6957     38.5966   1.2541120094e+02   6.9673869113e+01    0.2395451    0.2244602  54.50 0.0006903351    1.262    0.208
       141 -11.4457     26.4381     35.5641   1.2185834406e+02   7.0076155092e+01    0.4738847    0.2296489 -44.06  0.001729494    1.838    0.456
       142  -8.7670    136.3209     46.3114   7.9505054753e+01   4.5430226943e+01    0.1630014    0.1194853  27.82 0.0004468287    1.649    0.394
       143  -9.4354     64.9972     46.2369   1.0397647776e+02   6.2390899864e+01    0.2023783    0.1815493  29.66            0    1.114    0.102
       144  -9.0931     71.4718     57.5200   1.0549295302e+02   5.8738646135e+01    0.1517713    0.1448173 -10.26 5.943383e-05    1.022    0.021
       145 -10.5879     70.3596     41.6215   9.9416793356e+01   6.2325618895e+01    0.3667453    0.3090666 -21.50  0.001920097    1.203    0.169
       146  -9.6998      2.4610     42.3559   1.3956470595e+02   6.9735653504e+01    0.1915327    0.1198476   1.42 0.0006693852    1.803    0.446
       147 -10.6049    182.5634     40.1497   6.9144650574e+01   3.3946097624e+01    0.3538357     0.297267  23.40  0.001140815    1.444    0.308
       148 -10.8150    139.3704     40.3444   7.6633865856e+01   4.5512917810e+01    0.3246445    0.2680828 -68.88  0.001406086    1.303    0.233
       149  -9.4779    159.9267     40.4913   7.2743556253e+01   3.9895488200e+01    0.2253042    0.1462047  66.13 0.0003086662    1.500    0.333
       150  -9.8183    134.0319     39.7687   7.7587574926e+01   4.7052895915e+01    0.3949864    0.1885511  56.07  0.001300492    1.938    0.484
       151  -9.8529    131.0145     37.4800   7.7395972816e+01   4.8211858377e+01    0.2858672    0.2595502 -68.47 0.0008118152    1.146    0.127
       152  -9.2452     43.1495     40.6298   1.1330597415e+02   6.7059248239e+01    0.1836108    0.1297119  10.53 0.0004989385    1.552    0.356
       153 -10.2473     12.6224     38.3361   1.3207118705e+02   7.0366395298e+01     0.363508    0.1253811 -77.77  0.001296651    3.442    0.710
       154 -12.1356    121.7405     36.7372   7.9328792537e+01   5.0832747409e+01    0.5861589    0.5263146  78.88  0.002412809    1.129    0.115
       155  -9.4741    101.7443     39.4082   8.6181060501e+01   5.5623286793e+01    0.2161336    0.1373601  43.20 0.0003216449    1.540    0.351
       156  -9.0956    236.6665     37.7241   6.2632796902e+01   2.1509529652e+01    0.1179553   0.09686017  26.54 0.0003477287    1.602    0.376
       157 -10.5580     36.2520     41.3735   1.1774570037e+02   6.7735308918e+01    0.3034312     0.235728 -34.26  0.001021676    1.199    0.166
       158 -10.9431      1.8450     35.8256   1.3882511772e+02   7.1347209768e+01    0.2853647    0.1758818 -54.47  0.001611178    1.317    0.241
       159  -9.2984     98.9802     35.8044   8.5493175136e+01   5.6906949110e+01    0.2016964      0.11595  53.30            0    1.653    0.395
       160 -11.0967    134.1187     34.0361   7.5380927907e+01   4.7854253182e+01    0.2348786    0.2071145  56.70 0.0002967453    1.087    0.080
       161  -9.5336     54.6738     34.6504   1.0404935815e+02   6.6600365931e+01    0.1993143    0.1412533  15.65 0.0007317011    1.563    0.360
       162 -10.4262     50.4147     33.8792   1.0606336952e+02   6.7454884786e+01    0.2743595    0.2215475  48.10 0.0005068272    1.442    0.307
       163 -10.4459    145.0191     32.9952   7.2802715454e+01   4.4995005627e+01    0.2221126    0.2090072  80.88   0.00118943    1.002    0.002
       164 -11.1393     19.8098     31.7754   1.2507586736e+02   7.1493919301e+01    0.5627676    0.2522416 -19.29  0.002173981    3.010    0.668
       165  -9.9185    166.3008     31.0350   6.8582178263e+01   3.9427059681e+01    0.2059828    0.1833272 -41.25 0.0003496221    1.136    0.120
       166  -9.8771    126.8412     30.8005   7.5710896607e+01   5.0296325964e+01    0.2442609    0.2014682  38.73  0.000683603    1.256    0.204
       167 -11.6090     44.1130     29.3331   1.0759030202e+02   6.9348668660e+01    0.5127491    0.3589903 -31.91  0.002206281    1.381    0.276
       168  -9.9692    205.0091     30.4996   6.3698812612e+01   2.9532103073e+01    0.2014929    0.1021891 -73.27 0.0008100898    2.505    0.601
       169 -10.4469    149.4272     28.7811   7.0484241371e+01   4.4326035099e+01    0.5665021    0.3040204 -77.79  0.002021843    2.762    0.638
       170 -10.5039     69.4811     28.1539   9.3275885958e+01   6.5004581311e+01    0.3480194    0.2529414 -58.75  0.001602351    1.852    0.460
       171  -9.2915    162.4762     28.4941   6.8301806424e+01   4.0780356600e+01    0.1480622    0.1400128  77.38    0.0008095    1.058    0.055
       172 -10.1885      7.5895     27.8873   1.3285196902e+02   7.3082591409e+01    0.2446342    0.1897853  37.30 0.0009078239    1.549    0.354
       173 -10.1114    140.7660     26.8506   7.1315685045e+01   4.6967293416e+01    0.3951802    0.1912016  65.16  0.001545691    1.922    0.480
       174  -8.9177    229.6445    248.2770   1.0609428413e+02  -4.3870521997e+00   0.09311471   0.07009828  29.26 0.0007008419    1.652    0.395
       175 -11.0581     74.6889     21.6790   8.7524039577e+01   6.4912916445e+01    0.3306901    0.2580242 -13.61 0.0009988199    1.355    0.262
       176  -9.5773    218.7829     25.7533   6.1161009474e+01   2.6834015732e+01    0.2162565   0.07044901 -38.41 0.0005188311    2.396    0.583
       177  -9.5952    156.5585     26.4619   6.8503908584e+01   4.2647723079e+01    0.2031302    0.1328978  59.56 9.215045e-05    1.455    0.313
       178  -9.6240    153.5053     25.5135   6.8648803446e+01   4.3603150007e+01    0.2906471    0.1449882  75.24 0.0009236478    2.065    0.516
       179 -10.3524    113.9330     25.1617   7.6424358788e+01   5.4563410088e+01    0.2562258    0.2264748 -31.93 0.0007851565    1.205    0.170
       180  -9.9581    100.9914     25.9751   8.0353681577e+01   5.7878435755e+01    0.2415533    0.1820475 -67.69  0.001121954    1.688    0.408
       181  -9.3298     18.3256     26.3282   1.2414295499e+02   7.2852363420e+01    0.1444523   0.08049688 -33.28 -9.314358e-05    1.700    0.412
       182  -9.5097    246.6925     25.6998   5.9041097149e+01   2.0810967241e+01    0.1104652   0.09365081  19.86 0.0003225647    1.597    0.374
       183  -9.5051    184.3583     25.3153   6.4428026452e+01   3.5328660081e+01    0.1477218    0.1041875  37.86 0.0007043889    1.750    0.429
       184  -9.9662     59.1850     24.2982   9.6269289826e+01   6.7738756038e+01    0.2483345    0.1828396 -22.40 0.0009087536    1.391    0.281
       185  -9.7833     52.2196     24.7913   1.0036113461e+02   6.8926406402e+01    0.2142502    0.1591448 -89.41 0.0009393016    2.714    0.632
       186  -9.2088     94.2751     23.7132   8.1360802534e+01   5.9912247669e+01    0.1425532    0.1167335 -71.39 0.0002847183    1.511    0.338
       187 -10.6426     34.0040    247.2174   1.4391619502e+02   1.9837380964e+01    0.1582069    0.1035137  44.46 0.0004487411    1.073    0.068
       188  -9.4490    224.6971    246.6486   1.0669350483e+02  -3.6666087955e+00    0.1130239   0.06110944   5.15 0.0007039877    1.701    0.412
       189  -9.4535    136.3174    245.6549   1.2303012679e+02   7.6693683939e+00    0.1163505   0.07448329  50.31  0.000704869    1.721    0.419
       190  -9.6607    217.4771    245.0000   1.0769133120e+02  -2.6606132673e+00    0.2375429   0.04696734  33.70 0.0009369832    3.953    0.747
       191 -10.5477     19.8915     16.7803   1.1865339685e+02   7.4821581740e+01    0.2221332     0.167322  11.90 0.0004031026    1.345    0.256
       192 -10.6416     13.2115     15.8704   1.2392535468e+02   7.5528232698e+01    0.4333488    0.1876075  13.70  0.002009105    2.446    0.591
       193 -10.1409      1.9637     22.3590   1.3576091101e+02   7.4550672150e+01     0.253699     0.143263 -61.01  0.000874578    1.432    0.302
       194  -9.9816    124.4563     20.8267   7.2141895473e+01   5.2227182772e+01    0.2783123    0.1377715 -33.38 0.0009181502    2.065    0.516
       195  -9.6120     85.0286     21.0310   8.3156685640e+01   6.2579621225e+01    0.2440743    0.1620202  28.22 0.0006467773    1.669    0.401
       196  -9.1852     74.2917    243.7119   1.3559878759e+02   1.5947377463e+01    0.1182844    0.0636131  51.36 0.0002193976    1.543    0.352
       197 -11.1274     37.9062    242.1156   1.4294307436e+02   2.0298797091e+01    0.3634563   0.05765543  46.08  0.001548623    3.115    0.679
       198  -9.9451     26.2781     16.4559   1.1328127060e+02   7.4257709754e+01     0.275152    0.2216657  23.63 0.0007278789    1.309    0.236
       199 -10.1125    175.2177     20.6132   6.4038744374e+01   3.8270120927e+01    0.2068835    0.1223057  61.49 0.0005395769    1.640    0.390
       200  -9.8049    132.1568     20.1776   7.0337905530e+01   5.0166104962e+01    0.2388978    0.1938778  41.98 0.0008579914    1.274    0.215
       201  -9.3663    202.4552    240.3285   1.0968494762e+02  -3.3255870680e-01    0.1722984   0.09821203 -25.20 0.0008721079    1.908    0.476
       202  -9.6668    227.4623     18.5103   5.8656818036e+01   2.5672339981e+01    0.1285811    0.1092009 -53.67 -1.007696e-05    1.028    0.027
       203  -9.2227     60.5510    241.0000   1.3826826497e+02   1.8013836825e+01    0.2572493    0.0499974  30.81 0.0009314124    3.908    0.744
       204  -8.9754    148.7197    239.6822   1.1986583187e+02   6.8293476635e+00    0.1146687   0.07783959   7.75 0.0002492694    1.579    0.367
       205 -12.6478     25.5596    236.0380   1.4520185493e+02   2.2594209678e+01    0.4275188    0.2758029  28.88  0.002490244    1.481    0.325
       206 -13.4119      9.9619    230.0219   1.4816882661e+02   2.5113748573e+01    0.7103717    0.3749574  61.59  0.004704616    1.448    0.310
       207 -12.0199      4.1719    232.5597   1.4936896259e+02   2.5161319522e+01    0.4079962    0.1617427  61.07 0.0003866388    1.873    0.466
       208 -10.1926    199.8323     17.1672   6.0493796987e+01   3.2310103319e+01    0.2147047    0.1609703 -58.81 0.0004896421    1.201    0.167
       209  -9.7966    249.1965    234.1186   1.0090113102e+02  -5.1794829284e+00    0.1613116   0.09948259   5.83  0.000481101    1.174    0.148
       210  -9.5661    140.2466    227.3974   1.2013738869e+02   9.7882560717e+00     0.182854   0.08898071  39.77  0.000945708    1.666    0.400
       211  -9.2377    110.1783    226.5911   1.2649677409e+02   1.4145587244e+01    0.1755527   0.09864672  25.85 0.0004852369    1.617    0.382
       212 -10.3239     25.3063    225.3239   1.4488201858e+02   2.4552400197e+01    0.1786554    0.1273604 -74.39  0.001039719    1.679    0.404
       213 -10.1419     32.7807    225.1502   1.4329592146e+02   2.3843181758e+01    0.2683443    0.1298004  35.12  0.001561964    1.588    0.370
       214 -10.2891    190.4842     13.9906   6.0430344694e+01   3.4998018879e+01    0.2138669    0.1759706  89.99  0.000615583    1.140    0.123
       215  -9.2540     75.9134     14.7686   8.3175378091e+01   6.5608204460e+01    0.1877312    0.1111675  50.66 0.0003674742    1.555    0.357
       216 -10.0392     68.9756     13.7545   8.5458327853e+01   6.7335799833e+01    0.2183816    0.1677245  87.85  0.001060979    1.962    0.490
       217 -11.8796      7.9862    217.6617   1.4828628510e+02   2.7570677386e+01    0.2890317    0.2200195  50.37  0.001808484    1.099    0.090
       218  -8.6877     99.6719     11.2937   7.3620810334e+01   6.0044389952e+01    0.1478578    0.1113249 -70.58 0.0002127917    1.627    0.385
       219  -9.5033    246.4731    216.5300   9.8628160088e+01  -3.0998350155e+00    0.1131014   0.07752133   4.32 0.0001708512    1.035    0.034
       220 -10.6488      3.9765    212.7987   1.4902148724e+02   2.8837085196e+01    0.2646258    0.1048387  37.02  0.001495629    1.823    0.451
       221 -11.0208     16.1979    211.9846   1.4637671022e+02   2.7941789095e+01    0.2033394    0.1378373  38.91 0.0009820425    1.245    0.197
       222  -9.4306    209.5247    211.5309   1.0413041142e+02   2.1631657371e+00    0.1210236   0.09109647  11.44  0.000809312    1.015    0.015
       223  -9.9034     20.6025    209.7747   1.4533419403e+02   2.7972472836e+01     0.155205   0.08601046  71.72 0.0003538435    1.593    0.372
       224  -9.7083    246.8471    207.1311   9.7048511796e+01  -2.1375874131e+00    0.1611614    0.1242175  -6.47 0.0007627898    1.224    0.183
       225  -9.4990    197.0134    204.0268   1.0525300329e+02   4.9027812242e+00    0.1533662    0.1186115  13.12 0.0005770865    1.001    0.001
       226 -11.4531      9.1614    203.4709   1.4767257352e+02   3.0242509396e+01    0.2502832    0.1732224  40.57  0.000991339    1.228    0.186
       227  -9.6839    180.8093    199.3185   1.0767352060e+02   7.9934761438e+00    0.2719131   0.09604917  41.38  0.001105489    2.709    0.631
       228  -9.4661     23.4735    197.4894   1.4419426027e+02   3.0195254393e+01    0.1218316   0.09342959  56.35 4.911011e-05    1.002    0.002
       229 -10.1155      7.0277    191.9997   1.4784004300e+02   3.2773303095e+01    0.2694945   0.08385875  54.94  0.001261348    2.364    0.577
       230  -9.6635     15.3648    185.1638   1.4562905712e+02   3.3541145455e+01    0.1725859    0.0903929  76.21 0.0009402381    1.709    0.415
       231  -9.4819      1.3007    183.1865   1.4895793009e+02   3.5084091298e+01    0.1610513   0.08423895  77.92 0.0005104231    1.630    0.387
       232 -10.8955      4.7611    167.2931   1.4765797217e+02   3.8346598017e+01    0.3463177    0.1753523  49.47  0.001654206    1.584    0.369
       233  -8.8681    247.4641    155.5173   8.7653901791e+01   3.9402103815e+00    0.1231961   0.09632147  -7.83 9.934804e-05    1.004    0.004
       234  -8.8366     41.6861    158.3179   1.3698187623e+02   3.7202820859e+01    0.1468706    0.0833239  58.85  0.000703712    1.648    0.393
       235 -10.1893     23.8326    150.8167   1.4160315906e+02   4.0744862503e+01     0.189324    0.1264337  58.07 0.0004584728    1.308    0.236
       236  -9.4414     15.1626    150.6121   1.4411405849e+02   4.1495656120e+01    0.1570162    0.1217486   6.70 0.0005721697    1.611    0.379
