#   1 NUMBER                 Running object number                                     
#   2 MAG_AUTO               Kron-like elliptical aperture magnitude                    [mag]
#   3 X_IMAGE                Object position along x                                    [pixel]
#   4 Y_IMAGE                Object position along y                                    [pixel]
#   5 X_WORLD                Barycenter position along world x axis                     [deg]
#   6 Y_WORLD                Barycenter position along world y axis                     [deg]
#   7 A_WORLD                Profile RMS along major axis (world units)                 [deg]
#   8 B_WORLD                Profile RMS along minor axis (world units)                 [deg]
#   9 THETA_WORLD            Position angle (CCW/world-x)                               [deg]
#  10 FWHM_WORLD             FWHM assuming a gaussian core                              [deg]
#  11 ELONGATION             A_IMAGE/B_IMAGE                                           
#  12 ELLIPTICITY            1 - B_IMAGE/A_IMAGE                                       
         1 -13.0176    196.1077     32.2261   6.5578414044e+01   3.2476302893e+01    0.9754722    0.7275476  53.26  0.005569709    1.421    0.296
         2 -13.8279    210.6921     14.5649   5.9813078238e+01   3.1176106030e+01     1.216299     0.961495  30.21  0.007378486    1.898    0.473
         3 -12.5471      2.2804      4.9002   1.0985355274e+02   7.1745038702e+01     1.066641    0.3193506 -39.82  0.005656254    2.721    0.632
         4  -9.4222    193.8398    245.1558   1.1300832553e+02  -5.7308970297e+00    0.1712951    0.1538696   8.16  0.000294321    1.098    0.089
         5 -10.2661    184.4002    250.3850   1.1566697564e+02  -4.9984746031e+00    0.2646958    0.1430921  35.09            0    1.611    0.379
         6 -10.4703    169.8773    248.5729   1.1823974533e+02  -2.2965487389e+00    0.3332359    0.2294781   1.84  0.001316094    2.126    0.530
         7 -11.2813    149.7613    248.3958   1.2219812421e+02   1.1316601442e+00    0.4050701    0.2977418 -81.01  0.002282279    1.866    0.464
         8 -10.6703    143.1555    249.4025   1.2364628751e+02   2.0728686364e+00    0.2272373    0.1909691 -77.50 0.0009087027    1.404    0.288
         9 -10.0678    122.8916    249.7520   1.2768880386e+02   5.3956896177e+00    0.3934794    0.2177071  54.90  0.002010897    1.698    0.411
        10 -10.1118    126.8041    248.9375   1.2681680010e+02   4.8957541677e+00     0.386772    0.2605614 -82.07  0.002076454    1.926    0.481
        11 -10.1255    121.5961    245.0979   1.2736039318e+02   6.4674949154e+00    0.3679848    0.2113375  62.60  0.001716998    1.945    0.486
        12 -12.1889    125.0728    240.6107   1.2608349680e+02   6.7279197317e+00    0.7933234    0.4067135  38.14  0.003807493    1.814    0.449
        13 -10.9415    115.5367    250.4129   1.2920778712e+02   6.4800603425e+00    0.5227798    0.2813856  39.94 -9.057906e-05    1.662    0.398
        14 -11.5460    109.7022    246.8360   1.2992227824e+02   8.0928344810e+00    0.5085289    0.4178095 -88.79  0.002575651    1.257    0.205
        15 -10.5719    104.9248    237.9510   1.2980324766e+02   1.0581591499e+01    0.4208089    0.2323252  24.81  0.001789904    2.990    0.666
        16 -10.7988     84.1185    240.5268   1.3420995731e+02   1.3334906796e+01    0.4636471    0.2855767  89.79  0.002522216    1.773    0.436
        17 -10.6579     84.9710    234.5924   1.3339776723e+02   1.4402129597e+01    0.3952023    0.2521391  66.64  0.001193419    1.481    0.325
        18 -10.3776     84.7874    229.4258   1.3285289891e+02   1.5494927701e+01    0.2259216    0.2057599 -74.42 8.547409e-05    1.272    0.214
        19 -11.6648     98.8423    232.6395   1.3038532374e+02   1.2627228734e+01    0.6241003    0.3000289 -73.05   0.00274815    2.619    0.618
        20 -11.1251     99.1681    223.3687   1.2915956235e+02   1.4492640896e+01    0.3903281     0.263365  49.73  0.001100343    1.320    0.242
        21 -11.2753     99.0435    247.5729   1.3208333966e+02   9.6542928300e+00    0.7049792    0.3183234  57.73  0.003202052    2.286    0.563
        22 -10.4390    102.9392    247.3053   1.3129745160e+02   9.0889781338e+00    0.3012396    0.1862218  64.08  0.001174813    1.587    0.370
        23 -10.6158    113.3451    230.3844   1.2712632748e+02   1.0701061185e+01    0.3060075    0.2682174 -89.91  0.001161303    1.150    0.131
        24 -11.9900    105.4537    228.5214   1.2851501698e+02   1.2392540609e+01    0.8028658    0.4241016  61.49  0.003648833    2.114    0.527
        25 -10.9285     89.9471    238.0680   1.3279979329e+02   1.2934198471e+01    0.3173125    0.2160513 -68.73   0.00119671    1.532    0.347
        26  -9.6230     89.0253    251.0000   1.3436699115e+02   1.0552179035e+01    0.3490082    0.1498846  32.34  0.001031573    3.114    0.679
        27 -11.0294     87.2325    247.9295   1.3438931476e+02   1.1411849054e+01    0.3871177     0.279925  39.98 0.0007545173    1.424    0.298
        28  -8.8615     69.1627    250.6318   1.3803079522e+02   1.3544575402e+01    0.2569196   0.07601023  47.19  0.001094776    2.674    0.626
        29 -10.4014     67.3850    243.9820   1.3774697293e+02   1.5096786747e+01    0.3449767    0.1601832  38.64  0.001731544    2.131    0.531
        30  -8.9715     63.2915    250.3069   1.3907320171e+02   1.4430656438e+01      0.15486     0.140106 -33.89 0.0004734724    1.810    0.447
        31 -11.3010     60.2424    246.1045   1.3926137446e+02   1.5671350142e+01     0.468492    0.3756369  86.53  0.002004615    1.151    0.131
        32 -12.0212     17.0199    169.9755   1.4079104843e+02   3.7439547731e+01      1.58722    0.5994009  66.78  0.005634358    4.529    0.779
        33 -14.2579     11.1776    152.6819   1.4030080771e+02   4.1955400074e+01     2.123768     1.095833 -80.62  0.006639159    1.675    0.403
        34 -13.5947     40.5904    242.6975   1.4253117684e+02   1.8920202989e+01     1.483921    0.7576729  54.99  0.007288799    1.615    0.381
        35 -13.4298      3.9306    245.3812   1.4891645093e+02   2.2548817950e+01     1.087464    0.5639989  85.78  0.007053685    1.516    0.340
        36 -12.9170     14.1749    238.7927   1.4684640600e+02   2.2763832616e+01     0.658129    0.4511804  66.78  0.001302164    1.140    0.123
        37 -11.5842     39.6575    230.3956   1.4172148940e+02   2.1539305290e+01    0.3298413    0.2138811 -70.56 0.0008722365    1.491    0.329
        38 -12.8794     34.2734    227.6678   1.4249826266e+02   2.2759335695e+01    0.4126696    0.3202638 -69.25 0.0008237712    1.422    0.297
        39 -14.0969     40.9966    218.6235   1.4045379147e+02   2.3867577096e+01     1.680664     1.211224  28.49   0.01029604    1.888    0.470
        40 -10.3770     81.5903    246.6780   1.3533329211e+02   1.2502935338e+01    0.4084986    0.2216413 -84.39  0.002088745    2.162    0.537
        41  -9.3330     73.3014    247.3333   1.3695773829e+02   1.3591867506e+01    0.1768388     0.143379 -68.27 0.0008643224    1.418    0.295
        42 -10.6468     74.4042    242.2929   1.3626003946e+02   1.4425272718e+01    0.4071647    0.2790775 -49.56   0.00237116    1.990    0.497
        43 -11.3365    176.6898    242.7086   1.1599624065e+02  -2.4802115075e+00     0.427825    0.2565477  49.80  0.001616166    1.689    0.408
        44 -10.1271    152.4662    243.6649   1.2098563433e+02   1.4953873402e+00    0.2222712    0.1320268 -57.80  0.001131233    2.064    0.515
        45 -11.4970    133.7902    248.8136   1.2542108128e+02   3.7518014950e+00    0.6212785    0.2427581  42.37  0.002714147    2.147    0.534
        46 -10.1203    157.8725    242.5961   1.1974321089e+02   7.5454742200e-01     0.217763    0.1908548 -68.01 0.0006487204    1.356    0.263
        47 -12.4708    129.1588    234.9614   1.2448761783e+02   7.1102345313e+00     1.294029    0.2049709  42.92  0.003576263    5.058    0.802
        48 -12.1231    135.6830    241.0390   1.2399783098e+02   4.8454727093e+00    0.4844766    0.4478707 -16.54  0.002463629    1.355    0.262
        49 -10.3500    134.7786    236.9990   1.2362037403e+02   5.7550743664e+00    0.2539883    0.2105868  24.71 0.0007681177    1.362    0.266
        50 -11.9389    134.4363    232.6470   1.2307392070e+02   6.6435420435e+00     0.508938    0.3979419 -45.94  0.002300666    1.499    0.333
        51 -11.2282     97.0245    239.7129   1.3158721351e+02   1.1499024920e+01     0.335345    0.3262674 -12.97  0.001375958    1.427    0.299
        52 -10.5859    166.0823    241.9646   1.1799999026e+02  -5.4600602931e-01    0.3574863    0.1604357  45.88  0.001596309    2.031    0.508
        53 -11.0911    244.8579    240.8770   1.0271474352e+02  -1.2911086136e+01    0.1942987    0.1398893   2.55   0.00116394    1.250    0.200
        54 -10.9655    122.4537    233.1901   1.2562330474e+02   8.6018478651e+00    0.3939142    0.3340983 -55.51   0.00167151    1.350    0.259
        55  -9.1325     61.2562    238.9879   1.3843290269e+02   1.6953163969e+01    0.1687608    0.1347356  75.00 0.0006970022    1.039    0.037
        56  -9.5252    172.9844    235.9890   1.1567997373e+02  -7.0897582498e-01    0.1921617     0.174078  32.19 0.0003086209    1.035    0.034
        57 -10.6901    156.8032    231.6969   1.1830786407e+02   2.8921234949e+00    0.2352615    0.2274946 -57.86 0.0003843612    1.168    0.143
        58 -10.7740    116.8549    238.1979   1.2742932429e+02   8.5692034172e+00    0.4409584    0.2796097 -36.13  0.001843479    2.451    0.592
        59  -9.9714     62.9641    232.9858   1.3753992000e+02   1.7945291777e+01    0.1806389    0.1490802  74.31  0.001196982    1.068    0.064
        60  -9.7368    141.2968    231.3086   1.2145768580e+02   5.7006796918e+00    0.1922849    0.1594384  39.59 0.0004278076    1.123    0.110
        61 -10.1899    142.4799    227.9551   1.2070919772e+02   6.1356836982e+00    0.3316079    0.2100443 -84.22  0.001466661    2.599    0.615
        62  -8.8022     57.3830    231.1353   1.3843733506e+02   1.9095133570e+01    0.1642949   0.09972743 -88.90 0.0005942202    1.563    0.360
        63 -10.2366    128.2435    228.9267   1.2382877736e+02   8.4459893266e+00    0.2114631    0.1562443 -25.10  0.001080998    2.045    0.511
        64 -10.7654     79.3560    225.8224   1.3354307710e+02   1.7075142963e+01    0.4727745    0.2601748 -73.49  0.001402712    1.869    0.465
        65  -9.6158     77.2606    220.9609   1.3341731258e+02   1.8426499211e+01     0.205599    0.1496839  71.92 0.0004500121    1.236    0.191
        66 -10.2349     91.5123    225.5307   1.3102074491e+02   1.5264233588e+01    0.5047216     0.173355  51.32  0.001523086    2.877    0.652
        67 -10.1918    117.3459    224.2558   1.2545659148e+02   1.1268877966e+01     0.242842    0.2143278  62.12 0.0002544301    1.015    0.015
        68  -9.7166     64.9639    224.3818   1.3628473897e+02   1.9473834654e+01    0.2280542    0.1690505 -67.35  0.000833871    1.393    0.282
        69  -9.9210    160.7798    223.4816   1.1617029765e+02   3.7116976040e+00    0.2296064    0.1870522  31.64 0.0007110619    1.176    0.149
        70 -10.9095    142.2260    221.6856   1.1979881129e+02   7.4082034243e+00    0.4099607    0.2377842  38.49   0.00105238    1.613    0.380
        71  -9.6119    110.8488    220.6388   1.2632981698e+02   1.3127165373e+01     0.358651    0.1024386 -62.35  0.001102924    4.645    0.785
        72 -10.7538     69.8423    217.5993   1.3456411748e+02   2.0242976745e+01    0.7279581    0.3274615 -81.13  0.003013556    2.827    0.646
        73  -8.8006    104.5625    218.5367   1.2738051519e+02   1.4628449605e+01    0.1371141    0.1187673  68.78 8.406581e-06    1.010    0.010
        74 -10.8417     91.0529    241.7061   1.3298656426e+02   1.2039721756e+01    0.3784679    0.2428109  64.90  0.001586722    1.450    0.310
        75 -10.0208     88.5617    214.5405   1.3026800758e+02   1.8088741623e+01    0.6308422    0.2406806 -70.00   0.00233228    3.281    0.695
        76  -9.1340     62.5733    217.9480   1.3609084723e+02   2.1194691727e+01    0.1860825    0.1647199  49.23 0.0005667949    1.310    0.237
        77 -10.5662    137.3436    214.4059   1.1969725178e+02   9.7629697408e+00    0.2774226     0.212637 -82.41  0.001286806    1.548    0.354
        78  -9.3362    101.8452    211.6285   1.2701348871e+02   1.6573838503e+01    0.3091891     0.148073  53.78  0.001312422    2.113    0.527
        79  -9.6032    106.8619    209.8045   1.2565700481e+02   1.6129328426e+01    0.1932901    0.1878438 -56.09 0.0007425632    1.234    0.190
        80 -10.2387     96.8309    206.9021   1.2744987924e+02   1.8448024819e+01    0.5298692    0.2085105 -70.20  0.001829546    3.547    0.718
        81 -10.2716     91.4562    204.7425   1.2833561054e+02   1.9805680420e+01    0.4841479    0.3589221  39.72  0.001423021    1.402    0.287
        82  -9.9545     73.6432    209.2659   1.3279646897e+02   2.1531008311e+01    0.3745379     0.283388  -2.53  0.001900726    2.490    0.598
        83  -9.7365    112.6677    208.3640   1.2416601916e+02   1.5447391085e+01    0.2576357     0.216656  66.50  0.001091754    1.097    0.089
        84  -8.9590     29.1786    208.6547   1.4188480309e+02   2.7425863123e+01     0.194211    0.1211768  62.88  0.001152531    1.421    0.296
        85  -9.3308    160.0503    213.7707   1.1469895152e+02   5.7151479700e+00    0.1999933    0.1788343  61.67 0.0005308038    1.151    0.131
        86  -9.3121     32.8282    206.9093   1.4100633892e+02   2.7397644657e+01    0.1716469    0.1380126 -72.12 0.0003462679    1.282    0.220
        87 -10.7519    249.9959    202.4356   9.4785686182e+01  -7.9941711082e+00    0.4222792    0.1609923 -38.37  0.001818661    2.429    0.588
        88  -9.5367     74.7517    203.7394   1.3187398121e+02   2.2613697277e+01    0.2703016    0.2118796   9.58 0.0007738597    2.020    0.505
        89  -9.4831    102.9891    202.5993   1.2545963144e+02   1.8386064938e+01    0.4090203    0.2152479  56.47   0.00130043    2.017    0.504
        90 -10.8744     84.1491    201.5936   1.2952414682e+02   2.1675813331e+01    0.3449529    0.2378446 -44.93 4.050006e-05    1.816    0.449
        91  -9.2164     85.7308    195.6846   1.2834996809e+02   2.2786682403e+01    0.2369123    0.1761896  66.96 0.0002416443    1.293    0.227
        92  -8.9062     64.3245    201.9463   1.3391997276e+02   2.4521661585e+01    0.1819071    0.1567642  86.28 0.0006035006    1.061    0.057
        93  -8.5241    183.0031    200.2663   1.0737382099e+02   4.0487328712e+00    0.1749965    0.1194225  40.02 0.0002850129    1.399    0.285
        94  -9.2847    127.9320    199.6952   1.1937617412e+02   1.4621086950e+01    0.1965628    0.1726736  57.32 0.0004781375    1.060    0.056
        95  -8.5742    115.2479    200.6023   1.2239197025e+02   1.6710871336e+01    0.1476859    0.1042774  83.76 0.0006942656    1.686    0.407
        96  -9.2272    120.1147    199.3695   1.2109195088e+02   1.6116385317e+01    0.2058749     0.121814  51.66  0.000320036    1.647    0.393
        97 -10.2025     55.5162    198.1374   1.3537999485e+02   2.6588894945e+01    0.5135978    0.2293778  41.42  0.002405189    2.177    0.541
        98 -11.6495     60.8167    194.3636   1.3377039801e+02   2.6750691039e+01    0.4872898       0.3317  46.14  0.001233817    1.464    0.317
        99  -9.8058    102.5121    196.2015   1.2460026614e+02   1.9919244281e+01    0.3570102    0.2684188 -11.81  0.001469652    2.283    0.562
       100  -9.1974     44.5996    198.3425   1.3774173170e+02   2.7929628428e+01    0.2249542     0.153575  36.80  0.001105537    1.662    0.398
       101  -9.2693     38.8444    196.0668   1.3872234671e+02   2.9138459008e+01    0.2569131    0.1270081 -88.53  0.001207527    2.118    0.528
       102  -9.6915     38.6050    192.1916   1.3837007384e+02   3.0054080980e+01    0.2731458    0.1482071 -57.98  0.001117749    1.823    0.451
       103  -9.7786     41.2975    188.8767   1.3742968694e+02   3.0504575302e+01    0.2979523     0.176553  67.88 0.0009789024    1.702    0.412
       104  -8.4083    153.6149    196.4863   1.1304207500e+02   1.0461078503e+01    0.1420426    0.1384223  54.72 4.947796e-05    1.030    0.029
       105  -9.5120     97.5425    196.3001   1.2575062504e+02   2.0732469878e+01    0.3035583    0.1883568  38.00 0.0008754947    1.662    0.398
       106 -10.7050    249.6006    194.2699   9.3278288653e+01  -6.6212716682e+00    0.3476772    0.2511931 -19.39   0.00200533    1.302    0.232
       107 -11.0459    250.0998    187.6371   9.1890315069e+01  -5.6099031928e+00    0.4275449    0.2116815 -30.40  0.001972913    1.992    0.498
       108  -9.1102     31.6475    195.2142   1.4014862837e+02   3.0153370052e+01    0.2780472   0.09428808  48.67  0.001204397    2.816    0.645
       109  -9.2226     72.6449    193.0121   1.3094808547e+02   2.5395676543e+01    0.1875775    0.1529657 -78.64 0.0003570216    1.119    0.106
       110  -9.8036     25.5667    192.4364   1.4114989041e+02   3.1440799370e+01    0.2412123    0.1705343  73.10 0.0006669362    1.240    0.194
       111  -9.7639    191.5012    191.4533   1.0388497774e+02   4.1442001003e+00    0.2465769    0.2346494   4.78 0.0006220099    1.012    0.012
       112  -9.3548    113.0990    191.8298   1.2146270145e+02   1.9078170890e+01    0.1846375    0.1742513 -16.14 0.0003621982    1.305    0.233
       113 -10.6174     19.9550    191.0927   1.4218860528e+02   3.2321097531e+01    0.1903787    0.1450442 -81.86  0.001262636    1.096    0.087
       114  -9.8029     32.1503    189.5861   1.3948261281e+02   3.1383007175e+01    0.3205913    0.2442151  40.28  0.002037134    1.504    0.335
       115 -12.9171     45.9178    208.7896   1.3854157183e+02   2.5412562780e+01     1.794024    0.5540543  46.03  0.006149369    2.866    0.651
       116  -9.9244     76.7188    188.8786   1.2945002683e+02   2.5761604225e+01    0.2522227    0.2247973  23.22  0.000729602    1.432    0.302
       117 -11.6297     67.3089    187.2159   1.3138732932e+02   2.7524285180e+01    0.3153177    0.2422111 -54.21 0.0005303061    1.408    0.290
       118  -9.3217     83.6771    186.9560   1.2755650770e+02   2.5150603829e+01     0.195427    0.1594011 -82.07 0.0004142025    1.135    0.119
       119 -10.1962     28.4981    184.5501   1.3975499138e+02   3.2936151640e+01    0.3091671    0.2326372  14.96  0.001653666    1.987    0.497
       120  -9.4160     24.1602    184.1638   1.4065088282e+02   3.3474730393e+01     0.196334    0.1648633  58.38  0.000602937    1.272    0.214
       121  -9.3221     37.1228    183.4328   1.3774706456e+02   3.2253056774e+01    0.2522767    0.1613867  69.73  0.001113152    1.530    0.346
       122  -9.4132    140.1512    183.1724   1.1362367814e+02   1.5984566184e+01    0.2093402    0.2023286  13.60 0.0002868182    1.137    0.121
       123  -9.3504    107.8924    182.4627   1.2111016675e+02   2.2177797082e+01    0.2110004    0.1856891 -73.80 0.0003514933    1.102    0.092
       124  -8.6595     65.9465    182.0082   1.3099362019e+02   2.8950834451e+01    0.1608488    0.1406181  79.10 0.0003122526    1.057    0.054
       125  -9.3686    115.7580    178.0840   1.1845393479e+02   2.1791153683e+01    0.2687349    0.1988488 -42.44   0.00119202    1.515    0.340
       126  -9.1478     47.5118    179.7223   1.3496887982e+02   3.1905868304e+01    0.2033632    0.1149207  35.21 0.0006725892    1.971    0.493
       127  -9.4374     20.0367    179.0258   1.4103453090e+02   3.5065418399e+01    0.1826686    0.1451562 -85.51  0.001214882    1.034    0.033
       128  -8.6929     92.5495    178.3907   1.2411023583e+02   2.5765313601e+01    0.1421774    0.1302621  83.15 -4.623607e-06    1.027    0.026
       129  -9.4122     12.5113    178.4817   1.4260149510e+02   3.5892914168e+01    0.2029601    0.1531262 -84.90 0.0009289137    1.026    0.025
       130 -11.0060     11.5025    174.0258   1.4240403782e+02   3.7000507741e+01    0.4550555    0.1664677 -57.99  0.002137783    2.428    0.588
       131  -8.5684    125.7185    177.3253   1.1592359928e+02   2.0107019338e+01    0.1530382    0.1147835  82.12 0.0002382508    1.596    0.373
       132 -10.9490     77.4191    174.9362   1.2722252828e+02   2.8981950425e+01    0.3425099     0.228871 -49.15 0.0004415205    1.602    0.376
       133 -11.8201     64.1580    173.3314   1.3019099968e+02   3.1278457929e+01    0.3866784    0.3328907 -70.39 0.0004888046    1.109    0.099
       134 -10.1112     68.5812    166.5847   1.2809271788e+02   3.2295583574e+01    0.2528319     0.220139 -71.24 0.0008071561    1.073    0.068
       135 -12.6675    247.8860    100.9242   7.4128720927e+01   1.0092170632e+01    0.8249196    0.5781822 -49.92  0.004466423    1.248    0.199
       136 -12.3157    245.3201    163.6407   8.7862025787e+01  -6.7055704922e-01    0.7255573    0.3178309 -45.41  0.003042508    2.193    0.544
       137 -12.2883    246.8903    158.3900   8.6506071761e+01  -1.3033374393e-02     1.432288    0.9134333 -73.58  0.005766681    3.343    0.701
       138 -10.9572    249.5455    151.0621   8.4537348384e+01   8.2141740431e-01    0.5210904    0.3086522 -41.01  0.001955749    1.489    0.329
       139 -12.0492    247.7741    142.2929   8.2982737844e+01   2.7189026393e+00    0.9071516    0.6651134  62.24  0.004866183    1.690    0.408
       140 -12.5080    248.3454    134.2029   8.1176698050e+01   4.0725918660e+00     1.037777     0.649575 -39.63   0.00523835    1.412    0.292
       141 -11.7700    107.8098    172.8675   1.1943912660e+02   2.4466654776e+01    0.2828131    0.2609906  76.99 0.0002879702    1.028    0.027
       142 -10.2192     44.9333    164.8685   1.3366163236e+02   3.5758590838e+01    0.2739217    0.1675116 -76.19 0.0003489689    1.470    0.320
       143 -10.6882     45.9868    172.3170   1.3439056663e+02   3.3850477216e+01    0.3441599    0.1939363 -55.91 0.0002822713    1.694    0.410
       144 -11.0434     43.6215    169.1993   1.3454891160e+02   3.4873291646e+01    0.3532892    0.2888227 -56.64  0.001065329    1.284    0.221
       145  -9.8936     28.7495    170.5296   1.3819008285e+02   3.6177817576e+01    0.3396057    0.2221842 -52.58  0.001194408    1.606    0.377
       146  -8.6025     52.5810    171.1137   1.3266308570e+02   3.3333017985e+01    0.1743728    0.1097343 -58.15 0.0003648088    1.484    0.326
       147  -8.5005    166.7635    170.6519   1.0500576679e+02   1.3393748481e+01    0.1497402    0.1184181 -16.87 0.0001761647    1.564    0.361
       148  -8.5209    150.7296    170.3008   1.0861017147e+02   1.6770364537e+01    0.1505184    0.1198925  86.48 0.0001592858    1.528    0.346
       149 -11.8191     85.0793    166.4856   1.2395457366e+02   2.9846303514e+01    0.5800917    0.5444509  37.23  0.003371279    1.216    0.178
       150  -8.4492    118.6672    162.7283   1.1482119682e+02   2.4888628942e+01     0.146827     0.122793  -6.62 0.0002867189    1.593    0.372
       151  -8.7576     58.4610    162.5503   1.2999570570e+02   3.4650574570e+01     0.138307    0.1184994 -84.74 0.0001282463    1.034    0.032
       152  -8.5202     36.5673    162.5324   1.3538098050e+02   3.7254788907e+01    0.1318789    0.1067916 -84.79  0.000286663    1.049    0.047
       153 -14.4309      3.1078    192.6265   1.4570207860e+02   3.3559045170e+01     7.998852          nan -72.72   0.01633871   12.794    0.922
       154  -9.9850     89.8170    160.0837   1.2162323123e+02   3.0642785708e+01    0.2314634    0.2064684  52.51 0.0003314089    1.158    0.136
       155  -9.0554     73.5105    159.4957   1.2569828408e+02   3.3314561610e+01    0.2172956     0.138916  38.80 6.874998e-06    1.670    0.401
       156  -9.5362     71.5739    156.7782   1.2573578551e+02   3.4259787017e+01    0.3064579    0.2446927 -17.97  0.001605918    1.736    0.424
       157  -8.3685     52.3265    158.3112   1.3089992046e+02   3.6456219379e+01    0.1342698    0.0973478 -39.29 0.0007040672    1.661    0.398
       158  -9.0054     47.6022    158.2141   1.3207395989e+02   3.7049098223e+01    0.1924108    0.1042764 -56.74 0.0003147016    1.651    0.394
       159 -11.0508     31.8988    155.9458   1.3566809050e+02   3.9312875217e+01     0.355207    0.2284296 -56.65 0.0009425073    1.426    0.299
       160 -10.4432     83.9688    155.5168   1.2229900305e+02   3.2697728501e+01    0.4117146    0.2426572  21.16 0.0008805047    2.508    0.601
       161 -11.8205     23.3333    154.4073   1.3757254494e+02   4.0505113472e+01     0.448745    0.2662083  52.81  0.002487886    1.841    0.457
       162  -9.4733    104.8630    153.4485   1.1646895968e+02   2.9673244324e+01    0.2413692    0.1947532 -76.65 0.0003643152    1.279    0.218
       163  -9.6852    113.9192    150.5263   1.1352481212e+02   2.8709328572e+01     0.319066    0.2392857 -59.47 0.0003355896    1.308    0.236
       164 -10.4711     97.5526    151.1026   1.1790421859e+02   3.1530509887e+01    0.3753835    0.2891928 -40.66  0.001865341    1.411    0.291
       165  -9.3991    101.0521    146.4191   1.1602947571e+02   3.2055291361e+01    0.3320618    0.1689463 -38.94  0.001233055    2.474    0.596
       166 -12.2737     68.3228    144.4211   1.2441789227e+02   3.7739721861e+01    0.7052832    0.5025838  87.66  0.002296163    1.626    0.385
       167  -9.3360     86.3510    149.7996   1.2060251285e+02   3.3715523372e+01     0.227382    0.1371016 -60.27  0.000384495    1.562    0.360
       168  -9.4861     84.3140    146.7271   1.2055175193e+02   3.4790453024e+01    0.2398815    0.1346977 -68.05 0.0004612244    1.912    0.477
       169  -9.7778     55.0447    150.0519   1.2891821251e+02   3.8124636230e+01    0.3087141    0.1720695 -81.42  0.001366504    2.085    0.520
       170 -13.6910     28.7450    247.0787   1.4491069961e+02   1.9491555036e+01      1.62089    0.7937742  45.94  0.009704474    1.790    0.441
       171 -10.2776     23.9361    149.5040   1.3681082831e+02   4.1607821945e+01    0.2046676    0.1397742 -71.60 0.0005277587    1.186    0.157
       172  -9.0292    228.3632    155.2903   8.9086601781e+01   3.9885449977e+00    0.2034705      0.12411 -47.82 0.0005749676    1.611    0.379
       173 -10.1768    236.2540    146.0641   8.5708658778e+01   4.1985757840e+00     0.253195    0.2144493  56.90 0.0007779675    1.343    0.256
       174 -10.1690    133.3457    140.9896   1.0644868339e+02   2.7117084064e+01    0.4930814    0.2699974 -54.73   0.00193997    1.887    0.470
       175 -11.1591     32.7613    140.5067   1.3330459608e+02   4.2908496213e+01    0.3136769    0.1917102 -89.13  0.001067388    1.793    0.442
       176 -10.9049     72.4918    139.5038   1.2235987069e+02   3.8343252779e+01    0.2990735    0.2915694  -0.67 0.0008506438    1.178    0.151
       177  -9.2976     55.9933    138.7035   1.2674422911e+02   4.0759139830e+01    0.1773399    0.1686318  89.86 0.0003038254    1.109    0.099
       178 -11.1086     60.4297    136.6227   1.2514525703e+02   4.0697714786e+01     0.346493    0.2508692  89.31  0.001790279    1.579    0.367
       179 -10.4670     46.3831    138.1249   1.2927152489e+02   4.2041048963e+01    0.2757532    0.2012275  31.35   0.00134551    1.596    0.373
       180  -9.7576    109.6226    136.0673   1.1149958208e+02   3.2978771448e+01    0.3834642    0.2447917 -27.95  0.001357548    2.211    0.548
       181  -8.6238    104.9868    142.9788   1.1425949260e+02   3.2180435840e+01    0.1794234    0.1636956 -63.70 0.0003034131    1.045    0.043
       182 -11.2529     44.8043    130.9531   1.2848292752e+02   4.3934940708e+01     0.391097    0.2989206 -75.81  0.002040512    1.231    0.188
       183 -11.8091     33.1519    130.8192   1.3170542659e+02   4.5170083791e+01    0.5380368    0.2319712 -65.74  0.001555693    1.959    0.490
       184 -10.2910     29.9655    126.7704   1.3193913074e+02   4.6424025346e+01    0.1683039     0.141607  22.48 0.0005214498    1.453    0.312
       185  -9.1485    115.3034    129.3380   1.0841781875e+02   3.3478330374e+01    0.1564243    0.1222218 -15.79 0.0003004714    1.670    0.401
       186  -8.9918    106.3211    129.6503   1.1092202454e+02   3.5115949540e+01      0.15886    0.1192398  85.66 0.0007048577    1.743    0.426
       187 -11.4965     67.6355    128.2030   1.2147899181e+02   4.1756767155e+01    0.4294009    0.3377566  87.34   0.00175558    1.464    0.317
       188 -10.7249     59.5943    127.8625   1.2371349515e+02   4.2910979035e+01    0.2938325    0.2250822 -38.87  0.001100644    1.357    0.263
       189 -10.2009    209.9786    125.7273   8.5862673597e+01   1.3503345124e+01    0.3024653    0.2068319 -43.04 0.0005001876    1.380    0.275
       190 -10.7449     23.8517    126.6516   1.3362438178e+02   4.6993150560e+01    0.2692373    0.1624085 -72.71  0.001476891    1.453    0.312
       191 -11.6174     21.9680    121.4103   1.3333327769e+02   4.8367955543e+01    0.2863192    0.2251758   8.48  0.001829159    1.622    0.383
       192  -9.6975     54.6594    120.7931   1.2374123440e+02   4.5204234015e+01    0.2628385     0.196231   0.28  0.001247758    1.758    0.431
       193 -11.2640     29.7485    119.0268   1.3070692056e+02   4.8250804397e+01    0.3282362    0.2001459  23.93   0.00180536    1.993    0.498
       194 -10.2874     66.3252    115.5702   1.1917095212e+02   4.4919467714e+01    0.3305684    0.1726935  37.44  0.001125906    2.085    0.520
       195 -12.1583     11.4926    115.5037   1.3539583699e+02   5.0511276514e+01    0.3528186     0.282798  -6.23  0.002380978    1.578    0.366
       196 -10.2700    168.0782    113.1534   9.1313057154e+01   2.5589732758e+01    0.3684735    0.2854639 -81.29 0.0008861452    1.587    0.370
       197  -9.6027    231.7953    116.5902   7.9988711372e+01   1.0583650853e+01    0.1867266    0.1379581  70.93 0.0005621613    1.578    0.366
       198  -9.0879    203.4871    111.5062   8.3718734648e+01   1.7730404322e+01    0.1498368    0.1429504 -57.26 4.563483e-05    1.038    0.037
       199  -9.7039     29.4798    109.4769   1.2907243916e+02   5.0469487797e+01    0.1283264    0.1061544 -57.50 -2.750234e-05    1.008    0.008
       200 -11.3571     14.0296    104.4903   1.3286996799e+02   5.2812436432e+01    0.2749304    0.1913619  47.34  0.001698071    1.806    0.446
       201 -14.1400     10.6569    208.8495   1.4545845061e+02   2.9327266409e+01     2.429146     1.049871 -69.10   0.01324373    1.939    0.484
       202  -9.8721     17.1376     99.1443   1.3095698187e+02   5.3776258697e+01    0.1582659    0.1330397 -86.82 0.0003981991    1.328    0.247
       203  -9.1391     29.1449     94.4098   1.2617420227e+02   5.3859577207e+01    0.1585896     0.112342  41.16  0.000935828    1.737    0.424
       204 -13.1261    248.3106    114.5918   7.6995461648e+01   7.6002872569e+00     1.389873    0.7514234 -35.51  0.006405036    1.797    0.443
       205 -11.8722    249.1353    171.6151   8.8845469171e+01  -2.7300812862e+00    0.5404727    0.4195516  27.48    0.0031268    1.398    0.285
       206 -11.7118    199.6019    246.6453   1.1213121544e+02  -6.8935970689e+00    0.5768284    0.2920946  45.47  0.002847763    1.965    0.491
       207 -10.1811    192.1871    248.7957   1.1390725815e+02  -6.0237167408e+00     0.238662    0.1965971  21.39 0.0007929918    1.074    0.069
