#   1 NUMBER                 Running object number                                     
#   2 MAG_AUTO               Kron-like elliptical aperture magnitude                    [mag]
#   3 X_IMAGE                Object position along x                                    [pixel]
#   4 Y_IMAGE                Object position along y                                    [pixel]
#   5 X_WORLD                Barycenter position along world x axis                     [deg]
#   6 Y_WORLD                Barycenter position along world y axis                     [deg]
#   7 A_WORLD                Profile RMS along major axis (world units)                 [deg]
#   8 B_WORLD                Profile RMS along minor axis (world units)                 [deg]
#   9 THETA_WORLD            Position angle (CCW/world-x)                               [deg]
#  10 FWHM_WORLD             FWHM assuming a gaussian core                              [deg]
#  11 ELONGATION             A_IMAGE/B_IMAGE                                           
#  12 ELLIPTICITY            1 - B_IMAGE/A_IMAGE                                       
         1 -10.1666     36.0537      8.2511   4.7695505662e+01   7.2446821002e+01    0.1703037    0.1454311  -3.38 0.0003086601    1.062    0.058
         2 -11.3450     33.1578     23.5752   5.7926922249e+01   7.0213367040e+01    0.4314953     0.258753 -59.05 0.0003090023    2.063    0.515
         3 -11.4163     37.5177     18.4593   5.2878242897e+01   7.0567148980e+01    0.4896404    0.3419995  68.89  0.002337353    3.078    0.675
         4 -11.3192     38.7684     13.9737   4.9675832601e+01   7.1144206886e+01    0.2577077    0.2014253 -10.84            0    1.192    0.161
         5 -11.7299     35.2978     12.0061   5.0418622335e+01   7.1964681191e+01    0.2880315    0.2101077 -39.83 0.0009375815    1.327    0.246
         6 -12.1841     24.3135     17.9307   6.0178096264e+01   7.2309670785e+01    0.2583224    0.2261602 -31.44 0.0004094377    1.108    0.097
         7 -10.8482     25.9494     13.5255   5.6789243598e+01   7.2924501767e+01       0.2513    0.2122964 -27.54  0.001077126    1.066    0.062
         8 -10.9802     14.3095     17.1490   6.6097643249e+01   7.3444031260e+01      0.34899    0.1883335 -61.04  0.001057963    1.982    0.495
         9 -11.0548     70.5914     18.1478   3.7675275685e+01   6.4928414754e+01    0.3454057     0.224518 -28.95  0.001775581    1.470    0.320
        10 -11.4697     91.5291     10.2620   2.6849000400e+01   6.1333517898e+01    0.4665014    0.3117749  34.76  0.001397465    1.510    0.338
        11 -10.5529    225.8941     11.3262   8.1468568309e+00   2.7021276252e+01    0.2220264    0.1525248 -44.87 0.0002846523    1.236    0.191
        12 -10.4046    203.1184     11.7999   1.0076290755e+01   3.2445663001e+01    0.2188167    0.1990749 -25.44 0.0003357812    1.189    0.159
        13  -9.8953    185.2600     12.0772   1.1837503239e+01   3.6944754434e+01    0.1969842    0.1722392 -48.86  0.000463885    1.081    0.075
        14 -11.5600    126.0500     10.9281   1.9478369230e+01   5.2675393598e+01    0.2696492     0.235469 -49.45 0.0002879297    1.196    0.164
        15  -9.9685    123.4491      6.4756   1.8074504836e+01   5.3785007107e+01    0.2427238    0.1724727 -32.08 0.0004552526    1.441    0.306
        16 -10.5705    124.7126      3.3333   1.6531582564e+01   5.3741455788e+01    0.2176593    0.1988478 -33.49 0.0005557194    1.144    0.126
        17 -12.7624     54.8683      9.8999   3.9397100955e+01   6.9091168713e+01    0.4822978    0.2700256  30.68  0.001687795    1.955    0.489
        18 -10.8587     43.6681     10.8538   4.5260808458e+01   7.0879196674e+01     0.311599    0.2406722  11.77  0.001724788    1.282    0.220
        19  -9.9103      1.8117     10.0411   7.1389676832e+01   7.5772530581e+01    0.1783329    0.1336486 -39.05 0.0004213253    1.044    0.043
        20 -10.4325     11.5899     11.7015   6.5186190724e+01   7.4728057362e+01    0.2058804    0.1891479 -54.16 0.0008412898    1.315    0.240
        21 -10.2801      7.9508      8.8993   6.6287866660e+01   7.5558209008e+01    0.2409054     0.187999  89.21 0.0007051003    2.126    0.530
        22 -11.5186      2.4944      6.0863   6.8881789451e+01   7.6493474708e+01    0.3123664    0.2965739 -23.13  0.001361504    1.283    0.221
        23 -10.0206    101.6528     10.9807   2.4607950810e+01   5.8836429397e+01    0.3289233    0.1285879  62.89 0.0008858985    2.524    0.604
        24  -9.8712    133.1537     10.1875   1.7944997866e+01   5.0891492273e+01    0.2007805    0.1596445 -61.87 0.0003729035    1.346    0.257
        25 -10.8627    116.4071      9.5468   2.0717805196e+01   5.5299991737e+01    0.2633616    0.2358768  74.54  8.90981e-05    1.128    0.114
        26  -9.8562     16.8676      8.8137   5.9943029867e+01   7.4763599623e+01    0.1875953    0.1368411 -22.15  0.001011697    1.211    0.174
        27 -12.2189     29.5853      5.2348   4.9501386192e+01   7.3830640985e+01    0.3044446    0.2048724 -30.27 0.0002228794    1.288    0.224
        28 -11.3111     29.7795      1.3427   4.6753758462e+01   7.4380824616e+01    0.2579288    0.1103921  39.37 0.0007621165    2.484    0.597
        29 -10.2259    247.1654      5.8765   5.4344865756e+00   2.2839648639e+01    0.1856835    0.1339292 -53.63 0.0002930747    1.134    0.119
        30 -11.0636    221.9098      6.1797   7.0832615342e+00   2.8480154337e+01    0.2125317    0.1486723 -56.56 0.0003957358    1.247    0.198
        31  -9.8647     67.1494      5.8596   3.2099392816e+01   6.7204625879e+01    0.1842831    0.1701495 -24.91  0.001157284    1.185    0.156
        32 -10.7109     70.8968      5.0126   3.0294129108e+01   6.6516316075e+01    0.2472053    0.1801687  30.43 0.0002930342    1.318    0.241
        33  -9.9287    190.1061      3.8278   8.8677730301e+00   3.6517742379e+01    0.2545446      0.16514 -65.20 0.0006057111    1.498    0.332
        34 -11.6157     47.1172      3.8846   3.9186053456e+01   7.1270852641e+01    0.5261572     0.293435  38.98  0.002760777    1.785    0.440
        35 -12.0006     20.1151      2.3934   5.3678024025e+01   7.5489979239e+01    0.2884937    0.1909222 -14.17  0.000767072    1.489    0.329
        36  -9.9643     96.6375     10.3562   2.5551011310e+01   6.0114461492e+01    0.2544167    0.2292022  57.80  0.001484944    1.124    0.111
        37 -11.0589    148.5444      2.3189   1.2688275336e+01   4.7548270501e+01    0.2537358    0.2266038  74.90 0.0005012669    1.059    0.056
        38 -10.2419     39.0659      3.5179   4.2986137563e+01   7.2668504268e+01    0.1712773    0.1171983  36.82 0.0007841855    1.504    0.335
        39  -9.8595     12.5095      2.6159   5.9225476746e+01   7.6283647388e+01    0.2311705    0.1730909  63.84   0.00132428    2.702    0.630
        40  -9.6200    210.5183      1.9921   6.7526835348e+00   3.1609886755e+01    0.1880969    0.1203827 -30.69 0.0003632496    1.471    0.320
        41  -9.6402    138.0177      2.0048   1.3964183985e+01   5.0364589249e+01    0.1642722    0.1591363  80.03 0.0003818262    1.026    0.026
        42 -11.1749    194.0330      4.7541   8.8085898209e+00   3.5431712763e+01    0.2303845    0.2147415 -58.05 0.0002659939    1.073    0.068
        43 -10.1709    245.1281      1.4083   4.4848822349e+00   2.3725653961e+01    0.1629035    0.1129715  87.13 0.0004316654    1.476    0.323
        44  -9.0840     62.6577      1.3237   3.1022799672e+01   6.8624361202e+01    0.1260746    0.1004744 -58.66  0.000705076    1.731    0.422
        45  -9.6677      7.5009      1.3706   6.2231881405e+01   7.6967094595e+01    0.1154375   0.09091816 -25.30  0.000117213    1.036    0.035
        46 -10.2824    114.0287    119.9298   5.9489546280e+01   3.5475931569e+01    0.2169739    0.2111414 -79.54            0    1.033    0.032
        47  -9.4203    109.6784    250.7428   7.9606876331e+01   1.0889598391e+01    0.1002567    0.0748537  23.06 0.0002825153    1.545    0.353
        48 -11.8562      2.4679    233.3328   9.7666407014e+01   2.6137723424e+01    0.3400628    0.2587872  71.26  0.002162472    1.187    0.158
        49 -12.2217     17.2499    248.6181   9.5633878203e+01   2.2158494390e+01    0.5813043     0.257149  22.34  0.002826675    4.435    0.775
        50 -12.4622      9.9854    245.5987   9.6748880105e+01   2.3360006602e+01    0.4402009    0.2792558 -71.82  0.002949395    1.914    0.478
        51 -11.2818      2.4213    247.9297   9.8058864918e+01   2.3685702790e+01    0.3694063    0.2322877  46.39  0.002690273    1.294    0.227
        52 -11.1929      4.9558    243.1221   9.7515478618e+01   2.4244560984e+01    0.2972683    0.1064391  43.64  0.001875774    1.868    0.465
        53 -12.0154      6.0988    239.9878   9.7236093518e+01   2.4664070562e+01    0.3724473     0.189006  43.51  0.001972075    1.504    0.335
        54 -11.0717     69.4127    115.4389   7.1376157527e+01   4.4243901699e+01     0.307664    0.2700248  45.15 1.168103e-05    1.219    0.180
        55 -10.1422     27.1151    116.8849   8.4729448196e+01   4.8901992923e+01    0.1931222    0.1615572 -83.37 0.0002877249    1.033    0.032
        56 -11.5590     23.4238    113.3831   8.5447553114e+01   5.0099588588e+01    0.3185673    0.1993836 -73.81 0.0001890486    1.328    0.247
        57 -10.3389     58.1144    115.9021   7.4945059694e+01   4.5700644728e+01     0.218198    0.1738451  82.36 0.0005566363    1.230    0.187
        58 -11.7711      5.5046    114.1617   9.1075053891e+01   5.1259556459e+01    0.3326503    0.1641544 -57.89 0.0006012848    1.903    0.474
        59 -10.3729    115.5599    114.0294   5.7670858849e+01   3.6519737244e+01     0.292346    0.2122175  23.09  0.001032945    1.781    0.438
        60  -9.2136     69.7231    107.7358   6.9705231808e+01   4.6103397576e+01    0.1342683    0.1086835 -33.07 0.0001722062    1.476    0.323
        61  -9.8606     88.7732    105.9834   6.3390117518e+01   4.3443458062e+01    0.2046926    0.1174887 -55.21 0.0007147141    1.648    0.393
        62  -9.5855     67.9654    103.9936   6.9460513061e+01   4.7289492493e+01    0.1721147    0.1563182 -75.74 0.0003679825    1.008    0.008
        63  -9.7354     44.9946    103.2576   7.6893176482e+01   5.0483537676e+01     0.161061    0.1199772  33.53 0.0003505684    1.515    0.340
        64 -11.1799     19.0083     93.9597   8.4337436033e+01   5.5300710440e+01    0.5035321    0.3128514 -52.38  0.002769822    1.535    0.349
        65 -11.0370     18.5064     99.4728   8.5278907933e+01   5.3965289914e+01    0.2119595    0.1765927 -88.10 0.0006519036    1.059    0.055
        66  -9.7980     12.8062    103.3575   8.7674590933e+01   5.3420751305e+01    0.1444509    0.1215575  -9.92 0.0003438402    1.580    0.367
        67 -10.3160    247.5144    102.4878   2.8704880715e+01   1.0524080759e+01     0.134338    0.1131268 -24.10 0.0008103814    1.008    0.008
        68  -9.7323    217.9880     98.2998   3.1899126516e+01   1.7051923746e+01    0.1893225    0.1814265  17.11 0.0005916481    1.119    0.106
        69  -9.5774    139.7171     98.3064   4.7279049999e+01   3.4797041668e+01    0.1550395    0.1222236 -78.36 0.0001775507    1.561    0.359
        70 -10.2480     37.7017     97.1041   7.8271900654e+01   5.2825100171e+01    0.1959205    0.1524129 -69.79 0.0005460844    1.100    0.091
        71 -12.2713     57.6941     91.7289   7.0151213887e+01   5.1778463067e+01    0.3940499    0.3084829 -68.25 0.0004030068    1.164    0.141
        72  -9.7769     43.8417     94.6074   7.5646327136e+01   5.2783545841e+01     0.185795    0.1207608  46.03  0.000944184    1.674    0.403
        73 -10.2556     92.1883     93.0742   5.9026418394e+01   4.5896065967e+01     0.265304    0.2259957  66.37 0.0009029286    1.264    0.209
        74 -10.6193    105.6674     91.4730   5.4491461736e+01   4.3646227388e+01    0.2747534    0.2235472  73.45 0.0007562151    1.412    0.292
        75 -11.3317     66.7146     91.6923   6.7015930664e+01   5.0503403933e+01    0.2539508    0.2251992 -59.80  0.000292644    1.042    0.040
        76 -10.1352      7.8113     91.1241   8.7933253199e+01   5.6775651795e+01    0.1817798    0.1406323 -86.50 0.0004139403    1.088    0.081
        77 -11.5447    159.7428     89.1723   4.0062240604e+01   3.1952540019e+01    0.3332867    0.2670777  23.99 0.0002569895    1.477    0.323
        78 -10.3927    125.1367     93.0074   4.9488239008e+01   3.9177668054e+01    0.2236431    0.2189924 -41.61  0.000334466    1.041    0.039
        79 -10.8899     22.2112    101.2159   8.4257833901e+01   5.3234940650e+01    0.3936061     0.176344  85.37  0.001588607    2.766    0.638
        80 -10.1181      1.7668     89.8089   8.9928503389e+01   5.7443476753e+01    0.1850156    0.1294008 -68.55 0.0003720234    1.178    0.151
        81 -13.8344     65.5027     81.9440   6.4905978723e+01   5.3047993952e+01    0.5147417    0.4412118  80.53  0.000877461    1.290    0.225
        82 -10.3514     54.9458     85.0068   6.9525474804e+01   5.3801463713e+01    0.2045925    0.1828055 -66.45 0.0003197423    1.013    0.013
        83 -10.3113      2.8457     82.8657   8.8729303036e+01   5.9087980640e+01    0.1991305    0.1422076 -60.06  0.001028094    1.239    0.193
        84 -10.2118     48.2048     79.1111   7.0577129809e+01   5.6105368195e+01    0.2706485      0.17784 -38.03  0.001121407    1.658    0.397
        85  -9.5843     22.3597     76.6710   8.0179595527e+01   5.9329003753e+01    0.1939702    0.1192981 -85.89 0.0008661265    1.657    0.396
        86 -10.8848    178.9066     76.4579   3.2542946561e+01   2.9608319623e+01    0.5641234     0.237345  48.74  0.001872648    2.504    0.601
        87 -10.6147     75.1712     76.7451   5.9965619514e+01   5.2729692559e+01    0.2245035    0.2027071 -87.10  0.000244937    1.189    0.159
        88 -11.3245     11.2287     76.7914   8.4638392316e+01   6.0096125900e+01    0.1909173    0.1718475 -53.03 0.0006727224    1.186    0.157
        89  -9.4030     24.4313     79.5489   7.9912837120e+01   5.8449218346e+01    0.1322977    0.1101817 -74.40 0.0001351637    1.044    0.042
        90 -10.6536      5.0449     73.0845   8.6543206259e+01   6.1362301029e+01    0.1879479    0.1446017  81.83 0.0004711142    1.281    0.219
        91 -11.3108      8.5972     69.9384   8.4582359320e+01   6.1930285311e+01     0.461518    0.2317297   3.64  0.002228821    2.781    0.640
        92 -11.0550    131.2112     69.2550   4.0511697603e+01   4.2623414937e+01    0.4193662    0.2967198  -0.61   0.00137928    2.135    0.532
        93  -9.4629    105.7670     71.6531   4.8313567388e+01   4.7954987292e+01    0.1995468    0.1443023  57.99 0.0005247215    1.529    0.346
        94 -10.0913     75.0196     70.1940   5.7969690994e+01   5.4255344197e+01    0.2779858    0.1992812 -50.13  0.001374388    1.288    0.223
        95  -9.9654     39.3494     70.0894   7.1779935321e+01   5.9324850930e+01     0.191888    0.1531601 -65.67  0.000452163    1.121    0.108
        96 -12.3261     81.1235     66.8949   5.4705551598e+01   5.3903780011e+01    0.3149714    0.2704328 -39.85 0.0003604719    1.107    0.097
        97 -11.7735     16.4997     64.8473   8.0243714190e+01   6.2655907965e+01    0.3461176    0.2951271 -42.18 0.0004865087    1.201    0.168
        98 -10.5090      7.9696     62.9497   8.3612606585e+01   6.3656873428e+01    0.2514214    0.1295353 -59.59 0.0003503835    1.511    0.338
        99 -11.8091     11.6953     59.6713   8.1293671192e+01   6.4220483922e+01    0.2424063    0.2322743  -2.49 0.0002957573    1.264    0.209
       100  -9.2100    166.4914     64.4874   3.1232141535e+01   3.4714169575e+01    0.1528615    0.1485155 -38.29 0.0008102674    1.033    0.032
       101 -10.4189    128.4469     63.7206   3.9332029841e+01   4.4332401222e+01    0.2763559     0.225135 -54.10 0.0004964108    1.261    0.207
       102 -10.2595     51.9423     63.7260   6.4775815294e+01   5.9287513731e+01      0.26141    0.1832584 -61.76 0.0002222129    1.363    0.266
       103 -10.9792     49.9370     59.8268   6.4364813330e+01   6.0452130215e+01    0.2432813    0.2170767 -85.44 0.0004038512    1.263    0.208
       104  -9.4271    119.6604     62.5156   4.1204889509e+01   4.6651200453e+01    0.1533728    0.1417177 -33.26 0.0007873019    1.066    0.061
       105 -11.1704     78.9148     60.4623   5.3239281521e+01   5.5697407070e+01    0.4097698    0.2339903 -57.07  0.001235123    1.960    0.490
       106 -10.7979     42.4511     60.6369   6.7809506642e+01   6.1208986369e+01    0.3911077    0.2114395 -70.46  0.001708839    2.187    0.543
       107 -10.2573     97.8381     60.8645   4.6991169087e+01   5.1861910486e+01    0.2216305    0.2146453 -50.75  0.000732063    1.039    0.037
       108 -13.2259     21.1578     58.0778   7.6598754969e+01   6.3925300087e+01     0.443634    0.2355668 -54.28 0.0008595887    1.521    0.343
       109  -9.6618    202.0497     60.5253   2.4195766959e+01   2.6506442734e+01    0.1925544    0.1464317  67.91 0.0003468374    1.419    0.295
       110  -9.6827     37.5532     59.8839   6.9714756733e+01   6.1944669483e+01    0.2006944   0.08498487 -41.86 0.0008034119    2.437    0.590
       111  -9.5578    145.9830     59.0626   3.3624181891e+01   4.0823589288e+01    0.1856692    0.1765517 -44.78 0.0003254602    1.025    0.024
       112 -11.2245     58.4464     58.9608   6.0553489114e+01   5.9444602277e+01    0.2574096    0.2029253  32.46  0.000547417    1.406    0.289
       113  -9.6164    216.9804     58.4784   2.1633284925e+01   2.3272213139e+01    0.1892129    0.1418435  66.61 0.0001451469    1.464    0.317
       114 -10.3036    106.2613     57.2103   4.3068850836e+01   5.0740510665e+01    0.3939331    0.2642503  -7.92  0.001453938    2.272    0.560
       115  -9.8101     71.5698     57.2791   5.4794771075e+01   5.7688638104e+01    0.1900106    0.1311435 -59.09 0.0002714554    1.563    0.360
       116  -9.8311     34.5573     55.1007   6.9615781754e+01   6.3378158194e+01    0.2619518    0.1785766   6.54 0.0008848885    1.868    0.465
       117  -9.8272    229.2685     56.2796   1.9583191473e+01   2.0786124094e+01      0.18911     0.138374 -52.25 0.0004407587    1.292    0.226
       118  -9.3411    130.7260     56.7434   3.6323462078e+01   4.5040285871e+01     0.146741    0.1194822  18.52  0.000292562    1.460    0.315
       119  -9.5846    182.2370     54.3911   2.5365018567e+01   3.2326271299e+01    0.1941328    0.1446356  80.64 0.0003503028    1.488    0.328
       120 -12.3627    115.4208     53.0523   3.8912990801e+01   4.9397486155e+01    0.3011206    0.2830789  16.47 0.0004820888    1.112    0.100
       121 -10.0169     86.4524     54.1541   4.8234066720e+01   5.5547855003e+01    0.2429029    0.2028845  26.87 0.0007293728    1.302    0.232
       122  -9.2994    148.7560     52.0200   3.0636669484e+01   4.1286217813e+01     0.200573    0.1280237 -33.54 0.0005450071    1.533    0.348
       123  -9.4319    104.9981     52.0317   4.1485545959e+01   5.1994378560e+01     0.181179    0.1637122 -34.80 0.0002994404    1.072    0.067
       124  -9.9433     66.6686     52.6197   5.4950776219e+01   5.9510978698e+01    0.4402911    0.1447036  38.75  0.001158071    3.361    0.702
       125 -12.6775     62.0507     49.7699   5.5713902196e+01   6.0868723294e+01    0.3622526     0.298272 -69.13 0.0004653837    1.429    0.300
       126  -9.4464    198.4776     51.5540   2.2124715595e+01   2.8680912454e+01    0.1466452    0.1347988 -50.39 6.848521e-05    1.005    0.005
       127  -9.2387    177.7170     51.2691   2.5122717248e+01   3.3943677207e+01    0.1504986    0.1096829 -63.60   0.00026323    1.494    0.331
       128 -10.7837    137.8178     50.2720   3.2360717081e+01   4.4363293756e+01     0.415156    0.2295352  55.49  0.001688326    1.806    0.446
       129 -11.2632     78.3566     50.0313   4.9490404723e+01   5.7943690526e+01    0.2427351    0.2376501  27.23 0.0002394556    1.096    0.088
       130 -10.2732     74.6610     47.1038   4.9681951928e+01   5.9214111441e+01    0.2516895    0.2017252 -67.23  0.000935918    1.534    0.348
       131  -9.4016    159.2176     48.8949   2.7540858171e+01   3.9074754507e+01    0.1907703    0.1195736 -35.08 0.0003210516    1.534    0.348
       132  -9.3076    142.2539     48.6456   3.0814901974e+01   4.3494401070e+01    0.1594408    0.1123245 -58.82 0.0003871543    1.605    0.377
       133  -9.9361    102.1523     47.8761   4.0709437379e+01   5.3389494097e+01    0.2298156    0.1957368  -8.69  0.000362982    1.270    0.213
       134 -11.0970    102.8863     42.0989   3.8154749481e+01   5.4225574292e+01    0.6617017    0.2602248 -33.95  0.001854399    2.524    0.604
       135 -10.4973     11.1769     47.2228   7.8639294873e+01   6.7182399014e+01    0.4306911    0.1898603  37.79  0.001792248    2.755    0.637
       136  -9.5878     66.4126     47.0527   5.2866776944e+01   6.0698883570e+01     0.213407    0.1279203 -43.74 0.0005658351    1.534    0.348
       137 -10.3200      2.3355     45.7921   8.2792431801e+01   6.8002701645e+01     0.191788    0.1624808 -17.11  0.000580881    1.358    0.263
       138  -9.7382     83.7342     50.5962   4.7788971679e+01   5.6789289381e+01    0.1831082    0.1421195  56.97 0.0002403082    1.472    0.321
       139  -9.7879     17.7291     44.7441   7.4611520450e+01   6.7291376229e+01    0.2713494    0.1657844  70.33  0.001304306    2.645    0.622
       140 -11.1137     85.8251     42.8151   4.3876156188e+01   5.7828683894e+01     0.243021    0.2214661 -17.34 0.0002932476    1.060    0.056
       141 -12.2926    141.5519     41.0264   2.8218688290e+01   4.4847423514e+01    0.3369048    0.2686491  85.37 0.0004107594    1.389    0.280
       142  -9.7307    109.5496     41.1252   3.5863299824e+01   5.2830952798e+01    0.2928371    0.2065423 -18.87  0.001358169    1.568    0.362
       143 -11.4463     91.5045     40.3329   4.0926743776e+01   5.7065586535e+01    0.3846264    0.2445758 -44.36 0.0006542903    1.589    0.371
       144 -11.2668     38.1608     41.6093   6.3240607028e+01   6.5970699586e+01     0.293418    0.2470838  42.37  0.000938541    1.415    0.294
       145 -10.1967    116.8860     40.7824   3.3777798370e+01   5.1118558172e+01    0.2761378    0.2133994 -46.99  0.001127581    1.332    0.249
       146  -9.7411     69.3292     41.6860   4.9468676392e+01   6.1237269936e+01    0.1375544    0.1131167 -80.31 0.0004570191    1.674    0.403
       147 -10.1767      2.1007     39.8785   8.1523049628e+01   6.9371926267e+01    0.2024403    0.1588526 -17.07   0.00135482    1.432    0.301
       148 -10.3474     81.1068     38.8114   4.3799805378e+01   5.9508043263e+01    0.2323285    0.1910599 -33.86 0.0002944056    1.154    0.134
       149 -10.7047     50.5611     38.7407   5.6189353140e+01   6.4899941752e+01    0.3601144    0.2384135  55.44  0.001778456    2.125    0.529
       150 -12.1363    121.5532     37.1855   3.1187332758e+01   5.0520239997e+01    0.4279309    0.2708716 -32.29  0.001928817    1.559    0.359
       151  -9.6978     21.4967     37.9799   7.0434185794e+01   6.8491558335e+01    0.1954528    0.1081917 -58.40 0.0007877868    1.547    0.353
       152 -10.5871     26.8497     42.3707   6.9173705464e+01   6.7032965901e+01    0.3322981    0.1444391  30.42  0.001538367    2.585    0.613
       153 -10.8645    184.7746     40.6480   2.0761038483e+01   3.3646699935e+01    0.5384741    0.2650844  72.40  0.002141077    2.252    0.556
       154  -9.5435    207.9168     35.0077   1.6212011188e+01   2.8582562705e+01    0.1691507    0.1491605 -49.03 0.0005737753    1.020    0.020
       155 -10.0774    112.8538     34.7718   3.2373360707e+01   5.3029622856e+01    0.2179851     0.193813  27.01 0.0003810523    1.158    0.136
       156  -9.4892     74.7166     35.2931   4.4561261393e+01   6.1393780600e+01    0.1327775    0.1113566 -69.51 -0.0001541599    1.537    0.349
       157 -10.2194      6.4403     34.2150   7.7548946802e+01   7.0417646965e+01    0.2130754    0.1915358 -49.31  0.001512881    1.130    0.115
       158  -9.3538     28.0000     34.0127   6.5436667414e+01   6.8718304996e+01    0.2022454   0.06344254 -54.66  0.000468316    2.738    0.635
       159 -11.0008     85.5901     32.9110   3.9607034162e+01   5.9576495957e+01     0.544181    0.2642151  31.53  0.001984933    2.974    0.664
       160 -11.1921     79.9478     27.3259   3.8925802884e+01   6.1650648565e+01    0.3742601    0.3633736 -22.92  0.001732709    1.108    0.097
       161 -10.0892     55.1056     33.0601   5.1587673755e+01   6.5294888121e+01    0.1999159    0.1619571 -16.00  0.001141146    1.220    0.180
       162 -10.2472    213.0029     31.9610   1.4817480270e+01   2.7728022363e+01    0.2015752    0.1847343 -50.96    0.0011977    1.047    0.045
       163  -9.7932    145.0854     32.5617   2.4430642525e+01   4.5122386281e+01    0.2165047    0.1458428  67.25 0.0003320846    1.498    0.332
       164 -10.1887    102.7554     34.6314   3.5052955890e+01   5.5463188131e+01    0.3222192    0.1878949 -16.54  0.001321278    2.144    0.534
       165 -12.5080     10.6410     29.7024   7.3615763950e+01   7.1139139343e+01    0.3241419    0.2183965  35.42  0.001966125    1.836    0.455
       166  -9.7736      1.1587     30.6577   7.9566044652e+01   7.1484297934e+01    0.2309552   0.07524372 -68.85 0.0007549625    2.704    0.630
       167 -10.2287    117.0861     30.0244   2.9348495122e+01   5.2671931810e+01    0.2235813    0.2130576 -30.64 0.0004178562    1.054    0.051
       168  -9.8864     39.6170     29.8997   5.7535313568e+01   6.8174338941e+01    0.2403685    0.1428427  16.97  0.000672686    2.143    0.533
       169 -10.8919    135.6911     29.0861   2.4921418419e+01   4.8043210809e+01    0.2460099    0.2070705  58.73 0.0002926472    1.170    0.145
       170 -10.0253    144.0635     27.6101   2.2787093597e+01   4.6038408551e+01    0.2027767    0.1810971  74.68 0.0005130043    1.111    0.100
       171 -11.4599     91.0212     26.1851   3.4745799131e+01   5.9419523399e+01    0.3620785    0.2209161 -39.47  0.001692441    1.655    0.396
       172 -10.4439    216.8686     25.8059   1.2746788850e+01   2.7538850964e+01    0.2177496     0.198031 -57.86 0.0002854658    1.048    0.046
       173 -11.7533    212.8883     23.7612   1.2557021959e+01   2.8732488056e+01    0.2992261     0.206597 -56.68 0.0001962446    1.346    0.257
       174  -9.4647    131.9920     26.5034   2.4651261282e+01   4.9340517622e+01    0.2101459    0.1445301  66.37 0.0004571434    1.458    0.314
       175 -11.5322     47.3448     23.7513   5.0649660254e+01   6.8201022623e+01    0.3811301    0.2646833   0.82  0.001570512    1.739    0.425
       176  -9.9589     52.2663     23.4249   4.8142426350e+01   6.7472612335e+01    0.1882808      0.17722  48.10  0.001186853    1.306    0.234
       177 -10.3939     31.9391    247.6725   9.3116016815e+01   2.0809401132e+01    0.1497871   0.09558104  53.51 0.0004586354    1.098    0.089
       178  -9.9526    230.0266    247.2746   5.8638670897e+01  -4.9107569268e+00    0.1473259    0.1002918  22.51 0.0004343694    1.097    0.088
       179 -10.1263    131.3555    247.1100   7.5379577440e+01   8.4497884960e+00    0.1475493    0.1228743  44.97 0.0007372469    1.109    0.098
       180 -10.3476    116.1163    247.0280   7.8113818874e+01   1.0558526818e+01    0.1597038    0.1334661  33.71  0.001218812    1.209    0.173
       181  -9.6347    243.4630    244.5010   5.6175131996e+01  -6.2896897134e+00    0.1064809   0.07238405  12.49 0.0002079007    1.072    0.067
       182  -9.4424    183.3935     25.5056   1.6229935087e+01   3.5933779908e+01    0.1421136      0.13308 -54.92 -0.0001518201    1.035    0.034
       183  -9.7201     25.5998     25.0652   6.2909477591e+01   7.0795913849e+01    0.3170659    0.1238247 -48.68  0.001333626    2.109    0.526
       184 -10.3045     21.7909     22.3687   6.3896634131e+01   7.1720647805e+01    0.2467766    0.1538897  17.30 0.0009206469    1.832    0.454
       185 -10.5236     52.3123    243.9043   8.9375270321e+01   1.9172541016e+01    0.1686859    0.1400227 -70.85  0.001351814    1.576    0.366
       186 -10.0222    147.5005    243.4840   7.2094560071e+01   6.6852484868e+00    0.1135861   0.08729372  35.81 -1.015786e-05    1.017    0.016
       187  -9.6088    250.7979     23.3797   9.3784540728e+00   2.0188803561e+01    0.1359678   0.06994184 -46.04 0.0005176293    1.583    0.368
       188 -10.7239    163.0769     20.5338   1.7244191295e+01   4.1849067384e+01    0.3478359    0.2402291   1.54  0.001164686    1.844    0.458
       189 -11.3177    130.8429     21.7687   2.2999777247e+01   5.0226459161e+01    0.4323537    0.2684103  27.93  0.001478547    2.025    0.506
       190 -10.0198    100.5572     22.2717   3.0170454524e+01   5.7752562742e+01    0.2794313    0.1275502 -33.87   0.00112941    2.124    0.529
       191 -10.3679     15.8702     21.9446   6.7327253997e+01   7.2355662109e+01    0.2919819     0.185789 -28.86  0.001707083    1.500    0.333
       192 -10.3011     38.6981    242.3830   9.1703150032e+01   2.0955581045e+01    0.1760965   0.07729873  59.10 0.0005469082    1.772    0.436
       193  -9.5774     97.1522     21.8539   3.0914721595e+01   5.8611506297e+01    0.1904031    0.1546643  26.33  0.001011007    1.258    0.205
       194  -9.2525    124.3263     21.2618   2.4098081266e+01   5.1974223127e+01    0.1502054    0.1045155  35.02 0.0002906911    1.562    0.360
       195  -9.4440    107.2567     21.2762   2.7979445459e+01   5.6264066831e+01    0.1404607    0.1053214  23.79 0.0006843166    1.464    0.317
       196 -10.3769     78.3778     21.1171   3.6411263128e+01   6.2901879911e+01    0.2332153    0.1766624  38.28 0.0008717862    1.310    0.237
       197 -10.2336     64.5941     21.1823   4.1612106993e+01   6.5652522624e+01     0.233174    0.1810393  40.81 0.0005564615    1.332    0.249
       198 -10.8287     27.8100    240.7952   9.3538453923e+01   2.2384264083e+01    0.2708764   0.06262986  42.24    0.0013611    2.573    0.611
       199 -10.4423    207.5625     17.9954   1.1439118774e+01   3.0682173501e+01    0.1966394    0.1740295 -73.52 0.0003048964    1.068    0.064
       200 -10.3930    103.1188     17.8592   2.7466685516e+01   5.7694636991e+01    0.2106943    0.1906701  28.05 0.0003903341    1.074    0.069
       201 -10.0341     44.5223     17.9540   4.8945755232e+01   6.9624002119e+01      0.25146    0.1738132  33.84  0.001423611    1.530    0.347
       202 -10.0627    147.8943     16.4851   1.8017135870e+01   4.6334985700e+01    0.2344605    0.1821558 -40.96  0.001208873    1.284    0.221
       203 -10.0270    124.7573     17.3386   2.2387285441e+01   5.2322207994e+01    0.2766788    0.1635922  53.24  0.001070899    1.606    0.377
       204 -10.6441     31.8353    233.0449   9.2480163601e+01   2.3289475825e+01    0.2860101   0.09507926  39.69  0.001556981    2.201    0.546
       205  -9.9876     55.0748    231.4585   8.8126783346e+01   2.0951743709e+01    0.1621126   0.08543263  41.61 0.0003845608    1.511    0.338
       206  -9.3512    246.4326    230.5111   5.3662444651e+01  -5.3171855887e+00     0.107835   0.07719609   9.88 0.0004797131    1.020    0.019
       207  -9.5067    242.5029    230.5060   5.4266029615e+01  -4.8250345294e+00    0.1092833   0.07826222  11.27 0.0001304815    1.026    0.025
       208  -9.8404    153.6374     12.4720   1.5716264024e+01   4.5231643553e+01    0.2006305    0.1263011  58.31 0.0007728538    1.527    0.345
       209 -10.3040      7.3174    229.0322   9.6695505295e+01   2.6443875423e+01    0.1510645    0.1013039  71.54   0.00116552    1.129    0.114
       210  -9.7449    139.6706    226.6662   7.1576977812e+01   1.0219012065e+01    0.1154907   0.08526575   9.68 0.0007052004    1.723    0.420
       211 -11.6770      2.6848    220.9362   9.7268056148e+01   2.8321189418e+01     0.341319    0.1424622  76.28  0.001865019    1.971    0.493
       212 -10.3986      7.7604    221.7642   9.6378323349e+01   2.7706553776e+01    0.1989064   0.09948448  87.89  0.001296803    1.743    0.426
       213  -9.4685    210.3630    215.8032   5.7223942705e+01   1.1531923098e+00    0.1509243    0.0972133 -17.05  0.000619584    1.647    0.393
       214  -9.7332     85.7383    215.0142   8.0877744151e+01   1.9961185794e+01    0.1527553    0.1293879  63.91  0.001070274    1.085    0.078
       215  -9.7390     39.1052    207.5038   8.9704459749e+01   2.7203972955e+01    0.1618919   0.09521969  40.63 0.0005901367    1.504    0.335
       216 -10.2951      3.9896    206.0803   9.6540157292e+01   3.0989540433e+01    0.3338306   0.06085163  49.70  0.001523519    3.048    0.672
       217  -9.9389    237.6692    186.4546   4.7721774683e+01   7.5600451376e-01    0.1945172    0.1203428  -6.75 0.0007351649    1.645    0.392
       218  -9.7883      2.0000    169.9910   9.5512432489e+01   3.8560157900e+01    0.1854366   0.05330083 -82.17 0.0007989045    2.918    0.657
       219  -9.2120    164.4009     10.7007   1.3704559709e+01   4.2551756685e+01    0.1597863   0.09559087 -63.22 0.0002190922    1.824    0.452
       220  -9.3558    229.5034    165.5269   4.5091886788e+01   4.7656565321e+00    0.1276246    0.1067026  -0.25 0.0001545576    1.005    0.005
       221 -10.1066     14.1132    164.3076   9.2436058429e+01   3.8796328401e+01    0.2008299    0.1123627  17.69   0.00108403    2.526    0.604
       222  -9.3616     80.4667     10.4267   3.0165600187e+01   6.3833482105e+01    0.1334657    0.1258266  12.07 6.732104e-05    1.052    0.050
       223  -9.3429    213.2382    155.0237   4.5728542991e+01   9.0736181215e+00    0.1709968    0.1042921 -31.67 0.0008685433    1.571    0.364
       224 -10.0307     22.4846    149.5164   8.9329293024e+01   4.1426052273e+01    0.1256272     0.100722  82.78 -5.758205e-05    1.021    0.021
       225 -11.0408      5.8974    145.5581   9.3281534506e+01   4.3744542885e+01    0.2916493    0.2210407  70.21 0.0008767858    1.107    0.096
       226  -9.7170      1.9955    140.2235   9.3955691818e+01   4.5270928281e+01    0.1622369    0.1258823  80.61 0.0002531965    1.026    0.025
       227  -9.2220    235.6632    137.6835   3.8338763682e+01   7.6461829971e+00    0.1371101   0.09268878   6.00 0.0007048129    1.698    0.411
       228 -10.1959     21.7919    136.1448   8.8350251240e+01   4.4664374005e+01    0.2746277    0.1453586  58.50  0.001384163    1.804    0.446
       229  -9.1377     16.3151    137.6535   8.9976429914e+01   4.4775421834e+01    0.1365748   0.07387093  66.73 0.0007047643    1.719    0.418
       230  -9.8871     96.3502    134.1868   6.7295318218e+01   3.5402383586e+01    0.2088812    0.1320406 -68.97  0.000946345    1.690    0.408
       231  -9.2303     53.3398    131.7030   7.8919305739e+01   4.2396639830e+01    0.1446773   0.09159766  67.85 0.0002156293    1.660    0.398
       232  -9.7658     70.5850    130.2068   7.3735725723e+01   4.0442439802e+01    0.2003547    0.1197859 -54.11 0.0009412968    1.656    0.396
       233 -10.9779     28.0415    129.8709   8.5963524671e+01   4.5613357076e+01    0.2231966    0.1642101  81.28 0.0003065234    1.182    0.154
       234 -11.0571     25.6316    125.2784   8.6159064368e+01   4.6962852029e+01    0.2510846    0.1089069 -79.56 0.0006084022    2.058    0.514
       235  -9.6610     92.2206    129.2339   6.7455977864e+01   3.7274949327e+01    0.1918597    0.1557637  77.56 0.0002334466    1.277    0.217
       236  -9.5064    247.3284    126.6849   3.4199052100e+01   7.1530842119e+00    0.1248424   0.09632146 -54.12            0    1.675    0.403
       237 -10.0521     37.5055    126.5033   8.2812821863e+01   4.5496267511e+01    0.1349047    0.1119163  87.98 0.0008105249    1.026    0.025
       238 -10.1671      2.1964    125.4057   9.2930244042e+01   4.8759710667e+01    0.2442854     0.119084  79.88   0.00125337    1.816    0.449
       239  -9.5984     49.2443    124.3437   7.9030975357e+01   4.4712565052e+01    0.1770172    0.1154559  46.74 0.0003522066    1.550    0.355
       240  -9.5076    208.5176    123.4632   3.9580526279e+01   1.4972246792e+01    0.1409593    0.1290604 -16.48 0.0002010975    1.016    0.015
       241 -11.4162     11.1839    120.6328   8.9949121394e+01   4.9288457262e+01    0.3263235    0.2279614 -13.19 0.0007706227    2.158    0.537
