#   1 NUMBER                 Running object number                                     
#   2 MAG_AUTO               Kron-like elliptical aperture magnitude                    [mag]
#   3 X_IMAGE                Object position along x                                    [pixel]
#   4 Y_IMAGE                Object position along y                                    [pixel]
#   5 X_WORLD                Barycenter position along world x axis                     [deg]
#   6 Y_WORLD                Barycenter position along world y axis                     [deg]
#   7 A_WORLD                Profile RMS along major axis (world units)                 [deg]
#   8 B_WORLD                Profile RMS along minor axis (world units)                 [deg]
#   9 THETA_WORLD            Position angle (CCW/world-x)                               [deg]
#  10 FWHM_WORLD             FWHM assuming a gaussian core                              [deg]
#  11 ELONGATION             A_IMAGE/B_IMAGE                                           
#  12 ELLIPTICITY            1 - B_IMAGE/A_IMAGE                                       
         1 -13.9352    228.2416     53.2120   9.9002782789e+00   2.1905814767e+01     3.622609     2.593939  30.71   0.01920818    2.119    0.528
         2 -13.0815    230.2365    101.4873   2.1238500938e+01   1.4166531001e+01     2.807703     1.097236 -51.50  0.002932861    3.402    0.706
         3 -13.6584    210.6515    102.0675   2.4233054328e+01   1.7926741362e+01     5.686033     1.157632 -39.02  0.005329136    3.945    0.747
         4 -14.3648    249.5162    132.6935   2.5507840295e+01   5.9426953016e+00     4.000916     1.671443 -23.85  0.001907954    2.899    0.655
         5 -12.9743    247.9858     66.2213   1.1001517985e+01   1.6129585207e+01     1.204214      0.57764 -26.11  0.003884551    2.177    0.541
         6  -7.7920     37.2430     12.9532   3.8761716365e+01   7.2010000984e+01    0.1629294   0.09956728 -32.74 0.0004567149    1.559    0.359
         7  -9.3788    250.1858    244.8260   4.5762879694e+01  -8.8314447423e+00    0.2758315    0.1445687  -5.36  0.001754786    1.822    0.451
         8  -8.9971    249.3399    250.0262   4.6666834641e+01  -9.2808751371e+00    0.2599914    0.1596491  23.86  0.001929037    1.437    0.304
         9 -10.7710    243.8611    248.6463   4.7319776427e+01  -8.5653403879e+00    0.8103811    0.2762512 -20.82  0.003523563    4.262    0.765
        10  -8.2589    140.0033    245.4989   6.5444109878e+01   4.7804097267e+00    0.1734203   0.09151227  15.59 0.0008106744    2.641    0.621
        11 -10.1984      2.7272    247.9774   9.2408652916e+01   2.0972062786e+01    0.5191926    0.2133546  62.89  0.003112987    1.820    0.451
        12 -10.5474     11.5012    249.0083   9.0847286183e+01   1.9951055220e+01    0.4243903    0.1424096  36.77  0.002315359    2.189    0.543
        13 -10.6873      2.4482    234.8357   9.2080773640e+01   2.3442950476e+01     0.548164    0.1588341  75.87  0.002409471    3.461    0.711
        14  -8.0506     18.6814    233.6974   8.8914366345e+01   2.2101302649e+01   0.09373414   0.08700491 -45.56 0.0007025593    1.625    0.385
        15  -9.0519     31.4021    246.2054   8.7015034478e+01   1.8426253733e+01     0.151076   0.08536658  76.93 0.0005500533    1.645    0.392
        16  -7.7844    199.5077    235.5204   5.2841247627e+01  -1.8117244006e+00     0.116677     0.090855  10.64 0.0008102643    1.011    0.011
        17  -7.7533    155.5685    222.5544   5.9332991397e+01   6.1829340503e+00    0.1245568    0.1057737  23.70 0.0001376289    1.017    0.017
        18  -8.8556    247.1687    212.5142   4.1089764967e+01  -4.8333295225e+00    0.2251677    0.1783805   7.85  0.001675905    1.208    0.172
        19  -8.5642    236.6721    209.3644   4.2236876306e+01  -3.1590665977e+00     0.147214    0.1406541 -34.56 0.0006854723    1.738    0.425
        20  -8.9900    248.3884    205.2262   3.9654696758e+01  -4.0768003612e+00    0.2733444    0.1724136 -32.06  0.001710179    1.516    0.340
        21  -9.5369    250.3336    201.0486   3.8625788276e+01  -3.7866995009e+00     0.326879    0.1589996 -31.97  0.001255488    1.781    0.438
        22  -8.9257    244.2037    200.7912   3.9540175293e+01  -2.9959208536e+00    0.2498696    0.2087925  58.97  0.001517399    2.364    0.577
        23  -8.6523    197.6098    204.2323   4.8189793087e+01   2.8701128033e+00    0.2301371    0.2110752  83.89  0.001054485    1.783    0.439
        24 -10.2589    218.6126    198.7882   4.3441571704e+01   6.6961248019e-01    0.2279931    0.1945281   0.22 0.0002457905    1.127    0.113
        25  -9.6398    245.5364    193.1710   3.7974494965e+01  -2.1657764896e+00    0.2776691    0.2333235 -30.67  0.001970748    1.453    0.312
        26  -8.8841    199.3357    192.2312   4.5748344936e+01   4.4754441684e+00    0.2304628     0.208197  52.47 0.0006956825    1.524    0.344
        27  -8.8836    237.5592    188.1570   3.8331746590e+01  -4.3426486892e-01    0.2414437     0.192546 -55.64  0.001489291    2.103    0.525
        28  -9.8534    249.5439    184.9597   3.5856721255e+01  -1.5860472087e+00     0.360561    0.2182731 -27.39  0.001389172    1.360    0.265
        29 -10.1675    243.3540    181.7503   3.6220193327e+01  -3.2682435071e-01    0.4173463    0.3475239 -49.76  0.002514571    1.785    0.440
        30  -8.2378    232.5957    187.1770   3.8960651449e+01   3.8273909102e-01    0.2557599     0.158079  42.44  0.001463253    1.974    0.493
        31  -8.5349    227.8259    185.6385   3.9468095400e+01   1.2728912501e+00    0.2010192    0.1866263  49.59 0.0006942466    1.621    0.383
        32  -8.9184    224.0390    183.7971   3.9763714519e+01   2.0871453069e+00    0.2316634    0.1675003  29.27 0.0006819179    1.411    0.291
        33  -8.3178    201.8480    183.7989   4.3719186964e+01   5.4371687799e+00    0.2265588    0.1746626 -63.95  0.001223259    2.120    0.528
        34  -8.3332    236.0092    181.4582   3.7335316937e+01   7.2342472552e-01    0.2398108    0.1157695  44.75  0.001183682    2.631    0.620
        35  -8.3094    193.2017    179.3427   4.4509580597e+01   7.5577881193e+00    0.2381906    0.1745087 -62.58  0.001216498    2.128    0.530
        36  -7.9669    226.2443    179.2174   3.8522153252e+01   2.4478809385e+00    0.1571778    0.1434532 -31.76  0.001050859    1.373    0.272
        37  -8.5620    221.9777    178.0329   3.9019948230e+01   3.2582701194e+00    0.4306627    0.1815663 -22.69  0.001647638    3.310    0.698
        38  -9.7013    231.7274    175.0204   3.6805012785e+01   2.2716102055e+00    0.4661232    0.2139382 -37.63   0.00167099    1.972    0.493
        39  -8.2086    181.0193    249.3240   5.8144358854e+01  -1.2280941133e+00    0.1935262   0.07655509  18.88 0.0007050644    4.378    0.772
        40 -12.2569    241.6265    107.5172   2.1094307800e+01   1.1128573752e+01    0.3793244     0.280911 -41.50 0.0003769116    1.159    0.137
        41 -12.1128    244.0650    102.8174   1.9727596302e+01   1.1423147267e+01    0.2715375    0.2044675 -42.02 0.0003471733    1.135    0.119
        42 -12.3762    242.0488     98.9905   1.9118778946e+01   1.2372827070e+01    0.3487462    0.3181424 -40.86 0.0003479207    1.134    0.118
        43 -12.2911    230.1523    119.1473   2.5307189384e+01   1.1326241544e+01    0.5471493    0.4685719  17.39 0.0003834382    1.330    0.248
        44  -7.6203    207.3998    171.1763   4.0253372986e+01   6.6143672493e+00    0.1796497    0.1164046 -43.96 0.0006379415    1.635    0.388
        45  -7.5740    218.0148    168.4848   3.7832984507e+01   5.3547231685e+00    0.1792829     0.124146  34.25 0.0005373409    1.522    0.343
        46  -9.2530    192.0286    167.5573   4.2415646861e+01   9.7949118331e+00     0.286726    0.2001228 -46.16 0.0004462567    1.536    0.349
        47  -8.8975    214.8602    164.8902   3.7660119768e+01   6.4365079686e+00    0.3270716    0.2037023 -29.70  0.001117073    1.444    0.307
        48  -9.4671    212.3687    160.1718   3.7133530311e+01   7.6201788897e+00    0.3194105     0.265377 -16.69  0.001328476    1.043    0.041
        49  -8.3072    207.4408    163.1877   3.8634812420e+01   7.9368257002e+00    0.2923923    0.1217311 -38.23  0.001230608    2.207    0.547
        50  -8.2455    204.2257    160.9574   3.8761522100e+01   8.8568199993e+00     0.227271    0.1790881  11.96  0.001163854    1.291    0.226
        51  -7.1365    192.2734    157.6119   4.0314089840e+01   1.1528309887e+01     0.136073    0.1095089 -66.02 0.0005040742    1.720    0.419
        52  -7.6530    180.3548    159.1480   4.3006520319e+01   1.3394841929e+01    0.1997106    0.1266992 -50.30 0.0004556636    1.742    0.426
        53  -7.9591    163.1775    150.4301   4.4784489385e+01   1.8333969121e+01    0.2050482    0.1401019  53.77 0.0006792093    1.692    0.409
        54  -8.4418    192.5581    148.4867   3.8297157486e+01   1.3137756008e+01    0.2571122    0.2438649  51.19 0.0009351305    1.244    0.196
        55  -8.3826    189.6518    148.3088   3.8820604533e+01   1.3709484035e+01    0.2556052    0.1622782 -52.93  0.001050147    1.851    0.460
        56  -8.4700    186.6871    145.9500   3.8881175433e+01   1.4706723961e+01    0.2143862    0.2018715 -40.97 0.0004593552    1.138    0.122
        57  -7.5512    133.3147    148.6581   5.1418662543e+01   2.4509697649e+01    0.1561258    0.1209604  83.57 0.0007047684    1.706    0.414
        58  -7.9539    205.9741    146.4996   3.5370639159e+01   1.1053275063e+01    0.1773234    0.1269502  74.68 0.0008097996    2.528    0.604
        59  -8.1800    201.9688    144.9866   3.5764108770e+01   1.2042820059e+01    0.2079632     0.173283 -72.26 0.0007851014    1.673    0.402
        60  -8.1811    182.8749    142.1578   3.8789727473e+01   1.6157163539e+01    0.2206304    0.2000947 -71.14  0.001214127    1.329    0.247
        61  -8.0107    199.3605    140.2337   3.5185182064e+01   1.3375586596e+01    0.2573171     0.163837 -34.50 0.0009405863    1.431    0.301
        62 -10.3201    199.9017    133.6456   3.3589183099e+01   1.4464639537e+01    0.8453431    0.4020486 -54.87  0.002979109    3.284    0.695
        63  -8.3908    200.3285    128.0570   3.2216310077e+01   1.5394663924e+01    0.2536527    0.2074198 -31.62 0.0005860189    1.094    0.086
        64  -8.2144    202.5104    121.0144   3.0167656028e+01   1.6236697800e+01    0.2244832    0.1924074 -57.51  0.000660738    1.280    0.219
        65  -9.3526    200.6674    124.0231   3.1206259451e+01   1.6058638132e+01    0.3296983    0.2620043 -38.71 0.0009686608    1.138    0.122
        66 -10.1377    195.9774    121.3521   3.1408747903e+01   1.7481990688e+01    0.4384671    0.3670958 -88.74  0.001729898    1.569    0.363
        67  -9.0955    174.7667    139.9271   3.9940973036e+01   1.8180770803e+01    0.2558627    0.2423096 -53.78 0.0005876286    1.139    0.122
        68  -8.9701    191.9516    135.6658   3.5531832875e+01   1.5625238394e+01    0.3880475    0.2309809 -37.56  0.001787943    1.542    0.352
        69 -11.5204    192.1350    129.4913   3.4058242553e+01   1.6741626927e+01    0.3915248    0.2663546 -39.86 0.0005579061    1.346    0.257
        70  -7.7277    178.6600    131.3509   3.7135033623e+01   1.9092627590e+01      0.15279    0.1182166 -75.72 0.0002313093    1.799    0.444
        71  -7.2670    153.3136    130.6493   4.2477784821e+01   2.4476537119e+01    0.1582745    0.1233843 -82.22 0.0005764439    1.726    0.421
        72  -8.3567      5.3191    129.0965   8.6089821499e+01   4.7605068329e+01    0.1868569    0.1424776 -89.99   0.00040276    1.069    0.064
        73  -8.3112    165.9876    125.9983   3.8499947384e+01   2.2793896790e+01    0.2474712     0.193184 -82.72  0.001139225    1.758    0.431
        74  -7.8505    174.8016    125.1305   3.6424520176e+01   2.1118354167e+01    0.2038299    0.1716137  19.42  0.000829049    1.327    0.246
        75  -7.3089    143.3345    125.3136   4.3547035930e+01   2.7745067158e+01    0.1601532    0.1252571  -2.74 0.0003911898    1.686    0.407
        76 -13.1869    217.3786    117.2373   2.6812006880e+01   1.4006781094e+01     3.606459    0.8558332 -43.28   0.01078217    4.003    0.750
        77  -8.0721    151.4491    121.1646   4.0565116782e+01   2.6918470095e+01    0.2969707    0.1144902  43.38 0.0008739501    2.741    0.635
        78  -8.3834    189.6638    118.3254   3.1833238138e+01   1.9337006437e+01    0.2976817    0.1948328  67.31  0.001305877    2.134    0.531
        79  -9.1048    186.1925    115.8198   3.1865787473e+01   2.0536549421e+01    0.3712106    0.2534545  66.90  0.001684423    1.932    0.482
        80  -8.2631    140.5346    116.7572   4.2061010507e+01   3.0252766415e+01    0.3125977    0.1508374 -40.30  0.001014735    2.090    0.522
        81  -9.3558    194.5042    112.8298   2.9590915250e+01   1.9352246794e+01    0.4248921    0.2219712 -47.29  0.001770921    1.884    0.469
        82  -7.7182    152.5122    114.5197   3.8604098025e+01   2.8113787825e+01    0.1579406    0.1491687 -59.33 0.0008095267    1.059    0.056
        83  -8.1870    170.2505    117.1543   3.5379470589e+01   2.3684551166e+01    0.2807511    0.2037333  83.61 0.0009847801    2.059    0.514
        84  -9.3834    189.6686    106.1734   2.8784712030e+01   2.1605994514e+01    0.6305822    0.2639453 -45.98  0.002319265    2.321    0.569
        85  -9.2613    188.6519    102.3194   2.7976484416e+01   2.2539276771e+01    0.3278669    0.2659862 -81.23  0.001155025    1.509    0.337
        86  -9.0107    180.2279    107.6797   3.0936076922e+01   2.3374576525e+01    0.4823219    0.3135271 -87.11  0.001818927    2.897    0.655
        87  -9.4350    154.5258    107.1994   3.6191816081e+01   2.9212716473e+01    0.5115222    0.2806821 -53.35  0.001967135    1.999    0.500
        88  -7.9807    169.4546    106.6845   3.2823719421e+01   2.5956582772e+01    0.3032039    0.1399611 -44.04  0.001126557    2.037    0.509
        89  -7.5198    137.3041    104.6594   3.9609191954e+01   3.3651467270e+01    0.1649912    0.1258092 -79.06  0.000315303    1.678    0.404
        90  -7.9178     71.0398    249.3060   7.9496385796e+01   1.3282098402e+01    0.1747104    0.0911593  13.45 0.0007042369    4.259    0.765
        91  -8.2310    156.5744    101.2731   3.4108699723e+01   2.9973909333e+01     0.313954    0.1428904 -45.13  0.001129901    2.102    0.524
        92  -9.1300    179.6264     99.7398   2.8963636978e+01   2.5021391034e+01    0.3190758    0.1890838 -49.78 0.0007875966    1.687    0.407
        93  -8.8301    149.4036    101.2197   3.5720406847e+01   3.1633971802e+01    0.2352645    0.1430065 -50.73 0.0007693231    1.660    0.398
        94  -8.2544    174.1680    101.6983   3.0542382066e+01   2.5875548713e+01    0.2788129    0.1942305 -47.98 0.0008440595    1.375    0.273
        95  -8.8293    193.5213     95.1133   2.5252708682e+01   2.2780134909e+01     0.251907    0.2218528  59.45 0.0007920488    1.260    0.206
        96  -9.6995     23.1308    248.8671   8.8693918485e+01   1.8811744167e+01    0.2389167    0.1147767  54.97  0.001474909    1.524    0.344
        97  -9.2626    164.6630     94.1721   3.0396727133e+01   2.9521720652e+01     0.348152    0.2617287 -45.69 0.0008117278    1.252    0.201
        98  -8.1782    154.7338     95.1922   3.2807021278e+01   3.1639801172e+01    0.2611071    0.1918726 -59.11  0.001174453    1.463    0.317
        99 -11.6260    250.4514    141.9578   2.7308494152e+01   4.4108789362e+00    0.2700062    0.1489826 -33.09  0.001455739    1.454    0.312
       100  -8.3204    176.9220     92.5197   2.7522929639e+01   2.6994461667e+01    0.3014625    0.1938325 -51.69 0.0008674061    1.566    0.361
       101  -8.9441    169.8105     92.0861   2.8773951951e+01   2.8724158149e+01    0.6526558    0.2427834 -55.08  0.001576056    5.505    0.818
       102  -8.1209    193.4710    248.0139   5.5714851346e+01  -2.6420857224e+00    0.1552947   0.08192337 -13.77 0.0008096463    2.558    0.609
       103  -7.9592    192.9777     89.2306   2.3798058150e+01   2.3943592670e+01    0.2068203    0.1851356 -46.50 0.0006669082    1.014    0.014
       104  -7.7357    158.6568     89.6680   3.0370288016e+01   3.1815962988e+01    0.1607679    0.1251885   8.75 0.0007050778    1.755    0.430
       105  -8.9774    151.3152     88.4056   3.1597979550e+01   3.3811190870e+01    0.3663439    0.2195552 -66.98  0.001326168    2.520    0.603
       106  -9.5217    199.3976     84.6201   2.1553929829e+01   2.3311281174e+01    0.4299262    0.3032158  72.40   0.00211705    1.690    0.408
       107  -9.0912    186.2935     82.6603   2.3146835127e+01   2.6617592206e+01    0.6286718    0.2040149 -48.17  0.001903922    3.451    0.710
       108  -9.1895    186.0215     78.9375   2.2168543556e+01   2.7328883964e+01    0.4546967    0.2331499 -50.57 0.0003362845    1.990    0.497
       109  -8.6312     76.4383     81.2270   5.1152991126e+01   5.1840746653e+01    0.2245416    0.1440655 -62.18 0.0009524645    1.702    0.413
       110  -8.4722    172.3177     87.4456   2.6985947463e+01   2.9012366629e+01    0.2778623    0.2106936  89.14 0.0006079207    1.641    0.391
       111  -8.6761    150.8040     79.0193   2.8889127945e+01   3.5767738867e+01     0.274203    0.1702734 -61.83  0.001081705    2.006    0.502
       112 -12.4117    228.4053    111.4967   2.3816432920e+01   1.2890225076e+01    0.7669523    0.5079011 -71.47  0.003597657    2.457    0.593
       113  -8.5902    189.6272     77.2908   2.1128230810e+01   2.6773500464e+01    0.3632375    0.2031364 -55.35  0.001511585    1.959    0.490
       114  -9.4508    175.9858     76.4464   2.3185443724e+01   3.0133530282e+01    0.3277185    0.2127224 -40.32  0.001207798    1.414    0.293
       115  -7.9251    133.4915     75.5020   3.1779105552e+01   4.0668703538e+01    0.1574643    0.1525445 -53.31 -0.0001135279    1.018    0.018
       116  -9.4076    157.9340     75.0550   2.6185899695e+01   3.4764872428e+01     0.389844    0.2468555 -35.94 0.0009116243    1.531    0.347
       117  -8.6543    191.9277     71.2062   1.9100916919e+01   2.7256344231e+01    0.3468473    0.1954886 -31.64  0.001512624    1.717    0.418
       118  -8.5655    170.1968     70.2819   2.2419412702e+01   3.2607854589e+01    0.3191157     0.184877 -45.93 0.0009223482    1.628    0.386
       119  -8.3549    174.8966     68.4894   2.1070996442e+01   3.1767883376e+01    0.4039364    0.1413793 -37.92  0.001379922    2.544    0.607
       120  -8.9064    164.2460     69.6246   2.3311275452e+01   3.4183101696e+01    0.3223436    0.2105294 -26.38  0.001406578    1.680    0.405
       121 -10.1684    146.6537     68.9127   2.6621087409e+01   3.8676339629e+01    0.5445412    0.3295703 -59.94  0.001661527    2.011    0.503
       122  -7.9722    116.3159     69.3294   3.4193505850e+01   4.6012106619e+01    0.1599096     0.125796   7.14 0.0004547873    1.679    0.404
       123  -7.8837    182.8380     67.1662   1.9381771849e+01   3.0069689768e+01    0.1988054    0.1749267  -8.90 0.0007887415    1.333    0.250
       124  -8.3702    171.5543     62.9539   2.0002706331e+01   3.3510417310e+01    0.2331582    0.1409334 -35.41 0.0007525722    1.570    0.363
       125  -8.4728     37.3204    247.6625   8.5955037618e+01   1.7519717723e+01    0.1243173   0.05865766  57.87 -7.756137e-06    1.710    0.415
       126  -8.8017    128.0143     61.5210   2.8425106073e+01   4.4656730328e+01    0.2358245    0.1528812  55.42 0.0005939953    1.561    0.359
       127 -10.2101    132.5542     58.5643   2.6317000348e+01   4.4050137702e+01    0.4317048    0.2069737 -48.03  0.001593812    2.215    0.548
       128  -7.8258    164.2873     59.6343   2.0249523041e+01   3.5862743929e+01    0.1636967    0.1072859 -61.87 0.0007022446    1.698    0.411
       129  -9.5302    139.8813     57.9851   2.4479924999e+01   4.2303891693e+01    0.3603503    0.1830613 -49.13  0.001372817    2.089    0.521
       130  -9.1718    191.8159     55.2371   1.4689953051e+01   2.9800723952e+01    0.4395281    0.2855324   0.33  0.001815327    2.684    0.627
       131  -8.6253    147.4821     56.9740   2.2558858649e+01   4.0547080650e+01    0.2433676    0.1470997 -35.71   0.00104001    1.613    0.380
       132  -9.2711    183.4902     52.8770   1.5176672941e+01   3.2164166788e+01    0.4334966    0.1915503 -46.84  0.001702224    2.129    0.530
       133 -12.7749    244.6270     60.1677   9.9429328630e+00   1.7622691794e+01    0.9341844    0.6094478 -10.40  0.004020968    2.226    0.551
       134  -9.7309    152.9848     52.4301   2.0002568555e+01   3.9882587916e+01     0.305396    0.2266114 -35.64 0.0009055148    1.324    0.245
       135  -7.7884    161.6688     51.6581   1.8210597117e+01   3.7792743842e+01    0.1529767    0.1166687  23.84 0.0007051229    1.749    0.428
       136  -8.6995    178.8486     49.6098   1.4887277969e+01   3.3792315760e+01    0.2804986    0.1979354 -20.22 0.0008418557    1.633    0.388
       137  -8.1928    168.6540     50.3168   1.6643298112e+01   3.6231845724e+01     0.161357    0.1048944 -65.74 0.0007048384    1.722    0.419
       138 -13.1393    226.3094     92.6186   1.9676883507e+01   1.6347507986e+01    0.7685556    0.4680556 -29.76 0.0004546003    1.507    0.336
       139  -9.3447    150.4926     45.4694   1.8155796822e+01   4.1591430178e+01    0.3054629    0.1457209 -31.35  0.001051216    2.101    0.524
       140  -8.1912    163.3933     44.7491   1.5739662027e+01   3.8390984763e+01    0.2029509    0.1425805 -19.44 0.0009466009    1.651    0.394
       141  -8.4264    185.1968     43.5665   1.2252403610e+01   3.3100494725e+01    0.1957435    0.1273215  55.06 0.0006815934    1.674    0.403
       142  -8.1725    113.4458     43.4908   2.5405466376e+01   5.1331076453e+01    0.1469066    0.1452129  33.61 7.560124e-05    1.022    0.022
       143  -9.0771    117.9884     41.9470   2.3673276224e+01   5.0438719683e+01    0.2437537    0.1774527 -66.31 0.0008569963    1.649    0.394
       144 -11.9048    235.3855    107.1590   2.1845021822e+01   1.2305129547e+01    0.3089984    0.2554552 -18.05  0.000193994    1.205    0.170
       145  -8.5932    173.4591     39.9586   1.2756778936e+01   3.6518451295e+01    0.2230611    0.1367507 -32.09  0.001030653    1.595    0.373
       146  -8.9865    209.0108     34.7220   7.1425068690e+00   2.8633862142e+01     0.406749    0.2513327 -24.83  0.002043134    1.732    0.423
       147 -12.6751    237.5592     88.9802   1.7379586437e+01   1.4744978990e+01    0.4405359    0.3190116 -37.50 0.0003489805    1.125    0.111
       148  -9.6007    221.0584     33.3237   5.6811794847e+00   2.6109054656e+01    0.4463586    0.2500568  41.31  0.002033849    2.838    0.648
       149 -13.2090    249.3096    109.7820   2.0609041850e+01   9.4501849854e+00     1.012548    0.3109177 -32.64  0.001100392    2.818    0.645
       150 -12.4248    248.2400     98.9340   1.8345744964e+01   1.1278002022e+01    0.6308873    0.3518192 -33.10  0.001624669    1.459    0.315
       151 -14.1262    242.6617     82.6800   1.5324120861e+01   1.4738435695e+01     1.596134    0.8720918 -50.69  0.004493355    1.726    0.421
       152  -8.6001    215.4280     27.0317   4.5861793423e+00   2.8141796124e+01    0.3192412    0.2088938  12.89  0.001469133    2.880    0.653
       153 -12.7320    232.4976    128.9837   2.7152062804e+01   9.3236382490e+00    0.9172953       0.5944 -17.78 0.0003459108    1.624    0.384
       154 -13.7482    237.9731    126.3867   2.5778943062e+01   8.8017835417e+00    0.6763973    0.5756201 -50.49  0.004240003    1.311    0.237
       155 -12.8824    240.8159    112.5901   2.2335685316e+01   1.0480375035e+01    0.6311804    0.4717568 -53.40  0.002312619    1.436    0.304
