#   1 NUMBER                 Running object number                                     
#   2 MAG_AUTO               Kron-like elliptical aperture magnitude                    [mag]
#   3 X_IMAGE                Object position along x                                    [pixel]
#   4 Y_IMAGE                Object position along y                                    [pixel]
#   5 X_WORLD                Barycenter position along world x axis                     [deg]
#   6 Y_WORLD                Barycenter position along world y axis                     [deg]
#   7 A_WORLD                Profile RMS along major axis (world units)                 [deg]
#   8 B_WORLD                Profile RMS along minor axis (world units)                 [deg]
#   9 THETA_WORLD            Position angle (CCW/world-x)                               [deg]
#  10 FWHM_WORLD             FWHM assuming a gaussian core                              [deg]
#  11 ELONGATION             A_IMAGE/B_IMAGE                                           
#  12 ELLIPTICITY            1 - B_IMAGE/A_IMAGE                                       
         1 -12.3473     68.9693    145.4260   1.1046202221e+02   3.7018705799e+01     2.134339     1.051657  81.07  0.007167177    4.154    0.759
         2 -12.6552    201.0800     33.0756   4.9694849260e+01   3.0727520854e+01     1.619136     1.193887  25.42  0.008034312    1.790    0.441
         3 -10.8066    209.8565     24.0308   4.6139498040e+01   2.9634047748e+01    0.5055109    0.3834829  32.17  0.001124495    1.681    0.405
         4 -12.1503    215.2988     17.4808   4.3821344876e+01   2.9048080485e+01    0.8170601    0.7266959 -68.19  0.003032089    1.037    0.036
         5  -9.2637     32.5274      3.5174   8.2319325876e+01   7.0928790057e+01    0.2402282   0.09661235 -35.14   0.00121777    2.195    0.544
         6  -9.3875    102.8845    241.1333   1.1492347262e+02   1.2337186563e+01    0.1916578    0.1293943  62.49 0.0009397701    1.289    0.224
         7  -9.8780     70.1954    242.6212   1.2087104895e+02   1.6682783228e+01    0.2780111    0.1807276  61.56  0.001595379    1.184    0.155
         8  -9.7770     59.4846    244.6457   1.2285979685e+02   1.7722380362e+01    0.3760089    0.1585382  88.29  0.001664823    3.118    0.679
         9 -11.8469     75.7270    248.8846   1.2039731664e+02   1.4883390668e+01     1.459732    0.3904562  36.20  0.005599835    4.409    0.773
        10 -10.1168    106.4723    247.4911   1.1489389266e+02   1.0764129612e+01    0.3409421     0.153641  45.45   0.00115275    1.706    0.414
        11 -11.8767    113.8840    245.7725   1.1339585354e+02   9.9318662306e+00    0.8633981    0.3231842  34.94  0.003770067    2.962    0.662
        12 -11.8458     41.7829    208.8502   1.2344586828e+02   2.6518329215e+01    0.6208209    0.4848917 -55.15  0.001351805    1.747    0.428
        13 -13.4293     51.0053    198.3700   1.2080439996e+02   2.7540248315e+01     2.281072     1.420136  77.96   0.01380643    1.440    0.305
        14  -9.0235     53.9199    231.2401   1.2287708643e+02   2.0793761321e+01    0.2354246    0.1307953 -89.52  0.001454446    1.737    0.424
        15  -8.3681     83.1616    231.6357   1.1763167515e+02   1.6838891703e+01    0.1991657    0.0819368 -69.54 0.0009828116    2.747    0.636
        16 -10.3484     95.8458    224.8130   1.1459076883e+02   1.6229756131e+01    0.3836124    0.2643431  68.05  0.001307453    1.332    0.249
        17 -10.5329    163.1314    223.3521   1.0139502151e+02   5.5535485301e+00    0.4085555    0.2082631  40.54  0.002070627    1.636    0.389
        18 -10.2920     85.0914    223.8632   1.1654098634e+02   1.7977364308e+01    0.3982464     0.203455  59.58  0.002086898    1.812    0.448
        19  -8.9603     83.9942    218.7229   1.1624507075e+02   1.9095327357e+01    0.2302013    0.1980468  86.40  0.001342432    1.179    0.152
        20  -8.0845     58.5737    227.9384   1.2180153565e+02   2.0813796308e+01    0.1592145   0.09764846 -80.22 0.0004893605    1.583    0.368
        21 -10.2823     74.2998    219.4545   1.1817250622e+02   2.0320231586e+01    0.5388351    0.1966071  56.68  0.002364935    2.760    0.638
        22 -15.0922      6.9292    202.9807   1.2947354698e+02   3.1289177231e+01      15.7438     1.308617 -77.63   0.02551951   10.672    0.906
        23 -14.6411      8.8684    241.6873   1.3093732872e+02   2.3945292496e+01     3.590449     1.924848 -84.50  0.003933187    1.614    0.380
        24  -7.5553     96.4484    201.4538   1.1184372455e+02   2.0601083250e+01    0.1297734    0.1076202  66.42 2.943962e-05    1.021    0.021
        25  -9.3323     28.1582    196.8980   1.2516670818e+02   3.0432844361e+01    0.1806286    0.1168023  71.56 0.0005093925    1.236    0.191
        26 -11.4762     97.4344    249.4183   1.1667198620e+02   1.1772113748e+01     1.142842    0.2731659  36.70  0.003848684    5.151    0.806
        27  -8.8911    193.1760    192.2625   9.0391941111e+01   5.2209140103e+00    0.3178072    0.2144418  52.97  0.001636303    1.643    0.391
        28 -10.4252     67.2718    180.5700   1.1558722171e+02   2.9236342486e+01    0.3724381    0.2564273 -46.61  0.002007299    1.888    0.470
        29 -10.2387     71.9764    175.0280   1.1387181351e+02   2.9812258072e+01     0.339806     0.230963 -45.65 0.0007605589    1.885    0.469
        30  -8.7541    194.8547    167.8419   8.5298098352e+01   9.0655226075e+00    0.2448085    0.2267347   9.94 0.0009221747    1.023    0.023
        31  -9.7455     33.7060    166.2169   1.2149001293e+02   3.6425531136e+01    0.2903031    0.1956184 -87.56  0.001801002    1.233    0.189
        32 -11.6659     68.4992    161.4206   1.1290288936e+02   3.3361096645e+01    0.4527591    0.3077257 -50.60 0.0009935761    1.644    0.392
        33  -9.1334     56.2822    246.9848   1.2355852976e+02   1.7724892944e+01     0.296615    0.1219291  79.83  0.001413811    3.273    0.694
        34 -11.0087     49.2057    234.4161   1.2392283902e+02   2.0797886282e+01    0.3968855    0.3291506  72.67  0.001479309    1.211    0.174
        35  -8.4174    134.2854    147.4391   9.4426279236e+01   2.5458894869e+01    0.2779319    0.1332017 -50.90  0.001081303    2.136    0.532
        36  -8.4357     38.3716    146.2858   1.1826882473e+02   4.0484823067e+01    0.2066122    0.1256837  58.86 0.0008865925    1.671    0.402
        37  -9.4270    102.1199    141.7492   1.0129705247e+02   3.2753410685e+01    0.5094631    0.3093925 -32.30   0.00210107    2.475    0.596
        38 -10.7409     88.6669    142.5626   1.0491624101e+02   3.4791132500e+01    0.4359702    0.3184784  17.88 0.0008784423    1.890    0.471
        39  -9.3360     29.9233    144.1490   1.2009621149e+02   4.1819149894e+01      0.19544    0.1761803  45.60  0.001021355    1.333    0.250
        40 -10.3690     81.0996    165.0607   1.1042167033e+02   3.0740673679e+01    0.3623734      0.33578 -60.60 0.0004391571    1.238    0.192
        41  -8.9210    110.9115    131.8531   9.6991451924e+01   3.3479604885e+01    0.2938641    0.2145847  24.80   0.00138453    1.693    0.409
        42  -9.3207     91.8470    233.6384   1.1621884506e+02   1.5241107525e+01    0.2287181    0.1725157  88.88 0.0003825985    1.336    0.251
        43  -9.2005     98.3511    128.3142   9.9575280112e+01   3.6546236713e+01     0.279126    0.2296488 -26.33 0.0008847391    1.490    0.329
        44  -8.2061    125.9859    127.6606   9.2142011637e+01   3.1531809952e+01    0.2570347     0.115776  60.75  0.000705134    4.391    0.772
        45  -8.5452    106.0209    131.0683   9.8110249495e+01   3.4552913972e+01    0.2625217    0.2216817  46.55  0.001389734    1.211    0.174
        46 -10.1321     21.5894    125.7535   1.2009119876e+02   4.6825637918e+01      0.23843    0.1672776 -49.02  0.001406484    1.518    0.341
        47  -8.4331     89.7928    230.0029   1.1625113818e+02   1.6183261829e+01    0.1587593    0.1273118  71.32 0.0003749351    1.092    0.085
        48  -7.9673    107.7295    120.0332   9.5197209248e+01   3.6805847608e+01    0.2008734     0.184578 -63.46 0.0003206593    1.044    0.042
        49 -11.0236     87.1535    158.5938   1.0799543045e+02   3.1300930942e+01    0.7421686    0.4546848 -44.12  0.001728498    1.979    0.495
        50  -9.1115     24.1145    116.8703   1.1827349356e+02   4.8691862432e+01    0.1949748    0.1459408  88.38 0.0005659465    1.239    0.193
        51  -7.9737    134.4817    112.4813   8.6237175013e+01   3.3148391402e+01    0.1538881    0.1514412 -65.88 0.0004183939    1.002    0.002
        52  -8.0492    205.7983    110.3721   6.9844803399e+01   1.7180795875e+01    0.2145133    0.1385822  41.40  0.000944266    1.641    0.391
        53  -8.3864    114.4932    109.7277   9.0839979327e+01   3.7878206090e+01    0.2534341    0.1418737 -41.61  0.001031918    1.828    0.453
        54  -9.9684     21.5891    108.3610   1.1781048706e+02   5.0879812944e+01    0.2449425    0.1622123  63.82  0.001152843    1.712    0.416
        55 -11.1323    128.2466    229.7544   1.0895366761e+02   1.0316106182e+01    0.4450156     0.359341  80.26  0.002933804    1.349    0.259
        56  -8.8232    134.4120    102.8128   8.3687888028e+01   3.5260473379e+01    0.2280011    0.1468741 -33.13 0.0009512492    1.708    0.415
        57  -8.1741     41.3220    103.6507   1.1113698915e+02   5.0238576296e+01    0.1339136   0.09214796  77.84 0.0007048823    1.744    0.427
        58  -9.0737     32.4037    157.0224   1.2087674098e+02   3.8627657457e+01    0.3059936     0.148285  43.33  0.001436262    2.045    0.511
        59  -9.8471    147.1353     51.4340   6.4795601785e+01   4.1985470553e+01     0.537428    0.3437407 -79.95  0.002047279    2.696    0.629
        60 -11.9911    193.1382     39.2991   5.2571880214e+01   3.1939586211e+01     1.061518    0.6096739  41.62  0.004547784    2.063    0.515
        61  -9.5226     52.4073    250.2451   1.2441218652e+02   1.7652261261e+01    0.3331116    0.1114944  42.62  0.001230287    2.317    0.568
        62 -10.0140     65.2064    240.3241   1.2156497144e+02   1.7736190692e+01    0.3743815    0.2527035 -56.62  0.001560668    2.004    0.501
        63 -10.0205     53.2543    239.5346   1.2357192156e+02   1.9390898423e+01    0.3353162    0.1276098 -70.89  0.001817762    2.665    0.625
        64  -9.3420    148.1657     44.3662   6.2211198656e+01   4.2802200039e+01    0.3222075    0.2527175 -89.78 0.0008122394    1.546    0.353
        65 -11.8821    117.0399    230.2325   1.1114344029e+02   1.2019763112e+01     1.371143    0.2245315  48.17  0.003754133    6.277    0.841
        66 -10.3944    122.5441    226.9483   1.0970899764e+02   1.1710032996e+01    0.4336807    0.2640704  41.00  0.002475407    1.418    0.295
        67 -10.9614    134.9142    230.4326   1.0776517691e+02   9.1230113360e+00    0.3690795    0.2842313 -58.01  0.002388478    1.564    0.361
