#   1 NUMBER                 Running object number                                     
#   2 MAG_AUTO               Kron-like elliptical aperture magnitude                    [mag]
#   3 X_IMAGE                Object position along x                                    [pixel]
#   4 Y_IMAGE                Object position along y                                    [pixel]
#   5 X_WORLD                Barycenter position along world x axis                     [deg]
#   6 Y_WORLD                Barycenter position along world y axis                     [deg]
#   7 A_WORLD                Profile RMS along major axis (world units)                 [deg]
#   8 B_WORLD                Profile RMS along minor axis (world units)                 [deg]
#   9 THETA_WORLD            Position angle (CCW/world-x)                               [deg]
#  10 FWHM_WORLD             FWHM assuming a gaussian core                              [deg]
#  11 ELONGATION             A_IMAGE/B_IMAGE                                           
#  12 ELLIPTICITY            1 - B_IMAGE/A_IMAGE                                       
         1 -11.7858     14.5723     38.1757   9.4278419624e+01   6.7186156490e+01    0.7019111    0.3713399 -48.14  0.003358889    1.617    0.381
         2 -11.2554      5.3638     36.6528   9.8353278192e+01   6.8118916867e+01    0.7076688    0.4032082 -56.83   0.00418652    1.702    0.412
         3 -10.1245     71.8411     50.9726   7.4371414618e+01   5.7680869881e+01     1.287534    0.7698414 -25.28  0.006233534    1.783    0.439
         4 -10.6483     40.9967     21.6783   7.4892146763e+01   6.6988887583e+01    0.3117855    0.2187891 -36.29 0.0004205682    1.537    0.349
         5 -10.3973     15.8922     17.9305   8.5593874493e+01   7.0493630875e+01    0.3739841    0.2020728  17.52  0.001104242    1.810    0.447
         6 -11.6338     18.9148     28.1299   8.8338208133e+01   6.8576082494e+01    0.4944711    0.2825966 -44.68 0.0007534488    1.628    0.386
         7 -11.2744     24.7419     30.5649   8.6405290239e+01   6.7599388994e+01    0.3884248    0.3228752 -57.06  0.002570594    1.720    0.419
         8 -11.3476     34.8598     29.1735   8.0981766892e+01   6.6684068217e+01    0.6419263    0.4186723  19.42  0.003489002    1.463    0.317
         9 -12.1755    107.2623     29.3975   5.5358744100e+01   5.3701411167e+01    0.5064439    0.3711516 -13.08  0.001561609    1.513    0.339
        10 -11.7846    105.5725     21.2054   5.2775675031e+01   5.5005364570e+01    0.4010959    0.2796427  77.36 0.0004280798    1.815    0.449
        11 -10.1470     39.4961     17.5496   7.3677376570e+01   6.7759211488e+01    0.8699391    0.3472034  21.08  0.003155281    4.357    0.770
        12 -10.7234    172.9061     22.9779   4.1096457734e+01   3.8850340553e+01     0.561433    0.3723382  62.61  0.002455559    1.373    0.272
        13 -11.7214      2.0387     25.1246   9.6082687466e+01   7.0408391754e+01    0.2534326    0.1540797 -49.08 0.0005172994    1.480    0.324
        14 -10.0500    230.5502     14.4914   3.3113975946e+01   2.6688307294e+01    0.2703946    0.2138567 -53.87 0.0007955456    1.165    0.142
        15 -12.1743    117.0259     22.2184   5.0488267805e+01   5.2298175995e+01    0.3267764    0.2528504  43.48 0.0005090719    1.169    0.145
        16  -9.0220    111.2078     16.0504   4.9581154296e+01   5.4263314527e+01    0.3560437    0.1936568  28.93  0.001646827    2.208    0.547
        17 -10.1507    116.9751     15.4402   4.8124124407e+01   5.3000061706e+01    0.3319994    0.2225674  47.94 0.0007156469    1.307    0.235
        18  -8.4908     69.3770     12.0718   5.9403238095e+01   6.3448171899e+01    0.1953585    0.1427148 -10.03 0.0004954395    1.375    0.273
        19  -9.0005     70.0000     18.9208   6.2183802737e+01   6.2585754487e+01    0.3362053    0.1528587 -34.69  0.001594189    2.373    0.579
        20 -10.9155     61.6935     16.8605   6.4232672235e+01   6.4326812352e+01    0.5127047    0.2901768  20.06  0.001776165    1.941    0.485
        21  -9.2271    225.8587     16.4345   3.3904623267e+01   2.7466299008e+01     0.232269    0.1886966 -27.66 0.0007555046    1.506    0.336
        22 -11.1881    217.3595     18.4937   3.5090764624e+01   2.9075839545e+01    0.7538142    0.3577617  86.95  0.001696584    2.277    0.561
        23 -10.1909    210.8421     15.0588   3.4916193495e+01   3.0898566719e+01    0.4912728    0.2355252  87.93  0.001804074    2.228    0.551
        24 -11.0446    164.1764     20.3718   4.1578026789e+01   4.1234933654e+01    0.3835098    0.2891093  67.51  0.001238464    1.184    0.156
        25 -11.2899    166.5149     17.5587   4.0474288508e+01   4.0968056973e+01    0.4493352    0.2864729  -7.52  0.002152132    2.238    0.553
        26 -11.0397      6.1597     16.2945   9.0246251549e+01   7.1591353097e+01    0.3883872    0.3174748 -54.28  0.002344598    1.727    0.421
        27 -10.2512      9.9872     14.5217   8.7302837243e+01   7.1553091246e+01    0.2744104    0.1735889  13.44  0.001395389    1.496    0.332
        28 -10.2871     13.6611     11.0764   8.3642295474e+01   7.1726140345e+01    0.2381956    0.1728741 -11.27 0.0006271427    1.048    0.046
        29 -12.1148     15.4001      4.6134   7.9449899421e+01   7.2435628555e+01    0.5148285    0.2990829 -28.70  0.001327636    1.497    0.332
        30 -11.5459     24.9229      6.9516   7.5550004757e+01   7.1041588353e+01    0.2122449     0.172897 -13.51 0.0003181687    1.239    0.193
        31 -11.8565     21.0002      6.4215   7.7329760232e+01   7.1577385781e+01    0.4502656    0.2059811 -22.86 0.0007411063    2.224    0.550
        32  -9.5195    199.4242     18.2356   3.6766856765e+01   3.3133473348e+01    0.2817491    0.2438604 -56.88  0.001846186    1.150    0.130
        33  -9.3589    200.9208     13.8146   3.5569068067e+01   3.3269378225e+01    0.1916937    0.1640212 -56.14 0.0002710995    1.164    0.141
        34  -9.7766    201.6853      8.5818   3.4274548111e+01   3.3639779071e+01    0.2826143    0.2316748 -89.08     0.001433    1.045    0.043
        35 -10.5332    182.6030     17.9166   3.8544860893e+01   3.7090351859e+01    0.5397401    0.3098521  33.10  0.001378504    2.728    0.633
        36 -11.1270    176.1312     11.7025   3.7694595638e+01   3.9264731261e+01    0.6477036    0.4348317  62.07  0.002941124    1.365    0.268
        37 -10.9389    244.5385     12.6444   3.1696371464e+01   2.4018350521e+01    0.4521367    0.3170031  34.39  0.002186955    2.526    0.604
        38 -10.7473    248.7312      3.8229   2.9712837628e+01   2.4144408303e+01     0.328034    0.2688892 -11.58  0.001370543    1.875    0.467
        39 -10.3045     98.8530     13.1834   5.1399585952e+01   5.7299841524e+01    0.4040132    0.2408945  63.52  0.001621517    1.690    0.408
        40  -9.9077     32.4302     12.8209   7.4734609847e+01   6.9338057800e+01    0.2297877    0.2010958   6.85 0.0009546159    1.294    0.227
        41  -9.4763    219.3798     12.2491   3.3545378142e+01   2.9324290194e+01    0.2686762    0.1794201 -54.16  0.001650186    1.329    0.247
        42 -10.3391    146.1371     11.9951   4.1786140214e+01   4.6423569939e+01    0.5053267     0.336369  69.49  0.002408962    1.330    0.248
        43 -10.3502    133.1451     12.6847   4.4117500190e+01   4.9465567587e+01    0.2099282    0.1947687  55.73 0.0002617769    1.068    0.064
        44  -9.9267     89.6068     11.7605   5.3214090803e+01   5.9423654209e+01    0.4667648    0.2727747  -5.38   0.00163317    2.062    0.515
        45  -9.2145     88.2671      6.4089   5.1401726627e+01   6.0190891555e+01    0.2771978    0.1038269  56.56  0.001209221    2.295    0.564
        46  -9.8264     78.9431     11.7494   5.6236139701e+01   6.1619159635e+01    0.2089097    0.1660741  -3.57 0.0002813211    1.271    0.213
        47 -11.0960     55.3168     11.3049   6.4095108246e+01   6.6054800707e+01    0.4649178    0.3590565  41.78 0.0006432591    1.352    0.261
        48  -8.8794     49.6151      8.2751   6.4902149290e+01   6.7334556240e+01    0.2012911    0.1338355  49.47 0.0006981943    1.752    0.429
        49  -8.9410    195.2923      8.6474   3.4892918813e+01   3.5091421707e+01     0.178569    0.1166357 -41.33 0.0005536123    1.535    0.349
        50 -10.4224    191.7236      8.0356   3.5094980703e+01   3.5974385716e+01    0.4641818    0.2664954 -37.54  0.001473655    1.768    0.434
        51 -10.7303    195.2770      3.8262   3.3750571463e+01   3.5568424153e+01     0.488602    0.2956649  69.09  0.002166818    1.474    0.322
        52 -10.7271     43.0700      9.7001   6.8336807088e+01   6.8209839006e+01    0.3490284    0.1869628  29.14  0.001043558    1.694    0.410
        53 -10.1945     39.0498      4.0450   6.7278930295e+01   6.9447163960e+01    0.2813396    0.2475074   5.62  0.001963694    1.283    0.221
        54  -8.3987      4.4858     11.4596   8.9062465500e+01   7.2474983652e+01     0.153766   0.08130813 -32.93 0.0005300136    1.505    0.336
        55  -8.6657      6.7239      9.2938   8.6745954005e+01   7.2617185841e+01    0.2275837    0.1660198  53.04  0.001330176    3.214    0.689
        56  -9.4317    224.4158      9.2627   3.2498571456e+01   2.8559230086e+01    0.2218982    0.1668697 -70.49  0.000566645    1.101    0.092
        57  -9.6813    212.5480      9.5149   3.3523159144e+01   3.1112359478e+01     0.267404    0.1944471  73.74  0.001694834    1.289    0.224
        58 -10.8106    218.2490      3.0942   3.1663991832e+01   3.0524392744e+01    0.3778302    0.3154108  34.44  0.001820949    1.722    0.419
        59  -9.6500    127.8277      8.4445   4.3662775954e+01   5.1106871422e+01    0.3269703    0.2208117  69.37  0.001461114    1.351    0.260
        60  -9.5345    119.9314      8.5036   4.5125616406e+01   5.2950721616e+01    0.3273307    0.1848406 -21.28  0.001688443    2.034    0.508
        61  -8.8506    165.7070      9.1919   3.8280326911e+01   4.1991066457e+01    0.2012889    0.1429151 -55.88  0.001158803    1.465    0.317
        62  -9.6110    106.6109      6.3407   4.7040432738e+01   5.6186140417e+01    0.4255998    0.2812797 -12.96  0.001070347    1.740    0.425
        63  -9.2650    108.9810      1.0000   4.4598636313e+01   5.6075837401e+01     0.325446    0.1162818  71.52 0.0009138148    3.425    0.708
        64  -8.9896     97.7071      7.3584   4.9430648001e+01   5.8078318518e+01    0.2131109    0.1384998  16.30 0.0006809985    1.734    0.423
        65  -8.5235     84.7213      8.6327   5.3266060604e+01   6.0735949546e+01    0.1630469    0.1096048  58.45 0.0009205266    1.467    0.318
        66  -8.4319     80.6498      1.6328   5.1445417482e+01   6.2174479287e+01    0.3985486     0.132339  58.36  0.001543769    2.749    0.636
        67  -8.9843     74.1546      8.1520   5.6146989505e+01   6.2913256951e+01     0.199029    0.1395333  27.80 0.0005892565    1.259    0.206
        68 -10.6950     74.2346      2.7368   5.3748345338e+01   6.3378924461e+01    0.2924263    0.2561496   9.02  0.000971421    1.157    0.136
        69 -10.2712     69.3194      2.1463   5.4980658128e+01   6.4391338218e+01    0.2995511    0.1723873  36.19  0.001480731    1.474    0.321
        70  -9.6760    232.1989      5.7740   3.1195099635e+01   2.7286359766e+01    0.2672761    0.2040528   5.37  0.001512106    2.270    0.559
        71 -10.0463    236.4728      6.5197   3.1044901255e+01   2.6323626913e+01    0.1736476    0.1584467 -86.24 0.0008306413    1.264    0.209
        72 -10.2882    237.4028      3.0664   3.0293975847e+01   2.6496072416e+01    0.3266626    0.1947013 -81.25  0.002013843    1.482    0.325
        73 -10.2985     30.8046      3.4649   7.0809789206e+01   7.0694729391e+01    0.3477084    0.1872691 -31.48 0.0009074146    1.865    0.464
        74 -10.6557    208.8144      3.7750   3.2561055731e+01   3.2523848907e+01    0.4169782    0.3197867 -83.36  0.001597013    1.088    0.081
        75  -9.5868     62.1574      5.3201   5.8795905922e+01   6.5455126923e+01    0.2510419    0.1822091   1.99  0.001350591    1.319    0.242
        76  -9.6798    153.0884      4.1632   3.8486697281e+01   4.5461761605e+01    0.2324125    0.2076111 -52.71  0.001005025    1.226    0.184
        77 -11.1937    160.9090      2.6050   3.7058891990e+01   4.3730055423e+01    0.6242003     0.233508  66.76  0.002440448    2.188    0.543
        78  -8.5698    224.2875      4.6306   3.1534293792e+01   2.9071574500e+01     0.129496   0.06873135 -61.83  0.000569977    1.708    0.414
        79 -10.5757    179.7879      2.0522   3.4815945595e+01   3.9317757666e+01    0.2682655    0.1810587  76.01 0.0005602062    1.272    0.214
        80 -10.5212    115.7949      1.9599   4.3634018951e+01   5.4444898894e+01    0.2362684    0.1645952  62.54 0.0003462246    1.234    0.189
        81  -9.1786    119.5118      1.5298   4.2809177551e+01   5.3619109621e+01    0.2210678    0.1679012  53.37  0.000518781    1.117    0.104
        82  -8.5640      2.8156      2.9574   8.5975067389e+01   7.3856743613e+01    0.1753459   0.08580101 -22.68 0.0006505613    1.830    0.454
        83  -8.0136    143.6294      2.0550   3.9155875684e+01   4.7895086099e+01    0.1973253   0.09310261  16.06  0.000703504    4.565    0.781
        84 -10.3247     90.4986      1.8131   4.8976721418e+01   6.0094507710e+01    0.3489148    0.1577506  59.90  0.001131821    1.970    0.492
        85  -8.3720     55.6310      2.2320   5.9657092415e+01   6.6915004035e+01    0.1522054   0.09801748  -0.33 0.0009045052    1.555    0.357
        86  -9.9229     50.9463      1.6665   6.1141643032e+01   6.7778742386e+01     0.341747    0.1247791  43.83  0.001371453    2.304    0.566
        87  -9.0923    170.0898      6.9152   3.7136968819e+01   4.1159749070e+01    0.1953053    0.1469831 -74.73 0.0002984857    1.298    0.230
        88  -8.7717    128.1447      1.3586   4.1282553809e+01   5.1616630061e+01    0.1945258    0.1005647  62.49 0.0009790423    1.593    0.372
        89  -8.4345     76.7458    116.6446   9.2125863445e+01   4.3007392571e+01    0.1904883    0.1359127  43.33 0.0004295266    1.507    0.337
        90  -9.5133    201.6475    249.4829   8.6880980957e+01  -5.6260600102e+00     0.230363    0.1682303   9.83 0.0006460145    1.186    0.156
        91  -9.4274     62.4691    115.4631   9.6416088160e+01   4.5351743290e+01    0.3011835    0.2190837 -84.44 0.0008631034    1.700    0.412
        92  -8.3275     45.6451    114.7094   1.0173314569e+02   4.7597088094e+01    0.1442498   0.09647781 -31.20 0.0004375456    1.681    0.405
        93 -10.1176     32.3603    112.6744   1.0570614495e+02   4.9443000368e+01    0.3718836    0.2456938  87.48  0.001871614    1.859    0.462
        94  -8.5660    121.5003    111.9983   7.7634112130e+01   3.5955686412e+01    0.2160075    0.1380572 -70.35 0.0008088054    2.410    0.585
        95 -10.4684     62.6761    110.8138   9.5313817884e+01   4.6450647720e+01    0.3177722    0.2631883 -10.74 0.0001363844    1.359    0.264
        96  -9.1344     48.8642    111.5576   1.0003722146e+02   4.8002060437e+01     0.241779    0.1549792 -64.36 0.0009481023    1.472    0.321
        97  -8.8151      3.1928    102.8710   1.1376004899e+02   5.3922017351e+01    0.4085402    0.1494296 -73.10  0.001111898    2.388    0.581
        98  -9.3298      1.9674     92.5029   1.1262148218e+02   5.6412589947e+01    0.2210611    0.1758602  70.46  0.000702734    1.497    0.332
        99  -9.6570      1.5388     87.9254   1.1203649856e+02   5.7490180288e+01    0.3167017    0.1134103 -59.64  0.001235935    1.987    0.497
       100 -10.0792      7.1771     94.8547   1.1117526100e+02   5.5584830245e+01    0.3061891     0.254138  86.18   0.00116048    1.329    0.248
       101  -9.3863      8.5161     98.5431   1.1131029144e+02   5.4641403697e+01    0.2226679    0.1588172 -52.16 0.0006741881    1.169    0.144
       102  -9.0866      4.2082     98.1606   1.1272356525e+02   5.4975935842e+01    0.2474227    0.2343227  26.64   0.00131292    1.299    0.230
       103 -10.8960      7.0155    107.5947   1.1318357384e+02   5.2584918121e+01    0.5756327    0.2599057 -50.44  0.002034375    1.852    0.460
       104  -9.7772     36.7200    107.7682   1.0333530785e+02   5.0218682065e+01    0.3748551    0.1769113 -50.35  0.001699683    1.812    0.448
       105 -10.2937     38.0614    102.2626   1.0176560484e+02   5.1408826814e+01    0.4978604    0.2938571 -63.87  0.002472822    1.560    0.359
       106 -10.5912    116.8484    107.1104   7.7626395448e+01   3.7992540029e+01    0.5212523    0.3763521  -6.55  0.001494162    1.952    0.488
       107  -9.1345    183.9095    107.1241   6.1605687419e+01   2.3214051724e+01    0.2180655    0.2077038 -37.27 0.0003341667    1.024    0.024
       108  -9.6058     93.1446    105.4598   8.4203900679e+01   4.2916173790e+01    0.4176644    0.3410841  42.59  0.002128108    1.284    0.221
       109  -8.8014     45.9814    106.2032   9.9879192965e+01   4.9624556385e+01    0.3314565    0.1809975  14.96  0.001476676    2.351    0.575
       110 -10.8079     49.3489    101.3388   9.7651917796e+01   5.0401744850e+01    0.7325051    0.3887502  39.48  0.003354618    2.119    0.528
       111 -10.3427     63.9695    104.3018   9.3359872128e+01   4.7829521722e+01    0.4297005    0.2540742  16.07   0.00101376    2.184    0.542
       112  -9.5374     71.5523    103.9878   9.0754538301e+01   4.6810703859e+01    0.4979244    0.1941703  39.73  0.001700737    2.722    0.633
       113  -8.6593    108.0000    104.0209   7.9332263460e+01   4.0449540787e+01    0.2535474    0.0858236 -46.88 0.0005067692    2.892    0.654
       114 -10.5889    101.5056    102.5842   8.0872452697e+01   4.2024761166e+01    0.4306661    0.3294903   8.41 0.0009533322    1.609    0.378
       115  -9.9429    101.2532     98.3720   7.9784848942e+01   4.3005434450e+01    0.3282997    0.2600921  -0.33  0.001005834    1.513    0.339
       116  -8.7176    134.4342    103.4540   7.1874992523e+01   3.5055288997e+01    0.1529589    0.1507073 -33.96 5.731224e-05    1.015    0.015
       117  -9.4820      2.6275    109.2840   1.1482683732e+02   5.2432785550e+01    0.2046869    0.1737816  83.59 0.0006797846    1.239    0.193
       118  -9.3244     86.1691    102.2029   8.5535015926e+01   4.4880636538e+01    0.4587219    0.1932655  39.25  0.001231181    2.454    0.593
       119  -8.5174     28.6365    102.7474   1.0512017264e+02   5.2174431128e+01    0.1346385   0.08779553 -32.24 0.0006959022    1.621    0.383
       120  -9.9778    124.0775     98.2037   7.3165087984e+01   3.8399976647e+01    0.5130229     0.339144  -9.53  0.001983647    2.449    0.592
       121  -9.6432     77.4072     99.8838   8.7764694435e+01   4.6858741676e+01    0.2919353    0.1985045   8.98  0.001314796    1.929    0.482
       122  -9.0739     72.3456     99.9582   8.9464996744e+01   4.7629497843e+01    0.2324851    0.1798674 -70.75  0.001165231    1.509    0.337
       123  -8.8700     57.3647    100.1022   9.4591953439e+01   4.9705172495e+01      0.23181    0.1515171 -41.79 0.0009054721    1.433    0.302
       124 -10.1208     52.1958     90.7178   9.4082717558e+01   5.2534643679e+01    0.4280589    0.2341784 -55.33  0.001988778    1.684    0.406
       125 -10.8390     17.0572     99.0626   1.0844884263e+02   5.3963065837e+01    0.6324031    0.4352778  35.03  0.002729207    1.713    0.416
       126 -10.0854     22.3653     94.8206   1.0579062928e+02   5.4569813646e+01    0.3355826    0.2402667 -35.33 0.0005130336    1.350    0.259
       127 -11.4276     31.6291     92.9890   1.0207599154e+02   5.4216013639e+01    0.5752134    0.4944213 -20.73 0.0009013519    1.199    0.166
       128 -10.7876     22.0945     87.7402   1.0445789544e+02   5.6238499365e+01    0.4280534    0.2884112  36.30  0.002433999    1.765    0.434
       129 -11.1556     30.5681     85.6979   1.0083709809e+02   5.5996151528e+01    0.4989635    0.3289409 -51.31 0.0008050515    1.272    0.214
       130 -10.5042     47.5627     90.0305   9.5586103170e+01   5.3247721288e+01    0.6727259    0.1819769 -49.59  0.002011618    2.994    0.666
       131 -10.7000     43.5898     88.3665   9.6625906737e+01   5.4078830088e+01    0.4191484    0.2374006  26.10 0.0005657687    1.942    0.485
       132 -10.4921    137.0114     97.7943   6.9649732941e+01   3.5657880678e+01    0.4217971    0.2612296 -49.75  0.001789158    1.692    0.409
       133 -10.9230    117.6243     97.9726   7.4885175755e+01   3.9812387739e+01    0.2678891    0.2559969  10.29 0.0002661026    1.048    0.046
       134 -10.3236    108.5851     98.4690   7.7623330458e+01   4.1551170192e+01     0.490057    0.3319063  58.10  0.001517617    1.804    0.446
       135  -8.8686    155.7072     95.6310   6.4561301399e+01   3.1845562153e+01    0.2786311    0.1878262 -28.63 0.0009693154    1.649    0.393
       136  -8.7685    130.4863     96.0248   7.0836530594e+01   3.7462532326e+01    0.2339601    0.2047557  39.02  0.000571769    1.148    0.129
       137  -9.3032     63.6364     96.2920   9.1477204620e+01   4.9747304790e+01    0.2553146    0.1611556  41.87   0.00121195    1.770    0.435
       138  -8.7886     43.0006     96.0285   9.8666158768e+01   5.2369844137e+01    0.1698728    0.1342615 -52.40 0.0003979713    1.114    0.103
       139  -8.6837    166.8029     94.4091   6.1801787934e+01   2.9518039349e+01    0.2052016    0.1411132  40.10 0.0002863818    1.569    0.362
       140  -9.2718    106.6334     91.1755   7.6109761966e+01   4.3496848671e+01    0.2116822    0.1381407 -34.27 0.0005496718    1.593    0.372
       141  -9.6133      7.0969     89.1497   1.1023727836e+02   5.6914714413e+01    0.2211852    0.1747034  59.73 0.0007396137    1.580    0.367
       142  -9.2995    132.8369     82.2332   6.6231269463e+01   3.9657894675e+01    0.2349223    0.2032072  21.00 0.0005558916    1.243    0.196
       143  -9.9064    123.5174     87.4829   7.0227707115e+01   4.0712427875e+01    0.3310875    0.2756135 -55.20  0.001385948    1.296    0.228
       144 -10.6705    128.6073     85.5813   6.8311684386e+01   3.9965333824e+01    0.4860907    0.3502286  29.27 0.0009200044    1.561    0.359
       145  -8.4241    101.6151     88.7788   7.6915799463e+01   4.4992805158e+01    0.1903289    0.1413542 -50.95 0.0001938093    1.403    0.287
       146  -9.1325     97.4653     87.8220   7.7910566833e+01   4.5995583748e+01    0.3205024    0.2012349 -58.76  0.001365593    1.966    0.491
       147  -8.6617     94.0353     87.7281   7.8958762168e+01   4.6663138574e+01     0.197735     0.180082  21.45 0.0001707474    1.102    0.092
       148 -10.1336     86.5204     88.2086   8.1516910152e+01   4.7925679810e+01    0.3541608    0.2839379  35.47  0.000700764    1.284    0.221
       149  -9.9430     58.1838     88.1315   9.1250290495e+01   5.2350280140e+01    0.3027523    0.1866134 -61.05  0.000731245    1.747    0.428
       150 -10.2659     16.5538     87.3008   1.0642535785e+02   5.6746634865e+01    0.3533702    0.2288205 -55.50 0.0008532093    1.247    0.198
       151 -10.8561     80.7879     83.6448   8.2071220963e+01   4.9891844370e+01    0.3593577    0.3115519  17.93  0.000808711    1.170    0.145
       152 -10.5556     73.9170     80.9256   8.3611478484e+01   5.1604003611e+01      0.75459    0.4382813 -41.33  0.002903265    1.631    0.387
       153 -10.7405     65.4662     85.6041   8.7951013182e+01   5.1892961426e+01    0.2966943    0.2610887 -29.11  0.001698924    1.040    0.039
       154 -10.2430    155.0503     84.2895   6.1563725301e+01   3.4140369120e+01    0.3789589    0.2266717 -35.14  0.001224338    1.722    0.419
       155 -11.0072    150.3234     80.7349   6.1609065766e+01   3.5896338431e+01    0.5539442    0.2886757  59.59  0.001736842    2.142    0.533
       156 -10.0669     55.6570     83.1412   9.0804918607e+01   5.3794794862e+01    0.5425663    0.3297445 -23.23  0.002490462    2.000    0.500
       157 -12.8825     52.9476     74.5721   8.9363944325e+01   5.5999606971e+01    0.7295823    0.3665117 -50.00 0.0009406451    1.829    0.453
       158 -10.7672     45.2545     68.6769   9.0597778809e+01   5.8192573105e+01    0.4376564    0.2411782 -34.30 0.0002145987    1.764    0.433
       159 -10.7787     46.3211     82.0424   9.3980358762e+01   5.5193328229e+01    0.9167064    0.2572059  38.29  0.003124348    4.049    0.753
       160  -9.5017     38.3341     79.8744   9.6449801741e+01   5.6553886237e+01     0.455176    0.2051853 -36.91  0.001866458    2.284    0.562
       161 -10.1703     20.6804     80.1152   1.0334055923e+02   5.8084033383e+01    0.5677879    0.2384543 -59.69   0.00123933    1.977    0.494
       162  -8.8869     19.2893     75.0194   1.0271837162e+02   5.9325633475e+01    0.2570539    0.1539994 -46.83  0.000700538    1.354    0.261
       163  -9.5759     19.5578     72.0000   1.0188982867e+02   5.9969488147e+01    0.5078271     0.215658   1.80  0.002053427    3.623    0.724
       164  -8.1621    101.7487     82.3702   7.4948607532e+01   4.6282722787e+01     0.146001    0.1180724 -73.43 0.0006957001    1.633    0.387
       165 -10.2342      2.2876     80.2356   1.1042813901e+02   5.9203838718e+01    0.3432439    0.1974939 -65.91  0.001400399    1.441    0.306
       166 -10.1378    117.4553     84.0496   7.0872073712e+01   4.2702148425e+01    0.4253488    0.2095565 -35.51  0.001630523    2.171    0.539
       167  -8.8083     90.0465     79.0173   7.7595281225e+01   4.9204899791e+01    0.2302381    0.1845041  81.12  0.001065875    1.837    0.456
       168  -8.9095    129.4315     77.7762   6.5765295615e+01   4.1261690779e+01    0.2070565    0.1449568 -24.20 0.0004633092    1.626    0.385
       169  -9.8862     93.1743     74.1694   7.5059782731e+01   4.9577628646e+01    0.5040627    0.2290276 -51.37   0.00155889    2.667    0.625
       170 -10.0989     94.1308     70.4831   7.3565176699e+01   5.0099695783e+01    0.3725876    0.3169885 -40.90  0.002025183    1.205    0.170
       171  -9.2219     82.4832     76.4493   7.9295765007e+01   5.1087632767e+01    0.3958433     0.352761  42.89  0.002220733    1.229    0.186
       172  -9.3216    110.8985     76.7396   7.0491620513e+01   4.5513079099e+01    0.2844131    0.2214938 -44.10 0.0009654377    1.317    0.241
       173 -10.4693    180.3424     74.2813   5.3771832017e+01   2.9920740381e+01     0.429066    0.3060208   8.40  0.001907137    2.213    0.548
       174 -10.1159    137.5195     73.1046   6.2344848721e+01   4.0251604349e+01    0.3985911    0.2780116 -23.41 0.0007629642    1.649    0.394
       175 -10.5187    144.8952     71.8076   6.0234568595e+01   3.8752162527e+01    0.7009405    0.4283038  17.63  0.002561154    3.014    0.668
       176 -11.0708    144.2227     66.3668   5.8763030682e+01   3.9831600900e+01    0.4039955    0.2975875  46.75 0.0009971913    1.330    0.248
       177  -9.3698     28.5147     75.4586   9.9154798656e+01   5.8476028698e+01    0.3408378     0.170881 -46.33  0.001686766    1.650    0.394
       178  -9.2404    175.0312     75.0189   5.4938940383e+01   3.1051157866e+01    0.2171353    0.2074308 -86.83 0.0003067754    1.020    0.020
       179  -9.8820     88.3147     72.9252   7.6233699741e+01   5.0734613200e+01    0.4303059    0.2625172 -23.44  0.001294007    2.006    0.501
       180  -9.4454     68.9537     74.5867   8.3431384618e+01   5.3710185770e+01    0.2226797    0.1770688 -29.22 0.0004529575    1.180    0.153
       181  -9.8405     64.2250     74.5557   8.5139749308e+01   5.4435409682e+01    0.3158928    0.2257681 -52.77  0.001640563    1.457    0.313
       182  -9.1966    105.0266     82.9214   7.4126501218e+01   4.5515523671e+01    0.3838695    0.1489761 -48.38   0.00130672    2.813    0.644
       183 -10.5934    170.3319     73.1958   5.5328995380e+01   3.2471480814e+01    0.3086782    0.2434357 -43.19 0.0005895254    1.258    0.205
       184  -9.0781    160.3287     74.3238   5.7626154690e+01   3.4660880168e+01     0.152412    0.1166421  18.69 0.0007049592    1.696    0.410
       185  -9.3868      3.7429     72.7632   1.0842817683e+02   6.0798512348e+01    0.3979133      0.13255 -31.89   0.00158209    3.499    0.714
       186  -9.4960    173.2735     69.0232   5.3636688509e+01   3.2459163209e+01    0.2728773    0.2080448  65.54 0.0006058736    1.321    0.243
       187  -8.7838    152.1719     73.1709   5.9019354115e+01   3.6796785108e+01    0.2077255     0.175734 -77.26  0.000648717    1.339    0.253
       188 -12.0708     79.4340     70.1341   7.8315736077e+01   5.2873370354e+01     0.372592    0.2892884  10.48  0.001961214    1.376    0.273
       189  -9.8264    199.9977     70.7433   4.9602483853e+01   2.5930158677e+01    0.3031855    0.2346083 -22.47 0.0008172237    1.499    0.333
       190  -9.1366    185.9116     70.2426   5.1739945353e+01   2.9271770259e+01    0.3116829    0.1561265 -57.94  0.001173121    2.648    0.622
       191  -8.7568    111.8636     70.6011   6.8274366955e+01   4.6451020290e+01     0.257434    0.1928109 -25.59   0.00068148    1.413    0.292
       192 -11.6810     97.2816     63.9339   7.0409438477e+01   5.0679013340e+01    0.2934336    0.2544814  16.58 0.0002271136    1.129    0.114
       193 -10.3026    102.0559     70.0943   7.0984135348e+01   4.8595018387e+01    0.3217368    0.2690863  33.92  0.000769582    1.170    0.145
       194  -9.6349    105.9478     65.9526   6.8471828740e+01   4.8540408956e+01    0.4568693    0.2563974  57.50  0.001787161    2.182    0.542
       195 -10.3419    119.0601     68.3562   6.5567439037e+01   4.5284650414e+01    0.3734937    0.3077402   4.91  0.000741871    1.371    0.271
       196  -9.5962    122.6769     66.3254   6.3962255643e+01   4.4830508283e+01    0.3158897    0.1741857  50.36  0.001345776    1.771    0.435
       197  -9.7004     10.4036     69.2399   1.0497433994e+02   6.1196457055e+01    0.2408285    0.1543086 -31.75  0.001424406    1.433    0.302
       198 -11.6263      2.2768     66.3939   1.0769495919e+02   6.2263877709e+01    0.3497877    0.1868054 -55.37  0.001176157    1.427    0.299
       199 -10.0122      9.1379     61.3755   1.0363492697e+02   6.2959701460e+01    0.3684345     0.228052 -24.74  0.002173994    1.562    0.360
       200 -10.6659      3.8277     59.7304   1.0553015475e+02   6.3607179150e+01    0.6046408    0.3498561 -52.15  0.003593775    1.332    0.249
       201 -10.1218     32.2620     48.0327   8.9404291528e+01   6.3728302325e+01    0.2544449    0.1944928  37.93  0.001075322    1.646    0.392
       202 -10.1355    115.7736    248.4944   1.0384413728e+02   7.2453859254e+00    0.2316332    0.2074483  39.91 0.0008283728    1.086    0.079
       203  -8.4374    192.3076    248.3115   8.8486898780e+01  -4.1398521022e+00    0.1249171   0.08232969   4.01 0.0002974877    1.620    0.383
       204 -11.0424     32.0065     53.2272   9.1268433568e+01   6.2764372550e+01     1.588932    0.1819813  32.89  0.004437975    7.111    0.859
       205 -10.5906     25.3054     46.4244   9.2006356030e+01   6.4724600312e+01    0.6395513    0.3404781 -20.27  0.003208447    2.099    0.524
       206  -9.8203     38.0536     46.9118   8.6443026852e+01   6.3291366230e+01    0.7205075    0.3692486  10.40  0.003281785    2.578    0.612
       207 -11.8486     31.8803     64.1095   9.4693205375e+01   6.0590228060e+01    0.6461049    0.3556729 -39.07  0.003350453    1.581    0.367
       208 -11.5720     23.9529     58.6729   9.6478160068e+01   6.2437631111e+01    0.9802204    0.5802246 -39.77  0.004006521    1.405    0.288
       209 -11.2889     39.6419     57.7639   8.9474116662e+01   6.1051893548e+01    0.2843123    0.2518882 -30.21 0.0007801351    1.121    0.108
       210 -11.3216      8.7792     51.7627   1.0126991267e+02   6.4967777221e+01    0.4066496    0.3512198 -13.98 0.0004576438    1.193    0.162
       211 -10.5412     15.4259     60.0035   1.0055951446e+02   6.2833180137e+01    0.3274746    0.1841405 -50.34 0.0001052713    1.429    0.300
       212 -10.8009     14.0448     55.5883   9.9958183141e+01   6.3841489611e+01    0.4059675    0.1842568 -45.50 0.0004015298    1.716    0.417
       213 -10.1339     42.1194     52.3340   8.6602067760e+01   6.1804579140e+01    0.3930868    0.2681149 -47.38 0.0008148052    1.458    0.314
       214 -10.7159     46.7301     47.7912   8.3033154745e+01   6.2054490357e+01    0.5734279    0.3403961 -38.17 0.0004176219    1.534    0.348
       215  -9.3149    157.7975     67.7020   5.6257935807e+01   3.6375673279e+01    0.3975006    0.2304065  26.73  0.001476704    2.885    0.653
       216 -10.6896    135.2157     65.6347   6.0618229992e+01   4.2071396004e+01    0.4108737    0.4002759  67.75  0.001542162    1.048    0.046
       217 -10.1628     83.5432     64.2444   7.4956770877e+01   5.3258365790e+01     0.499229    0.3451166 -60.01  0.001448788    2.003    0.501
       218  -9.5494     75.0996     66.0043   7.8466687933e+01   5.4413296374e+01    0.2098142    0.1875489  -9.26 0.0003806215    1.021    0.021
       219 -10.0282     66.4920     62.7697   8.0498715522e+01   5.6435093177e+01    0.3689909    0.3322603 -55.89  0.001133624    1.344    0.256
       220 -10.0870     70.7740     60.0398   7.7991445271e+01   5.6255822521e+01    0.3277162    0.2065882  41.90 0.0009643228    1.686    0.407
       221  -9.5711    202.7573     63.0483   4.7284924703e+01   2.6492862371e+01    0.2431032    0.1963756  58.04 0.0005838803    1.295    0.228
       222  -9.7697    194.0172     60.7567   4.7997834078e+01   2.8853531722e+01    0.3249926    0.2508362 -35.16 0.0004866236    1.327    0.247
       223  -9.5938    160.7209     61.2826   5.3835288136e+01   3.6702050039e+01    0.2636538    0.2419983 -33.53  0.000918599    1.142    0.124
       224  -9.9522    162.7425     57.9716   5.2504323223e+01   3.6724596738e+01    0.3451852    0.1827291 -25.90  0.001418678    2.281    0.562
       225  -9.4774    151.2597     60.7172   5.5563190784e+01   3.9065655125e+01    0.3040496    0.1876908  48.53 0.0009773892    1.583    0.368
       226 -10.2026    141.8532     59.9908   5.7358882936e+01   4.1426694174e+01    0.2863606    0.2166587  39.90 0.0003337123    1.350    0.259
       227 -10.8128    145.5731     54.3870   5.4847959163e+01   4.1402053679e+01    0.6442713    0.3679955 -17.41  0.002638207    2.464    0.594
       228  -9.6844    136.4215     56.0120   5.7345429779e+01   4.3334033471e+01    0.3718877    0.2466217 -26.97  0.001763375    1.660    0.397
       229  -9.9314    129.8994     57.4983   5.9337549846e+01   4.4631208749e+01    0.4781956    0.2879921  65.99  0.001979074    1.967    0.492
       230  -9.8003     53.4169     60.6532   8.4802541721e+01   5.8762772754e+01    0.3268188    0.2773141 -75.68 0.0009768262    1.702    0.412
       231  -8.6223    240.9893     59.6799   4.1728933997e+01   1.8740088730e+01    0.1711617    0.1456718 -71.02  0.000286763    1.078    0.072
       232  -9.9988    171.0632     59.0588   5.1296657358e+01   3.4554848346e+01    0.2774747    0.1988282 -37.80 0.0008319828    1.416    0.294
       233 -10.0632    167.2826     56.4391   5.1239436577e+01   3.5860062200e+01    0.2369376    0.2263348  76.44 0.0002285077    1.026    0.025
       234  -8.9999    105.4608     58.4458   6.6106194565e+01   4.9934216465e+01    0.2921745    0.1398887 -37.13  0.001197821    2.136    0.532
       235  -9.0432     30.3406    247.6823   1.2048492875e+02   1.8628987013e+01     0.124119   0.06180234  61.79 0.0007049037    1.711    0.415
       236  -9.2470     85.9000     57.4791   7.1837011812e+01   5.4030369225e+01    0.2149822    0.1795247 -11.39 -2.628904e-06    1.176    0.150
       237 -11.4862     83.0834     53.4070   7.1331755280e+01   5.5253731292e+01      1.11959     0.830886 -20.22  0.005380795    1.370    0.270
       238  -9.6320     45.7635     25.0358   7.4284398471e+01   6.5840229215e+01    0.4799204    0.3266754  13.72  0.002870143    1.377    0.274
       239 -10.1699    163.5092    246.2305   9.3854714952e+01   4.2450238284e-01    0.2480163    0.1537446  33.34  0.001171723    1.357    0.263
       240 -12.9929     61.8839     44.2915   7.5590122965e+01   6.0444616508e+01    0.4290632    0.3649134 -29.35 0.0005309958    1.204    0.170
       241 -10.6164     67.8268     44.3228   7.3351495866e+01   5.9463054277e+01     0.477576    0.2858377 -37.21  0.002440334    1.661    0.398
       242  -8.0562    110.3098     63.2830   6.6336878828e+01   4.8079292980e+01    0.1470116    0.1102138  14.49 0.0006982987    1.568    0.362
       243  -9.4197    177.9503     57.0767   4.9575347394e+01   3.3201174740e+01    0.2085782    0.1938697  86.26 0.0004067549    1.021    0.021
       244  -9.3930     65.0358     56.6467   7.8929982499e+01   5.7804759401e+01    0.2147717    0.1787096 -28.18  0.000327706    1.129    0.114
       245 -10.4566     61.5422     52.1632   7.8658439882e+01   5.9155383621e+01    0.3281853    0.2832812  79.89  0.001203402    1.840    0.457
       246 -10.8655    118.1433     52.7721   6.0722034204e+01   4.8061234688e+01     0.450944    0.3314338 -29.41  0.001196353    1.428    0.300
       247 -10.2222    129.1052     41.1780   5.4237352565e+01   4.7196369980e+01    0.5243869    0.2677436 -53.34  0.002072199    2.799    0.643
       248  -9.8469    122.0350     38.5898   5.4989716166e+01   4.9190258442e+01     0.553297     0.231555  57.65  0.002205988    2.278    0.561
       249 -11.3253    124.1747     45.8782   5.6926932805e+01   4.7699685583e+01    0.7322385    0.5500308 -17.32  0.001729323    1.495    0.331
       250  -9.3702    127.5386     48.4302   5.6971121194e+01   4.6552211797e+01     0.224407    0.2048446  39.68 0.0005715563    1.041    0.039
       251  -9.9968     93.8117     54.4000   6.8208624076e+01   5.3009311781e+01    0.3883406    0.2760569   3.20  0.001109059    1.716    0.417
       252  -8.9354     98.5360     54.9096   6.6937183163e+01   5.1965599061e+01    0.1983772    0.1375363 -33.80 0.0003430823    1.470    0.320
       253  -8.9862     52.6188     54.2266   8.2918224667e+01   6.0089526559e+01    0.2364977    0.1515805 -43.71  0.001252684    1.505    0.336
       254  -9.1895    191.3273     54.2440   4.6735323311e+01   3.0444277256e+01    0.2387797     0.207715   9.38 0.0008961062    1.480    0.325
       255 -10.8355    174.5883     50.5878   4.8366817687e+01   3.4952141845e+01    0.3665227    0.2967055  40.07  0.002001727    1.384    0.278
       256  -9.5339    164.3572     51.7585   5.0440014226e+01   3.7254314749e+01    0.2628621    0.2135313  57.41 0.0006415104    1.185    0.156
       257 -10.9810    153.8427     48.9428   5.1559816488e+01   4.0202794338e+01    0.4554164     0.340676  77.40  0.001200187    1.423    0.297
       258  -9.3769     53.6454     49.1915   8.0693560396e+01   6.0855868329e+01    0.2801496    0.2023356 -52.45  0.001543976    1.689    0.408
       259  -9.2325    181.4945     48.9634   4.6835179108e+01   3.3525381983e+01    0.2160284    0.1826936  74.71   0.00122929    1.127    0.112
       260  -8.6244    137.1527     49.3519   5.5089569597e+01   4.4154360526e+01    0.2020546    0.1307139  67.34   0.00093362    1.665    0.399
       261 -10.4815    114.3701     46.3723   5.9532450409e+01   4.9865677481e+01    0.3376701    0.2503104 -14.09 0.0005546138    1.523    0.343
       262  -8.8335    202.0826     47.4333   4.3535066123e+01   2.8904836537e+01    0.2577022    0.1607284  20.14  0.001038868    3.390    0.705
       263  -9.1674    106.8511     52.8869   6.3809056243e+01   5.0536809852e+01    0.2123973    0.1781664  18.26 0.0002818316    1.206    0.170
       264  -8.4081     96.6641     48.7650   6.5331233441e+01   5.3328668512e+01     0.141053   0.09913068  22.77 0.0003245546    1.539    0.350
       265  -9.1027    234.8483     46.9108   3.9624740776e+01   2.1780700888e+01    0.1701778    0.1597865 -62.25 0.0003006285    1.186    0.157
       266  -8.5922    164.3135     46.3033   4.8896073925e+01   3.8034111467e+01     0.140733    0.1053837  31.58 0.0007021225    1.615    0.381
       267  -9.8560    245.1496     43.9285   3.7982136858e+01   2.0074278424e+01    0.3339657    0.2808156 -46.70  0.002243251    1.182    0.154
       268  -8.5389     94.1383     44.8962   6.4696362064e+01   5.4435046362e+01     0.189246    0.1507705  12.06 0.0004814469    1.285    0.222
       269  -9.7737     90.6035     40.1905   6.4036623655e+01   5.5841608803e+01    0.4457183    0.2758442 -44.18  0.002189785    1.895    0.472
       270  -8.9167    185.2551     44.1389   4.5003687041e+01   3.3291673996e+01    0.2745512     0.134074  51.94  0.001201898    2.087    0.521
       271  -9.9831    141.3883     43.2298   5.2275180482e+01   4.3998851607e+01    0.4677415    0.2473119  48.19  0.002077259    1.799    0.444
       272  -8.8731    108.4741     43.4691   6.0080225470e+01   5.1592511262e+01    0.2740862    0.2433697 -45.46 0.0008359339    1.273    0.214
       273 -10.9258    103.0269     42.9507   6.1392797829e+01   5.2851817906e+01    0.3043661    0.2625571  64.05  0.000304794    1.308    0.236
       274 -11.9336    103.6483     38.7500   5.9706863519e+01   5.3302488950e+01    0.3571201    0.2571009  52.94 0.0002975871    1.350    0.259
       275  -8.3002    209.5605     43.4990   4.1653453882e+01   2.7734901891e+01     0.132014    0.1156202 -71.70 6.007723e-05    1.007    0.007
       276  -8.3340    200.3694     42.7772   4.2612190798e+01   2.9930025675e+01    0.1711468    0.1271441 -22.56 0.0006098857    1.620    0.383
       277 -11.1309     55.2287     33.8105   7.4056946751e+01   6.3139754914e+01     1.017009    0.3758775  45.36  0.001263955    3.225    0.690
       278 -10.4546     35.9110     41.1548   8.5276880826e+01   6.4569704038e+01    0.4199436    0.2249363  11.54  0.001551544    2.229    0.551
       279 -12.0231     41.7051     38.0319   8.1488109410e+01   6.4392721493e+01    0.3258973    0.2068959  -8.75 0.0004573028    1.697    0.411
       280  -9.0158    222.4701     40.4478   3.9492654063e+01   2.5277886278e+01    0.2210368    0.1484965 -47.67  0.001257873    1.337    0.252
       281  -8.5678    112.9675     41.2987   5.8140298237e+01   5.0896277941e+01    0.1930915    0.1616809  42.83  0.000191318    1.099    0.090
       282 -10.2159     17.3104     46.4780   9.5734553124e+01   6.5407132106e+01    0.3965099    0.2789886 -49.04  0.001761485    1.302    0.232
       283 -10.4369    228.5598     38.5160   3.8434949353e+01   2.4218478281e+01    0.3935351     0.189751 -47.85  0.001127583    1.825    0.452
       284  -9.3312    157.9749     38.8008   4.7826548403e+01   4.0571804218e+01    0.2279506    0.1993273 -40.29 0.0005450622    1.211    0.174
       285 -10.3130    145.1212     29.3143   4.7242687713e+01   4.4849488088e+01     0.646606    0.4975626  27.58  0.002785456    1.504    0.335
       286 -10.4512    136.9119     37.1952   5.1283771714e+01   4.5864130183e+01    0.6317587    0.2913287  46.76  0.001223082    2.088    0.521
       287 -10.7264    131.4875     35.0765   5.1723519134e+01   4.7422806803e+01    0.4133562    0.3401689 -40.35 0.0008578285    1.320    0.242
       288 -10.3869    177.7438     36.8365   4.4153974698e+01   3.6041295356e+01    0.4088934    0.2837938  89.05  0.001804132    1.521    0.342
       289  -8.7846     84.2644     37.6266   6.5061393574e+01   5.7467773223e+01    0.3957669    0.1617892  32.19  0.001421786    3.238    0.691
       290  -9.1321    238.9443     37.0665   3.7125208265e+01   2.2230472890e+01    0.1845726    0.1629234 -66.31 0.0007093135    1.113    0.102
       291  -8.4571    192.8048     27.1182   3.9665860079e+01   3.3655876638e+01     0.224333    0.1429336  49.63 0.0007792127    1.743    0.426
       292  -9.3692    186.1753     36.7964   4.2964395549e+01   3.4034017373e+01    0.2621631    0.1754166 -86.84 0.0007544828    1.610    0.379
       293 -10.3258    186.9015     32.0925   4.1654933433e+01   3.4448090481e+01    0.4284892    0.3029152   9.02  0.001667211    2.255    0.557
       294  -9.0411    163.2951     36.3043   4.6217771960e+01   3.9597959723e+01    0.3756152     0.110589  61.50  0.001305282    3.016    0.668
       295  -9.2646    114.5260     35.4975   5.5723897708e+01   5.1313212406e+01     0.321949    0.2091694  79.39  0.001461937    2.234    0.552
       296  -9.1191    117.2588     32.8172   5.4132706650e+01   5.1025651378e+01      0.25305    0.1808573  10.38 0.0008351021    1.706    0.414
       297  -9.1359     96.3479     34.9885   6.0373104798e+01   5.5367836904e+01    0.3104503    0.1588406  43.14 0.0009346162    1.791    0.442
       298 -10.4274     77.8307     34.6119   6.6006643766e+01   5.9126587673e+01    0.4512209    0.3022582  25.21 0.0005483322    1.478    0.323
       299 -10.6195     73.9488     28.1524   6.4719081496e+01   6.0721767092e+01    0.5102735    0.3923278  23.03  0.003051835    1.168    0.144
       300  -9.3763     87.3102     32.7002   6.2193515186e+01   5.7533409398e+01    0.2693112    0.2089176  -9.68 0.0008811785    1.321    0.243
       301  -9.7951     83.9568     31.9802   6.2961381276e+01   5.8297771233e+01    0.2985668    0.2366105   0.12 0.0009886057    1.259    0.206
       302  -8.4980      1.3689    244.2098   1.2546374501e+02   2.2243844135e+01    0.1466269   0.07632665  81.59 0.0004043188    1.600    0.375
       303 -10.0365    202.7599    242.1928   8.5528910717e+01  -4.7512460303e+00    0.2010862    0.1386582  31.98  0.000431977    1.318    0.241
       304  -9.1278    221.4649    237.4901   8.1255151373e+01  -6.6937145237e+00    0.1234218   0.09608029   4.71 0.0002581339    1.023    0.023
       305  -8.8812    139.8731    237.0967   9.7414657353e+01   5.5925849173e+00    0.1944129     0.159533  51.71 0.0005280229    1.240    0.194
       306  -9.1922    209.5355     34.5528   3.9544399754e+01   2.8902436471e+01    0.1315744    0.1102495 -73.69 4.782618e-05    1.048    0.046
       307 -10.9674     52.0175     29.0051   7.3356529932e+01   6.4341748421e+01    0.1971974    0.1677296  20.69  0.001284503    1.183    0.154
       308  -9.7407    222.8327     34.0990   3.8034544325e+01   2.6015181361e+01    0.2302912    0.1695822  82.07  0.001393687    1.292    0.226
       309  -9.4284    154.0281     32.3156   4.6595192304e+01   4.2337712789e+01    0.2070777    0.1964417 -29.35 0.0005153929    1.167    0.143
       310  -8.7628    158.3748     31.8036   4.5721921313e+01   4.1344605339e+01     0.288532    0.1481834  65.14 0.0007497381    1.803    0.445
       311  -8.9808    222.2868    233.3474   8.0412948427e+01  -6.2271754181e+00    0.1273303   0.07997525  -2.67 0.0004321446    1.655    0.396
       312  -8.7085     32.0578    232.5139   1.1918306019e+02   2.1412201625e+01    0.1639421   0.09974002  41.04  0.000394802    1.510    0.338
       313  -9.2077    177.4813    231.4964   8.8803475582e+01   6.5779133488e-01    0.2459944    0.1100638  26.90  0.001044702    2.388    0.581
       314  -9.4651    233.8355     30.8424   3.6276992479e+01   2.4075317231e+01     0.281309    0.1677868  48.00  0.001500377    2.253    0.556
       315  -8.4933     94.2248     29.8489   5.9037585769e+01   5.6472258011e+01    0.1878167    0.1371026  28.27 0.0008266976    1.317    0.241
       316  -9.7914    222.0026     29.0000   3.6984026931e+01   2.6827573600e+01    0.3211352    0.1667692  80.42  0.001614749    1.972    0.493
       317  -9.1908    223.0239     26.2563   3.6281612772e+01   2.6937398519e+01    0.2313652    0.1186205  63.50 0.0006721323    1.926    0.481
       318 -10.1104    207.9953     26.6273   3.7854926018e+01   3.0220139665e+01    0.2251916    0.1897223 -86.58 0.0004141582    1.052    0.050
       319 -10.1826    206.9156     22.1937   3.6932541980e+01   3.0981855920e+01    0.3201017    0.2597759  87.29 0.0008385595    1.102    0.092
       320 -10.3937    180.1428     25.7815   4.0890630844e+01   3.6802328149e+01    0.5499288    0.2722027 -68.98  0.001770408    2.875    0.652
       321  -8.2886      3.4824    230.4229   1.2444885292e+02   2.4729554229e+01    0.1108238   0.08294582  71.94 0.0001199922    1.017    0.017
       322  -9.3474    134.0125     27.5985   4.8779833732e+01   4.7714488196e+01    0.2403115    0.1927395 -42.73 0.0007642053    1.370    0.270
       323  -8.9268    101.0594     25.9698   5.5692738609e+01   5.5471432469e+01    0.2632433    0.1856097  55.72  0.001297015    1.356    0.263
       324  -9.6367    165.4124     26.6374   4.3156096027e+01   4.0244127448e+01    0.5430887    0.2061778  69.00  0.002120339    2.589    0.614
       325  -9.0765    223.8727    225.1318   7.8718828035e+01  -5.2716012367e+00    0.1761473    0.1506819  12.56 0.0006270326    1.185    0.156
       326  -9.6903    241.6921     25.1011   3.4408466068e+01   2.3152762435e+01    0.2105909    0.1589083  78.07 0.0005775602    1.320    0.242
       327  -8.8251     10.5992     23.8365   9.0950511387e+01   7.0014127327e+01    0.3111552    0.1066599 -45.61  0.001506418    2.383    0.580
       328  -9.8717    232.4967     23.5827   3.4859562885e+01   2.5234951620e+01    0.3805166    0.2039181 -77.13  0.001977881    1.980    0.495
       329  -9.9285    232.9969     18.2135   3.3693883125e+01   2.5754827016e+01    0.3037336    0.2051474 -64.74  0.001899996    1.267    0.210
       330  -8.6323    131.9936    225.2834   9.7428078672e+01   9.0011248388e+00    0.1859798    0.1574238  37.47 0.0004374742    1.044    0.042
       331  -8.3583    163.2967    226.6613   9.0960625304e+01   3.7135810421e+00    0.1256399    0.1020511  66.08 0.0004555777    1.657    0.396
       332  -9.1342    196.4945    222.4887   8.3498752354e+01  -8.2842429694e-01     0.132188    0.1093743   7.67 0.0008102175    1.041    0.039
       333  -9.3417     88.5934    221.0660   1.0636702356e+02   1.6530509724e+01    0.2397308    0.1806002  32.42 0.0006088241    1.346    0.257
       334  -8.6831    203.0807    217.7243   8.1376954768e+01  -1.0787479334e+00    0.1783709    0.1427623  15.20  0.000202616    1.092    0.084
       335 -10.2174     62.4464     23.2187   6.6752475478e+01   6.3423828751e+01    0.5175881    0.2598321  38.06  0.002314077    1.819    0.450
       336  -8.9868    230.9403    209.2926   7.4607178814e+01  -3.9258689235e+00    0.1769305     0.139184   7.30 0.0004265042    1.110    0.099
       337  -8.5062    242.1882    209.4298   7.2633851227e+01  -5.5320441982e+00    0.1543101    0.1121211  38.88 0.0007742753    1.653    0.395
       338  -9.3149     67.2051     15.8014   6.1788575115e+01   6.3454850729e+01    0.2400688    0.1595844  37.67   0.00139945    1.312    0.238
       339  -8.5907     35.4634    201.4776   1.1607049412e+02   2.7659904866e+01    0.1249302    0.1043591  79.25 0.0008090672    1.016    0.016
       340  -8.2970    120.2158    199.0380   9.6117420719e+01   1.6247990746e+01    0.1746011    0.1149333 -54.52  0.000567518    1.613    0.380
       341  -8.3768      9.6173    196.2897   1.2126329859e+02   3.1381630008e+01    0.1299692    0.0679683  62.16 0.0007015321    1.747    0.427
       342  -9.3468    188.8392     22.4361   3.8960846585e+01   3.5124250338e+01    0.2604025    0.2050962  11.10  0.001493486    1.818    0.450
       343  -8.8333      6.5858    194.2785   1.2177172704e+02   3.2093611901e+01    0.1675348   0.08933221 -68.51 0.0009467407    1.679    0.405
       344  -8.4826    241.9884    193.7857   6.9759126152e+01  -3.1546362476e+00    0.1558537   0.09701417  32.60 0.0005005004    1.665    0.400
       345 -10.0908    153.6192     23.0030   4.3909021642e+01   4.3503445578e+01    0.2464126    0.1765334  64.41 0.0003316636    1.246    0.197
       346  -8.3793     85.5814     23.4861   5.9081140183e+01   5.9023147064e+01    0.1316058     0.112431  23.81 0.0001381928    1.024    0.023
       347  -8.5966     79.8074     22.5206   6.0470232692e+01   6.0290605149e+01    0.2463785    0.1540263 -43.22   0.00127795    2.027    0.507
       348 -10.6936     26.7772     21.4797   8.1545492844e+01   6.8817644145e+01    0.3258092    0.2215001 -20.33  0.001099899    1.242    0.195
       349  -9.8739    132.2032     21.2795   4.7075718613e+01   4.8837354623e+01    0.2908043    0.2152116  55.56 0.0007162599    1.193    0.161
       350 -10.1375     94.2710     20.9270   5.5581946729e+01   5.7500829138e+01    0.4278612    0.2908494  72.84  0.001091556    1.947    0.486
       351  -8.8002      5.7454    182.9352   1.2117379016e+02   3.4722758721e+01    0.1657309    0.1241156  87.54 0.0002990155    1.068    0.063
       352  -8.9558     55.2246    181.1958   1.0933325914e+02   3.0056475277e+01    0.1907007    0.1703718 -68.43 0.0005268888    1.149    0.130
       353  -9.7735      7.4131    174.7175   1.2018206767e+02   3.6481338163e+01    0.2092266    0.1298954  49.88  0.001052225    1.578    0.366
       354  -9.5862     18.3253    174.2910   1.1758224431e+02   3.5653414464e+01     0.200671    0.1592493   4.67  0.001249772    1.749    0.428
       355 -10.1533      6.9646    166.7168   1.1964512792e+02   3.8389375748e+01    0.2467787     0.167317   3.13  0.001076833    2.168    0.539
       356 -10.7316     15.1283    165.6734   1.1757093724e+02   3.7976273406e+01     0.454953     0.247143  -4.19  0.002032602    3.577    0.720
       357  -8.5658    125.1295     23.3631   4.9160096026e+01   5.0288105733e+01    0.1784776     0.119207  71.52 0.0002541645    1.553    0.356
       358 -12.0242     37.4067    159.5240   1.1121333628e+02   3.7366487115e+01    0.8956137    0.3798102  40.25  0.003985732    2.361    0.576
       359 -12.0354     30.9143    154.9162   1.1237476352e+02   3.9153830558e+01    0.7114553    0.3750347  53.48  0.002971922    2.073    0.518
       360 -10.2755     24.5416    162.8651   1.1493673439e+02   3.7819060941e+01    0.2350357    0.1825373  43.64 0.0002763612    1.373    0.272
       361  -9.1699     20.7863    160.4195   1.1563820613e+02   3.8749799619e+01    0.2199153     0.153146 -68.67 0.0004455205    1.245    0.197
       362  -9.7355      1.7617    158.0008   1.2018703869e+02   4.0830139981e+01    0.2900104    0.1364293 -72.75   0.00150765    1.694    0.410
       363  -9.3395    144.4813     17.5780   4.3746226886e+01   4.6277755319e+01    0.2896427    0.2055765  51.43  0.001193258    1.304    0.233
       364 -10.0789    248.6167     30.3890   3.4914630776e+01   2.1116708153e+01    0.3153884    0.2396479 -22.59  0.002008718    1.724    0.420
       365 -10.1765      2.0406    153.4927   1.1973588363e+02   4.1879491667e+01    0.2976276    0.1688159 -80.53 0.0008376504    1.443    0.307
       366  -9.7717      9.7935    158.0001   1.1818812294e+02   4.0240045308e+01    0.2216818     0.115188  74.65  0.001089761    2.054    0.513
       367  -8.8470    127.8819     14.8907   4.5786373618e+01   5.0503855457e+01    0.2041967    0.1490202 -67.96  0.001111894    1.695    0.410
       368  -9.6881    248.8109    153.5708   6.0676212653e+01   2.2391655162e+00    0.2258464    0.1249301  37.89  0.001136008    2.075    0.518
       369  -9.1830     45.9262    151.3505   1.0781337249e+02   3.8461395256e+01    0.2139829    0.1666727 -81.58 0.0003448518    1.195    0.163
       370 -10.7837      5.6009    146.9621   1.1822468024e+02   4.3194507475e+01    0.5015864    0.2801365  48.26  0.002760085    1.909    0.476
       371 -10.2175     20.6089    136.5210   1.1294321547e+02   4.4602410276e+01    0.4994743    0.2043316  61.39  0.001783334    4.050    0.753
       372 -10.3973     19.4314    151.7928   1.1507210294e+02   4.0960762062e+01      0.36195    0.2615332 -33.94  0.002101053    1.720    0.419
       373 -11.3421     12.5427    150.4827   1.1675132823e+02   4.1836211700e+01     0.590456     0.360308 -23.24  0.003060308    2.451    0.592
       374 -10.1712     13.8818    144.6857   1.1578190893e+02   4.3139024914e+01     0.459621    0.1962376 -48.60  0.002085471    2.402    0.584
       375  -8.8156     75.4197     13.1509   5.7916966744e+01   6.2176278387e+01    0.2079266    0.1825327  68.08   0.00133795    1.471    0.320
       376 -10.3641     18.4696    140.3705   1.1402436530e+02   4.3831577980e+01    0.3462138    0.2205056  33.05   0.00112792    1.764    0.433
       377 -10.1648     54.2759    145.9016   1.0463474506e+02   3.8839665042e+01    0.2274244    0.2160199 -65.91 0.0002065956    1.080    0.074
       378 -10.9624      3.7257    140.5898   1.1810039324e+02   4.4852729745e+01    0.5432879    0.3621837 -89.93  0.001929733    1.331    0.249
       379 -11.2602      3.5528    129.3819   1.1697651392e+02   4.7561780594e+01    0.7716591    0.2573316 -57.13  0.001921838    2.332    0.571
       380 -10.8610      7.8829    123.3790   1.1501266050e+02   4.8738045091e+01    0.3116459    0.2112803 -61.38  0.001387311    1.218    0.179
       381  -9.0343    236.1217    136.7144   5.9172084559e+01   7.2288560039e+00    0.1932137    0.1720573  87.10 0.0006145043    1.454    0.312
       382  -9.0903    230.5021    137.0199   6.0155448308e+01   8.1896070238e+00    0.2088452    0.1222287 -37.31 0.0004372135    1.510    0.338
       383 -10.2848     34.8060    136.6630   1.0884770425e+02   4.3290952709e+01    0.2978961    0.2235258  22.37  0.001145648    1.566    0.361
       384 -11.5609     28.7416    132.0610   1.0996466677e+02   4.5003150708e+01    0.2571594    0.2141605  84.87 0.0003370291    1.200    0.167
       385  -8.6548     74.9417    136.2827   9.6887288559e+01   3.8457523066e+01    0.2789561    0.1387901 -30.49 0.0008967671    3.706    0.730
       386  -8.8764    248.6481    134.2160   5.6699386669e+01   5.4658456026e+00    0.1919725    0.1076962 -30.47 0.0005060008    1.656    0.396
       387 -10.6695     42.4999    131.4852   1.0574913756e+02   4.3790518863e+01    0.4749314    0.2520593 -50.27  0.002219968    1.741    0.425
       388  -9.4211     61.8498    131.4683   9.9874607713e+01   4.1485565398e+01    0.3056813     0.179878 -66.76 0.0009210966    1.675    0.403
       389  -9.9288     14.6967    135.9505   1.1455818311e+02   4.5206336144e+01    0.3221325    0.1813158 -33.95  0.001609497    2.250    0.556
       390 -10.5986     10.3370    130.3097   1.1513341607e+02   4.6894601079e+01    0.4582049    0.1762772 -58.15  0.001673433    2.059    0.514
       391  -9.9696     12.9780    127.0209   1.1395581364e+02   4.7509760751e+01    0.2973706    0.1974452  15.40  0.001060192    1.873    0.466
       392  -9.7629     20.3340    131.1453   1.1232279875e+02   4.5945178401e+01    0.1852355    0.1394707 -72.65 0.0007441764    1.122    0.109
       393  -9.8873     88.5531    128.0303   9.1103286381e+01   3.8355693560e+01    0.2576794    0.2191945  35.37 0.0002078681    1.229    0.187
       394  -9.1784     34.7024    128.2991   1.0760093322e+02   4.5377176023e+01    0.2154936    0.1547695 -69.44 0.0005209048    1.228    0.185
       395 -10.4391     33.1644    123.9008   1.0736799212e+02   4.6612405741e+01    0.3573672    0.2514213 -88.50  0.001013837    1.521    0.343
       396  -9.8299     46.6975    133.3293   1.0479084173e+02   4.2870415391e+01    0.2243891    0.1649137 -65.63 0.0007940298    1.215    0.177
       397  -9.3382     52.9679    126.2493   1.0161553895e+02   4.3903966018e+01     0.184441    0.1780341  23.82 0.0003026745    1.152    0.132
       398  -8.4589     59.7235    125.0867   9.9289058745e+01   4.3348382965e+01    0.2046508    0.1711293 -59.11 0.0007850603    1.090    0.083
       399  -8.2994    103.3814    123.8426   8.5768249592e+01   3.6766967113e+01    0.2015102    0.1389448 -40.71 0.0002084934    1.463    0.317
       400  -8.8783     71.9988    123.6890   9.5182397839e+01   4.2002515735e+01     0.191295    0.1893212  14.27 0.0003754093    1.081    0.075
       401  -8.8081    241.6547    123.3307   5.5439125730e+01   8.5161490845e+00    0.1368313   0.09867422 -65.12  0.000705024    1.757    0.431
       402  -9.6293     39.1270    123.0620   1.0536464036e+02   4.6233847642e+01    0.2330322    0.1960407  57.35 0.0006578637    1.324    0.244
       403 -10.6021     20.7442    108.8231   1.0887047788e+02   5.1358323797e+01    0.6392137    0.2736371 -65.94  0.002897671    1.950    0.487
       404 -11.7076     21.2544    119.4022   1.1037953438e+02   4.8749696309e+01     0.643437    0.4489767  84.36  0.003580518    1.568    0.362
       405  -9.3049    245.8561     19.3797   3.2932407871e+01   2.2987485738e+01    0.1573362   0.09572657  64.61 0.0009437298    1.761    0.432
       406 -10.6354     13.7914    113.5439   1.1186602781e+02   5.0723469727e+01    0.3763978     0.217562  12.08  0.001412491    2.173    0.540
       407  -9.6526     13.8433    109.8278   1.1129442926e+02   5.1615346282e+01    0.2644622    0.1638073 -78.14 0.0003832551    1.517    0.341
       408  -9.1754    236.7818    120.9670   5.5664468266e+01   9.8097975738e+00    0.1896268    0.1501041  13.78 0.0009402114    1.588    0.370
       409  -9.1795    221.0380    121.2972   5.8249116910e+01   1.2763968394e+01    0.1880542    0.1802235 -38.28 0.0007591911    1.070    0.065
       410  -8.8962    124.0837    121.0834   7.9271024853e+01   3.3384015624e+01    0.2819936    0.2031163  47.82 0.0009442634    1.438    0.305
       411 -10.0347     93.6191    119.1280   8.7515433575e+01   3.9637564167e+01    0.3073471    0.2669588 -21.59 0.0008275881    1.233    0.189
       412  -9.9315     43.3624    119.3076   1.0334974309e+02   4.6716870453e+01    0.3331278    0.2184479  43.89  0.001069638    1.717    0.418
       413  -9.4490     67.7975    118.7961   9.5439197076e+01   4.3804487779e+01    0.2552541    0.2210792  80.78 0.0005363576    1.313    0.238
       414  -9.8663     70.7595    116.6010   9.4010893171e+01   4.3914287802e+01    0.4423516    0.2819554  72.01  0.001481607    2.583    0.613
       415  -9.5638     83.8395    116.8125   8.9948145267e+01   4.1842793596e+01    0.4081287    0.1886532 -56.79  0.001551969    2.179    0.541
       416  -8.9996     54.5243    118.0005   9.9512418229e+01   4.5752640335e+01    0.1964762    0.1901184   7.33 0.0003434761    1.136    0.119
       417 -10.4309      3.5216    116.6202   1.1549121769e+02   5.0631024369e+01    0.2947502     0.244717 -55.74 0.0009155044    1.134    0.118
       418 -10.2721     28.9047    116.6462   1.0751648302e+02   4.8784929052e+01    0.3246025     0.212053  51.53  0.001711655    1.817    0.449
