#   1 NUMBER                 Running object number                                     
#   2 MAG_AUTO               Kron-like elliptical aperture magnitude                    [mag]
#   3 X_IMAGE                Object position along x                                    [pixel]
#   4 Y_IMAGE                Object position along y                                    [pixel]
#   5 X_WORLD                Barycenter position along world x axis                     [deg]
#   6 Y_WORLD                Barycenter position along world y axis                     [deg]
#   7 A_WORLD                Profile RMS along major axis (world units)                 [deg]
#   8 B_WORLD                Profile RMS along minor axis (world units)                 [deg]
#   9 THETA_WORLD            Position angle (CCW/world-x)                               [deg]
#  10 FWHM_WORLD             FWHM assuming a gaussian core                              [deg]
#  11 ELONGATION             A_IMAGE/B_IMAGE                                           
#  12 ELLIPTICITY            1 - B_IMAGE/A_IMAGE                                       
         1 -13.1196    216.0697     14.7543   6.0291947635e+01   2.9424334088e+01    0.8940674    0.6896806  57.72  0.002803628    1.418    0.295
         2 -13.0292     42.4638     20.8517   1.0088955506e+02   6.5796662936e+01    0.6740239     0.356766  28.42  0.003931985    1.775    0.437
         3 -10.3241    127.1913     16.6624   7.3834121487e+01   5.0599513766e+01    0.3822217    0.2084633 -22.07  0.001904204    2.144    0.534
         4 -13.5114    188.3234      7.5024   6.1652751967e+01   3.6811739377e+01     1.194901    0.6128646 -85.59  0.005445988    2.276    0.561
         5 -11.7293     43.6979      8.7618   9.5253486441e+01   6.7074536164e+01    0.3030066    0.2411108  27.53   0.00149331    1.352    0.260
         6 -12.3282     57.1876      6.5689   8.9198419566e+01   6.5325081228e+01    0.5660722    0.5161338 -66.35  0.003995704    1.983    0.496
         7 -10.6156    110.0110      9.0237   7.4986241661e+01   5.5131936133e+01    0.1880785    0.1515689 -79.81  0.001128379    1.708    0.415
         8 -11.3385    203.8076      7.2814   5.9888758082e+01   3.3125220448e+01    0.3291117    0.1601545  45.12  0.001483277    2.762    0.638
         9 -10.9425     66.3540      7.2828   8.6351325412e+01   6.3763755636e+01     0.224425    0.1128539  36.73 0.0009246112    1.672    0.402
        10 -12.2929    165.8102      2.1646   6.3110266730e+01   4.2749358141e+01     0.766795    0.2131364  67.96  0.002866297    2.929    0.659
        11  -9.3686     29.6769      2.3572   9.8237230664e+01   6.9550938509e+01   0.09117899   0.08491258 -18.06 3.510738e-05    1.768    0.434
        12 -10.9344    104.5901    225.5017   1.3016235882e+02   1.3627701955e+01    0.2711123    0.1920392 -88.86  0.001486275    1.540    0.351
        13 -10.6068     96.3107    225.3114   1.3184965856e+02   1.5028125858e+01    0.2913377    0.1218201  56.06  0.001182631    2.537    0.606
        14  -9.2674    185.5123    223.4836   1.1291245381e+02  -5.4750020794e-01    0.1375996    0.1206401  30.81 0.0008103046    1.013    0.013
        15 -10.0824    149.2506    223.2655   1.2044572632e+02   6.1686974936e+00    0.2031448    0.1172853 -65.70  0.000894586    2.412    0.585
        16 -11.8400    226.4628    220.4816   1.0424120140e+02  -7.2193560434e+00    0.3697045    0.2171606 -21.50  0.001851439    1.923    0.480
        17 -11.6052    238.5308    213.4176   1.0065087858e+02  -8.1147786828e+00    0.5469568    0.2972021 -54.30  0.002292277    3.410    0.707
        18  -9.6131    211.2220    218.2338   1.0679102705e+02  -4.2675959136e+00    0.1974472    0.1059014 -50.10 0.0006780828    2.449    0.592
        19  -9.8197      3.0234    214.6264   1.4889467287e+02   2.9276115082e+01    0.2548253     0.110604 -86.11  0.001419408    1.903    0.474
        20 -11.3640    222.9887    213.6619   1.0364242427e+02  -5.5668086024e+00    0.3031783    0.1907154  18.85  0.001521421    1.731    0.422
        21 -10.5636    115.8843    208.9318   1.2544714713e+02   1.5138141271e+01    0.3815682    0.2488962 -56.26  0.001922966    1.643    0.392
        22  -9.7414     98.6812    205.3203   1.2871625893e+02   1.8886551867e+01    0.1466744    0.0962007  71.61 0.0006084641    1.665    0.399
        23 -10.3391     48.7439    202.1782   1.3908633815e+02   2.6939383445e+01    0.2947918    0.1699242  73.98  0.001550126    1.740    0.425
        24  -9.8525     41.5883    201.7009   1.4051588521e+02   2.7927013546e+01     0.229444   0.09976562 -67.03 0.0008250115    2.033    0.508
        25 -11.2017      5.2485    199.7704   1.4750607086e+02   3.2171267277e+01    0.3924591    0.1670913  54.39  0.001571129    2.152    0.535
        26  -9.8428    112.3174    197.6380   1.2451240054e+02   1.8229857166e+01    0.1536573    0.1035483  75.22 0.0007041978    1.766    0.434
        27  -9.3771    133.4005    196.2021   1.1946827182e+02   1.4652040171e+01    0.1993825    0.1388054 -70.32 0.0009397033    1.678    0.404
        28 -12.4473    160.4634    192.0957   1.1259941672e+02   1.0217421819e+01    0.7937478    0.5762211  76.22  0.002655265    1.889    0.471
        29  -9.7832     94.6657    186.9772   1.2692402510e+02   2.3695668827e+01    0.2317485    0.1126143 -83.54 0.0007044394    4.285    0.767
        30 -10.5348    183.4857    182.9568   1.0571706713e+02   7.4142315868e+00    0.4079717    0.1475546 -43.65  0.001397782    2.882    0.653
        31 -10.0765    224.3273    183.6692   9.7487134931e+01  -7.4369667332e-01    0.1345953    0.1145395 -83.27 0.0004465978    1.710    0.415
        32  -9.5517     28.1999    176.8591   1.4084830093e+02   3.5020510036e+01    0.1617521    0.1284438 -60.27  0.000456343    1.338    0.252
        33  -9.8083    198.6063    190.3844   1.0401191934e+02   2.9512668605e+00    0.2813851    0.1377563 -46.99  0.001144286    2.231    0.552
        34 -11.3207     38.2106    174.6117   1.3835969056e+02   3.4467961161e+01    0.2720696    0.2050304  21.79  0.001265879    1.794    0.443
        35 -11.2359     34.3454    173.6730   1.3912995424e+02   3.5108230014e+01     0.415331    0.1118051 -69.30  0.001543946    3.196    0.687
        36  -9.6745      3.8165    175.0807   1.4590147198e+02   3.7657132902e+01    0.1838388    0.1207114  80.24 0.0005748126    1.296    0.229
        37 -10.7962     44.4615    168.0528   1.3611007081e+02   3.5290805461e+01    0.2608459    0.1018489 -62.32  0.001137511    2.160    0.537
        38  -9.9359    176.4102    172.1872   1.0503426713e+02   1.1082806630e+01    0.2152286    0.1458244 -57.07 0.0008261077    1.699    0.411
        39 -10.8247    121.0052    168.8392   1.1741488852e+02   2.3203363397e+01    0.3663931    0.2104449 -72.45  0.001398953    2.426    0.588
        40 -11.4352     55.6477    167.5306   1.3336039941e+02   3.4052993661e+01    0.5117842    0.2757567 -77.21  0.001763487    1.872    0.466
        41 -10.1055    138.9755    164.9672   1.1223881929e+02   2.0525093554e+01    0.4004346    0.2451348 -85.43  0.001353442    3.241    0.691
        42 -10.3182     98.7164    166.1343   1.2245765477e+02   2.7915359951e+01    0.3017248    0.1584969  53.55  0.001227761    2.087    0.521
        43 -10.0124     79.4907    163.9812   1.2692065583e+02   3.1563591404e+01    0.3903041    0.1936134  86.20  0.001038613    5.914    0.831
        44 -11.3584    106.1554    157.7713   1.1899690976e+02   2.8596844843e+01    0.6834702    0.4428195  87.57  0.002790752    2.272    0.560
        45  -9.9572     92.4866    160.0070   1.2292613142e+02   3.0441951524e+01    0.2124018    0.1243993 -85.04  0.000810038    2.557    0.609
        46  -9.5463     88.4030    168.2079   1.2539898295e+02   2.9146455577e+01    0.2103285    0.1306653 -74.67 0.0009477723    1.752    0.429
        47 -11.5279     24.0668    159.5303   1.3989490833e+02   3.9418757444e+01    0.3209714    0.2562947  45.54 0.0009254193    1.414    0.293
        48 -11.0630     23.3779    153.7063   1.3937838827e+02   4.0833157298e+01    0.2640081    0.2046388 -66.19  0.001258017    1.146    0.127
        49  -9.9327    151.2397    158.7099   1.0794893924e+02   1.9373214222e+01    0.2505199    0.1252886 -37.94 0.0007593196    2.365    0.577
        50 -11.1876    167.7965    157.1747   1.0372320365e+02   1.6130578455e+01    0.4835128    0.3376166 -82.32  0.001945209    2.234    0.552
        51 -11.7874    119.7766    157.0574   1.1537519982e+02   2.6207233747e+01    0.5508986    0.3196278  43.49  0.002333759    1.707    0.414
        52 -10.2101    237.3917    155.8563   8.9183657704e+01   1.7691333293e+00    0.2013056    0.1251906 -28.00 0.0003695375    1.659    0.397
        53 -10.7678     27.8612    155.2981   1.3848784417e+02   4.0043410213e+01    0.2310051    0.1413831 -82.08 0.0008478379    1.465    0.317
        54 -10.4413      5.2651    155.1768   1.4378893289e+02   4.1996904776e+01     0.289166     0.152268  55.73  0.001156634    2.058    0.514
        55  -9.6037     81.2404    154.2296   1.2478746523e+02   3.3645337014e+01    0.2327609    0.1150825 -71.56 0.0008841865    2.465    0.594
        56 -10.4539    218.2987    155.6208   9.2676792775e+01   5.6045976722e+00    0.3555238    0.1742073 -39.99  0.001441526    1.969    0.492
        57 -10.2268    189.9068    150.5990   9.7322367639e+01   1.2660425067e+01    0.3291875    0.2075919 -59.53  0.001344382    1.984    0.496
        58 -10.3521     12.1092    148.7222   1.4151353731e+02   4.2938491421e+01    0.3109059     0.129613 -64.27  0.001571918    1.843    0.457
        59 -10.7824    107.3848    145.8498   1.1625053585e+02   3.1221120401e+01    0.5414117    0.3126453  74.36  0.001798667    3.450    0.710
        60 -10.2773     55.6732    145.7029   1.3004899487e+02   3.9272223428e+01    0.2712931    0.1520607 -87.06  0.001161613    2.364    0.577
        61 -10.4775    148.2100    144.6820   1.0553439084e+02   2.3191151883e+01    0.3779015    0.2447881 -77.39  0.001399912    2.494    0.599
        62  -9.9280     87.5006    143.9911   1.2119169278e+02   3.5124874467e+01     0.211977    0.1257487 -83.18 0.0008104812    2.559    0.609
        63 -10.0127    124.4997    142.9965   1.1113594081e+02   2.8580467755e+01    0.2309488    0.1377046 -74.52 0.0008104412    2.700    0.630
        64 -10.2010    182.0214    142.0352   9.7047572005e+01   1.6205116070e+01    0.2581564    0.1981177 -87.26  0.001136062    1.761    0.432
        65 -10.4131     83.7382    132.3811   1.1985229970e+02   3.8514834023e+01    0.4817515    0.2590395  64.82  0.001691955    3.360    0.702
        66 -10.0122    131.5016    131.0120   1.0651881490e+02   2.9906300187e+01    0.2309264    0.1389253 -71.31 0.0008105951    2.634    0.620
        67 -12.1722     98.6921    127.5887   1.1459262668e+02   3.7134002326e+01      1.03372    0.6164556  89.27  0.003316777    3.976    0.749
        68 -10.2752     12.9263    129.5542   1.3898740939e+02   4.7263087019e+01    0.3240772     0.168331  82.70  0.001558106    2.495    0.599
        69 -10.3630     59.4052    124.6607   1.2521871902e+02   4.3822585102e+01    0.5205909    0.2840989 -89.18  0.001851048    3.731    0.732
        70  -9.7021    117.3185    125.6459   1.0898567527e+02   3.4062231146e+01      0.16154    0.1227515  87.49 0.0004024551    1.748    0.428
        71 -10.7228     43.5975    123.1133   1.2949474544e+02   4.6026292412e+01    0.6114089    0.3114303 -84.55  0.002386712    3.196    0.687
        72 -10.9362     27.7175    121.8544   1.3381710195e+02   4.7850563013e+01    0.6081642    0.2899269  87.33  0.002193544    4.232    0.764
        73 -12.0213    193.2098    118.3491   8.8963335194e+01   1.8489532982e+01    0.6902487    0.5008062 -68.33  0.002318037    1.686    0.407
        74 -10.3996     71.0344    119.8594   1.2082116408e+02   4.3387521755e+01     0.413509    0.2417765 -83.97  0.001575586    3.046    0.672
        75 -10.5073      2.3489    115.9611   1.4003156064e+02   5.1022361422e+01    0.3585894    0.1551501 -79.43  0.001324322    2.276    0.561
        76 -10.7251     14.0531    121.2129   1.3753785342e+02   4.9080412794e+01    0.3164755      0.20349 -21.13   0.00183506    2.089    0.521
        77  -9.8689    232.1325    114.9051   8.0994026364e+01   1.0333753864e+01    0.2274648     0.185436 -63.16 0.0005765299    1.261    0.207
        78 -10.5672    108.4584    112.8333   1.0824287003e+02   3.8718008460e+01    0.6362725    0.2739218 -60.61   0.00192631    3.714    0.731
        79 -10.3465     78.4104    112.5616   1.1696719822e+02   4.3989110383e+01    0.3879436    0.2579968 -89.60  0.001641665    2.499    0.600
        80 -11.0667    174.5655    110.6659   9.0962441685e+01   2.4464404177e+01    0.4718674    0.2995653 -41.72  0.001190473    1.585    0.369
        81 -13.0656    152.0710    110.3978   9.6084321195e+01   2.9852201276e+01    0.6910431    0.5423361  53.56  0.003260526    1.274    0.215
        82 -12.1977    160.6676    112.2581   9.4522815011e+01   2.7446428966e+01    0.5669179    0.3859467  52.29  0.002255101    1.467    0.318
        83 -12.2141    158.5990    106.4481   9.3480937163e+01   2.9135947656e+01    0.4920554    0.3657262 -83.77  0.002118862    1.826    0.452
        84  -9.4176     74.3001    131.2617   1.2228051976e+02   4.0221236434e+01    0.2310144    0.1551367  75.50  0.001041636    2.073    0.518
        85 -11.4144     15.0229    110.1261   1.3558502496e+02   5.1511562315e+01    0.6134269    0.3831012  83.94  0.003392223    2.013    0.503
        86 -12.1777    127.5979    100.7304   9.9718090228e+01   3.7411448631e+01    0.6704155    0.3941402 -56.48   0.00268916    2.032    0.508
        87 -10.3949    122.0234    111.7560   1.0419343479e+02   3.6232249392e+01    0.5467852    0.2513748 -57.93  0.001799383    2.978    0.664
        88 -12.9072    141.6572    105.5047   9.7359700958e+01   3.3279437676e+01    0.6926786    0.4123957  58.73  0.002764668    1.928    0.481
        89 -12.1647    141.7522    100.0120   9.5840290026e+01   3.4393377651e+01    0.5854426    0.3840677  56.12  0.002074339    1.604    0.377
        90 -11.8605     44.7653    101.3206   1.2480944399e+02   5.0890473759e+01    0.6515892    0.4045512 -88.04  0.002973467    2.641    0.621
        91 -12.2453    115.2036    102.4324   1.0358577185e+02   3.9660921518e+01     1.208568     0.341298  39.89  0.003455422    3.886    0.743
        92 -11.2843    107.1803     98.9277   1.0491078560e+02   4.2004811641e+01      0.58941    0.4059845 -70.53  0.002426959    2.070    0.517
        93 -11.5133    140.6327    116.6871   1.0057577608e+02   3.1120192486e+01    0.5340382     0.341281 -49.30  0.002269394    1.595    0.373
        94 -10.6014     82.1401    100.5543   1.1284930986e+02   4.6099597541e+01    0.2669182    0.2280883  88.95 0.0009091478    1.468    0.319
        95 -10.0210     19.6815     98.1732   1.3210994686e+02   5.3827797184e+01    0.2573577     0.103074 -70.73  0.001097474    2.687    0.628
        96  -9.8440     94.4044     97.2006   1.0821087393e+02   4.4753593955e+01    0.2129467    0.1362595 -58.05 0.0009504631    1.764    0.433
        97 -10.7073     63.0304     96.0414   1.1771960788e+02   4.9880566323e+01    0.3104297    0.1913414 -77.08  0.001318277    2.695    0.629
        98 -12.9021    170.2750     90.7819   8.6658388209e+01   2.9394848041e+01    0.4785858    0.4427191 -70.84 0.0006891296    1.099    0.090
        99 -10.6575     34.6222     89.3830   1.2545388538e+02   5.4505050564e+01    0.4582017    0.2140997 -72.30   0.00182504    3.316    0.698
       100 -11.3697     42.2631     87.7891   1.2252229986e+02   5.4100726388e+01    0.3898768    0.2469967  -8.10  0.001560984    2.044    0.511
       101 -10.7383     46.0396     82.9161   1.2002810975e+02   5.4726173979e+01    0.4586586    0.3062267  76.26  0.002099929    3.085    0.676
       102 -11.1926     87.1486     87.1726   1.0763612026e+02   4.8112887645e+01    0.4572098    0.3261586  65.88  0.001680569    2.099    0.524
       103 -11.0286    104.7896     83.8486   1.0129975967e+02   4.5555080955e+01    0.4145416    0.3326096 -86.34  0.001316655    1.789    0.441
       104 -10.5418      8.8085     82.8059   1.3270034422e+02   5.7835404598e+01    0.2760887   0.04102762 -57.58  0.001018473    3.484    0.713
       105 -10.6157     24.5917     80.9866   1.2694783307e+02   5.7134362283e+01    0.3642249    0.2226373 -89.93  0.001720861    3.056    0.673
       106  -9.3559     77.2108     78.9128   1.0841351372e+02   5.1397897102e+01    0.1856611    0.1489214 -12.83 0.0005044258    1.274    0.215
       107  -9.5513      1.8465     78.1203   1.3413454728e+02   5.9185457303e+01    0.1686994     0.100604 -45.00  0.001071432    1.326    0.246
       108  -9.3239    103.3026     75.6561   9.9267651415e+01   4.7412337578e+01    0.1410912    0.1172317 -82.44 0.0007039355    1.682    0.406
       109 -10.8334     82.4815     73.2555   1.0498973515e+02   5.1637462346e+01    0.4645436     0.288269 -69.69   0.00178678    3.479    0.713
       110 -10.4797     62.8796     69.6436   1.1046410296e+02   5.5304030562e+01    0.2956614    0.2231155 -38.35  0.001716676    1.209    0.173
       111 -13.0695    223.3463     72.0163   7.2446890351e+01   1.9777953575e+01    0.3560119    0.3045467 -65.94 0.0006245226    1.071    0.066
       112  -9.8188     95.2368     72.2446   1.0064677255e+02   4.9579630285e+01    0.2248791    0.1114003 -50.95 0.0008929671    2.444    0.591
       113 -10.5971     51.7757     70.0608   1.1449480004e+02   5.6654139881e+01    0.2904511    0.2083352 -50.75 0.0008805424    1.388    0.280
       114 -10.4193    196.1866     67.5710   7.5593556921e+01   2.7036966383e+01    0.3253084    0.2677321  63.54  0.001729958    1.168    0.144
       115 -11.1248      9.7865     57.6113   1.2670648220e+02   6.2811702723e+01    0.6176869    0.3865274  49.36  0.003606835    2.674    0.626
       116 -10.9354     29.3137     52.4908   1.1763052280e+02   6.2288398541e+01     0.335538    0.2329002  -1.27  0.001777106    1.454    0.312
       117 -11.4373     41.9771     62.4920   1.1582006176e+02   5.9206505750e+01    0.5610728    0.2206044 -45.99  0.001942372    2.149    0.535
       118 -11.8738     20.7420     51.1759   1.2062965937e+02   6.3246162553e+01    0.6325306    0.4072468 -67.29  0.003649706    2.216    0.549
       119 -11.3224     40.0000     51.7024   1.1321136868e+02   6.1371672356e+01    0.5303046    0.2368901 -41.26  0.001640611    1.913    0.477
       120 -13.3616     30.0399     59.7556   1.1951013465e+02   6.0890522652e+01     1.328297    0.6443202  22.11  0.006765546    2.281    0.562
       121  -9.6356      9.7782     65.7943   1.2871364835e+02   6.1232222688e+01    0.1397305    0.1285693 -69.56 0.0005952735    1.337    0.252
       122 -12.2323    239.9044     63.9267   6.8392867290e+01   1.7282654518e+01    0.6027171    0.3312324  80.83  0.002733946    2.172    0.540
       123  -9.8959     92.5242     61.0385   9.7894317627e+01   5.2059191173e+01    0.2164244    0.1679183  35.11 0.0002161147    1.250    0.200
       124 -10.0274     73.1037     59.2621   1.0363772682e+02   5.5684338549e+01    0.2385446    0.1776051 -65.31  0.001208699    2.115    0.527
       125  -9.9875    120.1222     57.2972   8.8740412004e+01   4.7058457431e+01    0.3048562    0.1877063  75.86  0.001167754    3.003    0.667
       126 -11.1610     19.4908     59.2482   1.2340475433e+02   6.1847724428e+01    0.2751111    0.2094049  -7.16   0.00121422    1.323    0.244
       127 -11.7555    149.4371     52.7326   8.0351855352e+01   4.0926252200e+01    0.4044827    0.2769123  62.93 0.0005129945    1.422    0.297
       128 -10.0421     92.0212     50.5200   9.4513736232e+01   5.3848460350e+01    0.2833757    0.1604743 -50.46  0.001263121    2.429    0.588
       129 -10.1627     82.6397     47.3692   9.6389917132e+01   5.6031061741e+01    0.1811687    0.1648324 -85.28 0.0008042941    1.627    0.385
       130 -10.5773    162.0372     53.2262   7.7919552540e+01   3.7758775605e+01    0.3428262    0.1900924  66.25  0.001460424    1.853    0.460
       131 -10.4660    156.8909     44.9468   7.6544321119e+01   4.0202792356e+01    0.2890177    0.1889539  62.37 0.0004911268    1.414    0.293
       132 -11.1649     74.4979     43.4973   9.7715697633e+01   5.7997604196e+01    0.3347496    0.2243894   8.77  0.001437205    1.630    0.387
       133 -11.2697     70.4816     42.5131   9.8737607555e+01   5.8794808396e+01    0.4137003    0.3396177 -61.00  0.002441063    1.890    0.471
       134 -11.1369      6.9018     42.9902   1.2386869961e+02   6.5658581814e+01    0.4074869    0.2773161  43.05  0.002663755    2.307    0.567
       135  -9.5335    149.4856     43.5272   7.7601780505e+01   4.2207448980e+01    0.1432134    0.1289486  55.12 0.0001099258    1.013    0.012
       136 -12.2760     42.2898     37.9259   1.0757136242e+02   6.3388966404e+01    0.6674755    0.3905888  20.14  0.002440197    1.715    0.417
       137 -11.7959     46.7340     35.5743   1.0494878115e+02   6.3208549498e+01    0.3730117    0.2277771  13.36 0.0007520501    1.676    0.403
       138 -11.6029    120.0302     34.4208   8.1281396731e+01   5.0273315082e+01     0.477998    0.3245979 -19.99  0.002461481    1.655    0.396
       139 -10.3586     82.8111     38.0672   9.3004191284e+01   5.7344414129e+01    0.2881907    0.1709327  49.77   0.00146944    1.844    0.458
       140  -8.9207    153.4363     36.5137   7.4748869904e+01   4.2153846390e+01    0.1406184    0.1248852  55.00 0.0001154737    1.041    0.039
       141 -10.0661     74.0106     33.0057   9.4015745310e+01   5.9554975767e+01    0.2759707    0.1604848  54.62  0.001351406    2.390    0.582
       142 -11.4234    104.4156     30.5637   8.3943393422e+01   5.4109646809e+01    0.5936586    0.2300674  54.52   0.00204998    2.521    0.603
       143  -9.8226    101.2715     27.3046   8.3635558073e+01   5.5140975159e+01    0.1988826    0.1828887  33.38 0.0002118092    1.123    0.110
       144 -12.8131    204.0492     22.1934   6.3303847765e+01   3.1423619940e+01    0.8281835    0.4112757 -85.75  0.003482986    2.565    0.610
       145 -11.1840    224.3268    248.6541   1.0957478503e+02  -1.0936622673e+01     0.227194    0.1927411  66.92  0.001429812    1.949    0.487
       146 -11.2019    223.0131     16.0082   5.9867830910e+01   2.7666359203e+01    0.3169195    0.2120489  61.39  0.001227837    1.501    0.334
       147  -9.4195    187.4898    248.3705   1.1659524940e+02  -4.9207455276e+00    0.2683848   0.09715202  30.68 0.0009464114    3.496    0.714
       148  -9.6677     50.4614     18.5545   9.6777990020e+01   6.5016201572e+01    0.1890935    0.1473207   6.41 0.0005726301    1.019    0.019
       149 -11.4346    239.8766     20.7315   5.9252511493e+01   2.3284513709e+01    0.2899966     0.218446  84.40 0.0006391892    1.160    0.138
       150 -12.5070     21.5046    238.6864   1.4722466865e+02   2.2551267192e+01    0.7048742    0.2643926  65.21   0.00348797    2.563    0.610
       151  -9.9901    134.2359     18.0467   7.2857481022e+01   4.8831305639e+01    0.1817553    0.1595892  54.75  0.000414554    1.032    0.031
       152  -9.7890     89.1063     18.3725   8.3746794408e+01   5.8543313076e+01    0.2362511    0.1560827  62.48   0.00128185    1.889    0.471
       153  -9.1926      3.2823     17.6843   1.1708721514e+02   6.9997876978e+01   0.08597457   0.07902872 -32.13 0.0002670416    1.578    0.366
       154  -9.6297     12.9693    243.0000   1.4890689037e+02   2.2651954901e+01    0.1546313   0.05319488  38.27 0.0004262621    2.869    0.651
       155 -10.4846      7.8746    240.8402   1.4961331491e+02   2.3600281549e+01    0.1567741    0.1217573  85.81 0.0008760864    1.222    0.181
       156  -9.8757      2.2552    240.3979   1.5049375970e+02   2.4255515163e+01    0.1445814   0.07233206  54.26 0.0009427995    1.607    0.378
       157 -10.3776      6.0646    235.8094   1.4962826302e+02   2.4754056747e+01    0.1772648    0.1163951  86.26 0.0004210796    1.143    0.125
       158 -10.4101     71.3970    232.4348   1.3762843448e+02   1.7401945463e+01    0.2326186   0.08612937 -53.10 0.0009596433    3.453    0.710
       159  -9.1628     76.7085    228.2935   1.3615749489e+02   1.7465270343e+01    0.1314046   0.08101269  69.26 0.0003151404    1.552    0.356
       160 -10.8426     12.5909    227.2575   1.4801976780e+02   2.5771101929e+01    0.2243295    0.1514422  80.37 0.0005648975    1.089    0.082
