#   1 NUMBER                 Running object number                                     
#   2 MAG_AUTO               Kron-like elliptical aperture magnitude                    [mag]
#   3 X_IMAGE                Object position along x                                    [pixel]
#   4 Y_IMAGE                Object position along y                                    [pixel]
#   5 X_WORLD                Barycenter position along world x axis                     [deg]
#   6 Y_WORLD                Barycenter position along world y axis                     [deg]
#   7 A_WORLD                Profile RMS along major axis (world units)                 [deg]
#   8 B_WORLD                Profile RMS along minor axis (world units)                 [deg]
#   9 THETA_WORLD            Position angle (CCW/world-x)                               [deg]
#  10 FWHM_WORLD             FWHM assuming a gaussian core                              [deg]
#  11 ELONGATION             A_IMAGE/B_IMAGE                                           
#  12 ELLIPTICITY            1 - B_IMAGE/A_IMAGE                                       
         1 -11.5090     50.7651     10.1604   6.8678746285e+01   6.7389776430e+01    0.5828128    0.4925903   6.21  0.002894391    1.151    0.131
         2 -11.0062     65.8042     20.0592   6.7425894827e+01   6.3695639375e+01    0.6372796    0.4552827 -58.89  0.003232062    2.717    0.632
         3 -11.7331     50.9885     24.5595   7.5432693352e+01   6.5480182889e+01    0.8873803    0.5492128  13.52  0.004850765    1.660    0.397
         4 -10.6102     55.0303     17.8491   7.0631515284e+01   6.5773297828e+01    0.2905309    0.2363987  -6.39 0.0007929737    1.101    0.092
         5 -13.1511     69.5857     31.5123   7.1041365818e+01   6.1501210479e+01     1.204165    0.6698495  38.43  0.004823945    1.728    0.421
         6 -11.4156     60.3970     27.6296   7.2908416646e+01   6.3590301968e+01    0.7665037    0.3374991  22.92  0.002935916    3.353    0.702
         7 -12.4856     91.5938     18.7127   5.8311668025e+01   5.8891595468e+01     2.098723    0.5660978 -22.23   0.00658336    4.891    0.796
         8 -11.7803     16.5838     38.2880   9.7185908741e+01   6.6980335397e+01    0.7750643    0.5209799 -21.15  0.003932819    1.302    0.232
         9 -11.6256     30.3137     25.7784   8.5522739560e+01   6.7945635053e+01    0.7377437    0.3127095 -36.06   0.00364636    2.032    0.508
        10 -10.7760     36.2251     26.4194   8.2945794515e+01   6.7168943031e+01    0.3273242    0.2169653 -27.12  0.001129641    1.275    0.216
        11 -11.1679      6.8264     19.7713   9.5313960591e+01   7.1024827092e+01    0.4947864    0.2743258  -5.19  0.002962396    1.807    0.447
        12 -13.0312     18.8683     15.4423   8.6768855707e+01   7.0751937012e+01     1.593686    0.6020974 -49.56   0.00705814    3.315    0.698
        13 -11.9776     25.4961      8.4722   7.9780515864e+01   7.1070080505e+01    0.7604442    0.3033959 -39.25  0.002552906    2.434    0.589
        14 -13.1225      4.4754     10.2709   9.2538366749e+01   7.2762136104e+01    0.7650563    0.5095047 -33.97   0.00124895    1.193    0.162
        15 -12.5698      9.8240      3.3359   8.5919578127e+01   7.3383845417e+01    0.2798866    0.2158356  12.44 0.0002834807    1.382    0.277
        16 -12.1406      2.4739      2.6177   9.0050027714e+01   7.4088402118e+01    0.2281462    0.2148646  43.91  0.001770127    1.993    0.498
        17 -10.0551    204.4785     24.6545   3.9754269953e+01   3.1649092357e+01    0.5439132    0.2092682 -22.67  0.002082662    3.421    0.708
        18 -11.2147    163.9650      6.3070   3.9638664710e+01   4.3197154114e+01     1.800231     0.751453  -8.76  0.006729196    4.076    0.755
        19 -10.4259    157.6297      5.9742   4.0375353234e+01   4.4761158083e+01    0.6218982    0.2850701  -3.89  0.002433426    3.712    0.731
        20 -10.5740    177.1188     21.2367   4.2175260870e+01   3.8542664053e+01    0.4609121    0.3041416   1.87  0.002052281    2.184    0.542
        21 -10.9075    170.6868     14.5640   4.1142315399e+01   4.0793494820e+01    0.7158645    0.3822253  83.76  0.003127259    2.087    0.521
        22 -11.4364    149.9690     15.4232   4.4412403122e+01   4.5755655362e+01    0.6629139    0.4415877 -23.41  0.003077684    1.668    0.400
        23 -11.1018    122.9963     21.9135   5.1658088178e+01   5.1566053189e+01     1.051859     0.652642 -11.24  0.005203389    1.886    0.470
        24  -9.9493    125.9099     15.8415   4.8875681285e+01   5.1499667838e+01    0.3719288     0.246922  15.14 0.0009282783    1.792    0.442
        25 -11.4270    123.5282      8.6830   4.6792461837e+01   5.2717285583e+01    0.9128861     0.310008  42.17  0.003440724    2.989    0.665
        26 -12.1513    105.0421      9.4207   5.1013277959e+01   5.6897437647e+01     1.046378    0.4106981  43.48  0.004486765    2.249    0.555
        27 -10.6731    100.8740      5.3400   5.0369236414e+01   5.8174145248e+01    0.2861216    0.2311792  49.78 0.0003953848    1.111    0.100
        28 -11.3016    105.4101      1.9946   4.8003325930e+01   5.7431177111e+01    0.5376196    0.2425374  58.68  0.002332689    1.883    0.469
        29 -12.2484    110.8738     14.1961   5.1510370895e+01   5.5142631478e+01    0.4469129    0.3105755 -15.37  0.001330389    1.559    0.358
        30 -11.6991    116.6861     14.8037   5.0434439861e+01   5.3753686381e+01    0.4872497    0.4021787 -21.22  0.002060612    1.321    0.243
        31 -11.7483     87.3668     40.1803   6.8352870797e+01   5.6973028683e+01    0.9245363    0.4169183 -31.29  0.003354886    2.240    0.554
        32 -11.6036    131.7864     19.8906   4.9122776099e+01   4.9700248889e+01     0.571345    0.3727657  37.73 0.0008390353    1.525    0.344
        33 -10.7624     84.3638     19.4501   6.0796659753e+01   6.0286106576e+01    0.5426661    0.3058605  19.60  0.002560245    2.083    0.520
        34 -11.5778      3.8697     26.9492   9.9680367031e+01   6.9934304731e+01    0.5394753    0.2438371 -30.94  0.002964301    1.858    0.462
        35  -9.9341     70.2164     16.9247   6.4391848629e+01   6.3284375690e+01    0.3292249    0.1777332  25.39  0.001209837    1.935    0.483
        36  -9.4425     65.5102     12.5079   6.4041769366e+01   6.4635169310e+01    0.2446803    0.1355594  35.21  0.001297975    1.603    0.376
        37 -10.2596     41.0427      3.8239   6.9670817126e+01   6.9598977141e+01    0.5365586    0.2339004  21.15   0.00224299    2.941    0.660
        38  -9.2017     37.4654     12.5590   7.5847926594e+01   6.9034866981e+01    0.2015113    0.1423984 -31.61 0.0007715529    1.463    0.317
        39 -10.2869     39.0719      9.1773   7.3376323580e+01   6.9249861492e+01    0.2766694     0.165309  27.94  0.001510454    1.529    0.346
        40 -10.2092     31.4029     11.8576   7.8463727618e+01   6.9906388424e+01    0.2454937    0.1778847 -21.63 0.0007170313    1.204    0.169
        41 -10.1153    213.2251     12.0555   3.5814958430e+01   3.1020203671e+01    0.1796107    0.1696657  47.74  0.001227342    1.293    0.227
        42 -11.1728    154.1564     17.6284   4.4437870567e+01   4.4516943987e+01    0.5766217    0.2985249  62.47 0.0007210781    1.708    0.415
        43  -9.1666    233.8053      7.1961   3.3027435990e+01   2.7015480284e+01    0.2114803    0.1513189 -37.13 0.0003783623    1.402    0.287
        44 -10.4050    200.7862      7.1553   3.5795285130e+01   3.4358919157e+01    0.4714071    0.1690318 -38.75  0.001199787    2.533    0.605
        45  -9.7683    226.2488      8.3596   3.3861687017e+01   2.8517594467e+01    0.2289812    0.1788201  39.95  0.001134202    1.716    0.417
        46  -9.8329     77.3749      8.9515   5.8366673679e+01   6.2773523571e+01    0.2417395    0.1798812  31.28 0.0006015177    1.130    0.115
        47 -10.7562    139.4490      4.6875   4.2633913092e+01   4.9263407797e+01    0.5400892    0.2777909 -13.13  0.002561035    2.388    0.581
        48  -9.4453     77.8370      4.4260   5.6166176881e+01   6.3101234756e+01    0.2566293    0.1384103  16.80  0.001254884    2.107    0.525
        49  -9.3911    185.7267      5.3235   3.6837415927e+01   3.8062282992e+01    0.2521546     0.181616   1.16   0.00137002    1.899    0.473
        50 -10.3333     56.6961      1.9997   6.2189491623e+01   6.7268956068e+01    0.3744623    0.1951011  45.28   0.00191014    1.770    0.435
        51  -9.7640     60.7086      6.3356   6.2844645050e+01   6.6140902449e+01    0.2833933    0.1272076  46.45  0.001396487    2.066    0.516
        52  -9.2119     62.4910      3.3907   6.0744796931e+01   6.6111289129e+01    0.2552074    0.1843914  43.60  0.001594411    1.348    0.258
        53  -9.8583     67.7523      6.0160   6.0169403215e+01   6.4896918318e+01    0.2772487       0.1961 -22.46 0.0009216031    1.477    0.323
        54 -10.6945     71.4780      3.5153   5.7738765767e+01   6.4425316740e+01     0.368706    0.3068436 -31.78  0.002410794    1.494    0.331
        55  -9.2818    217.8874      4.9426   3.3767779951e+01   3.0699077297e+01    0.2484363    0.1561353  11.79    0.0012166    3.028    0.670
        56 -10.3220    181.4849      4.5106   3.7074992826e+01   3.9144568506e+01    0.2501064    0.2269418 -39.20 0.0008551469    1.219    0.180
        57 -10.4731    132.4210      4.5440   4.3737083209e+01   5.0957321986e+01     0.408735    0.3031362  23.99  0.002041729    1.466    0.318
        58  -9.0534    244.3214      4.5260   3.1726862167e+01   2.5100310354e+01    0.1884639   0.09666811 -33.50  0.000644059    1.889    0.471
        59 -10.1538    208.8502      3.4013   3.4165199958e+01   3.2874975948e+01    0.3774889    0.2075041  77.67   0.00203982    1.660    0.398
        60  -9.5401    248.5689      2.2323   3.0986721322e+01   2.4473978159e+01    0.2127447   0.09308925 -36.44  0.001142755    2.026    0.506
        61 -10.4875    181.7488     16.0704   4.0158143423e+01   3.7967196378e+01     0.424464    0.2889492  59.01  0.001672733    1.385    0.278
        62 -10.0580     53.6060    101.6292   9.9824324421e+01   4.9736873572e+01    0.3962391    0.1931992 -45.67 0.0005252955    1.844    0.458
        63 -11.1124     48.3828    100.1354   1.0126762862e+02   5.0681634562e+01    0.6866608    0.4948799 -48.75  0.003753522    1.197    0.165
        64 -10.3780     55.3727     96.4767   9.8014456111e+01   5.0753521935e+01    0.2819275    0.2289624 -17.27  0.001578106    1.310    0.237
        65 -10.1638     51.8392     92.6062   9.8311247208e+01   5.2077287927e+01    0.4133012    0.2316452 -39.96  0.001642263    1.686    0.407
        66 -11.1695    141.6712    102.6832   7.3261425129e+01   3.4097408313e+01    0.5079784    0.3991881   9.21  0.001635132    1.535    0.349
        67 -10.8511    146.2552     99.7744   7.1291293931e+01   3.3680537311e+01    0.3465476    0.2660109  34.65 0.0008320987    1.360    0.264
        68  -8.9748    110.2512    104.4287   8.2388403124e+01   4.0238539547e+01    0.2851979    0.1515642  35.48   0.00112182    2.016    0.504
        69  -9.8277    133.5145    102.0407   7.5205153191e+01   3.6004448931e+01    0.3324925      0.28435 -65.98 0.0008517332    1.352    0.260
        70  -9.7297    132.3114     97.9632   7.4368285373e+01   3.7119642334e+01        0.362    0.2393592 -45.17  0.001588871    1.505    0.335
        71 -10.0004     82.9625     89.9712   8.6863274071e+01   4.8346655991e+01    0.2349763     0.215329 -28.05            0    1.008    0.008
        72  -9.1792     82.4370     86.5289   8.6039161566e+01   4.9192074807e+01    0.2620388    0.1225199 -38.62 0.0005057155    2.149    0.535
        73 -11.1367     75.0890     95.0773   9.0917354507e+01   4.8423683439e+01     0.816856    0.3820322 -48.88  0.003347589    1.931    0.482
        74  -8.9662     67.8833    102.7971   9.5306007736e+01   4.7651041437e+01      0.18473    0.1654986  84.43 0.0002463183    1.321    0.243
        75  -9.5470     62.4801    102.5966   9.7059147591e+01   4.8417479777e+01    0.3005956    0.2391685 -37.68 7.441758e-05    1.181    0.153
        76  -9.7908     37.3226    103.0409   1.0563525156e+02   5.1095929384e+01    0.3328446    0.1968031  -0.97  0.001582261    2.350    0.575
        77 -11.6233     30.4899     72.8163   1.0133416007e+02   5.8734302904e+01    0.8901611     0.268318 -48.75   0.00357501    2.483    0.597
        78 -10.9032     39.8081     67.0121   9.6016608603e+01   5.9127297624e+01    0.4187791    0.3853718 -15.58  0.001744025    1.151    0.131
        79 -11.2095     23.7662     82.7106   1.0624949228e+02   5.7026054725e+01    0.9342969    0.5414907  41.92  0.004875274    2.213    0.548
        80 -11.0291     21.4558     73.2297   1.0500459217e+02   5.9349030982e+01    0.6362302    0.4044091 -20.70   0.00332373    1.683    0.406
        81 -12.3503     20.0732     61.8839   1.0274046022e+02   6.1937537635e+01     1.033458    0.6993442   3.65  0.006137752    1.645    0.392
        82 -13.0640     33.0987     58.7295   9.6315993815e+01   6.1529886010e+01    0.4321769     0.320374  -3.14  0.001795586    1.388    0.280
        83 -11.8290     24.5006     96.1605   1.0868819936e+02   5.3818869132e+01    0.8620757    0.5747035  44.68  0.004823541    1.850    0.459
        84 -11.0669     17.6431     89.5378   1.0985509438e+02   5.5863250594e+01    0.7168916    0.3531408  55.42  0.003080063    3.378    0.704
        85 -10.8456      3.9241     99.7817   1.1619772029e+02   5.4233699790e+01    0.5027704    0.2072413 -67.77   0.00155908    1.837    0.456
        86  -9.5743      9.8610     76.8436   1.1028191414e+02   5.9258075629e+01    0.2093915    0.1431386 -58.92 0.0003930717    1.158    0.136
        87 -11.9207      4.3781     88.3032   1.1432494292e+02   5.6901695672e+01    0.8473479    0.3028948 -58.33  0.002753982    1.950    0.487
        88  -9.7773      2.1549     82.8095   1.1421799271e+02   5.8274005310e+01    0.2307681    0.1423745 -60.03 0.0005951377    1.223    0.183
        89 -11.6834      4.8476     77.1037   1.1222880754e+02   5.9453687410e+01    0.2611056    0.2380265 -77.81 0.0006201609    1.241    0.194
        90 -10.4998      3.5400     72.9520   1.1194887853e+02   6.0452284247e+01    0.3395225    0.1361059 -51.83   0.00116937    1.786    0.440
        91 -11.0407     11.5189     95.7632   1.1306884881e+02   5.4774304029e+01    0.4826986    0.2383678 -59.39 0.0007933174    1.533    0.348
        92 -10.1654    156.1862     96.5464   6.7986624779e+01   3.2080584345e+01    0.3887231    0.2328863 -31.03            0    1.772    0.436
        93  -9.7570    121.0229     96.5546   7.7060502278e+01   3.9805008167e+01    0.2466209    0.2000415  60.45 0.0006714192    1.445    0.308
        94 -10.4495    116.6934     93.6689   7.7454559684e+01   4.1306970220e+01    0.4536313    0.3615793   3.79  0.001291233    1.459    0.315
        95 -10.0102     87.5125     96.6657   8.7257290354e+01   4.6091614360e+01    0.4046266    0.2541233  35.14  0.001848033    1.684    0.406
        96 -11.2874     39.4969     79.5395   9.9565168293e+01   5.6400182198e+01    0.7613943     0.519712 -68.14  0.002344614    1.604    0.377
        97  -9.7786     39.2940     96.3507   1.0358158474e+02   5.2513505609e+01    0.2872437    0.1953978 -31.90  0.001427903    1.505    0.336
        98  -9.7382     39.4217     92.2350   1.0263358610e+02   5.3475329472e+01    0.3283536    0.1985911 -45.83 0.0009422909    1.419    0.295
        99 -10.8886     34.3881     91.6672   1.0430430071e+02   5.4074814756e+01    0.7054041    0.3170846   9.20  0.002891921    3.270    0.694
       100  -9.2207    189.5060     93.4641   6.0090993209e+01   2.4991648978e+01     0.253011    0.1966453   5.18 0.0006935276    1.637    0.389
       101 -10.4983    125.0369     91.8891   7.4575751930e+01   3.9938533985e+01    0.5695118    0.3647908  53.76  0.002445649    1.766    0.434
       102  -8.8910    103.8096     92.4372   8.0919260573e+01   4.4113473556e+01    0.2164752    0.1435526  24.21 0.0009415577    1.755    0.430
       103 -10.2838     77.9839     89.9510   8.8527566138e+01   4.9145254554e+01     0.275029    0.2468388 -54.14 0.0003916149    1.167    0.143
       104  -8.8301     66.7990     87.9558   9.1822903604e+01   5.1246331025e+01    0.2421332    0.1406188 -30.01  0.001055618    1.943    0.485
       105  -9.1516    112.1420     88.2957   7.7183585670e+01   4.3358333973e+01    0.3083249    0.1708193 -29.71  0.001197709    2.102    0.524
       106  -8.9095    107.0000     88.9428   7.8913232358e+01   4.4244429219e+01    0.2614201    0.0840893 -44.29 0.0008117454    3.007    0.667
       107 -10.2704     89.9630     87.2617   8.3764534038e+01   4.7760139010e+01    0.4787744    0.3743762  25.86  0.002445678    1.340    0.254
       108  -9.4991    145.7784     87.4253   6.7852532034e+01   3.6233627014e+01    0.3106529    0.2262444  40.42 0.0008810519    1.398    0.285
       109 -10.3993    146.7253     83.3571   6.6418630535e+01   3.6788280333e+01    0.4068451    0.3330722  -2.68 0.0004007059    1.400    0.286
       110  -8.4870    140.4133     87.5138   6.9211427181e+01   3.7436128042e+01    0.1535171    0.1477282 -18.75 9.132459e-05    1.017    0.017
       111 -10.3318    119.0552     86.6266   7.4675592468e+01   4.2278948607e+01    0.3764008    0.2716361  40.27  0.001767857    1.405    0.288
       112  -9.7023     51.6924     86.2990   9.6776486023e+01   5.3554228418e+01    0.3326178    0.1782272 -33.26  0.001479237    2.009    0.502
       113  -9.1974     53.4961     82.0358   9.4982404626e+01   5.4308363870e+01    0.2834933    0.1514148 -52.38 0.0009026974    1.658    0.397
       114  -9.4453    133.1306     85.8550   7.0590912966e+01   3.9391167768e+01    0.5153404    0.3086558  -8.69  0.001745059    3.181    0.686
       115  -9.8127     57.8233     85.1601   9.4253115439e+01   5.3070906524e+01    0.5167661    0.2813531  -6.52  0.001912399    3.413    0.707
       116  -9.2259    156.4956     85.0277   6.4621974148e+01   3.4207431971e+01    0.2447661    0.1941394 -13.64 0.0009516563    1.426    0.299
       117 -12.0319    161.3831     81.9936   6.2651637124e+01   3.3615481264e+01    0.3757044    0.2832537  58.27  0.001797825    1.393    0.282
       118  -9.1647     73.5544     84.2718   8.8415571778e+01   5.1086925330e+01    0.3842103    0.1322957  28.91   0.00124583    3.713    0.731
       119  -9.5864     93.7081     75.5018   7.8898516417e+01   4.9546348156e+01     0.332961    0.3245705  17.68  0.001910416    1.137    0.121
       120 -10.7202     98.8120     76.8843   7.7706792497e+01   4.8310328520e+01     1.007988    0.3936329 -50.74  0.003341066    3.162    0.684
       121 -10.0667    103.6646     80.7342   7.7412846403e+01   4.6596638658e+01    0.2904445    0.2275534  22.15 0.0008885419    1.347    0.258
       122 -10.7247    106.4735     77.6632   7.5581357564e+01   4.6657042217e+01    0.4208631    0.3198402  29.99  0.000931017    1.349    0.258
       123 -11.2176    177.0154     78.5363   5.8438268713e+01   3.0524749683e+01    0.2691568    0.2385203 -34.46 8.293181e-05    1.110    0.099
       124  -9.9553    190.2366     76.9699   5.5552473847e+01   2.7673270519e+01    0.4972162     0.235198  37.43  0.001756103    3.035    0.670
       125 -10.6441    144.3626     78.2805   6.5462658906e+01   3.8274262373e+01    0.3120879     0.224617  38.37  0.001140008    1.429    0.300
       126 -10.3935    146.8052     74.8633   6.3840648568e+01   3.8320985401e+01    0.2721736      0.21272  38.33 0.0002860247    1.300    0.231
       127  -9.5707     70.0076     76.3065   8.7283647205e+01   5.3342884725e+01     0.279132    0.2224737 -24.65  0.001232594    1.181    0.154
       128  -9.2495    204.0594     75.8393   5.2924072799e+01   2.4659673170e+01    0.3643839    0.1676514  37.60  0.001261006    3.397    0.706
       129  -9.8295    115.9334     64.8386   6.8594436153e+01   4.7087007371e+01    0.3686263    0.2676878  13.95  0.001026565    1.639    0.390
       130 -11.2590    115.3831     71.1899   7.0855692205e+01   4.6057158948e+01    0.6401858    0.4911495 -22.12  0.001805877    1.346    0.257
       131 -10.4836    109.3562     68.2257   7.1632572114e+01   4.7871362162e+01    0.5621706    0.3223585  57.57   0.00169592    2.264    0.558
       132 -10.2803    167.2051     73.8118   5.9050436927e+01   3.3665559461e+01    0.3155517    0.2447017   3.79 0.0008005894    1.627    0.385
       133 -10.4456    136.4708     42.3836   5.5806272728e+01   4.5892988698e+01     1.017519    0.3278461 -46.51  0.002936804    4.787    0.791
       134 -12.2432    149.2835     65.8268   6.0495349717e+01   3.9287629684e+01     1.704726    0.9333716  40.85  0.007026562    1.946    0.486
       135 -10.1037    141.3621     45.0495   5.5620730974e+01   4.4356610863e+01    0.2444741    0.1986381  58.13 0.0004902637    1.199    0.166
       136 -11.0375    146.5148     42.2653   5.3635974884e+01   4.3494798689e+01    0.6417633    0.2352283  51.91  0.002104644    2.458    0.593
       137 -12.5895    147.2569     53.8494   5.7187300329e+01   4.1666347603e+01    0.5438265    0.3978813  39.24 0.0003221389    1.388    0.280
       138 -11.8820    145.7775     48.3945   5.5761567469e+01   4.2822802284e+01    0.4942706    0.3040531  37.65 0.0001270005    1.756    0.430
       139 -11.8696     56.0721     64.1478   8.8654474311e+01   5.7827223319e+01     0.774361    0.5744119 -58.99  0.001635357    1.594    0.373
       140 -10.7627     52.6978     71.0961   9.2145272244e+01   5.6804470116e+01    0.3647566    0.2819316 -11.76  0.001027797    1.311    0.237
       141 -10.2847     57.2055     69.3076   8.9863592174e+01   5.6611985310e+01    0.5324643    0.1988832  23.97  0.001899038    3.566    0.720
       142 -10.5615     66.3298     70.9746   8.6956121525e+01   5.5004388215e+01    0.2864335    0.2430331  -7.00 0.0004453818    1.138    0.121
       143 -10.5463     68.7492     67.9528   8.5086770675e+01   5.5266824755e+01    0.5390049    0.3543211  50.89  0.001773604    2.068    0.516
       144 -10.1257    126.8174     70.2852   6.7404972645e+01   4.3724803579e+01     0.428754    0.3137676  87.71  0.001823725    2.202    0.546
       145 -10.0905    122.1312     66.2570   6.7349896357e+01   4.5482223087e+01    0.4739947    0.2140876 -34.80  0.001271465    2.255    0.556
       146  -9.7098    165.1444     69.1000   5.8096826012e+01   3.4948125154e+01    0.2615138    0.2550481  16.78  0.001462115    1.043    0.041
       147  -9.7028    102.1071     69.3038   7.4191594720e+01   4.9143529503e+01    0.2930771    0.2417543 -23.23  0.001537744    1.175    0.149
       148  -9.4948     77.5906     69.8310   8.2512763345e+01   5.3497843039e+01    0.2703728    0.1655393 -38.56   0.00127745    1.521    0.343
       149 -10.7980     77.8605     61.2064   7.9487106725e+01   5.5134217332e+01    0.7010483    0.2568907 -41.08  0.002221233    2.588    0.614
       150  -8.7363     73.2071     62.3627   8.1567515681e+01   5.5679243445e+01    0.1822376    0.1292333  41.72 0.0003688985    1.580    0.367
       151  -8.4526     13.2667     68.2872   1.0712958964e+02   6.0984362064e+01    0.1275495   0.07148225 -40.10 0.0002361436    1.498    0.332
       152  -8.8890    174.0895     67.4768   5.5873191399e+01   3.3062672490e+01    0.2089737    0.1451046  59.99 0.0002996969    1.466    0.318
       153  -8.7904    131.7981     67.3599   6.5165171902e+01   4.3114841990e+01    0.2060614    0.1345396  40.76 0.0004837002    1.532    0.347
       154  -8.9129    131.9179     62.8193   6.3662318082e+01   4.3860730349e+01    0.1925021     0.174307 -81.70            0    1.312    0.238
       155  -9.5842    235.7914    249.5997   8.4140517151e+01  -9.2985806219e+00    0.1563645   0.09281152  36.33 0.0009487041    1.739    0.425
       156  -9.0085      3.3713    246.7878   1.2750943351e+02   2.1887501169e+01    0.1338391   0.07794753 -75.59 0.0009403027    1.675    0.403
       157 -12.4950     87.4182     56.0820   7.4342505588e+01   5.4376324780e+01    0.8538225    0.6790376 -44.59  0.003027133    1.386    0.279
       158 -11.7527     99.4584     55.8271   7.0351185931e+01   5.2088977424e+01     1.264654    0.7741231  18.06  0.005405837    2.171    0.539
       159 -10.8744     76.2163     43.2652   7.3410344829e+01   5.8556380220e+01    0.6833951     0.319051 -25.89   0.00280685    2.465    0.594
       160 -12.2073     34.1711     41.4366   8.9994124285e+01   6.4816255591e+01      1.44885    0.5236433  16.81  0.004954308    4.296    0.767
       161  -8.6751     21.4737    244.4317   1.2433979952e+02   2.0577389666e+01    0.1096458   0.07851575  66.41 0.0001766819    1.043    0.041
       162  -8.7441     21.2296    232.5853   1.2373891907e+02   2.2841785694e+01    0.1280551   0.09957328  35.19 0.0007366739    1.506    0.336
       163  -8.2532    227.2916    231.6801   8.2715223291e+01  -5.8798605129e+00    0.1016721   0.09724882  27.79 0.0003815039    1.605    0.377
       164 -11.7087     79.8572     33.5101   6.8197850652e+01   5.9369295037e+01     0.340696    0.2916098  13.61 0.0002593437    1.028    0.027
       165  -8.6231     40.7145    221.6665   1.1933695407e+02   2.2962325317e+01     0.105185   0.08634339 -49.21 0.0002854969    1.621    0.383
       166 -11.3055     49.1090     39.9029   8.2767375770e+01   6.3314255324e+01    0.4173945    0.2614675 -20.58 0.0006550713    1.551    0.355
       167 -12.5997     56.1572     37.8172   7.8959417951e+01   6.2679430092e+01    0.4978783    0.3614417   4.29 0.0004003475    1.327    0.246
       168  -8.9635    207.4709     61.4993   4.8719077122e+01   2.6098522020e+01    0.2493725    0.1111716 -44.12 0.0008884245    2.122    0.529
       169  -8.9763     42.9300     61.9588   9.3216232576e+01   5.9860020712e+01    0.1838049    0.1635729  87.74  0.001113198    1.610    0.379
       170  -9.8334    127.2955     59.7308   6.3818830991e+01   4.5431236105e+01    0.3410329    0.2419727  46.96  0.001652973    1.371    0.271
       171 -10.1790    106.7961     59.3124   6.9352002333e+01   4.9989091219e+01    0.2604375     0.220701  12.17 0.0003808856    1.169    0.144
       172  -9.1365    212.4758     58.3864   4.7228231116e+01   2.5412118954e+01    0.2973053     0.126667 -34.56  0.001219844    2.207    0.547
       173  -9.2109    200.1809     59.2783   4.9216856445e+01   2.8117043320e+01    0.2318969     0.175513  39.40  0.001202421    1.528    0.346
       174 -10.8173    184.8523     55.8763   5.0703613558e+01   3.2255320923e+01    0.3773865     0.315151 -79.54 0.0003491867    1.276    0.216
       175 -11.1801    184.0258     51.5293   4.9631085542e+01   3.3081098073e+01    0.7055368    0.4352315  87.55  0.003078246    2.169    0.539
       176 -10.7314    193.0099     54.4345   4.9017166164e+01   3.0514467223e+01    0.3476289    0.3019607  27.00  0.001080516    1.345    0.257
       177  -9.4674    174.0089     57.4014   5.2995542344e+01   3.4648279627e+01    0.3073519    0.2082672 -10.34 0.0009465562    1.950    0.487
       178  -8.6521      6.9831     47.9607   1.0474551223e+02   6.5675185390e+01    0.1476481    0.1307114 -63.41 0.0004076005    1.328    0.247
       179 -10.6016      3.1321     56.2822   1.0858618487e+02   6.4124754729e+01    0.3179091    0.3043392  35.46  0.002256769    1.394    0.283
       180 -10.0910      3.9803     51.0509   1.0693148660e+02   6.5188437138e+01    0.2978744    0.1907355 -45.61  0.001069244    1.166    0.143
       181 -10.4993    166.1506     53.5170   5.3295489648e+01   3.7133762574e+01    0.4500623    0.2965089 -51.71  0.001524429    1.669    0.401
       182 -10.3631    161.7326     51.2281   5.3440729196e+01   3.8542989571e+01    0.4062623    0.3045878 -30.90  0.001443498    1.377    0.274
       183  -9.8744    116.6221     49.9209   6.3266579611e+01   4.9393077631e+01    0.4491233    0.2890586 -43.37  0.001753308    1.711    0.416
       184 -10.2089    120.7406     53.7207   6.3491812645e+01   4.7882217374e+01     0.555464     0.356834  -7.85  0.002414594    2.070    0.517
       185  -8.9721    123.9515     55.0000   6.3089167742e+01   4.6955085507e+01    0.2852899    0.1905095  53.76 0.0008561122    1.516    0.340
       186  -8.8063     45.4926     56.0425   9.0231668087e+01   6.0768857583e+01    0.2009553    0.1149995 -45.89 0.0008225027    1.549    0.355
       187  -9.1510     12.1500     56.3683   1.0468761996e+02   6.3631377138e+01    0.1873171    0.1497945  17.49  0.001252669    1.494    0.330
       188 -10.0439    133.8072     54.0520   6.0312656770e+01   4.4830017855e+01    0.4711221    0.2976216  -3.10  0.001896319    2.326    0.570
       189  -8.5545    219.5169     54.4771   4.5335342806e+01   2.4385211705e+01    0.1363837      0.12018 -61.78 0.0002404011    1.037    0.035
       190  -9.7966     70.9269     53.0564   7.9085911052e+01   5.7781529466e+01     0.291603     0.216702 -43.72  0.001169498    1.420    0.296
       191  -9.5631     51.1764     53.4574   8.6986162130e+01   6.0576433148e+01    0.2488507    0.1645714 -38.33  0.001058947    1.329    0.248
       192 -11.6341     58.0507     48.7583   8.2474323230e+01   6.0519625839e+01    0.6831863    0.6227514  26.92  0.003214636    1.308    0.235
       193  -9.6042     66.2442     47.5486   7.8790547966e+01   5.9503114848e+01    0.3000967    0.1966736   6.81 0.0007409339    1.760    0.432
       194 -10.6789     65.1694     44.0616   7.7855404215e+01   6.0269467335e+01    0.5422043    0.3469389   9.36  0.002166471    1.803    0.445
       195 -10.0662     41.8456     53.9189   9.1046392691e+01   6.1605273167e+01    0.2273951    0.1746565 -16.67 0.0003600517    1.181    0.154
       196 -10.5909     44.5072     50.0529   8.8569393001e+01   6.2049194678e+01    0.2751611    0.2057812  14.32 0.0004686184    1.359    0.264
       197  -9.5564     37.2003     51.1309   9.2095817370e+01   6.2655620573e+01    0.2603636    0.1409587 -37.89 0.0008927725    1.567    0.362
       198 -10.1514     29.4494     49.4766   9.4961820286e+01   6.3742435103e+01    0.3633847    0.2039268 -46.85  0.001463067    1.491    0.329
       199  -9.5977    228.4335     49.7484   4.3127171379e+01   2.3075246262e+01    0.2156353    0.1714851  76.38 0.0004662524    1.292    0.226
       200 -10.9178    158.0983     42.8439   5.1566450542e+01   4.0596536621e+01    0.7412772    0.3716064 -32.47  0.003045594    2.040    0.510
       201 -10.5875    153.1170     44.2069   5.2938030963e+01   4.1628230116e+01    0.6029855    0.2925642 -24.18  0.002429854    2.391    0.582
       202  -9.3492    190.7200     58.3187   5.0424053612e+01   3.0491835874e+01     0.316877    0.2217493 -74.83 0.0008397808    1.745    0.427
       203  -9.8649    222.9481     45.4660   4.2745596540e+01   2.4857662308e+01    0.2197646    0.2008992  21.98 0.0005671134    1.372    0.271
       204  -9.3862    207.2694     46.1192   4.4829020821e+01   2.8324518192e+01    0.3948455    0.1296487  61.57  0.001476335    2.926    0.658
       205  -9.8688    105.7843     42.2328   6.3487456847e+01   5.2906241568e+01    0.4786669    0.3566444  72.86  0.002376804    1.876    0.467
       206 -10.9725    107.9318     29.4676   5.8082898350e+01   5.4139364942e+01    0.6100153    0.4094741  77.22  0.002861811    2.226    0.551
       207 -10.5021    100.6576     37.8059   6.3298664754e+01   5.4624180527e+01    0.5500019    0.2915579  34.71  0.002282049    1.949    0.487
       208 -10.6730    105.7256     33.9620   6.0390172250e+01   5.4055873483e+01    0.2796372    0.2137062  33.70 0.0003125509    1.209    0.173
       209  -9.5107    238.9925    197.2791   7.4360982443e+01  -2.6507148391e+00    0.1526768    0.1041433  28.55 0.0004399446    1.438    0.305
       210 -10.4469     10.4984     41.9524   1.0133252290e+02   6.6682759246e+01    0.3281795    0.1985929   4.44  0.001982891    1.785    0.440
       211  -8.9452     11.4020    184.7734   1.2265945639e+02   3.3739495408e+01    0.1639152   0.08885457 -68.64 0.0006857832    1.614    0.380
       212  -9.9437     12.9365     34.2159   9.7570165894e+01   6.8011724898e+01    0.2713109    0.1631867  13.85  0.001212578    1.777    0.437
       213 -11.8623     15.3924     30.6956   9.5040404915e+01   6.8480101357e+01    0.2946022     0.213247  20.46 0.0003095655    1.569    0.363
       214 -10.0074    118.4665     42.5419   6.0161360837e+01   5.0062682296e+01    0.3593029    0.2912211 -19.28  0.001955251    1.268    0.211
       215  -9.4059    219.4109     42.6894   4.2488912185e+01   2.6013632609e+01    0.2102032    0.1617101 -24.52  0.001195272    1.448    0.309
       216  -9.4512    166.8819     41.9102   4.9714616629e+01   3.8571277402e+01    0.2256653    0.1858989  30.23  0.001220465    1.350    0.259
       217  -9.7161     23.0526     41.1604   9.5075687579e+01   6.5919899322e+01    0.2946099    0.1514613 -35.93  0.001579494    1.607    0.378
       218  -8.7396     62.4603     40.4383   7.7477589584e+01   6.1296921260e+01    0.1352325    0.1121326  -4.76 0.0002005431    1.028    0.027
       219  -8.7424    174.5336     38.9772   4.7594605904e+01   3.7082207516e+01    0.1818341    0.1204139  11.14 0.0005765991    2.292    0.564
       220  -9.2021    182.0643     37.5349   4.6035773927e+01   3.5434184402e+01    0.2025295    0.1790304 -89.83  0.001180944    1.096    0.088
       221  -9.6536    181.4848     31.5046   4.4440860251e+01   3.6316739115e+01    0.5010433    0.1647629  63.91  0.001853971    2.798    0.643
       222  -9.0703    220.2511     36.4080   4.0887259225e+01   2.6633145803e+01    0.2338216    0.1353777 -72.65  0.001119559    2.023    0.506
       223  -9.7485    219.3467     33.0439   4.0183038987e+01   2.7254486679e+01    0.3318467    0.1765076  28.91  0.001186372    4.617    0.783
       224 -10.4286    193.4289     33.2898   4.3306235309e+01   3.3229542407e+01    0.4278407     0.293786 -16.80  0.001286769    1.779    0.438
       225 -10.6540    147.0724     34.9925   5.1180464404e+01   4.4298982183e+01    0.7949812    0.2295142  59.81  0.002647693    3.183    0.686
       226  -9.6351    124.6608     35.8763   5.6264837755e+01   4.9536339309e+01    0.3113017      0.21697  53.37 0.0009038571    1.348    0.258
       227  -9.1115    120.0555     35.5584   5.7257811540e+01   5.0641688808e+01    0.2014828    0.1792721  48.29 0.0007197729    1.094    0.086
       228  -9.3086      2.4594     35.4809   1.0326463820e+02   6.8400115534e+01     0.349012   0.08759744 -37.98  0.001439259    3.131    0.681
       229  -9.4864    241.1379     23.7878   3.6012170378e+01   2.3641955177e+01    0.3293141    0.1369232 -65.94  0.001354402    3.145    0.682
       230 -10.7407    235.2273     32.9523   3.8556505381e+01   2.3790038237e+01    0.4268207    0.3115131   1.94  0.001643798    2.174    0.540
       231  -9.6239    237.8075     26.1999   3.6823201638e+01   2.4057899269e+01    0.2186078    0.1873013 -45.08 0.0006327895    1.174    0.149
       232  -9.5975    209.0384     34.4595   4.1680500164e+01   2.9424106062e+01    0.4041417    0.2067065  88.20  0.001721952    2.550    0.608
       233 -10.3917    245.0055     33.8952   3.7857268434e+01   2.1623082688e+01    0.2904849    0.1709871  65.74 0.0007748483    1.778    0.438
       234  -9.5710    156.2017     32.8915   4.8833827178e+01   4.2327780100e+01    0.4723043     0.182068  44.46  0.001725444    2.848    0.649
       235  -9.6318    172.9264     30.7302   4.5467477336e+01   3.8491102872e+01    0.4376332    0.2138521  38.86  0.001758809    2.686    0.628
       236 -11.2247    167.3911     29.1554   4.5853773900e+01   4.0029036857e+01    0.2788307    0.2542225  -9.69 0.0004374416    1.230    0.187
       237 -10.6987     98.2232     41.6123   6.5477559005e+01   5.4588960973e+01    0.6776492    0.3864328   3.50  0.002624898    2.938    0.660
       238  -8.5525    227.9865     31.0024   3.8817360241e+01   2.5591926781e+01    0.1513044    0.1306998 -72.39 0.0003994163    1.027    0.027
       239  -8.7778    138.4852     31.4872   5.1727263775e+01   4.6803648551e+01    0.1383328    0.1297508  54.24 0.0008101231    1.035    0.033
       240 -10.8162     23.2000     28.2783   9.0123564758e+01   6.8244774035e+01    0.4405491    0.3282966 -19.64  0.002939164    1.052    0.049
       241  -9.1278      4.7518    177.0001   1.2355486917e+02   3.6009673039e+01    0.1577121   0.08139065 -79.76 0.0008813391    1.570    0.363
       242 -12.0156     32.7966    165.9435   1.1610271279e+02   3.6164916417e+01    0.2896262    0.2263525 -59.66 0.0005613539    1.275    0.216
       243 -10.6555     12.7472     24.8254   9.4138079115e+01   6.9725141034e+01    0.3448991    0.1850355 -21.65  0.001059224    1.720    0.419
       244  -9.7151     39.2301    159.2027   1.1373070211e+02   3.7143476161e+01    0.2691786     0.192142  50.21  0.001188307    1.443    0.307
       245 -11.3914     19.5064    158.7907   1.1864416036e+02   3.9055270743e+01    0.4764989    0.2245153  24.87  0.002390193    2.518    0.603
       246 -11.4318     14.7686    151.4373   1.1911130441e+02   4.1179898853e+01     0.399613    0.2446836  76.00    0.0022387    1.627    0.385
       247 -10.0741     30.8286    151.4950   1.1499037649e+02   3.9821458824e+01    0.2398999    0.1864256 -61.28 0.0006685499    1.199    0.166
       248 -10.0570      8.0187    151.7280   1.2082442224e+02   4.1604122534e+01    0.2105826    0.1435891 -77.84 0.0005490862    1.173    0.148
       249  -9.6515     45.5087    150.5834   1.1097917635e+02   3.8589042720e+01    0.2613751      0.19671 -36.61 0.0008442107    1.561    0.359
       250  -9.6721    224.1077     28.9747   3.8733715416e+01   2.6688824317e+01    0.2969925    0.1179466 -39.46   0.00133765    2.199    0.545
       251  -9.9611    150.6734     29.3381   4.8700397020e+01   4.4100155747e+01    0.3198116    0.2305366  14.85  0.001134886    1.728    0.421
       252  -9.5735    153.3562     24.5703   4.6730779080e+01   4.3982739703e+01     0.282613    0.1775199 -14.23  0.001375469    1.924    0.480
       253 -12.7725     18.7063    144.2845   1.1735871458e+02   4.2592617458e+01    0.8948525    0.5188637  76.95  0.003913753    1.852    0.460
       254  -9.6394    216.6392     21.9529   3.7827156977e+01   2.9173915752e+01    0.3712532    0.2191947  53.36  0.001965003    1.859    0.462
       255 -10.9703     15.5640    100.7072   1.1251045492e+02   5.3353714476e+01    0.5305117    0.2327945 -62.02  0.001740348    1.735    0.424
       256 -11.7903     13.9734    132.5163   1.1732399635e+02   4.5784413059e+01    0.4876341    0.4067491  17.25  0.001734011    1.505    0.336
       257 -10.0641    179.9469     25.0594   4.2861867134e+01   3.7436834673e+01    0.2241673    0.1829137 -48.96 0.0003134748    1.241    0.194
       258 -13.0665     12.0363    125.9339   1.1710033957e+02   4.7505868104e+01    0.4706075    0.3791905 -80.17 0.0005756899    1.071    0.066
       259 -10.5877      3.5609    113.2251   1.1805769077e+02   5.1060294603e+01    0.3405495    0.2215374  -5.24  0.001396125    2.043    0.510
       260 -12.8758     11.0710    108.5186   1.1513838806e+02   5.1762095815e+01     1.117485    0.8515956 -40.20  0.007134754    1.333    0.250
       261 -10.3269      5.0269    147.2047   1.2116847274e+02   4.2875523518e+01    0.1997293    0.1734912  72.08 0.0004144402    1.191    0.161
       262 -10.3576     41.4183    146.5027   1.1152945775e+02   4.0017532020e+01    0.3862067    0.2413857   0.04  0.001854537    2.493    0.599
       263 -10.4522    115.2187     23.8267   5.4128950735e+01   5.3156971813e+01    0.3216045    0.2313395  26.15 0.0002561206    1.414    0.293
       264 -10.0303     35.7501    145.7915   1.1297573150e+02   4.0751359592e+01    0.1742795    0.1599825  82.26 0.0004666809    1.113    0.102
       265  -9.2614     38.0088    143.2295   1.1201825940e+02   4.1161969513e+01    0.1737068    0.1314321  -1.03 0.0005662952    1.770    0.435
       266  -9.7022     10.8497    144.8399   1.1946645800e+02   4.3040596000e+01    0.1900417     0.141211 -60.13 0.0005413241    1.254    0.203
       267 -10.4625      6.4236    142.4106   1.2037458102e+02   4.3919991065e+01    0.2470839    0.1757416 -84.75 0.0005406102    1.156    0.135
       268 -10.1311     30.5053    142.0098   1.1391818002e+02   4.2161856469e+01     0.231772    0.1800381 -21.32  0.001364548    1.655    0.396
       269  -8.9613     47.3370    139.4958   1.0887010417e+02   4.1126933117e+01    0.2472405    0.1131714 -65.62 0.0008971788    1.917    0.478
       270 -10.2174     27.2978    136.4978   1.1409869241e+02   4.3789548511e+01    0.3632289       0.1426 -55.13  0.001328772    2.154    0.536
       271  -9.3177    160.7674     24.9217   4.5627936274e+01   4.2130692565e+01    0.2641424    0.1768277 -52.64  0.001345306    1.655    0.396
       272  -9.6539    147.8049     24.0375   4.7518454248e+01   4.5395504343e+01    0.2848485    0.1727727  56.72 0.0007969407    1.477    0.323
       273  -8.3195    185.2944     23.3276   4.1686035638e+01   3.6339480814e+01    0.1319101   0.09772905  35.10 0.0007022331    1.627    0.385
       274 -10.6120     22.2230    136.3463   1.1549175181e+02   4.4241876627e+01    0.4122317     0.126196 -61.96  0.001694166    2.435    0.589
       275 -10.0485      3.7085    136.5499   1.2052531618e+02   4.5485586724e+01    0.2622736    0.1570885  -1.02  0.001459941    2.445    0.591
       276 -10.3224     66.4171    134.4853   1.0251235971e+02   4.0101994264e+01     0.319941    0.2402988  78.97  0.001629352    1.576    0.365
       277  -9.1342    230.0086     20.0310   3.6143285668e+01   2.6439441854e+01    0.1510321      0.12626 -59.83 0.0004719773    1.061    0.057
       278  -9.5024    247.4920     18.9502   3.4476290831e+01   2.2888323321e+01    0.1831519     0.141953 -87.38 0.0006773578    1.204    0.170
       279  -9.7347     44.1208     19.2152   7.5988091180e+01   6.7222119939e+01    0.1521386    0.1377881   0.90 0.0004429462    1.330    0.248
       280  -9.7449     26.6117     18.9506   8.4321070684e+01   6.9425926659e+01     0.355583    0.1668203 -17.40  0.001626008    2.707    0.631
       281  -9.9112     79.9894     18.7498   6.1887088022e+01   6.1228817278e+01    0.2778493    0.2341031  -4.28  0.001051467    1.142    0.124
       282  -8.6161     75.0055     18.7595   6.3550481587e+01   6.2182412772e+01    0.1646424    0.0991535  44.05 0.0005504847    1.548    0.354
       283  -9.9697     53.8673    121.0769   1.0378195797e+02   4.4966106541e+01    0.2927675     0.221054   2.57 0.0008157887    1.652    0.395
       284  -9.0913    198.3101     16.5726   3.8394369035e+01   3.3979304012e+01     0.174591    0.1088296  61.20 0.0007434767    1.536    0.349
       285  -9.3597    239.3368     15.1312   3.4302080043e+01   2.5000753756e+01    0.1837245    0.1463669  79.74 0.0003691023    1.246    0.198
       286  -8.8295    193.7496     14.5910   3.8382129941e+01   3.5258753562e+01    0.1788975    0.1121402  87.67 0.0009333045    1.593    0.372
       287 -12.1912     42.4581    114.1916   1.0608182367e+02   4.7887709163e+01     1.012094     0.892004 -22.11  0.006198859    1.249    0.200
       288 -10.7102     41.9644    128.9672   1.0878005895e+02   4.4292780952e+01    0.3886343    0.2716486  86.08 0.0003088112    1.594    0.373
       289 -12.3386     46.1542    124.0331   1.0669441062e+02   4.5083833362e+01    0.8562509    0.6121638 -57.93  0.004698895    1.209    0.173
       290 -11.1627     33.8347    119.6133   1.0972910585e+02   4.7370498763e+01    0.5318347    0.3451122  46.62  0.002465481    1.783    0.439
       291 -10.1646     28.1133    119.6572   1.1149162890e+02   4.7849997381e+01    0.2879596    0.2449701  79.98  0.001803151    1.247    0.198
       292 -10.1426     34.8289    129.6049   1.1098389544e+02   4.4820134930e+01    0.2845553    0.2089808  26.01  0.001613578    1.595    0.373
       293  -9.6743     29.1339    128.6038   1.1250492813e+02   4.5569840388e+01    0.2463333    0.1979195 -82.67  0.001499504    1.146    0.128
       294  -9.0947    233.5672     10.4853   3.3752864950e+01   2.6721247499e+01    0.2077858    0.1075206  80.74 0.0007446606    1.878    0.467
       295  -9.7813     23.0179    127.9772   1.1419783144e+02   4.6221577924e+01    0.3627321    0.1717904  -7.29  0.001395164    4.278    0.766
       296 -11.3310     66.1950    125.0199   1.0075974766e+02   4.2474872012e+01    0.5734386    0.4765975 -23.93  0.003146488    1.343    0.255
       297 -11.2635     68.0987    120.7016   9.9290896065e+01   4.3286615834e+01    0.9845917    0.4158283 -61.93  0.002035882    2.354    0.575
       298 -10.0613     55.9128    125.9782   1.0407263205e+02   4.3515598440e+01    0.3126721    0.1830272 -61.26 0.0007318212    1.512    0.339
       299 -10.5206     90.8708    121.4215   9.2497645710e+01   3.9721329462e+01    0.5017598    0.3526241 -38.30  0.001655068    1.442    0.306
       300 -11.4444     75.4700    120.0048   9.6862857255e+01   4.2432980054e+01    0.2425904    0.2370265 -33.81 0.0001834836    1.070    0.065
       301  -9.9474     61.2412    120.2588   1.0132916182e+02   4.4283368175e+01    0.2481593    0.2171863 -40.98 0.0004683663    1.119    0.106
       302 -10.4956     20.3455    118.0625   1.1362316248e+02   4.8840919139e+01    0.3244253    0.2499521  87.17  0.001321323    1.314    0.239
       303 -10.8385     51.2382    117.3574   1.0389258913e+02   4.6181175706e+01    0.3310149    0.1887265 -53.05   0.00158921    1.516    0.340
       304 -10.0966    116.2169    116.5862   8.3898457088e+01   3.6328202763e+01    0.2748588      0.24759 -15.99 0.0006561576    1.143    0.125
       305  -9.5449     98.2648    114.7232   8.8660521643e+01   4.0069644105e+01    0.4015321    0.2030246 -39.89  0.001553751    2.060    0.515
       306  -8.8354    108.4614    114.5268   8.5595456012e+01   3.8275308054e+01    0.1529272    0.1472323 -45.19 0.0001766359    1.045    0.043
       307 -10.6461     84.8688    113.3115   9.2405414684e+01   4.2633841271e+01    0.2509639    0.2229593 -37.68  0.000229967    1.069    0.065
       308 -10.5696     32.4872    124.3023   1.1087787001e+02   4.6337003959e+01    0.5494898    0.2767801  40.06  0.002646998    2.224    0.550
       309 -10.8846     31.9945    109.9063   1.0867300331e+02   4.9906562850e+01     0.544826    0.3209741 -58.73  0.002849707    1.389    0.280
       310 -10.4644     62.6002    109.1428   9.8530706159e+01   4.6828583581e+01    0.4430747    0.2548384   8.58   0.00184887    2.594    0.614
       311  -9.3123    113.5602    107.3559   8.2221770888e+01   3.8940916247e+01    0.2888653    0.1877949 -36.32  0.001236337    1.559    0.359
       312  -9.5355     75.7416    107.0634   9.3776280811e+01   4.5519280602e+01    0.2783784    0.2134002  19.76  0.001221241    1.459    0.315
