#   1 NUMBER                 Running object number                                     
#   2 MAG_AUTO               Kron-like elliptical aperture magnitude                    [mag]
#   3 X_IMAGE                Object position along x                                    [pixel]
#   4 Y_IMAGE                Object position along y                                    [pixel]
#   5 X_WORLD                Barycenter position along world x axis                     [deg]
#   6 Y_WORLD                Barycenter position along world y axis                     [deg]
#   7 A_WORLD                Profile RMS along major axis (world units)                 [deg]
#   8 B_WORLD                Profile RMS along minor axis (world units)                 [deg]
#   9 THETA_WORLD            Position angle (CCW/world-x)                               [deg]
#  10 FWHM_WORLD             FWHM assuming a gaussian core                              [deg]
#  11 ELONGATION             A_IMAGE/B_IMAGE                                           
#  12 ELLIPTICITY            1 - B_IMAGE/A_IMAGE                                       
         1 -14.7957     11.8769    156.2010   2.9256385207e+02   5.8937574862e+00    0.3289345    0.1414709 -77.67   0.02278172    3.841    0.740
         2 -13.2736    191.6900     27.7059   2.8974756816e+02   6.3403859898e+00   0.06191735   0.05895064 -11.22  0.006296503    1.086    0.079
         3 -13.5550    205.3179      9.3429   2.8948241071e+02   6.4730620033e+00    0.0763213   0.05388962 -24.63   0.00801725    1.699    0.411
         4 -12.8520      3.2992     11.8516   2.9180381074e+02   7.6114359232e+00    0.1047952   0.02259529 -60.72  0.006646679    4.063    0.754
         5  -9.0449     47.0079    249.4862   2.9271585137e+02   4.6125162854e+00  0.009532929  0.006412107  29.66 0.0003901035    1.498    0.333
         6 -10.8733    249.8555    247.8093   2.9039885512e+02   3.4613929703e+00   0.02955844   0.01058871 -64.11   0.00225509    2.834    0.647
         7 -11.1110    102.1897    247.8959   2.9207831759e+02   4.3132308387e+00   0.01823037   0.01444844 -54.87  0.001202935    1.225    0.184
         8  -8.8034     67.1889    250.4415   2.9249176679e+02   4.4853654106e+00  0.009305038  0.005774704  41.81 0.0006387973    1.648    0.393
         9 -11.0557     29.2494    249.6568   2.9291903705e+02   4.7126223519e+00   0.04470098   0.01122276  32.79  0.003097334    3.491    0.714
        10  -9.8737     33.5072    247.9947   2.9286073621e+02   4.7073854813e+00   0.01523698   0.01097007 -34.37    0.0016369    1.524    0.344
        11 -10.3970     35.7796    243.8779   2.9281052671e+02   4.7419575189e+00   0.02389928   0.01408035  -0.22  0.002113916    2.498    0.600
        12 -10.0442      8.2380    250.3824   2.9316254446e+02   4.8248971564e+00   0.01720005   0.01104676  34.24  0.001652743    1.553    0.356
        13 -10.1472      2.0659    248.6799   2.9322276677e+02   4.8800206750e+00   0.01895033   0.01616312 -74.67  0.002256425    1.194    0.162
        14 -10.7123    196.3086    240.9098   2.9096625019e+02   3.8507484990e+00   0.02067754   0.01268851  72.68  0.001872127    2.364    0.577
        15 -10.3029    126.7939    250.0310   2.9181099949e+02   4.1466819628e+00   0.01269426  0.007846131  42.55  0.001230351    1.664    0.399
        16  -9.9906     81.4728    242.4142   2.9228164738e+02   4.4959904613e+00   0.01653703   0.01102927  70.91  0.001629788    1.951    0.487
        17 -10.5846      5.6738    240.9073   2.9313578671e+02   4.9492542460e+00    0.0141129  0.009685195  25.80 0.0004812818    1.495    0.331
        18 -10.2923      1.5270    240.5313   2.9318078954e+02   4.9774035535e+00   0.02506665   0.00858488 -62.61  0.001902281    2.829    0.647
        19  -9.0852     72.5379    241.5025   2.9237796368e+02   4.5579843180e+00  0.006512008  0.006325296 -51.07 -5.098681e-08    1.015    0.014
        20  -9.6460     12.9073    240.8361   2.9305299331e+02   4.9085515841e+00   0.01055451  0.008785603 -32.97  0.001227197    1.265    0.210
        21  -9.6701    183.8035    238.0350   2.9109134705e+02   3.9562460439e+00   0.01195847  0.006727394 -37.79   0.00109585    2.058    0.514
        22 -14.1858      8.3371    206.8968   2.9290441746e+02   5.3275176068e+00    0.6919829          nan  34.62  0.005472244    8.402    0.881
        23 -12.3883      2.3030    181.8949   2.9282524433e+02   5.6514598056e+00   0.09429829   0.02875791 -60.56   0.00490505    3.011    0.668
        24 -11.1081    139.5555    250.1650   2.9166661023e+02   4.0715116489e+00   0.02486784  0.007980234  27.98  0.001837529    3.091    0.677
        25 -10.3924    173.9603    222.3155   2.9110988826e+02   4.1948400680e+00   0.02032114   0.01366596  69.86   0.00202401    1.913    0.477
        26 -11.5338      2.3626    152.5312   2.9265062866e+02   5.9908478587e+00   0.02590212    0.0165016 -72.43   0.00262157    1.685    0.407
        27 -10.5205      8.0278    226.4917   2.9302380228e+02   5.1025513127e+00   0.01555487   0.01211555   3.90  0.001741283    1.456    0.313
        28  -8.3736     94.2420    216.5797   2.9198315572e+02   4.7212684860e+00   0.00683712  0.004902969  76.30  0.000691061    1.724    0.420
        29  -8.7613    152.4908    213.0013   2.9129881214e+02   4.4265612895e+00  0.009485603  0.006418695 -65.34 0.0003630226    1.472    0.321
        30  -8.8485     32.9856    207.3628   2.9262630933e+02   5.1805179061e+00  0.008906176  0.008169112  28.69 0.0003890802    1.110    0.099
        31 -11.6293     22.1410    200.9279   2.9271178965e+02   5.3173001114e+00   0.02070726   0.01273976  48.40   0.00108696    1.770    0.435
        32 -10.0245    192.9744    195.0051   2.9073118745e+02   4.4006031716e+00   0.03431652   0.01586084 -87.13  0.001993604    5.748    0.826
        33  -8.6678     51.4883    197.4366   2.9235667814e+02   5.1889486879e+00  0.006443282  0.006358388 -88.99 7.599721e-05    1.021    0.020
        34 -11.2131     65.3871    199.1801   2.9220864695e+02   5.0887774405e+00   0.01967751   0.01175058 -41.02  0.000861038    1.804    0.446
        35 -11.5518     71.0276    191.1981   2.9209704210e+02   5.1486373025e+00   0.01488693   0.01171329 -42.01 0.0004715515    1.293    0.227
        36 -13.0533     67.6737    176.3332   2.9204706542e+02   5.3399130323e+00   0.02737103   0.01364258 -41.03  0.001709338    2.276    0.561
        37 -10.6730     80.5061    178.3620   2.9191285923e+02   5.2425158375e+00   0.01240901   0.01120936 -42.56 0.0004024978    1.106    0.096
        38  -8.4795    171.3973    173.2232   2.9084707190e+02   4.7771815927e+00  0.008461395  0.006291467 -77.47 0.0002610449    1.449    0.310
        39 -11.6294     87.9279    168.7569   2.9177124010e+02   5.3108360430e+00   0.03334866   0.02845973  -7.58  0.003955968    1.290    0.225
        40 -10.6645     32.2559    155.7326   2.9232863902e+02   5.7820537161e+00   0.01448008  0.008620122 -52.95  0.001444064    1.613    0.380
        41 -12.3812     67.2134    144.1944   2.9186146446e+02   5.7143068789e+00   0.04269571   0.02894609  76.03  0.004237745    1.922    0.480
        42  -9.7937     99.7935    152.5385   2.9153962006e+02   5.4299748399e+00   0.01293925   0.01229476   4.02  0.000795409    1.088    0.081
        43  -8.9297    102.5598    148.2515   2.9148259690e+02   5.4635885743e+00   0.01182359  0.005336668 -51.03 0.0007687185    2.122    0.529
        44 -11.8559     88.3402    152.0452   2.9166724083e+02   5.5017404219e+00   0.01407918   0.01133476 -35.11 0.0006362018    1.307    0.235
        45 -10.4123    190.0040    153.5428   2.9051808430e+02   4.8969947790e+00   0.02095128    0.0122638  66.78  0.001326417    2.499    0.600
        46  -9.5261    184.0764    147.4387   2.9054917982e+02   5.0018491535e+00   0.01361232  0.009485968  75.25  0.001017601    1.821    0.451
        47  -8.3391    192.0103    143.9834   2.9043827832e+02   4.9958483604e+00  0.007945506  0.007177236 -62.25 0.0004331043    1.085    0.078
        48  -8.8699    180.0327    143.0340   2.9056896430e+02   5.0761566164e+00   0.01021182  0.007549323  64.07 0.0004775874    1.572    0.364
        49  -9.5457    110.4327    137.6332   2.9132969218e+02   5.5409286106e+00   0.01706579  0.008725314 -33.83  0.001412118    2.635    0.620
        50 -12.4541     40.1916    233.9250   2.9270142385e+02   4.8317522746e+00   0.01958598   0.01427368 -43.16 0.0008006038    1.399    0.285
        51 -10.4911     97.8983    134.9182   2.9145642973e+02   5.6446619085e+00   0.01328648   0.01028014 -36.24  0.000452989    1.366    0.268
        52 -10.7251     57.3100    131.9678   2.9190176395e+02   5.9127516847e+00     0.014074  0.009360413 -79.88  0.001368899    1.735    0.424
        53 -10.1057     86.4645    136.4241   2.9159575385e+02   5.6932035469e+00   0.01230771   0.01008415  60.84 0.0004386176    1.328    0.247
        54  -9.8872    163.4294    127.8788   2.9066771271e+02   5.3473833068e+00   0.02108155   0.01137548  59.29  0.001400158    2.612    0.617
        55  -9.3670    107.4053    124.1382   2.9128388601e+02   5.7144285750e+00  0.009544333  0.008667773  -3.64 0.0003695503    1.168    0.144
        56 -14.2764     46.2618    226.3805   2.9258764801e+02   4.8841365946e+00    0.1631548   0.09969793  13.78  0.006666578    1.928    0.481
        57 -10.2625    167.9743    113.1421   2.9052808366e+02   5.4913729301e+00   0.01542403    0.0119744  60.67 0.0008864682    1.434    0.303
        58  -9.2730    203.2201    111.5850   2.9011744287e+02   5.3052155584e+00  0.009077929  0.006395401   7.56 0.0008072013    1.668    0.400
        59  -9.1455     34.6873     93.0709   2.9192869370e+02   6.4927194675e+00   0.01332479  0.008123567  43.25 0.0007870893    1.699    0.411
        60  -8.1037     75.5364     87.5599   2.9142961574e+02   6.3211291853e+00  0.006618697  0.006163687  67.90 0.0001390294    1.116    0.104
        61  -8.4241    184.5606     77.4726   2.9012626375e+02   5.8073247454e+00  0.006518179  0.006281785 -47.45 0.0001043222    1.026    0.025
        62  -9.4196    155.9909     76.2887   2.9044474808e+02   5.9864813167e+00  0.009431411  0.008686861  24.61 0.0007115452    1.109    0.099
        63 -11.3407     13.7664     65.3852   2.9200293788e+02   6.9330068669e+00   0.02100267   0.01233062  38.42  0.001773469    1.707    0.414
        64 -11.9514      7.4475     63.1750   2.9206198101e+02   6.9948531583e+00   0.03530454   0.02020305  33.56 0.0004492054    1.730    0.422
        65  -9.7826     30.4962     61.3519   2.9178781801e+02   6.8834152652e+00   0.01561282   0.00964596  41.82  0.000898836    1.657    0.397
        66 -10.1442     13.2239     55.3908   2.9194966434e+02   7.0516048410e+00   0.01447998   0.00499943  35.03  0.001124182    2.715    0.632
        67 -11.5364      2.6372     46.1501   2.9201564753e+02   7.2191800335e+00   0.03151403   0.01099821 -62.63  0.002416078    2.789    0.641
        68 -10.1492    162.4319    249.4305   2.9140204962e+02   3.9479592891e+00   0.01159373  0.009005303  39.96  0.001310913    1.306    0.234
        69 -10.2120     81.6516    248.6263   2.9231639808e+02   4.4231015438e+00   0.01473521   0.01047354  64.60  0.001543003    1.677    0.404
