#   1 NUMBER                 Running object number                                     
#   2 MAG_AUTO               Kron-like elliptical aperture magnitude                    [mag]
#   3 X_IMAGE                Object position along x                                    [pixel]
#   4 Y_IMAGE                Object position along y                                    [pixel]
#   5 X_WORLD                Barycenter position along world x axis                     [deg]
#   6 Y_WORLD                Barycenter position along world y axis                     [deg]
#   7 A_WORLD                Profile RMS along major axis (world units)                 [deg]
#   8 B_WORLD                Profile RMS along minor axis (world units)                 [deg]
#   9 THETA_WORLD            Position angle (CCW/world-x)                               [deg]
#  10 FWHM_WORLD             FWHM assuming a gaussian core                              [deg]
#  11 ELONGATION             A_IMAGE/B_IMAGE                                           
#  12 ELLIPTICITY            1 - B_IMAGE/A_IMAGE                                       
         1 -10.1694     90.2183     28.7352   6.2027863596e+01   5.8346116144e+01    0.3930196     0.333067  27.78  0.002339665    1.046    0.044
         2  -9.9556     38.4839      9.1384   7.2878702470e+01   6.9764135243e+01    0.6705202    0.3387583 -11.72   0.00331608    2.390    0.582
         3  -8.5752     39.9416      2.0298   6.8423717728e+01   7.0374495809e+01    0.2860793    0.1559722  26.91  0.001645764    1.645    0.392
         4 -10.3582     50.4851     36.6853   8.0138343169e+01   6.4118274673e+01    0.9405867    0.7206528 -67.55  0.005067369    2.384    0.581
         5 -10.4130     39.5001     29.7237   8.2152990752e+01   6.6698202415e+01    0.5296871     0.297422 -38.86  0.002302931    1.647    0.393
         6 -11.8509     44.7797     22.1900   7.6333273590e+01   6.7145245300e+01     0.949492     0.856521 -47.61  0.005950765    1.648    0.393
         7 -12.1797    130.1171     15.5767   4.7212331588e+01   5.0803424885e+01     2.177042      1.27296  80.41   0.01016334    2.067    0.516
         8 -12.2867    115.2866      4.4210   4.6103776525e+01   5.5291423909e+01     4.284519    0.4673199  61.90   0.01164769    5.546    0.820
         9 -10.8263    131.3353      3.7906   4.2950444717e+01   5.1553397496e+01    0.8919584    0.4212342  67.86  0.003218559    1.891    0.471
        10 -12.3004    143.5735      3.7541   4.1012158282e+01   4.8607167380e+01     2.161469    0.8195363  74.05   0.00858062    2.694    0.629
        11 -12.1940    155.5109     20.8696   4.4535334561e+01   4.4083456744e+01     1.047573    0.7824728  65.37  0.003421539    1.205    0.170
        12 -13.4608    169.3115     16.8421   4.1332347365e+01   4.1111856752e+01     2.159241     1.772242  57.38  0.008748864    1.181    0.153
        13 -10.1656     71.1501      5.4429   5.7916037697e+01   6.4681360982e+01    0.5209946    0.3545682  44.95  0.002993426    1.313    0.238
        14 -10.4836    115.8361     17.6844   5.0917817976e+01   5.3965411309e+01    0.7853406    0.5689409 -60.92  0.004185924    1.837    0.456
        15 -11.2433     84.3639      3.5819   5.3059377748e+01   6.2197810417e+01     0.970897    0.4286384  57.14  0.004055772    2.073    0.517
        16  -9.9943    250.5447      9.6718   3.1878644836e+01   2.3421570488e+01    0.4350366    0.1492419 -34.56  0.002064812    2.592    0.614
        17  -9.1268     20.4659     14.2490   8.4760593125e+01   7.1237422557e+01    0.4501588    0.1913355 -26.74  0.002201109    2.394    0.582
        18  -7.8398     52.5602      1.9546   6.2944364011e+01   6.8373788651e+01    0.3704597    0.1224052  39.48  0.001637982    2.622    0.619
        19  -9.4483     60.6680      9.3994   6.3526083158e+01   6.6220064711e+01    0.3373297     0.243018 -29.81   0.00208772    1.544    0.352
        20  -9.9320     60.4167      2.7463   6.0337385573e+01   6.6928152287e+01    0.5526184    0.2937433  31.18  0.002995561    1.689    0.408
        21  -9.5888    203.7089      3.9363   3.4197787208e+01   3.4178920651e+01    0.2667289    0.2519235  71.13  0.001768538    1.234    0.190
        22 -10.0054    192.3939      5.6319   3.5661620876e+01   3.6655355104e+01    0.2652055      0.22372  20.18  0.001672652    1.575    0.365
        23  -8.8279    229.1720      8.1680   3.3083946445e+01   2.8054029090e+01    0.1835153    0.1176683 -65.66   0.00109344    1.371    0.271
        24 -10.0408    199.2191      8.0605   3.5606877084e+01   3.4817002092e+01    0.3243913    0.1434764  62.42   0.00136811    2.054    0.513
        25  -9.2289    249.6693      3.1724   3.0642000845e+01   2.4292197224e+01    0.2257736    0.1875818 -45.40  0.001280972    1.280    0.219
        26  -8.7787    208.8409      4.1646   3.3810456170e+01   3.2980976056e+01    0.1647762    0.1365421  61.88 0.0007931224    1.318    0.241
        27  -8.5770     17.5140      2.4831   8.0369263019e+01   7.3198088078e+01    0.2522441    0.1634637 -47.11  0.001453838    2.301    0.565
        28  -9.3861    217.6750      1.9717   3.2597450345e+01   3.1207022805e+01    0.2991959    0.1440043 -86.23  0.001471671    2.119    0.528
        29 -11.2748     78.2543     13.3015   5.9211594352e+01   6.2528131668e+01     1.552595    0.5859433 -19.05  0.006247347    3.236    0.691
        30  -7.7740      1.3584      1.7225   8.9915346884e+01   7.4757950007e+01    0.1504473   0.07513237 -34.36 0.0005722277    1.552    0.356
        31  -8.2711     16.1285     58.4441   1.0306518239e+02   6.3455145644e+01    0.1901298    0.1603755 -68.17 0.0007990848    1.336    0.252
        32 -10.2305    196.1221     56.1840   4.8325915750e+01   2.9648030358e+01    0.3319664      0.26842 -54.62 0.0007063655    1.190    0.160
        33  -9.2676    199.4962     56.4947   4.7909613219e+01   2.8802885450e+01    0.3072324    0.1984801 -37.06 0.0007206634    1.506    0.336
        34  -8.6721     66.0638     53.0429   8.0137937299e+01   5.8984560131e+01    0.4509706    0.1830373 -53.10  0.001550813    3.830    0.739
        35  -8.0620     35.1034     52.8351   9.2970795899e+01   6.3023280876e+01    0.1824055    0.1669667 -27.68   0.00121521    1.181    0.153
        36  -7.9749     23.7810     52.4154   9.7912737892e+01   6.4142077237e+01    0.1621284    0.1082192  -5.06 0.0008922185    1.577    0.366
        37  -9.1761     85.9939     32.4439   6.4877949358e+01   5.8711125979e+01    0.2679148    0.2003727 -27.20 0.0008345332    1.363    0.266
        38  -9.2211    183.4720    246.5109   9.2409375103e+01  -1.8364497269e+00    0.2281369   0.09982465  27.32  0.001035503    2.275    0.561
        39  -9.8867     82.0541     38.0630   6.8467242971e+01   5.8680675085e+01    0.5697938    0.3144845 -32.11  0.002743807    1.815    0.449
        40  -8.4191     96.7122     45.8793   6.6721534520e+01   5.4608123157e+01     0.229954    0.1693979  -6.63  0.001178464    1.493    0.330
        41  -9.3187     90.9962     42.8060   6.7360937530e+01   5.6233323179e+01     0.248715    0.1891086 -12.03  0.001341086    1.347    0.258
        42 -10.2538      3.2697     40.6820   1.0411216770e+02   6.7838238655e+01    0.4137923    0.4059344 -30.82  0.002460689    1.360    0.265
        43  -8.8337      6.1542     36.0466   1.0123508717e+02   6.8587723524e+01    0.2568942    0.1748407 -46.00  0.001697476    1.179    0.152
        44 -10.0502    163.9535    244.6525   9.5984476280e+01   1.3818761340e+00    0.3331043    0.2219899  66.26  0.001688428    2.593    0.614
        45  -9.1732    208.8087    226.6130   8.4343286071e+01  -2.6788933426e+00    0.1782728    0.1065274  40.19 0.0009581061    1.696    0.411
        46  -8.5786    238.7918    203.2003   7.4590437549e+01  -3.6461207610e+00    0.2150406    0.1258756  -0.86  0.001059478    2.077    0.519
        47 -10.7167      4.5061    140.0761   1.2023631523e+02   4.5087098202e+01    0.7763565    0.3699847 -20.87  0.003366043    3.907    0.744
        48 -10.7277     11.0030    143.5040   1.1884385782e+02   4.3828190772e+01    0.3719127    0.2528402 -85.92  0.002239303    1.244    0.196
        49  -8.3153    108.9645     39.0000   6.0574601072e+01   5.2991905002e+01    0.2347801   0.07543052  53.05 0.0005919627    2.949    0.661
        50  -8.5363     65.8841     35.7616   7.3427845190e+01   6.1907541325e+01    0.2983194    0.1662633 -44.85  0.001437748    2.110    0.526
        51 -10.0612     84.9825     48.0216   7.1352380631e+01   5.6580823704e+01    0.6397685    0.5273703  74.62  0.003431393    1.806    0.446
        52  -7.7955     70.2704     36.5701   7.2087951677e+01   6.1040686432e+01    0.1877491     0.115107  29.03 0.0009515798    1.604    0.377
        53  -8.8778     12.2166     34.1311   9.7474540953e+01   6.8567977602e+01    0.3619618    0.1686158 -50.69  0.001398892    1.778    0.438
        54  -7.7142     33.9524     34.9625   8.6962752910e+01   6.6472435678e+01    0.1522835    0.1221167 -13.85 0.0009904187    1.032    0.031
        55 -10.1274    224.6626     29.3003   3.8194655561e+01   2.6649548601e+01    0.4720224    0.3451978  62.90  0.002097809    1.439    0.305
        56  -8.4711     53.3987    143.2196   1.0707375460e+02   3.9950155925e+01      0.20285    0.1226524 -78.32 0.0009528234    1.691    0.409
        57 -12.6832    241.8750    131.8033   5.9450835424e+01   7.3917157130e+00     1.423017     1.314774  26.21  0.006415185    1.211    0.174
        58  -9.1689     40.5341    141.7177   1.1050980923e+02   4.1731680481e+01    0.3541496    0.1992791  67.38  0.001610128    2.239    0.553
        59  -9.6376     17.8777    127.7241   1.1517012033e+02   4.7168268667e+01    0.2437415    0.1433205 -62.45  0.001327125    1.391    0.281
        60  -8.6680      9.5006    128.5224   1.1768558838e+02   4.7549542905e+01    0.1266976    0.1014773 -73.57 0.0008102118    1.017    0.016
        61  -8.5971     15.0047    120.4881   1.1510103776e+02   4.9135776728e+01    0.1721105   0.09117601 -28.05   0.00081038    2.556    0.609
        62  -8.5744    125.9815     28.8187   5.2689518810e+01   5.0374334690e+01    0.3028098     0.198668 -32.97  0.001541074    1.633    0.388
        63  -9.1760    132.5159     26.8193   5.0607060195e+01   4.9045400060e+01    0.2959928     0.148696  46.53  0.001313459    1.860    0.462
        64  -8.3128     97.9325     26.9157   5.9010393669e+01   5.6953947273e+01    0.2181103      0.16634  20.92 0.0008036123    1.288    0.223
        65  -8.5267    103.4169     26.2165   5.7220270890e+01   5.5846447681e+01    0.2612711    0.1741762  50.86   0.00137246    1.376    0.274
        66  -7.8371     25.2637     26.4169   8.7725519595e+01   6.8833371273e+01    0.1543964    0.1047439  29.92 0.0009542255    1.691    0.409
        67  -9.4672     17.6227    105.1077   1.1207245383e+02   5.2685962060e+01    0.3763532    0.2641571  75.25  0.002145245    1.670    0.401
        68  -9.8430     46.8810    100.4571   1.0120989768e+02   5.1253714811e+01    0.4972728     0.241437 -56.17  0.002243865    1.747    0.428
        69  -8.4461     20.5867     22.9500   8.8678146417e+01   6.9857180702e+01    0.2181586    0.1617387  19.50  0.001470554    1.441    0.306
        70  -7.7753     91.2259    102.2393   8.6764867800e+01   4.4567241396e+01    0.2439255    0.1209643 -59.80  0.000887683    2.447    0.591
        71  -9.1939     66.6863     29.3393   7.0392490914e+01   6.2713088488e+01    0.3188522    0.1815391 -21.04  0.001594432    1.836    0.455
        72  -9.1144     94.6409     17.4477   5.6106082714e+01   5.8724895035e+01    0.3795953    0.2424406  74.69  0.001410198    2.286    0.563
        73  -8.7008     30.5247    101.9622   1.0717417605e+02   5.2464788409e+01     0.247821    0.1741405 -24.21  0.001372126    1.616    0.381
        74 -10.0253     63.4867     16.2324   6.5715060233e+01   6.4960484654e+01    0.5768842    0.2218583  50.29  0.002441376    2.876    0.652
        75  -9.2905      2.4893     88.5872   1.1467932304e+02   5.7455166478e+01    0.6376894    0.1820815 -70.50   0.00255764    2.837    0.647
        76  -9.9668     25.2715     65.3199   1.0096530021e+02   6.1318450526e+01    0.6061863    0.3145175 -55.49  0.002616702    1.617    0.381
        77 -10.9739      4.3014     76.1180   1.1190319293e+02   6.0230762143e+01    0.7077934    0.5007316  45.64   0.00424705    1.836    0.455
        78 -11.7922     42.5397     81.8171   9.8371380598e+01   5.6075212308e+01     1.101259    0.7354615   1.16  0.005781253    1.798    0.444
        79 -11.2839     14.5912     72.7362   1.0716592594e+02   6.0436605059e+01     0.764207    0.6429079  32.97  0.005120276    1.475    0.322
        80  -8.9187    227.7465     79.2838   4.9551340995e+01   1.8927587894e+01    0.3762798    0.2404014 -27.30  0.001850347    1.675    0.403
        81  -8.6017    138.6281     79.9063   6.6526544536e+01   3.9527562764e+01    0.2624207    0.2105334  34.83 0.0007286152    1.289    0.224
        82  -7.5450     83.6893     89.6509   8.5719699374e+01   4.8701571642e+01    0.1558194    0.1100406 -17.64 0.0005189693    1.715    0.417
        83  -9.7728     74.3879     69.2227   8.2659213280e+01   5.4561535413e+01    0.3520236    0.3230935 -86.19  0.002018624    1.435    0.303
        84  -9.1036     83.4771     68.8343   7.9310939193e+01   5.3104391596e+01    0.3125007    0.2452176 -82.56  0.001510495    2.045    0.511
        85  -9.5788     45.1799     65.0275   9.2595453355e+01   5.9456117547e+01    0.7229467    0.3445647 -16.70  0.002427681    4.401    0.773
        86  -8.2465     15.3483     62.2813   1.0439668964e+02   6.2686645332e+01    0.1316989   0.07298361 -33.55 0.0003081764    1.645    0.392
        87  -8.2376     76.6284     60.1694   7.8756972800e+01   5.5949158084e+01    0.2085623    0.1208077 -31.56 0.0009519259    1.738    0.425
