#   1 NUMBER                 Running object number                                     
#   2 MAG_AUTO               Kron-like elliptical aperture magnitude                    [mag]
#   3 X_IMAGE                Object position along x                                    [pixel]
#   4 Y_IMAGE                Object position along y                                    [pixel]
#   5 X_WORLD                Barycenter position along world x axis                     [deg]
#   6 Y_WORLD                Barycenter position along world y axis                     [deg]
#   7 A_WORLD                Profile RMS along major axis (world units)                 [deg]
#   8 B_WORLD                Profile RMS along minor axis (world units)                 [deg]
#   9 THETA_WORLD            Position angle (CCW/world-x)                               [deg]
#  10 FWHM_WORLD             FWHM assuming a gaussian core                              [deg]
#  11 ELONGATION             A_IMAGE/B_IMAGE                                           
#  12 ELLIPTICITY            1 - B_IMAGE/A_IMAGE                                       
         1 -12.6991    156.4234     56.3725   7.6566255475e+01   3.8806434453e+01     1.516901     1.111693  45.41  0.004896805    1.371    0.271
         2 -13.0208    168.9776     41.2226   7.0170484446e+01   3.7940921005e+01     1.031716    0.9028798  42.35  0.004187264    1.262    0.207
         3 -13.0416    185.4037     12.8059   6.0706404396e+01   3.7395030155e+01     2.792759    0.6053862  56.63  0.009917944    3.731    0.732
         4 -12.4803    185.6380      6.0798   5.9100618439e+01   3.8018034946e+01     1.017458    0.4513001  75.00   0.00336632    1.987    0.497
         5 -11.9205    240.9160    242.7424   1.0166933482e+02  -1.2446302147e+01    0.2276143    0.1942154  -7.10 0.0004265835    1.146    0.128
         6  -8.4350    160.1254    249.8426   1.1847926542e+02  -1.0433567760e+00    0.1690794    0.1434643   7.14 0.0004862312    1.304    0.233
         7  -8.8538    137.3470    250.1935   1.2312676802e+02   2.6738464380e+00    0.2043758    0.1681336  54.16 0.0003973584    1.116    0.104
         8 -10.3186    133.4375    248.9672   1.2375250628e+02   3.5433841138e+00    0.2622859    0.2235894 -44.49  0.001256873    1.400    0.286
         9 -18.7850     60.3378    231.1238   1.3645173576e+02   1.8440087913e+01     5.147767     4.381825  64.70   0.02479616    1.134    0.118
        10 -10.4515    137.0385    172.0231   1.1021130534e+02   1.9196523853e+01    0.4232669    0.2965727  70.07  0.001803893    1.825    0.452
        11 -10.0629    132.2508    169.1326   1.1079356356e+02   2.0812735549e+01    0.4343784    0.2846907 -66.92  0.001284016    1.767    0.434
        12 -10.2510    140.5271    176.5252   1.1027320309e+02   1.7467516102e+01    0.2817701    0.2569509 -74.57   0.00125542    1.121    0.108
        13 -10.2168    143.9821    175.2626   1.0919887123e+02   1.7076877811e+01    0.2832573    0.2303182  48.60 0.0008037334    1.219    0.180
        14  -8.8360    136.1551    180.4951   1.1209192061e+02   1.7402645181e+01     0.231902    0.1475819  40.49  0.001021539    1.559    0.359
        15 -10.9538    203.6094    169.9763   9.4912318322e+01   6.2674485600e+00     1.244361    0.4634189 -46.05  0.004407078    2.649    0.623
        16  -8.7633    199.1780    179.2142   9.7747035522e+01   5.2744531208e+00    0.1931225    0.1742538 -76.19 0.0004302633    1.322    0.244
        17 -10.3677    126.7919    173.7522   1.1304782935e+02   2.0775969184e+01    0.5726463    0.3480332  66.65  0.002062617    2.325    0.570
        18  -9.8456     33.1594    176.0401   1.3642464620e+02   3.4396515449e+01    0.1861442    0.1522476 -57.90 0.0004546128    1.293    0.226
        19 -10.3185    156.9522    199.8699   1.1093951896e+02   9.1211300850e+00     0.330281    0.2673213  39.48  0.001506386    1.186    0.157
        20 -11.3614    194.6483    168.9506   9.6528192735e+01   8.2420130010e+00    0.5728799    0.4205886 -54.83 0.0008679276    1.461    0.315
        21  -9.8822    192.4573    163.5086   9.5815156142e+01   9.8088243427e+00    0.3932517    0.2931455 -13.24  0.001611915    1.700    0.412
        22 -10.4279     21.3354    167.3731   1.3821499363e+02   3.7647000011e+01    0.4567901     0.383406  31.67   0.00191444    1.480    0.324
        23 -10.4061    163.2538    203.2725   1.1016764437e+02   7.2242808230e+00    0.3902288     0.290142  81.21  0.001016791    1.939    0.484
        24  -9.6904    122.2157    166.2457   1.1269811436e+02   2.3435536286e+01    0.2643708    0.2332446  73.85 0.0003121865    1.166    0.142
        25  -9.1625    246.0164    165.0209   8.6014787790e+01  -5.7845684122e-01    0.2011099    0.1770274 -34.39  0.001218704    1.047    0.045
        26  -9.4010    246.9720    160.0825   8.4844073507e+01   1.4553664528e-01    0.2041711    0.1776525 -28.20 0.0003524291    1.038    0.037
        27  -9.7068     13.1017    144.3410   1.3754331329e+02   4.3823798951e+01    0.2386111    0.1718223 -63.71 0.0006103706    1.153    0.132
        28 -10.7882      9.1123    149.2883   1.3913581262e+02   4.2964439763e+01     0.722006    0.1997168 -70.96  0.002847087    2.862    0.651
        29 -10.6184     13.3779    157.8079   1.3905003148e+02   4.0616274638e+01    0.4516169    0.2688973 -86.81    0.0017095    1.522    0.343
        30 -10.3211     15.2010    151.1476   1.3783672475e+02   4.2043305185e+01    0.4267864    0.1848817 -50.82  0.001233405    2.207    0.547
        31  -8.8908    162.8596    236.7078   1.1593018638e+02   8.0839762670e-01    0.2626992    0.1874029 -56.40 0.0009958801    1.661    0.398
        32  -9.1072    168.1824    158.0836   9.9915628516e+01   1.6006587033e+01    0.2261604    0.2061695 -11.90  0.000274168    1.199    0.166
        33  -9.1953    113.3202    169.6683   1.1559921340e+02   2.4272614831e+01    0.2617092    0.2228289  82.88  0.000871105    1.231    0.187
        34  -9.0617    121.7484    199.2293   1.1885389689e+02   1.5796636260e+01    0.2302302    0.2159089  70.80 0.0005072983    1.010    0.010
        35  -9.6497    176.0614    232.1395   1.1246662045e+02  -6.3349166602e-01    0.2206596    0.1931651 -36.89 0.0006007284    1.246    0.198
        36  -8.6311    247.0085    155.2829   8.3851318849e+01   1.0057873229e+00    0.1762613    0.1660009 -27.09  0.000231009    1.088    0.081
        37 -10.3533    214.9785    153.4033   8.9123642948e+01   7.3374765613e+00    0.2545038    0.2440455 -60.23 0.0003932946    1.096    0.088
        38  -9.2440    153.8932    193.4566   1.1043550855e+02   1.1077007777e+01    0.3108307    0.1872878 -35.38  0.001322183    1.989    0.497
        39  -9.9345    134.4209    149.7241   1.0612958042e+02   2.4964866757e+01    0.6225963    0.2939492 -56.45  0.002223513    2.326    0.570
        40 -10.1029    133.4441    144.1824   1.0512554231e+02   2.6468695619e+01    0.8855062    0.2603866 -55.10  0.002268753    4.490    0.777
        41 -10.3147    170.6002    183.7521   1.0479004100e+02   9.9136817865e+00    0.4528527    0.2994711  57.58  0.001619862    1.782    0.439
        42  -9.7615    100.9166    146.6552   1.1420730364e+02   3.2117693741e+01    0.2701579    0.2115955 -64.69 0.0002459989    1.258    0.205
        43 -11.4876      4.4522    138.9694   1.3911640303e+02   4.5716765047e+01    0.5921798    0.2557473 -67.93  0.003005876    1.750    0.428
        44 -11.2802    172.5956    189.2364   1.0544087314e+02   8.3638777924e+00    0.5825307    0.4258504  -7.93  0.002675608    1.872    0.466
        45 -10.6439    115.1655    137.6337   1.0838948194e+02   3.1663982542e+01    0.5255256     0.325516 -40.62  0.001839992    1.705    0.413
        46  -9.1424    153.3013    187.0061   1.0933975592e+02   1.2601630587e+01    0.2093236     0.192612 -57.73 0.0003873984    1.115    0.103
        47 -11.0508    105.0646    137.1805   1.1101997882e+02   3.3670363612e+01    0.2977573    0.2833278  48.69 0.0004188344    1.093    0.085
        48  -8.8172    234.1231    135.6203   8.1846455538e+01   7.0162871409e+00    0.2271044    0.1719271 -49.52 0.0003724388    1.218    0.179
        49 -10.4110    135.3013    123.1160   9.9606884874e+01   3.0937273469e+01    0.8167949    0.1418268 -47.96   0.00178492    5.973    0.833
        50 -10.5269    120.0097    128.6221   1.0496921457e+02   3.2838128450e+01    0.4312785    0.2889547 -31.69  0.001374734    1.769    0.435
        51 -10.2533     19.4901    128.7681   1.3371594974e+02   4.6997548560e+01    0.3474875    0.2051075 -57.37  0.001378618    1.375    0.273
        52  -9.3382    160.2731    128.7879   9.4922417812e+01   2.4212295100e+01    0.3522095    0.2881519 -86.87  0.001661486    1.453    0.312
        53 -10.5528     25.5072    127.1529   1.3176487782e+02   4.6876806990e+01    0.2873716    0.2242823 -85.14  0.001380474    1.276    0.216
        54  -9.7738    108.5044    124.8082   1.0718241439e+02   3.5965997472e+01    0.2920077     0.257471 -24.69 0.0004267889    1.225    0.184
        55  -8.7763    127.6250    124.2261   1.0187214007e+02   3.2301103436e+01    0.2192794    0.1441032 -39.39 0.0009366392    1.576    0.365
        56 -10.3323      3.5022    113.4510   1.3602332238e+02   5.1653072545e+01     0.370242    0.2085159 -26.18    0.0020479    2.206    0.547
        57 -10.8859      2.9521    122.9685   1.3750862673e+02   4.9516612011e+01    0.2910601     0.181005 -74.25  0.001742411    1.327    0.247
        58 -10.5993      5.9613    116.6902   1.3578261196e+02   5.0766402519e+01    0.2607118    0.1533452 -86.19  0.001348412    1.808    0.447
        59  -9.0480    113.8426    118.6140   1.0417482375e+02   3.6365692137e+01    0.2476488    0.2081873 -37.18 0.0006939989    1.200    0.167
        60  -8.3743     14.2105    228.3610   1.4500713861e+02   2.4588520108e+01    0.1059368   0.07196932 -66.33 0.0006811609    1.557    0.358
        61 -11.0008     71.0516    113.4023   1.1539926937e+02   4.4912396493e+01    0.4152893    0.3376977 -71.63    0.0020589    1.332    0.249
        62 -11.7468     63.6007    107.4501   1.1630766775e+02   4.7319136235e+01    0.9839942    0.6085207 -29.40  0.004259726    1.904    0.475
        63  -9.9415     27.8257    118.8210   1.2970137181e+02   4.8633514128e+01    0.2013477    0.1519948 -49.50  0.001217223    1.169    0.145
        64  -9.7527     30.8814    113.3468   1.2779040660e+02   4.9633760002e+01    0.2217738    0.1610556 -69.77 0.0005800038    1.284    0.221
        65  -9.7655    130.7391    214.6603   1.1932855677e+02   1.0799676864e+01    0.2968633    0.2224268 -82.80  0.000591343    1.599    0.375
        66  -8.8305     24.3027    113.3336   1.2979813203e+02   5.0207334054e+01    0.1350476   0.07872038 -40.91 0.0003592187    1.659    0.397
        67  -9.1592    140.8261    242.0276   1.2128504424e+02   3.5881036425e+00    0.3202226    0.1666376  44.11  0.001032687    1.680    0.405
        68  -9.4337    134.5135    106.8209   9.5601740901e+01   3.4672247274e+01    0.5323977    0.1379778 -50.27  0.001308231    4.980    0.799
        69  -9.5915    153.9228    203.6723   1.1230534345e+02   8.8886483846e+00    0.4310612    0.2567374 -73.28  0.001666705    2.842    0.648
        70  -8.4961    113.4536     95.4502   9.8126383429e+01   4.1480807120e+01    0.1472202    0.1435218 -11.34 9.214649e-05    1.004    0.004
        71  -8.5975    174.8895     88.9216   8.1638275517e+01   2.8946794162e+01    0.2035289    0.1965795  22.80            0    1.165    0.142
        72  -9.4565    230.7819     80.1997   7.0243684155e+01   1.7693721416e+01    0.2222124    0.1996717  86.37 0.0004029684    1.129    0.114
        73  -8.1931    146.4558     81.4625   8.5735187933e+01   3.6991138332e+01    0.1473323    0.1433675  64.65 0.0001257933    1.003    0.003
        74  -8.6212    117.1869     71.8580   9.0220503676e+01   4.5209049788e+01    0.1994318     0.193143  85.65 0.0002952745    1.142    0.124
        75  -9.4013    167.9095    246.9581   1.1647982113e+02  -1.8416080615e+00    0.2721985    0.1828521 -50.16  0.001122274    1.743    0.426
        76 -11.5902    173.1301     33.8835   6.7589985677e+01   3.7888623280e+01    0.4426548    0.3605565  54.49 0.0008809799    1.224    0.183
        77 -10.3407    129.8990     49.5238   8.0217722782e+01   4.5958019936e+01    0.2258979    0.2162989 -18.61 0.0001414674    1.121    0.108
        78  -9.5608    150.6099    247.5085   1.2006604481e+02   9.4705585250e-01    0.2908104     0.227416 -48.04  0.001151288    1.475    0.322
        79  -9.1574    225.0894     31.6740   6.0497883206e+01   2.6163678985e+01    0.2694944    0.1698068 -42.02  0.001126364    1.590    0.371
        80 -10.4789    187.8776    242.1460   1.1171000364e+02  -4.3262718314e+00    0.4246012    0.1835086 -47.02  0.001123927    2.667    0.625
