#   1 NUMBER                 Running object number                                     
#   2 MAG_AUTO               Kron-like elliptical aperture magnitude                    [mag]
#   3 X_IMAGE                Object position along x                                    [pixel]
#   4 Y_IMAGE                Object position along y                                    [pixel]
#   5 X_WORLD                Barycenter position along world x axis                     [deg]
#   6 Y_WORLD                Barycenter position along world y axis                     [deg]
#   7 A_WORLD                Profile RMS along major axis (world units)                 [deg]
#   8 B_WORLD                Profile RMS along minor axis (world units)                 [deg]
#   9 THETA_WORLD            Position angle (CCW/world-x)                               [deg]
#  10 FWHM_WORLD             FWHM assuming a gaussian core                              [deg]
#  11 ELONGATION             A_IMAGE/B_IMAGE                                           
#  12 ELLIPTICITY            1 - B_IMAGE/A_IMAGE                                       
         1 -15.0558    169.1993     47.5036   6.7025158347e+01   3.7020400914e+01     1.420312     1.077232   4.84  0.004284742    1.587    0.370
         2 -15.0607    185.9831     17.1304   5.4279759779e+01   3.6497326168e+01     1.069598     1.004602 -11.19  0.003955479    1.108    0.098
         3 -11.6060    140.1862    219.2634   1.1063105209e+02   1.3066045502e+01    0.3284974    0.1554849 -62.87  0.001690658    3.133    0.681
         4 -13.7698    191.3339    249.0123   1.0572307252e+02   1.5734451141e+00    0.4610925    0.1940321  49.45  0.002565923    2.193    0.544
         5 -16.5770     74.2160    217.2190   1.2195534245e+02   2.2908995216e+01     7.621051     5.182424 -88.91   0.04303041    1.432    0.302
         6 -11.8020    152.6449    219.9216   1.0854863845e+02   1.1010584102e+01    0.1499687    0.1319225  54.42 0.0004324834    1.137    0.120
         7 -11.1402    113.1375    205.8533   1.1393105874e+02   1.9316632482e+01    0.1953582     0.150787  58.96   0.00105264    1.048    0.045
         8 -10.2500     11.7150    206.0571   1.3192897688e+02   3.1802824612e+01    0.1635928   0.09930722  57.12  0.001264615    1.250    0.200
         9 -13.4562    198.4906    246.2347   1.0427271396e+02   8.0616894605e-01    0.3383441    0.1869022  57.24  0.001964509    2.500    0.600
        10 -13.8672    180.5678    194.2845   1.0004076135e+02   9.9496579844e+00    0.4258887    0.2957343  36.62  0.002589653    1.243    0.196
        11 -11.9708    112.4947    196.0434   1.1292380099e+02   2.1062239825e+01    0.4619053    0.2899983  18.66  0.002189632    3.279    0.695
        12 -11.5025    133.5790    195.5913   1.0888559474e+02   1.7770510931e+01    0.2231907    0.1708193  60.05  0.001439424    1.178    0.151
        13 -13.2175    152.0158    193.5198   1.0514579096e+02   1.5008226705e+01    0.4477805    0.2450384  53.36  0.002358019    1.725    0.420
        14 -13.1515    150.2552    188.1327   1.0468720428e+02   1.6167810301e+01    0.3591164    0.2322833  51.63  0.001288315    1.374    0.272
        15 -12.8122    204.3945    190.3206   9.5201826180e+01   6.3284034836e+00    0.2742769    0.2200577  73.10  0.001670943    1.852    0.460
        16 -10.6067     13.1896    187.4251   1.3081234125e+02   3.5017684160e+01     0.133293    0.1137997 -50.79 0.0003937136    1.873    0.466
        17 -13.1447    151.7367    181.2489   1.0335492443e+02   1.7031824178e+01    0.3014887    0.2248086 -80.21 0.0008423868    1.783    0.439
        18 -11.2450     29.4355    183.3417   1.2758897551e+02   3.4211738354e+01    0.1575429     0.112977  54.78  0.000431158    1.266    0.210
        19 -12.0533    162.6420    181.0695   1.0123945406e+02   1.5113049720e+01    0.2278135    0.1197864 -54.60  0.001092272    2.435    0.589
        20 -13.8278    138.9880    168.6285   1.0386606281e+02   2.1482299608e+01    0.4372161    0.3853104  22.58  0.001327711    1.324    0.245
        21 -14.8866    143.3005    175.1867   1.0405163626e+02   1.9554995939e+01    0.7048654    0.6047522 -48.03  0.004483583    1.336    0.252
        22 -13.1788    187.3990    176.1067   9.5771472639e+01   1.1355213212e+01    0.3487841    0.3402721 -44.79  0.001003787    1.215    0.177
        23 -12.3991    186.0036    170.0331   9.4938192486e+01   1.2528108070e+01     0.285661    0.2403252 -75.22  0.001693914    1.614    0.380
        24 -11.1757      4.4891    178.0218   1.3193715623e+02   3.7550347464e+01    0.1552815    0.1146695  69.71 0.0008365664    1.119    0.106
        25 -11.7346    134.4217    240.0479   1.1384842718e+02   1.1064864193e+01    0.3278157    0.1580981 -47.03  0.001961846    2.912    0.657
        26 -11.0277     11.3362    174.4546   1.3047768363e+02   3.7641356528e+01    0.1036022   0.07446553  84.34 0.0002940375    1.093    0.085
        27 -13.5173    125.2196    171.5915   1.0713725733e+02   2.3350431894e+01    0.3454423    0.3028392  72.61  0.001197128    1.071    0.066
        28 -11.3317     35.3594    168.4482   1.2536727605e+02   3.6506776378e+01    0.2621824    0.1288351  61.89 0.0009161228    1.796    0.443
        29 -12.4471    167.9821    237.9720   1.0813775513e+02   6.2977807419e+00     0.169574    0.1548669 -42.79 0.0007229801    1.461    0.315
        30 -11.9634    193.7592    171.3333   9.3749223879e+01   1.0878358876e+01    0.2415386    0.2103428  41.48 0.0006623271    1.099    0.090
        31 -10.8515     13.5444    163.3922   1.2940795952e+02   3.9619896568e+01    0.1580419   0.08722107  67.21 0.0004796158    1.468    0.319
        32 -10.9746    152.2867    236.9975   1.1059576872e+02   8.7996163562e+00    0.2030967    0.1213677  45.23 0.0005944918    1.256    0.204
        33 -14.7847    133.7931    145.8061   1.0097510879e+02   2.6724274858e+01     1.339203    0.3961393 -56.60  0.003909859    5.059    0.802
        34 -10.7460    125.4138    237.0626   1.1503567306e+02   1.2783500441e+01    0.1234756    0.1010407 -83.93 0.0003630852    1.452    0.312
        35 -11.5810    174.8673    149.1550   9.3063767209e+01   1.8066392228e+01    0.2101739    0.1885157  75.76 0.0007228571    1.264    0.209
        36 -11.8145    161.1977    148.9826   9.5780878453e+01   2.0825462741e+01     0.226086    0.1615734 -79.64  0.001077571    2.076    0.518
        37 -13.9412    143.7578    145.2981   9.8718035452e+01   2.4924813552e+01    0.6818833    0.3782238 -72.18  0.002506798    3.509    0.715
        38 -19.1635     56.5237     95.4215   1.1082559651e+02   5.0113724439e+01     16.91725      1.06481 -61.35   0.02814186   14.770    0.932
        39 -12.0757    110.6295    231.7824   1.1699620891e+02   1.5662500211e+01    0.3560621    0.2564221 -57.83  0.002624282    1.792    0.442
        40 -14.1234    136.0000    129.4740   9.7221395689e+01   2.9541284683e+01     1.111729    0.2084289 -50.00  0.002757739    6.081    0.836
        41 -12.4848    160.5574    127.8544   9.1456701427e+01   2.4829302065e+01    0.3622688     0.258719 -67.29  0.001713114    1.807    0.447
        42 -13.8333    134.4509    121.9201   9.5933157780e+01   3.1377049481e+01    0.6040118     0.279106 -47.85  0.002270198    2.188    0.543
        43 -11.9914    167.7847    112.8758   8.6383040106e+01   2.6049877540e+01    0.4055723    0.3039643 -86.18  0.001312581    1.888    0.470
        44 -11.0764    205.4164    110.1321   7.8363250571e+01   1.8043237682e+01    0.2540555    0.1937763  37.15 0.0006839063    1.320    0.243
        45 -10.7613     88.1384    250.3842   1.2213683827e+02   1.6053462273e+01   0.07625994   0.06384857 -70.19 0.0002159369    1.614    0.380
        46 -10.9792    231.2677    113.8389   7.4886397773e+01   1.1839693888e+01    0.2174919    0.1967199  57.96 0.0007928043    1.273    0.214
        47 -12.8185     25.6000    108.9688   1.2178454609e+02   5.0219700982e+01    0.2019538    0.1782299  53.65 0.0003244892    1.315    0.240
        48 -14.0028    185.3922    222.5753   1.0332791434e+02   5.4407018463e+00     0.336807    0.2585434  15.55  0.001961533    1.412    0.292
        49 -13.8576    156.7617     61.3975   7.4072758408e+01   3.7980269994e+01    0.5285379    0.4599346  50.06 0.0009674331    1.165    0.142
        50 -10.5016     13.5154     59.9450   1.1798090326e+02   6.2178197537e+01     0.178084   0.09278519 -68.28 0.0004031646    1.494    0.331
        51 -10.5560    128.0357    227.6681   1.1365170159e+02   1.3715920380e+01    0.2595956    0.1451751  28.25 0.0009706017    2.509    0.601
        52 -13.0950    174.1070     39.7018   6.3556901549e+01   3.6858179412e+01    0.4486952    0.4153092  52.60 0.0008637088    1.087    0.080
