#   1 NUMBER                 Running object number                                     
#   2 MAG_AUTO               Kron-like elliptical aperture magnitude                    [mag]
#   3 X_IMAGE                Object position along x                                    [pixel]
#   4 Y_IMAGE                Object position along y                                    [pixel]
#   5 X_WORLD                Barycenter position along world x axis                     [deg]
#   6 Y_WORLD                Barycenter position along world y axis                     [deg]
#   7 A_WORLD                Profile RMS along major axis (world units)                 [deg]
#   8 B_WORLD                Profile RMS along minor axis (world units)                 [deg]
#   9 THETA_WORLD            Position angle (CCW/world-x)                               [deg]
#  10 FWHM_WORLD             FWHM assuming a gaussian core                              [deg]
#  11 ELONGATION             A_IMAGE/B_IMAGE                                           
#  12 ELLIPTICITY            1 - B_IMAGE/A_IMAGE                                       
         1 -14.4367      6.4200    109.6498   1.2380920978e+02   5.1361771432e+01     1.823828    0.6027097 -80.32  0.007730187    2.904    0.656
         2 -13.6648    208.8024     34.3965   5.1573695829e+01   2.8336953737e+01     1.311954      1.29298  27.95  0.005688161    1.122    0.109
         3 -13.4696      3.7428      6.5904   1.0092768886e+02   7.2810306788e+01     1.340297    0.3944478 -47.36  0.006683893    2.408    0.585
         4 -13.9430    227.0756     17.4282   4.4926236350e+01   2.5817595842e+01     1.039598    0.9027395  45.97  0.001563916    1.332    0.250
         5 -10.2892    198.0233    245.4844   1.0104068427e+02  -2.7302087665e+00    0.1838001   0.09050754  39.94 0.0006180851    1.575    0.365
         6 -10.9700    161.5942    250.0541   1.0792013408e+02   2.4787412390e+00    0.3307376    0.1181546  38.60  0.001546993    2.360    0.576
         7 -13.4359    135.1185    243.3489   1.1174552302e+02   7.6122336408e+00     1.053741    0.7776244  64.91  0.007187311    1.328    0.247
         8 -10.5829     84.1174    229.9816   1.1938669492e+02   1.7452286053e+01    0.2188471    0.1921565  45.68  0.001136106    1.396    0.284
         9 -10.2800     84.5952    234.2072   1.1967894495e+02   1.6659387743e+01    0.2391752    0.2027977 -57.28  0.001406607    1.634    0.388
        10 -12.2306     83.2732    242.1134   1.2057974711e+02   1.5521695830e+01    0.4288049    0.3247333  52.90  0.003173998    1.181    0.153
        11 -11.9752     87.0719    248.2753   1.2045037192e+02   1.4000149614e+01     0.517343    0.3326491  45.10  0.003566266    1.362    0.266
        12 -11.3578     90.8701    241.8717   1.1926997181e+02   1.4497973460e+01     0.314566    0.2509496  46.46  0.001222518    1.308    0.235
        13 -11.8902     88.9680    237.9281   1.1924958891e+02   1.5416947509e+01    0.5455365    0.2277166  45.16  0.002967069    1.897    0.473
        14 -13.5942     61.1687    246.1664   1.2453520671e+02   1.7779822393e+01     2.499041    0.5678155  43.01   0.01145858    3.196    0.687
        15 -12.2018     21.5956    226.8198   1.2974661964e+02   2.5691409588e+01    0.2976857    0.1909685  63.45 0.0004321212    1.147    0.128
        16 -15.0931     20.3159    219.2175   1.2954939338e+02   2.7193781933e+01     1.233086    0.9091311  73.74  0.009875257    1.091    0.083
        17 -12.6689    105.9694    236.8838   1.1618739027e+02   1.3110477320e+01    0.6568862    0.2591296  47.46  0.003364997    1.978    0.495
        18 -10.6176    244.4893    241.4814   9.2635995777e+01  -9.3589709272e+00    0.1146876   0.08387695  19.62 -6.564955e-07    1.009    0.009
        19 -13.5602     70.4447    238.5058   1.2245338981e+02   1.7857371960e+01     1.447384     0.699218  53.34  0.008828141    1.591    0.372
        20 -13.6371    115.1455    248.7592   1.1576582636e+02   9.8692636525e+00     1.335293    0.5401649  39.51  0.006854526    2.192    0.544
        21  -9.5780     55.5074    235.9707   1.2476223009e+02   2.0205087726e+01    0.2684631    0.1225923  66.11  0.001545533    1.987    0.497
        22  -9.8546     52.1391    231.7847   1.2503414834e+02   2.1347844708e+01    0.1875499    0.1413452 -73.47  0.001096042    1.506    0.336
        23 -11.7450    122.7453    248.8360   1.1447501431e+02   8.7110531520e+00    0.5246072    0.3478311  32.53  0.002580432    1.677    0.404
        24 -12.5010    106.8419    230.4791   1.1538111283e+02   1.4038795684e+01     0.571594    0.2594267  54.08  0.002975587    1.921    0.480
        25  -9.5632     56.5377    229.1109   1.2410183713e+02   2.1274601764e+01    0.3515699    0.1406465  82.04  0.001533887    3.753    0.734
        26 -11.1402    180.5118    243.1791   1.0375760113e+02   3.5199840151e-01    0.2365664    0.1323041  41.90  0.001257928    1.396    0.284
        27 -11.2781     99.1297    230.6900   1.1678630694e+02   1.5160630541e+01     0.281283    0.1596043  33.53  0.001462351    2.077    0.518
        28 -10.3903     78.5445    225.2990   1.1995534741e+02   1.9052755009e+01    0.3274209     0.241528 -11.62  0.001683527    3.858    0.741
        29  -9.0688     58.6491    225.8069   1.2349335771e+02   2.1597943151e+01    0.1495964   0.08586708  89.81 0.0009364968    1.655    0.396
        30 -13.7760      3.5022    192.4017   1.3096927946e+02   3.3879469734e+01     2.645533    0.6110675 -84.00   0.01049056    4.336    0.769
        31 -13.1555      3.1532    224.9980   1.3257222407e+02   2.7838474124e+01    0.8500866    0.3321387 -84.58  0.002978438    2.107    0.525
        32 -12.1975     90.5165    223.3215   1.1761261553e+02   1.7705257023e+01    0.5095454    0.3771538 -61.24  0.003432076    1.607    0.378
        33 -11.2806    101.2813    220.2384   1.1531520918e+02   1.6651947917e+01    0.2866591    0.1927152  51.00  0.001019993    1.226    0.184
        34  -9.6096     60.1039    220.2454   1.2280522511e+02   2.2422162164e+01    0.1552172    0.1281714  65.74 0.0003862244    1.187    0.158
        35 -10.5269     50.8538    218.8185   1.2432495223e+02   2.3839402852e+01    0.2659133    0.1354636  72.29 0.0009315233    1.823    0.452
        36 -10.4791     71.8898    219.8262   1.2066331301e+02   2.0950363645e+01    0.3097615    0.1999818  47.65  0.001922454    1.370    0.270
        37  -9.3067     88.0118    213.2773   1.1706299171e+02   1.9894031212e+01    0.2397789    0.1260808  82.49  0.001158529    2.551    0.608
        38 -11.6953     97.3937    239.6788   1.1795220549e+02   1.3919325912e+01    0.4058594    0.2614748 -56.91  0.002661449    1.954    0.488
        39  -9.5283     57.2192    211.9367   1.2264763984e+02   2.4338553967e+01    0.3148823   0.08810056  56.56  0.001215894    3.877    0.742
        40 -12.1815     99.8763    248.4765   1.1832639926e+02   1.2157108677e+01    0.7319096    0.3068715  41.86  0.003989805    1.982    0.496
        41 -10.4811     64.3236    209.3476   1.2111871231e+02   2.3918796104e+01    0.2009608     0.149169 -47.20  0.001283652    2.021    0.505
        42  -9.8169     56.2899    207.9992   1.2248921563e+02   2.5207870017e+01    0.1647248    0.1255339  79.07  0.001044002    1.058    0.055
        43  -9.3022     61.7058    208.3330   1.2151512250e+02   2.4453906199e+01    0.1753639    0.0891795  56.35 0.0002445032    1.668    0.400
        44  -9.6629    106.7497    203.5110   1.1233186782e+02   1.8868190672e+01    0.2109207    0.1598397 -73.92 0.0005693591    1.384    0.278
        45  -9.5445     88.4202    201.5061   1.1571326655e+02   2.2073375045e+01    0.1941135    0.1214846  70.36 0.0001046794    1.581    0.367
        46  -9.2485     73.7514    202.0191   1.1863280625e+02   2.4071734521e+01    0.3107887    0.1234925 -60.19  0.001356818    2.576    0.612
        47  -9.6656    250.5220    200.5004   8.4629717182e+01  -5.6984106416e+00    0.1253183    0.0987521  10.27 -1.806883e-05    1.018    0.018
        48 -10.5000     45.1727    198.2362   1.2374986723e+02   2.8470487462e+01    0.2965052    0.1000015  44.46  0.001458724    2.491    0.599
        49 -12.1327     48.3029    191.4894   1.2257527865e+02   2.9458752622e+01    0.2819297    0.2369759 -80.47 0.0005611053    1.265    0.209
        50 -11.3052     35.6690    191.7609   1.2502890497e+02   3.0848496786e+01    0.4543655    0.1719265  51.66   0.00235299    2.277    0.561
        51 -14.8638      9.6937    244.6364   1.3239534635e+02   2.3847461259e+01     2.252896    0.9383858  37.96   0.01446217    2.504    0.601
        52 -10.6764     19.8226    190.7973   1.2792822507e+02   3.2686860334e+01    0.4125819    0.1530238  80.95  0.001886683    3.060    0.673
        53  -9.0119    191.5448    191.5232   9.3609013309e+01   5.8846526731e+00     0.134465    0.1184813  29.66 0.0001065908    1.012    0.012
        54  -9.4238     57.4680    190.4587   1.2067810696e+02   2.8545343864e+01    0.1207623   0.09552664  77.52 0.0001163049    1.006    0.006
        55 -11.7484    101.7030    240.0281   1.1723827626e+02   1.3232726588e+01    0.3574022     0.236256  87.55  0.001447537    1.675    0.403
        56  -9.2394     67.0928    188.3253   1.1853045697e+02   2.7733646446e+01    0.1836943    0.1284339 -30.81 0.0009544257    2.806    0.644
        57 -12.2097     55.8041    184.0413   1.2037970097e+02   3.0081959601e+01    0.3093812    0.2179153  65.79 0.0003961982    1.220    0.180
        58  -8.9234     29.5365    183.5143   1.2556167339e+02   3.3188129480e+01    0.1160449   0.08666136  81.27 9.223873e-05    1.006    0.006
        59 -10.1812     37.0516    180.0093   1.2378862928e+02   3.3117696509e+01    0.2540755    0.2125048 -64.20  0.001083172    1.441    0.306
        60 -10.2408     45.6270    177.9765   1.2186318419e+02   3.2582570356e+01    0.2523609    0.1725229  70.13 0.0007650208    1.259    0.205
        61  -8.6901     82.4630    176.4863   1.1391461555e+02   2.8064241644e+01    0.1314648    0.1087878  77.66 4.935711e-05    1.040    0.038
        62 -11.2929    248.7914    172.4555   7.9453924161e+01  -1.7611975637e+00    0.3953962    0.2684425 -18.39  0.002221711    1.388    0.279
        63 -10.8628     68.3702    172.0202   1.1640549523e+02   3.1013259146e+01    0.2379729    0.1948699 -78.12  0.000391004    1.147    0.128
        64 -10.6569      2.8658    172.9862   1.2997368677e+02   3.7831590365e+01    0.2106851    0.1371598  59.79 0.0007389091    1.364    0.267
        65 -11.3052     12.5049    171.7897   1.2802270370e+02   3.7261350849e+01    0.2901199    0.1526829  85.44  0.001762533    1.567    0.362
        66 -11.7078     12.9097    167.1058   1.2760424656e+02   3.8210029622e+01    0.3067333    0.2042688  37.77   0.00210833    1.745    0.427
        67 -12.7048      8.3721    164.7259   1.2834641412e+02   3.9099493931e+01    0.6954451    0.4722782 -15.15  0.004174326    3.114    0.679
        68 -10.8610     52.9181    170.7001   1.1958955843e+02   3.3279597513e+01    0.2816873     0.237396 -57.14 0.0009688999    1.436    0.304
        69  -9.9589     27.3985    171.4606   1.2500868119e+02   3.5931804363e+01    0.2470069    0.2177817 -11.77  0.001038522    1.861    0.463
        70 -10.9601     20.0219    168.5709   1.2627593581e+02   3.7257798790e+01    0.2339377    0.1481263 -62.42 0.0003959125    1.610    0.379
        71 -10.6436     40.4873    168.0298   1.2196654327e+02   3.5296799889e+01    0.2583477    0.2275339 -62.91  0.001833069    1.389    0.280
        72 -12.1334     76.4906    164.1050   1.1357992426e+02   3.1620338143e+01    0.5096196    0.4473338 -83.42  0.002254878    1.096    0.088
        73 -11.1945    245.6984    162.0858   7.7819348530e+01   2.5332201468e-01    0.3228415    0.1688984 -33.54   0.00154511    1.830    0.454
        74 -10.8408    249.5180    161.5357   7.7060517082e+01  -3.5790042247e-01    0.3082756    0.1761749 -32.78  0.001554988    1.665    0.399
        75 -11.1385    247.7755    157.3690   7.6464629413e+01   5.5779599341e-01     0.667287    0.3670973  65.55  0.002397956    4.481    0.777
        76 -10.4351     23.9588    161.7594   1.2488938133e+02   3.8349709163e+01    0.1567025    0.1269458  81.56 0.0005423097    1.097    0.089
        77  -9.3212     49.8865    161.2841   1.1920257220e+02   3.5707364439e+01    0.1632743    0.1364497  73.90 0.0002694139    1.106    0.096
        78  -9.1448     42.9366    160.9741   1.2070772106e+02   3.6570609857e+01    0.1895134    0.1167855  72.24 0.0004551161    1.551    0.355
        79 -13.1061     34.6519    205.5895   1.2624084196e+02   2.8226569285e+01    0.9007761    0.5836703  82.42  0.006251997    1.223    0.182
        80 -10.9170     21.5846    156.4386   1.2492552519e+02   3.9728588499e+01    0.2473307     0.155801 -64.17  0.001094304    1.488    0.328
        81 -10.9811     26.2360    155.8149   1.2385626941e+02   3.9431328139e+01    0.2743323    0.1664503  62.50 0.0009600242    1.555    0.357
        82 -11.9344      9.6873    156.3828   1.2745736849e+02   4.0769512024e+01    0.3720071    0.1489999  56.01  0.001951261    2.435    0.589
        83 -10.4151     16.3155    154.9944   1.2593528545e+02   4.0512444540e+01    0.1804651    0.1223764  77.06  0.000428976    1.240    0.194
        84 -11.1607     12.5340    153.0565   1.2658590272e+02   4.1254508515e+01    0.2707379    0.1462363  82.83 0.0009987857    1.618    0.382
        85  -8.3862    228.3165    155.6295   7.9463646539e+01   4.5075943268e+00     0.135663    0.1117213 -68.02 0.0007035115    1.787    0.440
        86 -10.8361    249.7722    150.9710   7.4748953220e+01   1.1248521591e+00    0.3374559    0.2350081 -30.32  0.001841185    1.343    0.255
        87 -11.0575     91.6834    149.7258   1.0783035425e+02   3.2556510821e+01    0.3071379    0.2791116 -83.34 0.0009408754    1.048    0.046
        88 -11.2382     23.3889    149.7091   1.2390175888e+02   4.1045116694e+01    0.2405348    0.1990569  34.74  0.001268303    1.541    0.351
        89 -10.4385     79.6000    148.5515   1.1055343616e+02   3.4669234134e+01     0.233886    0.2096514  85.48 0.0005482812    1.044    0.042
        90  -9.9073     39.0644    148.7495   1.2022360798e+02   3.9720460105e+01    0.2130366    0.1614492 -48.47 0.0006187652    1.592    0.372
        91 -13.0313      4.0457    142.8568   1.2760319896e+02   4.4137921881e+01    0.6117483    0.3359032 -77.99  0.003833396    1.375    0.273
        92 -13.3364      9.5016    142.7605   1.2637852952e+02   4.3749792027e+01    0.7960564    0.2218657 -76.19  0.003418096    2.872    0.652
        93 -12.5728    241.4383    120.5247   6.9181090539e+01   7.4306875671e+00    0.8932956    0.4701431  57.30  0.003839778    2.299    0.565
        94 -12.7436    248.2496    134.1021   7.1235094197e+01   3.9439004391e+00     1.218738     0.474594 -25.71  0.004414225    2.928    0.658
        95 -12.8919    248.0577    113.6782   6.6505495858e+01   7.1402037520e+00    0.9057248    0.5449293 -39.62  0.004347095    1.558    0.358
        96 -11.5223     68.3075    143.4716   1.1251190810e+02   3.7424475279e+01    0.5979639    0.3272251  71.41  0.001924601    2.463    0.594
        97  -9.2881     45.0060    139.7461   1.1769887090e+02   4.1131762828e+01    0.1709364    0.1449892  88.08 0.0003214538    1.065    0.061
        98 -10.0271    105.8314    135.3020   1.0166638554e+02   3.3470703942e+01    0.4118951     0.285303  -9.03  0.001698512    2.805    0.644
        99 -11.9686     15.8757    132.8285   1.2395366534e+02   4.5460048756e+01    0.2930719    0.1678699  43.30  0.001234991    1.899    0.473
       100 -12.0581    247.8888    142.4730   7.3183688153e+01   2.7430324149e+00    0.5534102    0.4181265 -15.47  0.003072988    1.234    0.190
       101 -13.0186     16.5063    120.5796   1.2244620137e+02   4.8180889498e+01    0.5349557    0.3071423  69.14  0.001205575    1.892    0.471
       102 -10.5936    232.0581    116.3049   6.9716192736e+01   1.0095617226e+01    0.2008124     0.193995  16.37 0.0007633364    1.091    0.084
       103  -9.1263     44.2229    129.9740   1.1655365426e+02   4.3473517987e+01     0.170665   0.08910096 -68.89 0.0004470012    1.613    0.380
       104  -9.1656    236.1112    145.8754   7.5933838811e+01   4.5049869176e+00     0.194195    0.1526448   5.57 0.0004958285    1.286    0.222
       105 -12.4547      2.8678    132.5995   1.2700663593e+02   4.6472439933e+01    0.4243241    0.2185347 -77.56  0.002440771    1.457    0.314
       106  -9.4531     95.1349    145.5002   1.0625995453e+02   3.2960517104e+01    0.2043285    0.1759859 -71.73 0.0007368657    1.090    0.083
       107 -13.0102    248.2508    101.5649   6.3569751328e+01   8.9858648316e+00    0.9823621    0.5122591 -27.55  0.004282733    1.850    0.459
       108  -9.8557    162.4785     80.4834   7.3455610709e+01   3.3012577669e+01    0.1559969    0.1538728 -43.61 0.0001306928    1.018    0.018
       109 -11.3206    154.5698    247.6009   1.0884153257e+02   3.9243974397e+00    0.2809738    0.2177659 -52.81   0.00198948    1.672    0.402
       110 -11.6692    150.3279    247.8813   1.0961085902e+02   4.5584044891e+00    0.3064712    0.2503311 -49.07  0.002234436    1.592    0.372
       111 -11.2071    115.9708    239.9751   1.1474241971e+02   1.1101435417e+01    0.2673557    0.1959785 -86.09   0.00181797    1.555    0.357
