#   1 NUMBER                 Running object number                                     
#   2 MAG_AUTO               Kron-like elliptical aperture magnitude                    [mag]
#   3 X_IMAGE                Object position along x                                    [pixel]
#   4 Y_IMAGE                Object position along y                                    [pixel]
#   5 X_WORLD                Barycenter position along world x axis                     [deg]
#   6 Y_WORLD                Barycenter position along world y axis                     [deg]
#   7 A_WORLD                Profile RMS along major axis (world units)                 [deg]
#   8 B_WORLD                Profile RMS along minor axis (world units)                 [deg]
#   9 THETA_WORLD            Position angle (CCW/world-x)                               [deg]
#  10 FWHM_WORLD             FWHM assuming a gaussian core                              [deg]
#  11 ELONGATION             A_IMAGE/B_IMAGE                                           
#  12 ELLIPTICITY            1 - B_IMAGE/A_IMAGE                                       
         1 -12.9849     22.9117     13.3255   3.5528742068e+01   7.5208932169e+01    0.7558089    0.3816126  38.16  0.003706597    1.937    0.484
         2 -11.7193     29.5858      8.7933   2.7521910171e+01   7.4864182085e+01    0.3178549    0.2781493 -21.58  0.000969061    1.179    0.152
         3 -14.0229     13.9524     19.9216   4.6802956154e+01   7.5120595162e+01     1.558255      0.87398 -14.92  0.007334066    2.265    0.559
         4 -11.7266    183.4610     22.3492   3.5458017926e+02   3.7001214667e+01    0.4921131    0.3156134  83.56  0.002769641    1.523    0.344
         5 -12.2636    165.3454     29.9600   3.5855669948e+02   4.0285146800e+01    0.6650476     0.424249 -75.90  0.003234325    1.594    0.373
         6 -11.7476    246.5878     16.5251   3.4909502582e+02   2.5025017032e+01    0.5356823    0.2688627 -57.95  0.003335606    1.582    0.368
         7 -12.9283     97.2158     12.0151   2.8166838525e+00   5.9346545473e+01     1.111048     0.620669  84.76  0.004978148    2.033    0.508
         8 -12.3577    205.8809      7.8675   3.4932108290e+02   3.3708923332e+01     1.192106    0.4095638 -82.27  0.004789453    3.648    0.726
         9 -12.2458    226.3177      7.3572   3.4814077822e+02   2.9688782032e+01    0.9283084    0.3175288 -47.82  0.004765068    2.049    0.512
        10 -11.8730     41.2962      3.7077   1.6804727312e+01   7.3315237149e+01    0.4980501    0.3946381  28.16  0.003037045    1.174    0.148
        11 -11.6050    244.7370      4.8921   3.4682880827e+02   2.6552003064e+01    0.4427818    0.2092048 -53.22  0.002761581    1.526    0.345
        12 -10.5496    249.5882      1.6961   3.4601188454e+02   2.6020978286e+01    0.1865598    0.1284889 -76.19  0.001394629    1.341    0.254
        13 -10.9006      7.8471      2.0335   4.1101192015e+01   7.9088837248e+01    0.2428255    0.1427982  -3.49    0.0012363    2.075    0.518
        14 -10.3965     10.1083    137.3990   7.3397544211e+01   4.5279694526e+01    0.3922601    0.1087239 -58.03  0.001329876    3.303    0.697
        15 -11.3128    247.1083    136.1239   1.3083695165e+01   9.2840515738e+00    0.3145736    0.2801955  77.80  0.002329705    1.701    0.412
        16  -9.9427    133.5008    131.4990   3.2667293910e+01   2.9152095996e+01    0.1481612    0.1444504 -29.80 -0.0003211073    1.000    0.000
        17 -10.2695    222.6043    126.8368   1.4537967800e+01   1.4183544958e+01     0.186038   0.09650067 -44.40 0.0009509453    1.720    0.419
        18 -11.8852    106.9429    124.1746   3.8204261251e+01   3.5889904822e+01     1.127055    0.7155306  56.16  0.004740253    1.843    0.457
        19 -12.4045    247.5277    112.6506   8.5194550277e+00   1.2566759804e+01    0.4882046    0.3908639 -84.06  0.003356197    1.804    0.446
        20 -12.1443    248.3627    104.9384   6.9089670931e+00   1.3533579188e+01    0.9286869    0.2832258 -47.51  0.003686486    3.499    0.714
        21 -12.5875    106.9507    106.9909   3.3965153677e+01   3.9971839665e+01    0.6509588    0.3962661 -54.36  0.002738307    1.671    0.401
        22 -12.3949    236.0874    107.2843   8.7845555788e+00   1.5054302354e+01    0.6253854    0.1891118 -45.04  0.002525101    2.983    0.665
        23 -10.6847    110.4462    100.0086   3.1055696375e+01   4.0864935715e+01    0.2896619    0.2724852  82.33  0.001383219    1.087    0.080
        24 -10.4429     46.3383     99.3210   5.4017766720e+01   5.2306002411e+01    0.3683026    0.2626594  73.94  0.001687183    1.668    0.401
        25 -11.4974     17.5968    112.6122   6.8255631500e+01   5.1551599562e+01    0.3805555    0.2322631   1.84  0.001745888    1.981    0.495
        26 -11.7598      2.4525     95.8244   7.2886702952e+01   5.7082721535e+01    0.5404813    0.2327127 -84.02   0.00220869    2.183    0.542
        27  -9.4627     60.9950     97.4968   4.7549454621e+01   5.0709050205e+01    0.2325178    0.1145808  52.82 0.0008106659    2.594    0.615
        28 -12.1410     20.7134     94.8920   6.4483014717e+01   5.6193983915e+01    0.4827038     0.360577  72.25  0.002470539    1.425    0.298
        29 -12.1086    230.6529     86.9783   5.1771607556e+00   1.8898374785e+01    0.4096462    0.2825132 -34.01  0.002534063    1.232    0.189
        30 -11.7004    249.9423     80.9902   1.9685807670e+00   1.6593922186e+01    0.7523176    0.1817583 -31.86  0.002618294    4.296    0.767
        31 -12.6276    236.9439     79.9201   3.0139853632e+00   1.8842271663e+01    0.8249337    0.4567741 -70.84  0.004101693    2.775    0.640
        32 -12.0897    236.0221     71.8849   1.4080807237e+00   2.0107397852e+01    0.4097026    0.3343734 -64.80  0.002860346    1.230    0.187
        33 -10.8661    159.0923     66.1384   9.9534146402e+00   3.6542061262e+01     1.193034    0.3051864 -48.61  0.003202183    4.915    0.797
        34 -10.1999    157.9850     83.4675   1.4986179981e+01   3.3802611304e+01    0.3909582    0.3061347  -1.54  0.001921923    1.790    0.441
        35 -11.9792    163.8398     77.7658   1.2352851479e+01   3.3509663131e+01    0.4912066     0.459602  36.60  0.002857856    1.234    0.190
        36 -12.8577    172.5491     76.3624   1.0490511143e+01   3.1832576275e+01     1.219527    0.7320681  80.18  0.005379905    2.304    0.566
        37 -11.1903    134.1445     79.2249   1.8814506011e+01   3.9986877995e+01    0.7088799    0.3545316  61.53  0.002705985    2.347    0.574
        38 -11.4094    210.4942     77.3873   5.3906162470e+00   2.3922633727e+01    0.4791939    0.2343859 -60.23  0.002071218    2.679    0.627
        39 -10.7498     71.2093     75.2813   3.7065637110e+01   5.4473206959e+01    0.6426144    0.3373972  20.74   0.00211888    3.324    0.699
        40 -10.3641    113.9539     79.6618   2.4087121285e+01   4.4515701457e+01    0.4721698    0.2178086 -50.06  0.001730243    2.270    0.560
        41 -11.3549     54.8346     72.6325   4.3227062297e+01   5.7954078910e+01    0.4091411    0.2277709  57.03  0.001211838    2.535    0.606
        42 -11.9890      4.0946     63.2740   6.7767000206e+01   6.5682462208e+01    0.6048924    0.5006438 -50.30  0.003582985    1.088    0.081
        43 -11.0950     60.8857     76.4347   4.1735094344e+01   5.6038608911e+01    0.4874015     0.294013 -52.22  0.001280193    1.623    0.384
        44 -10.5982     87.6916     65.5167   2.7538169144e+01   5.3278573683e+01    0.3333289    0.2442542  14.40  0.001276333    1.924    0.480
        45  -9.6143     99.8359     64.8300   2.3327954278e+01   5.0711412041e+01    0.2151879    0.1797528 -88.18  0.001065327    1.361    0.265
        46 -12.0249      6.9065     71.0146   6.7490655620e+01   6.3528344204e+01    0.7155799    0.3905087  24.35  0.003403544    1.934    0.483
        47 -10.3513     78.1421     61.0280   2.9371538390e+01   5.6237252855e+01    0.2826394    0.2243102  43.99   0.00141297    1.243    0.195
        48 -11.4526    132.9424     65.7262   1.4961676600e+01   4.2756510751e+01    0.5150002    0.4314853  67.84  0.002261251    1.195    0.163
        49 -11.6598    177.5135     57.1415   4.6089786303e+00   3.3768314497e+01    0.6497495    0.3518242 -53.36  0.003029397    1.793    0.442
        50 -12.7975    241.1340     57.6428   3.5794666711e+02   2.1123270844e+01     0.558868    0.3281737 -75.18   0.00324892    2.065    0.516
        51 -10.5392     92.2495     57.3760   2.3034617019e+01   5.3879145919e+01    0.4050312    0.2410562 -46.03  0.001755587    1.722    0.419
        52 -12.0544    119.9039     54.8468   1.4382362087e+01   4.7781243647e+01    0.5454778    0.3626234  46.38  0.001226584    1.584    0.369
        53 -10.3701    109.6952     53.6941   1.6544082858e+01   5.0450189155e+01    0.2642998     0.239849  22.04  0.001419295    1.269    0.212
        54 -11.1532    103.7111     51.4049   1.7335960013e+01   5.2282483283e+01    0.5071562    0.2992907 -54.36  0.001326982    1.939    0.484
        55 -11.0808     97.4194     49.7207   1.8517319272e+01   5.4071070609e+01    0.4188035    0.2860687 -49.49  0.001423216    1.536    0.349
        56 -12.1306    227.1724     45.4216   3.5645762139e+02   2.5180630758e+01    0.4308028    0.3257716 -51.46   0.00289624    1.030    0.029
        57 -11.5631    221.5210     42.0818   3.5617098783e+02   2.6668242062e+01    0.4039388    0.2200358 -66.54  0.002186813    1.897    0.473
        58 -11.6949    206.3468     41.2689   3.5729581333e+02   2.9777284415e+01    0.7558238    0.3162569 -71.73  0.002813972    3.937    0.746
        59 -12.2290    247.8477     39.1942   3.5363444469e+02   2.2255347022e+01    0.6284261    0.2631655 -53.54   0.00340614    1.991    0.498
        60 -10.0949     40.2790     40.4327   3.8577268216e+01   6.7497006097e+01    0.2765068    0.1339112  30.13  0.001154508    2.162    0.537
        61 -10.8654    132.9744     38.8052   6.1237057446e+00   4.7033094945e+01    0.4083805    0.2366365 -56.47   0.00182563    1.860    0.462
        62 -12.0788    121.6694     36.6253   7.5451967281e+00   5.0166251094e+01    0.7413541    0.3146061  51.26  0.002892203    2.363    0.577
        63  -9.8339     76.0207     36.9399   2.0265729800e+01   6.1180188481e+01    0.2252337    0.1682276  23.49 0.0006987175    1.597    0.374
        64 -11.9256     10.3036    246.3652   7.8337899674e+01   1.9778324620e+01    0.3404486    0.1880734  34.96  0.002125224    1.377    0.274
        65 -10.9949    206.9912    241.2686   3.6864793217e+01  -6.1606882521e-01    0.1778553    0.1449356 -62.16  0.001192526    2.709    0.631
        66 -12.8067      4.0598     33.7085   6.0799678162e+01   7.2939993352e+01     0.806673    0.3852231 -10.54  0.002030683    2.414    0.586
        67 -12.0382    247.0124    237.1669   2.9911690157e+01  -3.8726720026e+00    0.3715478    0.2178358 -37.11   0.00267204    1.888    0.470
        68 -12.3598    142.5579     29.7099   1.4979213232e+00   4.5854465036e+01     1.033948    0.3791503  75.48  0.003631945    3.188    0.686
        69 -12.0011    190.3130     27.4060   3.5529538106e+02   3.4890580958e+01    0.5651112    0.1233513 -45.77   0.00200468    3.460    0.711
        70 -11.8304    228.1580    230.0012   3.1761959789e+01  -1.3001571814e+00     0.251788    0.1304289 -32.47  0.001638055    1.700    0.412
        71 -11.0554    143.5096     22.4921   3.5899804358e+02   4.6487613867e+01    0.2783499    0.1313023 -29.21   0.00121838    2.191    0.544
        72 -11.1057    249.1310    226.8668   2.8104650091e+01  -2.8847757732e+00    0.1509342    0.1171575 -12.73  0.001249415    1.276    0.216
        73 -10.0032     51.3052     19.8802   2.2021613623e+01   6.9145756865e+01    0.2355569    0.1778094  55.91  0.000793254    1.381    0.276
        74 -10.3948    249.6651    216.6845   2.6500169628e+01  -1.7343099136e+00    0.1680848    0.1510811 -42.42  0.001347259    2.047    0.512
        75 -11.5278    238.1693    215.4883   2.8022887085e+01  -4.8187047623e-01    0.2836753    0.2014571 -23.56  0.002141795    1.215    0.177
        76 -10.4814     56.3372     27.0035   2.3535933686e+01   6.7026404985e+01    0.3741587    0.1961954  58.98  0.001561462    2.352    0.575
        77 -10.9704    248.1543    197.0048   2.3627823761e+01   8.5059628909e-01    0.3392777    0.1916791 -41.99  0.002156503    1.942    0.485
        78 -10.8171    124.5490    168.2209   4.2362282878e+01   2.2622894150e+01    0.5412812    0.3458707 -83.97  0.002143725    2.971    0.663
        79 -10.1100    110.9811    155.3017   4.3551135239e+01   2.7763129696e+01    0.2731135    0.2123554  85.76  0.001064664    1.669    0.401
        80 -11.1740    246.7770    149.9247   1.5690277345e+01   7.3713611430e+00    0.3276951    0.2207981 -43.85   0.00215531    1.479    0.324
        81 -10.2683     20.0971    143.0846   7.0421995166e+01   4.2989442602e+01    0.3674473    0.1675685 -64.40  0.001548584    2.034    0.508
        82  -9.2955     38.5358     33.5231   3.6350610776e+01   6.9150988535e+01    0.1349491    0.1275572   5.36 1.202099e-05    1.048    0.045
