#   1 NUMBER                 Running object number                                     
#   2 MAG_AUTO               Kron-like elliptical aperture magnitude                    [mag]
#   3 X_IMAGE                Object position along x                                    [pixel]
#   4 Y_IMAGE                Object position along y                                    [pixel]
#   5 X_WORLD                Barycenter position along world x axis                     [deg]
#   6 Y_WORLD                Barycenter position along world y axis                     [deg]
#   7 A_WORLD                Profile RMS along major axis (world units)                 [deg]
#   8 B_WORLD                Profile RMS along minor axis (world units)                 [deg]
#   9 THETA_WORLD            Position angle (CCW/world-x)                               [deg]
#  10 FWHM_WORLD             FWHM assuming a gaussian core                              [deg]
#  11 ELONGATION             A_IMAGE/B_IMAGE                                           
#  12 ELLIPTICITY            1 - B_IMAGE/A_IMAGE                                       
         1 -13.7941    228.4215     23.2791   3.3320061851e+01   2.6755448533e+01    0.8742744    0.8277042  68.64  0.002593852    1.393    0.282
         2 -14.1007    211.3083     38.4941   3.8284496561e+01   2.8516263198e+01      1.53075     1.286389 -21.04  0.006940297    1.537    0.349
         3 -12.2357    248.4694      3.7994   2.8071081773e+01   2.4948986556e+01    0.4539838    0.2766782 -61.61  0.002632843    1.267    0.211
         4  -9.6559    172.4815    239.2875   8.8644926156e+01  -4.8163817647e-01    0.2751906    0.1287943 -50.26  0.001267161    2.600    0.615
         5 -13.5484     45.0272    217.1731   1.1374293775e+02   2.2575240374e+01      1.39403    0.8823954  18.77  0.007347295    2.154    0.536
         6 -13.4687      6.2614    186.3841   1.1996616139e+02   3.3660572255e+01     1.573609    0.8158596  78.70  0.008202307    1.793    0.442
         7 -13.1123     83.8965    218.0108   1.0510149606e+02   1.7257075868e+01     1.104759    0.6482406  80.26  0.001712608    2.288    0.563
         8 -15.3005      9.6269    207.9641   1.2066886031e+02   2.8384734523e+01     2.041119     1.312801 -83.02  0.008676979    1.323    0.244
         9 -16.2699     35.3950    186.9019   1.1312949097e+02   3.0758436596e+01     11.42736     4.604825  74.04   0.03764069    4.276    0.766
        10  -9.2286     89.5287    211.9197   1.0304550931e+02   1.7783480228e+01     0.193048    0.1329288 -68.10 0.0005059455    1.518    0.341
        11 -11.0507    111.5839    204.7130   9.6824608487e+01   1.5965575313e+01    0.3671522    0.2469428 -78.19 0.0009065233    1.866    0.464
        12 -10.8873    194.4971    197.9886   7.7014397355e+01   3.3498816383e+00    0.3753209    0.2714461 -73.07  0.001747823    2.535    0.605
        13 -10.6790    192.6715    194.0299   7.6635075720e+01   4.3865661211e+00    0.6011406    0.3482944 -68.87  0.001842932    5.620    0.822
        14  -9.5261     99.3576    180.9108   9.6077609654e+01   2.3505531398e+01    0.2433805    0.1912425  49.73 0.0005116243    1.254    0.202
        15  -9.2838    189.3148    177.9943   7.4167934115e+01   8.0495577276e+00    0.2255098    0.1151028 -61.86 0.0005407021    4.198    0.762
        16 -12.1153     59.0789    175.5013   1.0578982264e+02   3.0778979038e+01    0.4681834    0.3067803 -33.41  0.002187551    2.104    0.525
        17 -12.0359     64.3953    170.4202   1.0366247780e+02   3.1359799022e+01    0.3453382    0.2809398 -38.50  0.001123722    1.425    0.298
        18  -9.2922     85.6985    175.3331   9.8729172244e+01   2.7044719360e+01    0.2988132    0.1910335 -71.44  0.001140218    1.644    0.392
        19 -10.0135     88.5135    173.5198   9.7687088344e+01   2.7058465404e+01    0.2549838    0.1418434  35.55 0.0001137144    1.813    0.449
        20 -13.7047     70.0001    131.6143   9.5307769437e+01   4.0539268234e+01     4.302675     2.266771  77.04   0.01119431    6.077    0.835
        21 -13.5036     61.5066    156.9085   1.0240584391e+02   3.5197532200e+01    0.5439969    0.3706493 -41.79  0.001904649    1.635    0.388
        22 -14.3698     68.4712    144.8349   9.8326587755e+01   3.7361453733e+01     4.526355     2.122021  64.49  0.002701653    5.040    0.802
        23 -12.6805     81.7626    155.0031   9.6323811120e+01   3.2786438258e+01    0.9907041    0.6035216 -39.74  0.001265407    1.899    0.474
        24 -10.0744     48.5827    169.7274   1.0780665170e+02   3.3536794048e+01    0.2551213    0.1948001  65.94 0.0004513983    1.301    0.231
        25 -13.1967     30.2715    201.7129   1.1569534448e+02   2.7776388612e+01    0.4950525    0.4353846 -32.36  0.001416023    1.550    0.355
        26 -13.8754     11.3535    233.7896   1.2182637049e+02   2.2637870168e+01    0.8226682    0.5585037  78.85  0.005552397    1.182    0.154
        27 -11.4657     32.4770    156.7824   1.1054112336e+02   3.8587484626e+01    0.4694512    0.2961258  63.21   0.00198393    1.707    0.414
        28  -9.9512    235.2451    155.0080   6.0791573813e+01   4.4181031792e+00    0.1828766   0.09981441 -38.72 0.0004129604    1.570    0.363
        29  -9.4802    174.8242    149.0967   7.1084832694e+01   1.6736517649e+01    0.2334266    0.2068409 -67.66 0.0006910153    1.266    0.210
        30 -10.4648    133.6079    144.6067   7.9911346416e+01   2.6073230666e+01     1.084778       0.2567 -55.08  0.002077508    8.057    0.876
        31 -10.2210     28.9905    143.1844   1.0978351849e+02   4.2396497795e+01    0.2993385    0.2391593 -25.48  0.001715731    1.521    0.342
        32 -10.3943     96.7883    141.4028   8.9313112127e+01   3.3779234885e+01     0.349502     0.296674 -12.30 0.0009250327    1.395    0.283
        33 -10.0246     99.6312    138.6712   8.7898559879e+01   3.3965445641e+01    0.3180053    0.2460597 -17.32  0.001462355    1.636    0.389
        34  -8.8515    145.2747    141.6893   7.6281123996e+01   2.4393250487e+01    0.1537857    0.1249707 -86.63 0.0002813756    1.554    0.357
        35 -12.3705     84.7894    139.7149   9.2475415081e+01   3.6212502970e+01    0.3157582    0.2698871 -48.87 0.0003659579    1.137    0.120
        36 -10.7436     19.7743    132.0173   1.1103922020e+02   4.6035597349e+01    0.4007009    0.1633931 -56.72  0.001041915    2.005    0.501
        37 -10.8899    107.1047    130.7454   8.3934011828e+01   3.4563268588e+01    0.4870336    0.3509667  29.57  0.001792493    1.518    0.341
        38 -16.1369     21.0311    247.7504   1.2076242929e+02   1.8821442097e+01     9.527483     2.731965  24.70   0.02787422    8.546    0.883
        39  -9.3736     96.1107    125.9817   8.6042743950e+01   3.7741061980e+01    0.2554275    0.1877821 -16.81  0.001121666    1.791    0.442
        40 -11.9850     74.4498    161.2807   9.9477654412e+01   3.2278502459e+01    0.4378742    0.3542398  32.43 0.0003421963    1.324    0.245
        41  -8.8187    163.3099    121.2990   6.7054505949e+01   2.5086199398e+01     0.154229    0.1237729  -0.18 0.0002850446    1.599    0.375
        42 -11.4726    177.1353    217.8846   8.4204307738e+01   2.5200026997e+00    0.2926312    0.1702057  37.43  0.001448105    1.630    0.387
        43  -9.8220    105.9332    119.0942   8.1434099276e+01   3.7601378546e+01    0.2212766    0.2132555 -28.79 0.0002707762    1.037    0.035
        44 -11.1588    244.7990    112.3899   5.0420763064e+01   1.0206412489e+01    0.2705229   0.08576518 -41.77  0.001029732    2.574    0.612
        45  -8.9141     77.2115    112.4395   8.8704581723e+01   4.4250831057e+01    0.1933043    0.1403422  48.83 0.0004475841    1.540    0.351
        46 -10.4140     34.8112    111.4270   1.0284106038e+02   4.9914535771e+01    0.4398623    0.2196322  53.94  0.001779242    2.912    0.657
        47 -10.1405    205.3559    110.4395   5.6061557268e+01   1.8208702873e+01    0.3046109    0.2509294  32.95 0.0009835702    1.438    0.305
        48  -9.4404    134.4929    106.4776   7.0166319399e+01   3.4597488948e+01    0.1552346    0.1523697 -55.73 0.0001078112    1.013    0.013
        49 -11.6085     53.1294     91.8009   9.1859506771e+01   5.2628738874e+01    0.5569121     0.244689 -58.00  0.002202292    2.227    0.551
        50  -9.3335    161.4803     83.4593   5.7513174885e+01   3.3046428338e+01    0.1481835    0.1436874 -77.23 9.733306e-05    1.011    0.011
        51 -10.8274    243.6856     77.9870   4.3306759229e+01   1.6044197046e+01    0.1884673    0.1428936 -50.16 0.0004985567    1.092    0.084
        52  -8.7149    184.5032     77.4755   5.1561624787e+01   2.8739982442e+01    0.1422318    0.1362296 -67.82 1.684603e-05    1.059    0.056
        53  -8.9738     45.8153     68.8675   8.8201429886e+01   5.8613450244e+01    0.1663957    0.1553022 -59.67 0.0003407302    1.275    0.216
        54 -13.1059     56.8033    238.9761   1.1312242094e+02   1.6447486729e+01    0.4558339    0.3169339  84.33 0.0004388017    1.396    0.284
        55  -9.3919     34.7606     62.7835   9.0965301539e+01   6.1137193719e+01    0.1592142    0.1545888  72.18 0.0005544113    1.362    0.266
        56  -9.7687     29.8075     60.1671   9.2322734039e+01   6.2177870814e+01    0.3648771    0.1631839  42.61  0.001540245    3.247    0.692
        57 -11.5850     13.1535     59.8806   9.9726665534e+01   6.3620096794e+01    0.3558747    0.2740158  72.86 0.0005527592    2.000    0.500
        58 -10.6617    140.2182    249.3746   9.6771227253e+01   2.6266546818e+00    0.2454903    0.1448594  41.54  0.001319928    1.491    0.329
        59 -12.4282    219.5602     31.4229   3.5856278019e+01   2.7630252868e+01     0.419976    0.3626058  50.79  0.001104261    1.498    0.332
        60 -13.7566    202.7498     44.5621   4.0688066875e+01   2.9610361173e+01     1.263575    0.9565061  31.07  0.003945311    1.945    0.486
        61 -12.1082    170.9300    219.7137   8.5824488246e+01   3.1753588456e+00    0.4378502    0.2566494  10.87  0.001914823    2.386    0.581
        62  -9.1328     35.6986     56.0748   8.8398500835e+01   6.2383906148e+01    0.1761119    0.1441038 -30.81 0.0004429796    1.062    0.058
        63 -10.7632     18.8958     55.6249   9.5879439769e+01   6.4074900819e+01    0.4202055    0.1764559  37.41  0.001823682    3.091    0.676
        64 -11.2583     11.3056     52.4469   9.8499558205e+01   6.5280428329e+01    0.2403431    0.2137347  29.15  0.001228677    1.430    0.301
        65 -10.3915      3.7866     49.2126   1.0119147936e+02   6.6397019083e+01    0.1864489    0.1525089  15.21  0.001290823    1.427    0.299
        66  -9.5262    131.8365     39.0366   5.0536575160e+01   4.7132913062e+01     0.215106    0.1764596 -76.40 0.0007792219    1.393    0.282
        67  -8.9183    131.9220     31.0440   4.7951114023e+01   4.8110102146e+01    0.1595839    0.1392898  62.56 0.0003419626    1.042    0.040
        68  -9.5638    189.3388     15.0955   3.5116408254e+01   3.6273563495e+01    0.1749306    0.1463208 -64.95 0.0007006513    1.120    0.107
