#   1 NUMBER                 Running object number                                     
#   2 MAG_AUTO               Kron-like elliptical aperture magnitude                    [mag]
#   3 X_IMAGE                Object position along x                                    [pixel]
#   4 Y_IMAGE                Object position along y                                    [pixel]
#   5 X_WORLD                Barycenter position along world x axis                     [deg]
#   6 Y_WORLD                Barycenter position along world y axis                     [deg]
#   7 A_WORLD                Profile RMS along major axis (world units)                 [deg]
#   8 B_WORLD                Profile RMS along minor axis (world units)                 [deg]
#   9 THETA_WORLD            Position angle (CCW/world-x)                               [deg]
#  10 FWHM_WORLD             FWHM assuming a gaussian core                              [deg]
#  11 ELONGATION             A_IMAGE/B_IMAGE                                           
#  12 ELLIPTICITY            1 - B_IMAGE/A_IMAGE                                       
         1 -12.0604    248.9399     21.0569   3.5918609339e+02   2.2827444107e+01    0.4320026    0.3696266 -40.08  0.002904524    1.608    0.378
         2  -9.5367     72.0069      7.5309   2.0876388336e+01   6.2818320058e+01    0.1905117   0.09940852  53.27 0.0005629899    1.582    0.368
         3 -10.2243      2.4784      2.7241   4.9515888413e+01   7.3987560984e+01    0.2290424    0.1128561 -28.59  0.001393822    1.826    0.452
         4 -16.3224      5.9260    218.7022   8.9797872897e+01   2.6301518666e+01      3.06527     1.924235  63.05   0.01160288    1.363    0.266
         5 -10.2485     75.2653    247.5706   7.6938472783e+01   1.1598503902e+01    0.5710688    0.1641128 -53.71  0.002089747    3.954    0.747
         6 -15.2797     57.0808    233.1482   7.9577593062e+01   1.7191211793e+01     5.871755     3.414055 -32.40   0.02495224    3.295    0.697
         7  -9.4953    184.8424    243.1567   5.2154646169e+01  -3.9448318923e+00    0.1846255     0.134954 -11.78  0.001066731    1.366    0.268
         8  -9.4120    103.5244    237.9210   6.9424204035e+01   9.4669089069e+00    0.1913313    0.1360609 -59.48  0.001007186    1.570    0.363
         9  -9.4516    216.0000    235.3896   4.4661492980e+01  -6.9405626243e+00    0.2593072   0.06478405 -42.63 0.0009300348    3.897    0.743
        10 -12.1092    127.4052    228.8363   6.2604262841e+01   7.6050112110e+00    0.4679647    0.3430798  38.90  0.002325587    1.236    0.191
        11 -11.8825    133.2521    229.6428   6.1366194631e+01   6.4970871747e+00    0.3710554    0.3240522  -3.90   0.00214389    1.227    0.185
        12 -10.5170     72.8408    232.4707   7.5887846996e+01   1.5185590628e+01    0.4530911    0.2255428 -68.82   0.00207363    2.181    0.542
        13 -10.7989     72.2219    226.3113   7.5343441286e+01   1.6655916249e+01    0.4360685    0.2356829  54.07  0.001799993    1.831    0.454
        14  -9.4085    176.2037    230.9572   5.1977820080e+01  -5.4117433965e-01    0.1731452    0.1046952 -44.22 0.0006054983    1.748    0.428
        15 -11.6582    107.2367    227.9453   6.7227682304e+01   1.1015254249e+01    0.4710669    0.2613031  53.01  0.002090015    1.951    0.487
        16 -12.6030     96.5849    225.8752   6.9485308097e+01   1.3132832108e+01    0.6622103    0.4671571  41.04  0.003469709    1.273    0.214
        17 -12.8596     27.0296    159.5083   7.9155838691e+01   3.8857871712e+01      1.68939    0.6923344  68.69  0.002501776    5.222    0.809
        18 -10.0855    139.7639    220.5667   5.8427089112e+01   7.3079549215e+00    0.2769378    0.1965485 -62.78  0.001379686    1.703    0.413
        19 -10.7095     95.3087    219.4255   6.8925153792e+01   1.4780966263e+01    0.2335694    0.2292335  72.86 0.0004206295    1.093    0.085
        20  -9.8873    174.8210    223.3896   5.0998026550e+01   1.0692358466e+00    0.1964741     0.119914  21.76 0.0004847916    1.681    0.405
        21  -9.7429    131.1646    203.4527   5.7626258450e+01   1.2476933153e+01    0.2648785    0.2012578 -53.22 0.0006554811    1.391    0.281
        22 -13.7590     42.8559    175.0159   7.6644115105e+01   3.3139115181e+01     1.559573     1.136458 -82.83  0.008175269    1.315    0.239
        23  -9.4226    210.9761    198.5366   3.9069744088e+01   6.8031407087e-02    0.2008238    0.1650796 -28.44  0.000460511    1.097    0.088
        24  -9.8801    195.1699    198.2392   4.2155148924e+01   2.6082048003e+00    0.3344016    0.1605916 -59.95  0.001090762    4.318    0.768
        25 -11.0132     68.2736    192.4859   7.2087285205e+01   2.5340595411e+01    0.5360056    0.3051068  75.54  0.001363692    2.444    0.591
        26 -10.6707     74.0511    190.5631   7.0277590170e+01   2.4982486448e+01    0.4048521    0.2168271 -63.13 0.0009997414    1.852    0.460
        27 -15.6352      4.2614    237.8490   9.1260564176e+01   2.2221270354e+01     1.830347     1.046093  65.00    0.0109412    1.447    0.309
        28 -11.0341    108.0036    189.5007   6.1087758928e+01   1.9772476778e+01    0.3486886    0.2218742  16.33  0.001433958    2.085    0.520
        29  -9.1263    206.5512    190.4376   3.8392952079e+01   2.2598481943e+00    0.1373404    0.1205627 -16.94 6.567514e-05    1.014    0.013
        30  -8.8792     65.0000    184.9596   7.1909556835e+01   2.7711663534e+01    0.2239284    0.1525029 -89.47 0.0009930884    1.631    0.387
        31  -8.8171     63.5032    181.5022   7.1822908081e+01   2.8806166843e+01    0.2117632     0.137943 -80.68 0.0009662524    1.644    0.392
        32  -9.1149     58.6871    183.8978   7.3477278981e+01   2.8852216390e+01    0.2047537    0.1260118 -80.98 0.0004942498    1.745    0.427
        33 -16.0413     19.2267    165.8857   8.2117277913e+01   3.7952310725e+01     8.770334     3.584102  82.74   0.02901645    3.980    0.749
        34  -9.8775     99.6807    181.1333   6.1846323196e+01   2.3262923732e+01     0.278355    0.2198179  28.52 0.0005443933    1.313    0.239
        35 -10.6712     60.0306    177.8591   7.2256946888e+01   3.0222283758e+01    0.4182508    0.1984974 -64.46  0.001338997    2.011    0.503
        36  -9.6625    172.4814    176.1442   4.2670305701e+01   1.1032984907e+01    0.2727071    0.1762445  61.34 0.0009218576    2.236    0.553
        37 -10.0311     73.5339    171.4493   6.7459912404e+01   2.9946527475e+01    0.3397941    0.2232573 -80.79 0.0009418709    1.745    0.427
        38 -10.0526     71.3599    167.1994   6.7376774046e+01   3.1373659930e+01     0.292556    0.2001638 -85.59 0.0008832561    1.701    0.412
        39 -10.0034     67.4539    170.9007   6.9104853547e+01   3.0984171932e+01    0.2590196    0.2028243  66.41 0.0004550185    1.345    0.257
        40 -13.4361     81.6223    145.4533   6.0278053877e+01   3.5406912449e+01     2.909325     1.299079 -46.91   0.01055976    2.269    0.559
        41 -11.9629     79.6809    137.5889   5.9234382129e+01   3.7734026367e+01     0.744246    0.3002646  41.39   0.00205697    2.524    0.604
        42 -11.8416     74.1568    150.7167   6.3595824104e+01   3.5236004662e+01       0.5425    0.4798619 -71.15 0.0008637389    1.112    0.101
        43 -11.8394     59.6245    162.2145   6.9981716951e+01   3.4345018946e+01      0.55883     0.367789 -36.53  0.001617766    1.814    0.449
        44 -12.6603     64.7435    155.6647   6.7353625494e+01   3.5343779988e+01    0.8521638    0.5442429 -59.52  0.003912569    1.481    0.325
        45 -13.3329     61.4733    146.0727   6.6635392602e+01   3.8304555484e+01     1.200184     0.767101 -38.63  0.001249905    1.742    0.426
        46  -9.8791    110.4458    167.0975   5.6290468176e+01   2.4868818101e+01      0.28563    0.2208067  47.05 0.0005122668    1.297    0.229
        47  -9.9171     50.8282    164.0699   7.2851236699e+01   3.5012050610e+01    0.2396969    0.2247554  -8.76 0.0006442929    1.226    0.184
        48  -9.1558    128.8472    161.9039   5.0284816958e+01   2.2668318790e+01    0.2131746    0.1846084 -84.43 0.0004074032    1.313    0.238
        49  -9.6427    101.5293    166.9515   5.8729122795e+01   2.6508019416e+01    0.2321038    0.1527747 -56.84 0.0004142223    1.523    0.343
        50 -11.0235     35.5880    158.8451   7.6570039576e+01   3.8152801460e+01    0.4587342    0.2270455 -72.61  0.001207989    1.929    0.482
        51 -11.8779     32.9187    154.8409   7.6809789336e+01   3.9474768404e+01    0.7148926     0.434032  66.33  0.003299851    1.957    0.489
        52  -9.6090    126.4893    156.7304   4.9807538974e+01   2.4377146663e+01    0.3929763    0.2512089 -87.93   0.00136387    2.952    0.661
        53 -10.8021     43.7702    156.0211   7.3732417883e+01   3.7971108860e+01    0.4681538    0.2850541  53.40  0.001277152    1.818    0.450
        54  -9.4185    167.4862    156.0997   3.9575626936e+01   1.6339973547e+01    0.2290609    0.1465699 -45.67 0.0004988216    1.516    0.340
        55  -9.1438    107.8554    153.8422   5.4304920912e+01   2.8658223221e+01    0.2246439    0.2072666 -25.59 0.0003084884    1.154    0.133
        56  -9.1780     90.0430    152.2940   5.9138349262e+01   3.2241248611e+01    0.2136765    0.1997279  45.18 0.0003575676    1.079    0.073
        57 -10.8510    133.5215    146.0115   4.5583454727e+01   2.5536960470e+01     1.112738    0.2968906 -54.08  0.002710039    4.914    0.796
        58  -9.2569    122.2051    148.2924   4.9114307120e+01   2.7265796151e+01    0.2149926     0.185275 -88.10 0.0006585891    1.324    0.245
        59  -9.1305    114.0803    146.6875   5.1002010634e+01   2.9249604687e+01    0.2135139     0.198801  44.45 0.0003362498    1.075    0.070
        60 -10.3522    108.8592    145.3745   5.2188406650e+01   3.0576859449e+01    0.2913824    0.2733407 -59.72 0.0006624048    1.065    0.061
        61 -14.2176     68.9645    144.0527   6.3911704578e+01   3.7749466726e+01      3.32386     1.741242  77.20  0.008580897    5.875    0.830
        62 -10.7263     37.1571    142.9375   7.3749019751e+01   4.2118209883e+01     0.471533    0.3049144  83.81  0.001646619    1.870    0.465
        63  -9.5426    100.9522    143.8839   5.4148064079e+01   3.2430977289e+01    0.2318915    0.2238767 -77.89 0.0004007891    1.043    0.041
        64  -8.5097     39.2481    138.6604   7.2388248228e+01   4.2997859821e+01    0.1414837    0.1042248  78.39 0.0004308772    1.565    0.361
        65 -14.7590     10.1511    206.3220   8.8024108757e+01   2.8781969189e+01     1.019288    0.8359357   5.62  0.003264552    1.679    0.404
        66  -9.1719    113.9857    135.2477   4.8415139092e+01   3.2056397167e+01    0.2105494    0.2062075  41.94 0.0003052299    1.024    0.024
        67 -10.0220     96.7630    135.0083   5.3404103435e+01   3.5413335407e+01    0.2422946    0.2201388  83.65 0.0007340321    1.196    0.164
        68 -10.2571    100.0472    132.4897   5.1834633783e+01   3.5424536191e+01    0.3877369    0.2588814   8.37  0.001064762    2.271    0.560
        69 -11.5918     84.9512    132.6390   5.6497440128e+01   3.8101008694e+01    0.3144989    0.2893417 -33.30 0.0003945167    1.104    0.094
        70 -10.4843    105.4419    130.6500   4.9797897851e+01   3.4844143882e+01    0.4345577     0.328794 -35.87  0.001180201    1.414    0.293
        71  -9.3399    108.7515    126.4411   4.7812087420e+01   3.5206419029e+01    0.2864341     0.159283  33.66  0.001108446    1.935    0.483
        72 -10.2587    179.7800    166.0774   3.8995753290e+01   1.1809481347e+01    0.4072541    0.2499653 -75.58  0.001387102    3.652    0.726
        73  -8.7472    146.2943    131.2745   3.8903728936e+01   2.6259679709e+01    0.1512998    0.1251073  -0.45 0.0001853131    1.523    0.343
        74  -9.9379    123.1204    130.6905   4.4779582232e+01   3.1289138959e+01    0.2505452    0.1959757  62.92 0.0009782525    1.443    0.307
        75 -10.7723     44.0468    130.5681   6.9393967001e+01   4.4536260089e+01    0.2925124     0.198735 -82.30  0.001385888    1.681    0.405
        76 -10.1909     38.6882    127.4744   7.0622787185e+01   4.5925941804e+01    0.3100147    0.1418714  23.92  0.001221805    2.415    0.586
        77 -10.7221     33.8650    124.0217   7.1635399928e+01   4.7305731944e+01    0.3271894    0.2176284  41.38 0.0006774027    1.666    0.400
        78 -10.6515     20.7340    126.0547   7.6427802209e+01   4.8002001859e+01    0.2706332     0.240162  48.43 0.0004051834    1.264    0.209
        79 -10.0442     48.7209    124.1805   6.6583456839e+01   4.5599180666e+01    0.2565747    0.2073379  86.98 0.0004597857    1.436    0.304
        80 -10.6612     95.3965    121.7255   5.0668241960e+01   3.8907162489e+01    0.3425161    0.2685906   9.71 0.0008242456    1.533    0.348
        81  -9.6817    135.0000    119.9582   3.8972420610e+01   3.1221878074e+01    0.2621973   0.08914089 -46.18 0.0008026798    2.944    0.660
        82 -10.3778     47.5821    119.2179   6.5959978059e+01   4.6982285699e+01    0.2527227     0.202703  -4.65 0.0005213547    1.399    0.285
        83  -9.9002     42.6439    119.2969   6.7697833761e+01   4.7545717189e+01    0.2791005    0.1700087  54.20  0.001242402    2.114    0.527
        84 -11.3134     42.1734    114.9801   6.6980632916e+01   4.8670468875e+01    0.6024612    0.3496242  60.69  0.002106275    2.649    0.623
        85  -9.8970     28.0696    118.9339   7.2722526751e+01   4.9143810335e+01    0.2095656    0.1912927 -59.44 0.0005259783    1.041    0.040
        86  -9.2528    105.8185    116.1871   4.6111013519e+01   3.8195756778e+01    0.2205217     0.210445  84.41 0.0003068729    1.110    0.099
        87 -10.6305     16.3708    115.9651   7.6303195552e+01   5.0864110365e+01    0.2633421    0.1909462  25.60 0.0006172159    1.553    0.356
        88  -8.8542    111.1461    114.3870   4.4080910005e+01   3.7530144345e+01     0.212541    0.1444534  52.87 0.0003637193    1.574    0.365
        89 -11.3506     54.0106    108.8009   6.1379741102e+01   4.8713765963e+01     0.430904    0.2789538 -41.10  0.001229324    1.497    0.332
        90 -10.8943     34.3379    109.0735   6.8580063133e+01   5.0963463718e+01    0.4012441    0.3345214 -24.00  0.002306871    1.206    0.171
        91 -11.7446     25.4163    105.7648   7.1197181241e+01   5.2614127988e+01    0.5545591    0.3651125  53.76   0.00185329    1.965    0.491
        92  -9.9457     19.9096    108.4777   7.3739988670e+01   5.2421687769e+01    0.2298057    0.1347441  10.00  0.001135118    1.988    0.497
        93  -9.5897    137.0027    109.7502   3.5863051373e+01   3.2999778883e+01    0.2212431    0.1941716  54.17 0.0005070028    1.131    0.116
        94 -12.8643      6.9544     73.7332   7.1802494263e+01   6.1311725505e+01    0.9115703    0.4539461 -60.09  0.002299856    1.773    0.436
        95 -11.3245      2.7551     80.6621   7.5077772317e+01   6.0038580335e+01    0.4090988    0.3172516 -79.19  0.002441012    1.458    0.314
        96 -11.1944      1.6516     99.7814   7.8970302673e+01   5.5716226030e+01     0.991272    0.1583923 -68.52  0.002866157    5.167    0.806
        97 -12.2400      2.8328     89.9944   7.6835730207e+01   5.7928908894e+01    0.7761536    0.3623764 -62.40  0.003730619    1.762    0.433
        98 -10.7593    133.5038    103.9449   3.5231176077e+01   3.4999049313e+01    0.5103231     0.309381 -73.88  0.001778997    3.033    0.670
        99  -9.2669     43.4007    101.6201   6.3578811557e+01   5.1754083821e+01    0.2757117    0.1524743  52.43  0.001137839    2.618    0.618
       100 -11.2324     12.8426     90.7814   7.3023377041e+01   5.7132376184e+01    0.4116033    0.1627008 -51.47 0.0009706892    1.983    0.496
       101  -8.9031    103.8018     92.8526   4.0397494596e+01   4.3723069203e+01    0.2014764    0.1784625  80.96 0.0004557592    1.317    0.241
       102 -11.9928     39.2424     90.5547   6.2481730294e+01   5.4786354384e+01    0.4952126    0.2884145  33.63  0.001187321    1.828    0.453
       103  -9.7057     54.5092     88.5076   5.6023373553e+01   5.3313284516e+01    0.1404026    0.1296845 -18.81 0.0002052065    1.022    0.022
       104  -8.6278    117.5531     80.5407   3.2912729068e+01   4.3181721165e+01    0.1474947    0.1405258  62.02 6.883443e-05    1.047    0.045
       105  -9.7131     31.0302     72.4587   6.1022436691e+01   5.9596210839e+01     0.240449    0.1186768  29.27  0.001142218    2.080    0.519
       106  -8.9917     85.4492     73.4670   4.0377812046e+01   5.1201374703e+01    0.1424585     0.133619  18.51 7.277337e-05    1.020    0.020
       107  -9.2060     18.0422     73.2725   6.6860871878e+01   6.0623631886e+01    0.1734905    0.1493405 -23.08 0.0004435531    1.058    0.055
       108  -9.4052    137.0500     63.9833   2.3360999496e+01   4.1554025579e+01    0.2308596    0.1686347 -82.51 0.0007125544    1.714    0.417
       109 -11.5418    199.5745     60.7700   1.1821668745e+01   2.7562852803e+01    0.3848957    0.2950757  63.68 0.0008405085    1.335    0.251
       110 -10.6337     13.4889     60.1943   6.5401623605e+01   6.3671890700e+01    0.2308064    0.1899191 -28.49 0.0006053004    1.027    0.026
       111 -12.5926    210.3533     53.7420   8.9542506712e+00   2.6260664287e+01     0.784735    0.6462695 -75.95  0.003174601    1.003    0.003
       112 -13.2455    222.7748     45.1450   5.8424848615e+00   2.4865639877e+01    0.7080473    0.6196547  61.40   0.00239407    1.458    0.314
       113  -9.0641     46.3360     50.6821   4.7400573466e+01   6.1833054412e+01    0.1184936    0.1044032  63.84  0.000704871    1.700    0.412
       114  -9.5933     15.5560     50.5022   6.1503421970e+01   6.5372528865e+01    0.1241282   0.09843668 -21.69 4.218131e-05    1.016    0.016
       115 -10.1670     13.5472     30.6742   5.5532227730e+01   6.8980507755e+01    0.1813986    0.1251647  33.89 0.0007517355    1.773    0.436
       116 -11.7392    248.9864     26.0196   4.6031349607e-02   2.2216990636e+01    0.3816602    0.2677909 -51.82   0.00182289    1.291    0.225
       117  -9.5554    150.7928    249.2198   6.0337757219e+01   4.7633887743e-03    0.1862076    0.1448676   0.89  0.001073423    1.358    0.264
       118 -10.3106      2.2559     22.5636   5.8603425536e+01   7.1215463720e+01    0.1854451    0.1305634 -49.48  0.001251224    1.689    0.408
       119  -8.8274     40.5038     22.5209   3.8820999029e+01   6.6844038082e+01    0.1211157   0.09808167  13.52 -5.730502e-05    1.042    0.040
       120  -9.6325     60.8353     21.2199   3.0109129932e+01   6.3612615170e+01    0.1789004     0.156347  44.85 0.0007899182    1.273    0.214
       121 -10.2555    138.0015    246.7397   6.2794750160e+01   2.4006265415e+00    0.1910228    0.1562627  29.18 0.0004180852    1.059    0.056
