#   1 NUMBER                 Running object number                                     
#   2 MAG_AUTO               Kron-like elliptical aperture magnitude                    [mag]
#   3 X_IMAGE                Object position along x                                    [pixel]
#   4 Y_IMAGE                Object position along y                                    [pixel]
#   5 X_WORLD                Barycenter position along world x axis                     [deg]
#   6 Y_WORLD                Barycenter position along world y axis                     [deg]
#   7 A_WORLD                Profile RMS along major axis (world units)                 [deg]
#   8 B_WORLD                Profile RMS along minor axis (world units)                 [deg]
#   9 THETA_WORLD            Position angle (CCW/world-x)                               [deg]
#  10 FWHM_WORLD             FWHM assuming a gaussian core                              [deg]
#  11 ELONGATION             A_IMAGE/B_IMAGE                                           
#  12 ELLIPTICITY            1 - B_IMAGE/A_IMAGE                                       
         1 -10.2282    142.7313     17.8284   6.6214182493e+01   4.7695100020e+01    0.4379882    0.2790909  31.07  0.001973371    1.692    0.409
         2 -10.3292    172.0188     12.9749   5.9272927065e+01   4.0557238139e+01    0.3029147    0.2141245 -17.60  0.001402206    1.448    0.310
         3  -9.6837      4.6157      9.2103   1.1196979077e+02   7.2092892611e+01    0.1722527   0.06953558 -50.50 0.0009570376    1.718    0.418
         4 -10.5718    163.4996      5.5011   5.7897833067e+01   4.3575802620e+01    0.4814952     0.264403 -29.84   0.00210202    1.813    0.448
         5 -11.4289    167.6049      3.5096   5.6568215438e+01   4.2662984680e+01    0.7329664    0.4023316 -16.62  0.003174513    1.897    0.473
         6  -9.3969     78.6893      4.6764   7.6952612887e+01   6.3638914257e+01    0.1381578   0.09160005  10.75  0.000703844    1.654    0.395
         7  -9.3537    235.4034      1.8108   4.8555667701e+01   2.4961759714e+01    0.2655013    0.1070489  77.81  0.001030069    2.689    0.628
         8 -12.3807    177.6228    181.4539   1.0215536959e+02   1.3708241128e+01    0.3942741    0.2817999  54.89  0.002383701    1.395    0.283
         9 -15.3428    152.2288    200.5351   1.0948636814e+02   1.5362270383e+01     1.852303     1.707966   8.12   0.01392976    1.332    0.249
        10 -16.1664     83.3233    222.8925   1.2360420549e+02   2.2149433573e+01     4.111603     1.719814  43.40  0.006429981    1.893    0.472
        11 -11.8854    201.6206    180.6201   9.7774070337e+01   9.5269080195e+00    0.3192603    0.2249786  49.69   0.00193033    1.377    0.274
        12 -14.1193     32.8267    214.5372   1.3120760132e+02   2.9227355440e+01     1.527482    0.8749112 -88.90   0.01156328    1.551    0.355
        13 -10.7945    181.6138    186.6096   1.0226359695e+02   1.2296251300e+01    0.2509382    0.1164187 -46.31   0.00123288    2.751    0.637
        14  -9.9603     28.1079    182.3065   1.3021216720e+02   3.5089464231e+01    0.1617898    0.1169923 -83.71 0.0009192927    1.285    0.222
        15 -11.8842    199.0322    207.2526   1.0242254204e+02   6.7662309035e+00    0.3415638    0.1928189  36.98  0.002057981    1.415    0.293
        16 -10.9634     84.5291    176.8943   1.1918505853e+02   2.9504022551e+01    0.2297542    0.1914764 -38.90  0.001592123    1.778    0.438
        17 -12.0368    187.8747    176.6317   9.9515832505e+01   1.2530793545e+01    0.2926259    0.2436192  60.94  0.001871999    1.373    0.271
        18 -12.3045    186.3190    205.0002   1.0421661961e+02   9.1375440413e+00    0.3858232    0.2530019  33.58  0.002464759    1.308    0.235
        19 -10.6607    219.1076    220.7140   1.0114619704e+02   2.1217024198e+00    0.3206183     0.133229  43.04  0.001772167    1.843    0.458
        20 -11.8616    109.5764    245.5388   1.2123160056e+02   1.5592783733e+01    0.4800531    0.3403933 -64.02  0.002938594    1.843    0.457
        21 -12.6115    124.8408    166.9999   1.0995574349e+02   2.5169436795e+01     0.412966      0.37751 -38.49  0.001783144    1.355    0.262
        22 -13.2063    172.2599    196.1789   1.0536007164e+02   1.2625936973e+01    0.6389489    0.3953056  59.70    0.0036342    1.855    0.461
        23  -9.1222     13.3141    176.3206   1.3252122171e+02   3.7513706774e+01   0.08696817   0.06889729 -63.36  0.000525502    1.655    0.396
        24 -10.9737    213.7189    218.8825   1.0173107807e+02   3.1481609545e+00    0.2689647    0.1528682  45.94  0.001648673    1.499    0.333
        25 -10.2766     93.6144    167.8197   1.1633961843e+02   2.9871569414e+01    0.1608121    0.1415375  59.07  0.001135375    1.138    0.122
        26 -11.3509    157.0975    165.6078   1.0338296448e+02   1.9779755828e+01    0.3414443    0.1383346  46.82  0.001492972    2.168    0.539
        27 -12.0741    198.0170    162.2584   9.5130138179e+01   1.2620121291e+01     0.530445    0.2630968 -22.59  0.002317437    2.864    0.651
        28 -10.9263     90.5026    162.0114   1.1624630362e+02   3.1393518305e+01    0.1949864    0.1705749 -19.12  0.001295151    1.739    0.425
        29 -12.3729    200.3609    193.3463   1.0008151009e+02   8.1741596514e+00    0.3893082     0.311169 -54.57  0.002001694    1.801    0.445
        30 -11.6476    148.5860    157.8544   1.0373919610e+02   2.2602396452e+01    0.2976719     0.210416 -66.80  0.001632917    1.794    0.443
        31 -11.7841    122.0844    155.6449   1.0878496584e+02   2.7648762169e+01    0.3663731    0.2073702 -69.16  0.001781779    2.314    0.568
        32 -11.6862    134.7070    155.9347   1.0622513790e+02   2.5422756054e+01    0.2678472     0.237648   7.08  0.001683183    1.417    0.294
        33 -10.6103    192.5012    219.5193   1.0521180341e+02   6.4461911969e+00    0.3153232    0.2038619  32.59  0.001613692    1.291    0.225
        34 -11.5125    160.1152    148.4327   9.9725306987e+01   2.2024030608e+01    0.2891252    0.1833217 -49.45  0.001487629    1.788    0.441
        35 -11.4406    144.2894    147.3451   1.0275159671e+02   2.5204230288e+01    0.2640002    0.2071551   7.43  0.001445225    1.758    0.431
        36 -11.5952     81.5407    144.5219   1.1584703562e+02   3.6036636708e+01    0.5207138    0.3501866  53.43   0.00250642    1.387    0.279
        37 -12.5069    122.8052    144.3718   1.0676958415e+02   2.9607472721e+01    0.5336656    0.2465715  47.29  0.002438259    2.014    0.503
        38  -9.8579     95.3179    137.3253   1.1168602301e+02   3.5466476815e+01    0.1186216    0.1008141 -20.98 0.0007045123    1.674    0.403
        39 -12.5112     56.7912    128.4014   1.1933632657e+02   4.2493980336e+01    0.5931559    0.4038424 -48.84  0.003625251    1.719    0.418
        40  -9.1922    187.6503    118.3299   8.7841259816e+01   2.1313756818e+01    0.1433271    0.1151355 -82.54 0.0005485903    1.767    0.434
        41 -13.4408    116.7445    121.0540   1.0378008762e+02   3.5189130271e+01    0.7201626    0.7003067 -48.95  0.003337616    1.126    0.112
        42 -11.5883    244.3697    108.2810   7.5620933551e+01   1.0488084772e+01    0.7917323    0.4706382  -4.36  0.003678929    1.949    0.487
        43  -9.4961    228.6431    112.3150   7.9067680824e+01   1.3281471915e+01    0.1356009    0.1114707 -68.40 0.0007044505    1.746    0.427
        44  -9.6651      1.6259    110.3642   1.3069746599e+02   5.1193807382e+01    0.2728007   0.06521709 -71.66  0.001250094    2.904    0.656
        45 -11.9451    191.5117    216.2014   1.0492302604e+02   6.9753303545e+00    0.4899027    0.2507683  42.19  0.002656152    1.491    0.329
        46 -10.9085    160.8909    100.2278   8.8875271672e+01   3.0279866032e+01    0.4896954    0.3800989 -44.82  0.002497636    1.338    0.253
        47  -9.3827    181.3991    100.8124   8.4765605955e+01   2.5554659655e+01     0.214436    0.1405741 -20.27 0.0009577742    1.756    0.430
        48 -10.4440     48.3123     99.0834   1.1719376375e+02   4.9697615881e+01    0.2805868    0.1833826 -49.88  0.001662335    1.556    0.357
        49 -10.8194     37.4221     98.0461   1.2002195930e+02   5.1020798609e+01    0.2983195    0.2721486  49.34  0.002197283    1.292    0.226
        50  -9.5364    135.3271     97.6748   9.4030932014e+01   3.6233280896e+01    0.1473385    0.1141633 -86.89 0.0004972785    1.696    0.410
        51 -10.1958     13.8148     95.0509   1.2608736210e+02   5.3603555917e+01    0.2882603    0.2273744 -54.14  0.002133198    1.365    0.267
        52  -9.6400    107.8208     94.1978   1.0002525852e+02   4.2236047767e+01    0.1884352    0.1679842  -7.78    0.0010715    1.341    0.254
        53 -10.6312    211.0321     86.2989   7.5459285337e+01   2.0885813896e+01    0.6158985    0.3019994 -29.54  0.002517189    1.997    0.499
        54  -9.7557    240.6970     87.9939   7.1199918801e+01   1.3860022470e+01    0.2112898     0.175648 -17.43  0.001178887    1.119    0.107
        55 -10.2866    129.3796     83.1952   9.1625816448e+01   4.0250945960e+01    0.2876815    0.2684899 -23.06  0.001401542    1.095    0.087
        56 -12.1560     84.3280     82.1814   1.0349173394e+02   4.8672508272e+01    0.5120495    0.4151723   7.24  0.002893444    1.627    0.385
        57  -9.4570     42.9884     89.0178   1.1699426778e+02   5.2440242029e+01    0.1898097    0.1311881 -40.11  0.001135902    1.681    0.405
        58 -10.2389      4.4688     67.6477   1.2536342075e+02   6.0051881675e+01    0.2774031    0.1544108 -59.30   0.00177697    1.432    0.302
        59 -10.9181    139.8115     64.1439   8.3374804356e+01   4.1484605240e+01    0.6057435    0.5095012 -68.84  0.003096219    1.415    0.293
        60 -11.4863     87.0495     64.0511   9.7725808064e+01   5.1998584087e+01    0.4151528    0.3656591  11.24  0.002460642    1.294    0.227
        61  -9.6708     20.6440     55.7303   1.1782509119e+02   6.1587806843e+01    0.2882432   0.09112874 -54.03  0.001343205    2.321    0.569
        62 -10.2521     95.2640     54.1917   9.2107220034e+01   5.2517405021e+01    0.3820838    0.2556042 -19.43  0.001807027    1.885    0.469
        63 -10.6634    199.4320     44.4575   6.5357267945e+01   2.9580803744e+01    0.7388608    0.3142063 -23.24  0.002684589    2.421    0.587
        64 -11.3594     81.9934     43.0297   9.2396237105e+01   5.6934192354e+01    0.6628535    0.3684963 -32.99  0.003103931    1.804    0.446
        65 -10.5861     50.3469     42.1126   1.0322988160e+02   6.1634873694e+01    0.3450282    0.2636652 -24.00  0.002126409    1.388    0.280
        66 -10.1734    140.5661     38.1249   7.4323474633e+01   4.5531716540e+01    0.3460619    0.3263144  74.50  0.001901687    1.173    0.148
        67  -9.4517    173.3213     36.6806   6.7214912792e+01   3.7415700741e+01    0.1576694    0.1153141 -61.73 -0.0001541599    1.668    0.401
        68 -10.2107     40.5824     32.5634   1.0381548817e+02   6.4624475125e+01    0.2924937   0.09715666 -51.08   0.00125529    2.415    0.586
        69  -9.9965    180.6195     26.1949   6.2467000612e+01   3.6796051931e+01    0.3238873    0.2205153  24.90  0.001458018    1.678    0.404
        70 -10.2674    119.0823     19.8353   7.2315138949e+01   5.3192851864e+01    0.3415903    0.2013509 -20.47   0.00154523    1.712    0.416
        71 -11.2025    208.1961    212.9908   1.0176519072e+02   4.6393435341e+00    0.5915035     0.177281  47.47   0.00257088    2.937    0.660
        72 -12.5283    169.8343    185.6986   1.0422763841e+02   1.4484795916e+01    0.4290269    0.2796403  21.43   0.00236669    1.950    0.487
        73  -9.4677    143.6199    242.9456   1.1573294072e+02   1.1189682966e+01    0.2828322    0.2361774 -47.69   0.00240087    1.686    0.407
        74 -10.1192    150.4070    238.6009   1.1423303526e+02   1.0718101304e+01    0.3083913    0.2150513  36.98  0.002292287    1.274    0.215
        75  -9.1669    147.3139    235.6651   1.1441953540e+02   1.1524339480e+01    0.1955966   0.09846078  46.36 0.0006481289    1.455    0.313
        76 -11.3560    190.5955    186.0961   1.0060142870e+02   1.0783502763e+01    0.2595344    0.1553186  37.46  0.001374661    1.413    0.292
