#   1 NUMBER                 Running object number                                     
#   2 MAG_AUTO               Kron-like elliptical aperture magnitude                    [mag]
#   3 X_IMAGE                Object position along x                                    [pixel]
#   4 Y_IMAGE                Object position along y                                    [pixel]
#   5 X_WORLD                Barycenter position along world x axis                     [deg]
#   6 Y_WORLD                Barycenter position along world y axis                     [deg]
#   7 A_WORLD                Profile RMS along major axis (world units)                 [deg]
#   8 B_WORLD                Profile RMS along minor axis (world units)                 [deg]
#   9 THETA_WORLD            Position angle (CCW/world-x)                               [deg]
#  10 FWHM_WORLD             FWHM assuming a gaussian core                              [deg]
#  11 ELONGATION             A_IMAGE/B_IMAGE                                           
#  12 ELLIPTICITY            1 - B_IMAGE/A_IMAGE                                       
         1 -10.0409      8.4658     26.1262   1.0587915782e+02   7.2561340447e+01    0.4748923    0.3273499 -61.69  0.001705108    1.251    0.201
         2  -9.7422     21.2141     30.8746   9.9095887528e+01   7.0566421376e+01     0.557791    0.1726558 -60.57  0.001954312    2.862    0.651
         3  -9.3585    185.3043     16.6823   4.1556388211e+01   3.6582059398e+01    0.5012465    0.2740244 -48.90  0.002315148    1.741    0.426
         4  -9.7460    183.4171      9.9818   3.9689543598e+01   3.7748772916e+01    0.5588124    0.2515584 -42.70  0.001379722    2.009    0.502
         5 -11.3331    186.3307      3.5287   3.7458629208e+01   3.7632667080e+01    0.3174469    0.2825084 -27.15 0.0001730338    1.185    0.156
         6  -9.0614    181.7026      3.5315   3.7856667703e+01   3.8800669428e+01    0.2783732    0.2156637 -29.85  0.001296251    1.286    0.223
         7 -11.4623    218.9712     25.1894   4.0780068281e+01   2.7582380872e+01    0.3102123     0.272985 -63.11  0.000514765    1.074    0.069
         8  -8.6520    159.3970     27.5173   4.8350867990e+01   4.2020877865e+01    0.6639835    0.1731185 -34.03  0.002135151    3.209    0.688
         9  -9.4208    141.3219     20.1065   4.8578875217e+01   4.7680877084e+01     0.987097    0.4094973 -52.37  0.003367049    3.115    0.679
        10  -8.5296    126.9944     14.0434   4.8718655028e+01   5.2162633349e+01    0.3203091    0.2060608 -45.13 0.0007759305    1.623    0.384
        11  -9.1119    134.6956     10.4753   4.5939343994e+01   5.0493812731e+01    0.4238836    0.2737871 -38.61  0.001485468    1.557    0.358
        12  -9.1934    147.9405     15.0433   4.5639377097e+01   4.6487985456e+01    0.3004445    0.2139728 -87.80 0.0003085561    1.484    0.326
        13 -10.3607    141.4200     13.2387   4.5950927335e+01   4.8415876110e+01    0.3875332    0.3801667  71.41 0.0006193615    1.047    0.045
        14 -10.3217    134.1029     18.5023   4.9218872508e+01   4.9780698332e+01    0.7008236    0.3627507  28.85  0.002569962    2.910    0.656
        15  -9.6797    189.0464     22.8271   4.3020087478e+01   3.4970434853e+01    0.3920793    0.3229447 -21.22  0.001388282    1.271    0.213
        16  -9.0640    157.2441     15.8620   4.4616789164e+01   4.3933030355e+01    0.3966331    0.3619066  47.97  0.002260972    1.160    0.138
        17  -8.7835    152.1784     16.6548   4.5606443065e+01   4.5188073285e+01    0.5204267    0.2642728 -14.15  0.002089988    2.392    0.582
        18  -9.6182    231.6622     20.8678   3.8648516129e+01   2.5248712106e+01    0.3295015    0.2646891 -14.97 0.0004471109    1.359    0.264
        19  -8.9995     15.1761      3.3401   8.9996850411e+01   7.6820716323e+01    0.2521661    0.2132478  26.42  0.001150284    1.363    0.266
        20  -9.2585     17.2642      9.0136   9.1743210791e+01   7.5530423926e+01    0.4256344    0.2218589 -34.16   0.00188876    1.829    0.453
        21  -9.4811     13.1649      9.1289   9.5098625249e+01   7.5887041522e+01     0.321419    0.1888466 -34.99  0.001183123    1.525    0.344
        22  -8.8439     14.6719     14.3261   9.6581754346e+01   7.4698860654e+01     0.216608    0.1903441  86.41  0.000679103    1.509    0.337
        23  -9.8440     16.3787     18.6334   9.7334421316e+01   7.3651613825e+01    0.4749475    0.2079472 -55.50  0.001518709    1.948    0.487
        24 -10.2534     22.5455     17.3339   9.2290020324e+01   7.3339508668e+01    0.6536097    0.2521435  34.02  0.002830373    2.802    0.643
        25  -9.9048    211.3894     18.9378   3.9754748676e+01   3.0006181400e+01    0.4901707    0.2805601 -43.80   0.00188908    1.519    0.342
        26  -9.9169    204.6337     12.6163   3.8576799307e+01   3.2260782244e+01     0.318763    0.2650402 -47.09  0.000733649    1.071    0.067
        27 -10.1486    209.4633     11.4118   3.7857591928e+01   3.1239420203e+01    0.4141127    0.2136448 -44.91 0.0008213599    1.680    0.405
        28 -11.4733     90.2131     14.3322   5.7531120150e+01   6.1489296772e+01     1.643999      0.93928  18.91  0.003577138    2.556    0.609
        29 -11.6383    101.3084     13.8929   5.4250984122e+01   5.8820037585e+01    0.3025439    0.2693061  40.84 0.0003384968    1.081    0.075
        30 -10.2949    100.2998      9.7198   5.2491436272e+01   5.9546560852e+01    0.2697917    0.2408126  66.92 0.0002041475    1.119    0.106
        31  -8.1744     72.6356     16.2588   6.4520164375e+01   6.5246755749e+01    0.2708133    0.1692718 -21.26  0.001157737    1.699    0.411
        32  -9.3858    193.0421     12.9598   3.9683282319e+01   3.5040893303e+01    0.4350173    0.3419846  41.06  0.001524923    1.503    0.335
        33  -9.3606     60.8344     11.5926   6.6744013462e+01   6.8369733773e+01    0.6702071    0.4044966  76.94  0.002497978    3.925    0.745
        34  -9.0396     63.9548     17.8502   6.8960931201e+01   6.6813757905e+01     0.438998    0.3112265  14.90  0.002224407    1.645    0.392
        35  -8.0451     66.8367     11.7193   6.4265127846e+01   6.7117196636e+01    0.2396521    0.1741698  34.46 0.0006999832    1.351    0.260
        36  -7.9475     48.3772      9.8634   7.1737699950e+01   7.0990638828e+01    0.2365557    0.1862055  45.29  0.001012704    1.380    0.275
        37  -9.1368     33.5504     12.6109   8.2185693338e+01   7.2903222676e+01    0.3203593    0.1949746  33.15  0.001246176    1.721    0.419
        38  -8.1964     42.4674     10.4294   7.5369354408e+01   7.1916243170e+01    0.2368927    0.1801718  22.53  0.000862008    1.316    0.240
        39 -10.1536     40.0895     14.7469   7.9395227944e+01   7.1564762787e+01    0.3930699    0.3336754 -44.33  0.001321145    1.268    0.211
        40  -8.8780     30.1682     16.3459   8.6551834974e+01   7.2658394987e+01    0.3059591    0.1805325 -37.38 0.0005735569    1.546    0.353
        41  -9.8964     51.6037     18.1817   7.5008589230e+01   6.9078862940e+01    0.3679155    0.2837833 -37.43  0.001200988    1.266    0.210
        42  -9.7684     45.7811     17.6822   7.7828872083e+01   7.0149663960e+01    0.4077581    0.2955744  19.44  0.001772297    1.473    0.321
        43  -8.3896    247.5700     17.0537   3.6639279404e+01   2.2324531978e+01    0.2839766     0.148097 -46.76  0.001541561    1.567    0.362
        44  -9.4999    121.7180     17.5762   5.1225022137e+01   5.3150838020e+01    0.2668071    0.2472995 -69.28 0.0002211497    1.117    0.105
        45  -9.2973    234.8708      1.5282   3.3660499555e+01   2.6494093217e+01    0.1984872    0.1380922 -75.76 0.0004151625    1.384    0.277
        46 -10.2937    236.9744     12.4524   3.6201564419e+01   2.4985429500e+01    0.4835228    0.2971973 -25.33  0.001538545    1.522    0.343
        47  -9.1223    233.2585      5.9031   3.4821614573e+01   2.6424477934e+01    0.2511072    0.2468864  65.89  0.001629839    1.255    0.203
        48 -10.8123    113.1058     13.0561   5.1081849436e+01   5.5908346109e+01    0.4762589     0.315888 -31.90  0.001517157    1.535    0.349
        49  -8.9836     85.4033      8.7225   5.6052875839e+01   6.3310547956e+01    0.4762478    0.2965287  -9.87   0.00224173    1.831    0.454
        50  -8.4885     80.9561     12.0284   5.9239339380e+01   6.3955866135e+01    0.3399615    0.2077658  22.53 0.0009493112    2.046    0.511
        51  -8.6199      1.5682      2.6626   1.0188288041e+02   7.8026470798e+01    0.2602735     0.140492 -48.86  0.001105188    1.462    0.316
        52  -9.9921      6.2097      6.3780   9.9546968694e+01   7.6978911742e+01    0.6320636    0.2803863 -62.07  0.003093917    2.163    0.538
        53  -8.4388    171.4762     11.5194   4.1405389903e+01   4.0655872167e+01    0.2392314    0.2162525 -83.59 0.0006057119    1.046    0.044
        54  -8.8425    162.8760     11.2639   4.2308543114e+01   4.2927707633e+01    0.3685763    0.2007082 -72.49 0.0008499882    2.189    0.543
        55  -8.3345    122.0536     11.0649   4.8394329771e+01   5.3785279621e+01    0.4257979     0.156416  47.25  0.001502619    2.766    0.638
        56  -8.3502    150.1910     10.6627   4.3715046363e+01   4.6344669423e+01    0.2276747     0.182145 -44.91 0.0004039393    1.238    0.192
        57 -10.0393     24.8905      9.8239   8.6444734026e+01   7.4539571271e+01    0.4071859    0.3946966 -70.91  0.001013191    1.356    0.263
        58  -8.1614     23.5733      2.7376   8.2823863889e+01   7.5968682008e+01    0.1789094    0.1606565  78.92 0.0007728348    1.734    0.423
        59  -8.0934    128.5056      9.9066   4.6742137488e+01   5.2198074071e+01     0.257409    0.1463861 -16.43   0.00112624    1.954    0.488
        60  -7.8492    130.4345      5.4821   4.4607598791e+01   5.2116393669e+01     0.252425    0.1425513 -14.67 0.0007898898    1.986    0.496
        61  -8.1222    129.8161      2.1973   4.3356312154e+01   5.2578946795e+01    0.2038434    0.1809848 -76.23 0.0003163892    1.129    0.115
        62  -9.2027    250.3343      7.8270   3.4330064829e+01   2.2690856553e+01    0.2276576    0.1384316 -33.00  0.000572329    1.357    0.263
        63 -10.2752    224.0094      4.4466   3.5010068579e+01   2.8590420230e+01    0.4462677     0.312815 -31.09  0.001783459    1.305    0.234
        64  -8.7335     77.9146      2.2598   5.4765328234e+01   6.5783751964e+01    0.2505969    0.2134887  33.24 0.0004424687    1.093    0.085
        65 -11.1163     64.9570      5.8764   6.1542037277e+01   6.8277455513e+01    0.6452358    0.3373848  48.95  0.001201837    1.813    0.448
        66  -9.5194     74.3488      5.3567   5.7736829783e+01   6.6268671756e+01    0.3898022    0.2910073 -43.30   0.00134435    1.508    0.337
        67  -9.9721     32.2854      6.4586   7.9129836353e+01   7.4149860556e+01    0.2915404    0.2602128 -26.71 0.0005627437    1.150    0.131
        68  -9.1495     34.1617      1.7587   7.4625501562e+01   7.4613978767e+01     0.204387    0.1610697  23.93 0.0002883764    1.236    0.191
        69  -8.1463    108.1851      6.2754   4.9035511492e+01   5.7893560935e+01    0.2826065    0.1752241 -35.31  0.000798198    1.662    0.398
        70 -10.1617    243.7316      4.1065   3.3809990962e+01   2.4390687312e+01    0.4762187    0.2023169 -51.75  0.002367188    1.989    0.497
        71  -8.5632    248.4325      1.9698   3.3074771378e+01   2.3633335197e+01    0.1682977    0.1517431 -83.89 0.0001734402    1.236    0.191
        72  -8.8613    196.0093      5.1520   3.7150809188e+01   3.5080763054e+01    0.3291064    0.2429352  79.87  0.001522686    1.341    0.254
        73  -8.9273    168.8867      5.0676   3.9561949772e+01   4.1955223481e+01    0.2147382    0.2075516  -1.91  0.000519029    1.163    0.140
        74  -8.9208    145.2112      5.8499   4.2605744098e+01   4.8138452555e+01    0.4464511    0.2188032  86.46   0.00138175    2.322    0.569
        75  -9.0624    150.3428      2.1551   4.0592840789e+01   4.7106086735e+01    0.3983809    0.2133227  42.63  0.001092334    2.113    0.527
        76  -9.5160    113.6641      4.2438   4.6992323712e+01   5.6665022582e+01    0.4174823     0.316708  31.91  0.001424021    1.389    0.280
        77  -8.2271     40.8226      6.4071   7.3722915219e+01   7.2824763648e+01    0.2115077    0.1507934  27.59 0.0006509218    1.400    0.286
        78  -8.6679    121.7922      3.6805   4.5270831143e+01   5.4578010089e+01    0.3332727     0.198727  48.42   0.00105373    1.631    0.387
        79  -8.6574    203.6934      3.0256   3.5971747621e+01   3.3421271641e+01    0.3637706    0.1820556  82.77  0.001159484    2.034    0.508
        80  -7.4194    210.4611      2.4712   3.5355213073e+01   3.1872330279e+01    0.1277702    0.1148123 -57.59 0.0003059757    1.058    0.055
        81  -8.8867    218.2855      3.3215   3.5075310888e+01   2.9986824485e+01    0.2391694    0.1783034 -52.60 0.0005686404    1.145    0.127
        82  -7.7590    158.1590      1.3777   3.9433597957e+01   4.5102306871e+01    0.1904839    0.1230639 -86.82 0.0003202252    1.561    0.359
        83  -6.9599    107.4961     77.4486   7.7722193971e+01   4.6381958337e+01    0.1524251    0.1490397 -77.50 0.0002117812    1.030    0.029
        84  -8.1538    249.2219    250.5457   8.2850986415e+01  -5.1532293717e+00    0.1407364   0.06612214  21.00 0.0009189222    1.657    0.396
        85  -8.1174    110.6825    249.5423   1.0646938645e+02   1.1703747559e+01    0.1729219    0.1402745 -80.23  0.001339556    1.656    0.396
        86  -9.1060     31.8114     77.0506   1.0616701829e+02   5.8478841512e+01    0.3764469    0.2072369   7.64  0.001544325    2.464    0.594
        87 -10.0441     19.6181     74.2720   1.1095622353e+02   6.0183290760e+01    0.6038213    0.3719188  40.85  0.003184262    1.769    0.435
        88  -8.4059     10.0570     75.9961   1.1538307392e+02   6.0348056461e+01    0.2018023    0.1710869 -71.03 0.0005147003    1.037    0.036
        89  -8.3450    232.7097     74.4539   5.1894492536e+01   1.8494145718e+01    0.2153442    0.1730741 -34.12 0.0007754299    1.073    0.068
        90  -7.9511     86.5442     75.5176   8.3988604050e+01   5.1043327463e+01     0.150172    0.1440403 -36.23  8.78383e-05    1.048    0.045
        91  -8.9204    248.9603     73.3485   4.9774991597e+01   1.5506141492e+01    0.2698679    0.1615843 -10.37  0.001355589    1.998    0.499
        92  -7.9135    219.7096     74.0332   5.3435417312e+01   2.1212571842e+01    0.2764172     0.169078 -75.69  0.001189827    2.719    0.632
        93  -8.1557    189.1156     73.3018   5.7757555591e+01   2.8085174665e+01    0.1927525    0.1851369 -85.13 0.0004586479    1.106    0.096
        94  -8.4174    147.7477     72.6854   6.5565104321e+01   3.8047127936e+01     0.273364    0.2425568  15.77   0.00139867    1.254    0.203
        95  -7.9042     55.6113     71.2416   9.4614167648e+01   5.7165511432e+01    0.2048945    0.1224006 -49.66 0.0006261277    1.558    0.358
        96  -8.9701     59.3393     71.2683   9.3076045002e+01   5.6626344626e+01    0.4364721    0.2802356 -51.67   0.00208807    1.444    0.308
        97  -8.1274     57.4560     66.4885   9.2447662391e+01   5.8045808385e+01    0.2791827    0.1892036 -35.71  0.001174392    1.596    0.373
        98  -9.2812    243.4835     71.3606   4.9907279378e+01   1.6794221057e+01    0.2743627    0.2029292  19.74 0.0006524485    1.702    0.413
        99  -9.1283    152.7214     71.8101   6.4196214854e+01   3.7002591576e+01    0.3612402    0.2354039  40.35  0.001104423    1.681    0.405
       100  -8.2615    123.9422     70.4818   7.0738496609e+01   4.4126164981e+01    0.2838897    0.2229852  69.76 0.0005446931    1.449    0.310
       101 -11.1301    128.7544     71.1255   6.9672865380e+01   4.2874099405e+01     0.285726    0.2814866  17.01 0.0002849966    1.038    0.037
       102  -9.2983    133.7714     68.9852   6.7699167471e+01   4.2088761728e+01    0.6486071    0.2292954  52.85  0.002103648    2.874    0.652
       103  -9.7617    113.5450     70.1675   7.3556215826e+01   4.6571822991e+01    0.5199396    0.3992165 -70.30  0.002143027    1.596    0.373
       104  -8.6614     67.8391     72.0611   8.9888638609e+01   5.5129598876e+01     0.233077    0.2059357  39.88 0.0002545936    1.191    0.160
       105  -9.6897     28.8738     71.5671   1.0633648984e+02   6.0130055615e+01    0.2385672    0.1951562 -68.80  0.000295427    1.083    0.077
       106  -8.2097     20.6444     68.9481   1.0954899948e+02   6.1453687654e+01    0.1860861    0.1446909 -68.22  0.000341621    1.110    0.099
       107  -8.1212    160.7488     70.9176   6.2243892448e+01   3.5213636435e+01    0.2518029    0.1567229 -55.90 0.0007009584    1.892    0.471
       108  -8.1760     37.6950     71.0267   1.0228751561e+02   5.9412100778e+01    0.2486441    0.1889351   2.66 0.0005953887    1.594    0.372
       109  -8.5040    210.3362     69.5009   5.3530997804e+01   2.3864909221e+01    0.3118616    0.2044838 -70.19  0.001456121    2.077    0.519
       110  -9.1063    192.5550     69.3481   5.6105137298e+01   2.7896777662e+01    0.2654502    0.2276469  41.24 0.0007246473    1.263    0.208
       111 -10.8256    100.9800     63.1776   7.5013179174e+01   5.0775709051e+01    0.6635133    0.6151206 -88.70  0.003535558    1.173    0.147
       112  -7.7652    221.8766     67.8383   5.1585038447e+01   2.1612618794e+01    0.1776865    0.1444248 -56.53 0.0003777567    1.271    0.213
       113  -7.9017    204.2570     68.6222   5.4151304990e+01   2.5338944769e+01    0.1791868    0.1302528  48.09 0.0002861189    1.502    0.334
       114  -8.6607    172.1057     67.2029   5.8945629065e+01   3.3078422597e+01    0.6229842    0.2929482  47.93  0.002426922    2.241    0.554
       115  -8.8039      3.4940     67.3188   1.1717763967e+02   6.2848345882e+01    0.3002665    0.1523511  88.35  0.001455021    1.915    0.478
       116  -8.0715     93.3869     70.1740   7.9912596562e+01   5.0893120728e+01    0.2249832    0.1409952 -56.16 0.0009562814    1.719    0.418
       117 -10.4519     49.0607     65.3877   9.5761816085e+01   5.9465561173e+01    0.3490617    0.2951011  26.89 0.0005653191    1.289    0.224
       118  -8.9369     39.2443     66.3700   1.0044072694e+02   6.0401324274e+01    0.5993659    0.1632129  33.33  0.002085959    3.545    0.718
       119  -9.9523     15.8536     65.7448   1.1118926176e+02   6.2587455219e+01    0.5438838    0.2622022 -24.67  0.000840591    2.850    0.649
       120  -9.7242    234.1808     63.5826   4.9066937695e+01   1.9632158893e+01    0.4286433    0.2995036 -25.91   0.00196663    1.289    0.224
       121  -8.5414    148.9773     66.7569   6.3427643761e+01   3.8801954686e+01    0.2296815    0.1617167  54.78 0.0005873439    1.439    0.305
       122  -8.3233    152.2831     64.7831   6.2088834777e+01   3.8330380597e+01    0.2154933    0.1793369  27.88   0.00106357    1.353    0.261
       123  -8.5694    208.3373     64.7372   5.2542581981e+01   2.4982185446e+01    0.2248065    0.1860493 -53.52 0.0004044243    1.200    0.167
       124  -9.2857    144.2172     64.0903   6.3625472738e+01   4.0436597771e+01    0.3134525    0.2867561 -63.17  0.000635821    1.123    0.110
       125  -8.4797     89.9373     65.4953   7.9519650017e+01   5.2601199051e+01    0.2279002    0.1497954  43.01 0.0005967191    1.562    0.360
       126  -7.7621     66.8935     64.8271   8.8000838207e+01   5.6974477370e+01    0.1898648    0.1656687 -79.29 0.0004598691    1.262    0.208
       127  -8.1102    201.9460     64.0619   5.3246405743e+01   2.6519011456e+01    0.2091509    0.1648972  16.45 0.0003812731    1.548    0.354
       128  -8.3219    126.7721     64.3430   6.7940242732e+01   4.4631681741e+01    0.2667879    0.1896802  59.38 0.0008162827    1.478    0.323
       129  -8.1151    122.0181     64.0613   6.9107446683e+01   4.5814775845e+01    0.2329444    0.1854145 -80.75   0.00108446    1.565    0.361
       130  -8.7375      8.5061     62.9370   1.1421001919e+02   6.3711307116e+01    0.3193488     0.161192  45.96  0.001141432    2.269    0.559
       131  -7.9281    161.2280     62.7260   5.9626608733e+01   3.6465656345e+01    0.2086148    0.1781572  12.11  0.001051941    1.357    0.263
       132 -10.1244    243.0616     59.7874   4.7201126489e+01   1.8342511437e+01    0.4036323    0.2783876 -21.10  0.001532101    1.375    0.273
       133  -8.9948    249.6528     58.7036   4.6291735045e+01   1.7199543941e+01    0.3009561    0.2405292  -8.76  0.001704344    1.343    0.256
       134  -9.0969     81.2655     61.7476   8.1342601406e+01   5.5111347298e+01     0.716552    0.2794825  39.40  0.002526664    2.732    0.634
       135  -9.0505     40.5062     61.4185   9.8522863368e+01   6.1471777324e+01    0.2976526    0.2228733 -81.30 0.0009790305    1.474    0.322
       136  -9.7758     24.3314     59.3819   1.0578955897e+02   6.3556471846e+01    0.4294024     0.314343 -47.51  0.001721988    1.257    0.204
       137  -8.9345     28.5605     54.3781   1.0240615994e+02   6.4414556507e+01     0.437789    0.1405919 -49.53  0.001259608    2.654    0.623
       138  -8.0325     60.1873     61.5808   8.9734534466e+01   5.8791251194e+01    0.2007108    0.1403431  16.97 0.0009521631    1.753    0.429
       139  -8.4158    189.5095     59.9943   5.3934060681e+01   3.0004963086e+01    0.4013033    0.1895356  61.58  0.001633141    2.250    0.556
       140  -9.9657    192.8376     56.9690   5.2573927500e+01   2.9652556567e+01    0.2946139    0.2330535 -57.67 0.0003465349    1.289    0.224
       141  -8.6522    188.2197     51.8492   5.1764832226e+01   3.1484110224e+01    0.3184117    0.2353839 -65.69 0.0008552702    1.487    0.327
       142 -10.3733    193.4728     49.5917   5.0368627701e+01   3.0532339728e+01    0.6039034    0.3650354 -56.76  0.002748961    1.821    0.451
       143  -8.5509    197.5161     48.5334   4.9524351747e+01   2.9711830695e+01    0.2552772    0.1824895 -71.72 0.0005964349    1.593    0.372
       144  -8.7931    134.5236     58.9062   6.4146105108e+01   4.3733178525e+01    0.4604758    0.2528055 -49.42  0.001821599    1.991    0.498
       145  -8.2813    174.9211     58.4754   5.5829611720e+01   3.3759426062e+01    0.4059059    0.1977937  40.07  0.001505101    2.653    0.623
       146  -8.5894     34.6744     59.4088   1.0073970113e+02   6.2594820332e+01    0.2286734    0.1969101  24.49 0.0008949619    1.288    0.224
       147  -8.1660     36.9638     56.0261   9.8668302359e+01   6.3170105179e+01    0.2106059    0.1609993 -39.98  0.001160838    1.260    0.207
       148  -8.5376      5.6833     58.2965   1.1486102886e+02   6.5000171044e+01    0.3101778    0.1319178 -40.41  0.001401859    2.395    0.582
       149  -9.4274    235.2915     56.8223   4.7285397009e+01   2.0270904854e+01    0.3718075    0.2212214 -60.53  0.001613633    1.977    0.494
       150  -8.1555    159.5148     58.4158   5.8598856352e+01   3.7588385707e+01     0.263169    0.2251147  51.96 0.0006728282    1.198    0.165
       151  -8.9905    155.9922     56.3282   5.8613623355e+01   3.8804582847e+01    0.3793845    0.2673874  60.94 0.0009926662    1.450    0.310
       152  -8.6745     89.6796     57.3770   7.6711562393e+01   5.4361243304e+01    0.2522618    0.2245069 -43.14  0.000208434    1.100    0.091
       153  -8.0765    224.2917     56.9853   4.8529848428e+01   2.2547514588e+01    0.1892024    0.1592895 -32.58 0.0007037683    1.059    0.056
       154  -9.3740     62.8370     55.2658   8.6425095377e+01   5.9809127062e+01    0.5120432    0.3325688  74.27  0.002026601    2.835    0.647
       155  -8.8267    141.6095     55.1388   6.1221531570e+01   4.2614014126e+01    0.4131484    0.3011815  27.86   0.00187719    1.678    0.404
       156  -9.4826    113.2595     54.5170   6.8150332755e+01   4.9669356751e+01    0.4633413    0.3869082  29.14  0.001314925    1.303    0.232
       157  -7.9607    207.7560     55.3996   5.0106228035e+01   2.6404791402e+01    0.1996918     0.175679 -58.33  0.001143799    1.121    0.108
       158  -9.3330    205.2144     51.3825   4.9331121314e+01   2.7528078088e+01    0.3786114    0.2682118  14.90  0.001626562    1.932    0.483
       159  -9.3996    124.5837     54.5697   6.5095770313e+01   4.6936705939e+01    0.3260351     0.256784 -13.55  0.000740613    1.475    0.322
       160  -8.6358    128.3569     51.6953   6.3109008905e+01   4.6504744324e+01    0.2599382    0.1654249 -72.43 0.0006664927    2.464    0.594
       161  -8.1109     42.0792     53.3070   9.5320237576e+01   6.3224804055e+01    0.2530817      0.16361 -47.06 0.0006149478    1.408    0.290
       162 -10.4314      9.7553     52.4116   1.1173854224e+02   6.6254263351e+01    0.4446671    0.3568857  19.52  0.002459252    1.449    0.310
       163  -8.8149     94.9047     51.6496   7.2744204138e+01   5.4391414199e+01    0.3722174    0.3355587 -11.48  0.001135595    1.168    0.144
       164  -8.2805     92.6184     48.2269   7.2168240541e+01   5.5545057115e+01    0.2644703    0.1757295 -42.79 0.0008658051    1.489    0.329
       165  -8.8509    182.5361     51.0656   5.2375719818e+01   3.2979851598e+01    0.4333091    0.2089282  28.59  0.001244767    5.002    0.800
       166  -9.3358    244.7537     49.7819   4.4643626051e+01   1.9233730095e+01    0.3380353    0.2332215  38.96  0.001499374    1.854    0.461
       167 -10.0115    120.1360     49.7701   6.4497093365e+01   4.8861122253e+01     0.521628    0.2426823 -37.88 0.0009763067    2.110    0.526
       168  -8.6764     84.6441     51.2834   7.6199237528e+01   5.6632980947e+01    0.2864347    0.2073979  75.33 0.0009183864    1.999    0.500
       169  -8.9472     80.1391     49.6959   7.7258069845e+01   5.7859166742e+01    0.3991886    0.3169835   2.07   0.00198336    1.538    0.350
       170  -8.1831     67.9858     49.9983   8.2255011680e+01   6.0080346790e+01    0.3649138    0.2153551  26.13  0.001563066    2.111    0.526
       171  -7.8210     72.6234     51.2695   8.0832257608e+01   5.8973945312e+01    0.2653911    0.1942803  69.33 0.0006007917    1.897    0.473
       172  -8.4321     73.5540     48.4793   7.9357546459e+01   5.9380280179e+01    0.3156543    0.2234598  43.89  0.001031054    1.472    0.320
       173  -9.6421    222.3462     49.9163   4.6928678446e+01   2.3876717627e+01    0.3088968    0.2197127  60.78  0.001348917    1.561    0.359
       174  -8.8039    220.8984     46.0166   4.6071112702e+01   2.4685310480e+01    0.2671336    0.2201017 -30.88 0.0004255732    1.116    0.104
       175  -9.4828    213.1770     49.2634   4.7790379752e+01   2.5991235419e+01    0.3270093    0.3182113  37.05   0.00101754    1.161    0.139
       176  -9.2861    237.7112     48.2366   4.4932680936e+01   2.0839359889e+01     0.316441    0.2161771 -31.65  0.001804768    1.250    0.200
       177  -9.1374    231.8878     41.3137   4.3767075025e+01   2.2886601453e+01    0.2661287    0.2148012 -62.30  0.001068536    1.223    0.182
       178  -9.3342    234.0419     44.9888   4.4481770413e+01   2.1992011154e+01    0.2865842    0.2412989 -38.46 0.0009554691    1.020    0.020
       179  -8.5162    237.7554     42.9501   4.3630782624e+01   2.1465181833e+01     0.199768    0.1833988 -80.72 0.0005136772    1.192    0.161
       180  -7.7268    134.4603     49.4453   6.0846595880e+01   4.5351980532e+01    0.1500022    0.1481114  31.66 0.0001033115    1.036    0.035
       181  -9.2148     42.6296     47.5853   9.3109137579e+01   6.4482410712e+01    0.4115966    0.2802659  63.31   0.00160028    2.109    0.526
       182  -8.0735     39.7159     43.6780   9.3198456025e+01   6.5733606167e+01    0.2010753    0.1617855  -5.16 0.0004842223    1.377    0.274
       183 -10.1357    173.9758     45.4026   5.1958854535e+01   3.5907282487e+01    0.3954822    0.3414206 -35.16  0.001376446    1.122    0.109
       184  -8.4730    164.5247     46.3329   5.3799871238e+01   3.8167236175e+01    0.2479325    0.2184448 -75.26  0.000557206    1.167    0.143
       185  -8.5868    163.2212     42.1187   5.2645435089e+01   3.9101265211e+01    0.2788796    0.1906877  49.10 0.0007604977    1.528    0.345
       186  -7.4854    155.3184     47.2823   5.5760394824e+01   4.0376972980e+01    0.2404048    0.1480535 -18.33 0.0003102093    1.921    0.480
       187  -8.5848    155.9825     44.0042   5.4537043129e+01   4.0690965521e+01    0.2706578    0.2064361  65.35  0.001332195    1.324    0.245
       188  -8.4646    152.5816     40.8052   5.4068437907e+01   4.2029632335e+01    0.3809994    0.2253431 -48.04  0.001638557    1.750    0.429
       189  -8.3808     88.3165     46.3796   7.2915088412e+01   5.6823759270e+01    0.2695762    0.2220306  40.66  0.001390473    1.231    0.188
       190  -8.5027     20.5091     47.1066   1.0469495194e+02   6.6849699625e+01    0.2263798    0.1650554 -23.54 0.0006927967    1.481    0.325
       191  -9.5266    137.5031     44.8447   5.8511632404e+01   4.5312116461e+01    0.4895628    0.3850794  20.92  0.001777625    1.527    0.345
       192  -8.6681    142.5661     39.0746   5.5373477334e+01   4.4873727221e+01    0.3593755    0.2318107  11.94   0.00144139    2.377    0.579
       193  -8.8397    137.6834     39.3672   5.6478702965e+01   4.6094566359e+01    0.3116841    0.2031225 -74.61 0.0007379352    2.108    0.526
       194  -8.0888    112.0549     46.7792   6.5560936759e+01   5.1338266445e+01     0.432204    0.1292049  55.96  0.001267856    3.602    0.722
       195  -9.1790    246.7485     44.6060   4.3230451668e+01   1.9452796855e+01     0.229748    0.1903802 -27.28 0.0002661633    1.127    0.113
       196  -9.1725     29.1837     44.6807   9.9204416581e+01   6.6666566777e+01    0.3574523    0.2435884 -79.77 0.0008653177    1.728    0.421
       197 -10.2763     34.2464     43.6304   9.6095637026e+01   6.6382580447e+01    0.4461343    0.3231693 -51.41  0.001020183    1.221    0.181
       198  -7.3485      7.6864     45.6369   1.1149277158e+02   6.8011460949e+01    0.1771004    0.1142488 -25.95 0.0009826857    1.677    0.404
       199  -7.1047      9.4806     42.5033   1.0976920999e+02   6.8674873454e+01    0.2333986    0.1094508 -70.03 0.0007600606    1.838    0.456
       200  -9.1979    185.4835     41.8122   4.9172997117e+01   3.3525215999e+01    0.4912317    0.2928357 -66.95  0.002122897    2.084    0.520
       201  -8.4171     95.4655     43.7114   6.9380920455e+01   5.5748678109e+01    0.2611688    0.1989179  45.75 0.0006820511    1.317    0.241
       202  -8.2230    108.2313     43.3132   6.5284106806e+01   5.2850248391e+01    0.3591865    0.1776169  54.56  0.001103599    2.034    0.508
       203  -8.4223    147.7057     41.6971   5.5296307161e+01   4.3161828812e+01    0.2794661    0.2176799  35.04 0.0006080412    1.436    0.303
       204  -8.6139    127.8469     41.6346   5.9510033094e+01   4.8271811993e+01    0.3420312    0.2669569  58.74  0.001597332    1.272    0.214
       205  -8.3086     89.8835     40.4259   6.9879544318e+01   5.7581130860e+01    0.3760101    0.1733729  40.48  0.001416502    2.372    0.578
       206  -9.4781     91.4135     34.4733   6.6761142150e+01   5.8265623483e+01    0.4995189    0.4409226  61.19  0.001799657    1.202    0.168
       207  -8.5131     67.0211     42.0343   7.9422636537e+01   6.1898112573e+01    0.3418918    0.1995956  47.17 0.0008618126    1.861    0.463
       208  -8.4772    250.3664     40.8066   4.2028053006e+01   1.9181311925e+01    0.1970264     0.147511 -52.32 0.0007457379    1.219    0.179
       209  -9.0893    247.9745     37.1833   4.1366480365e+01   2.0065620625e+01    0.3584206    0.2003843 -33.59    0.0011885    1.446    0.308
       210  -9.8651    224.5112     38.0715   4.3641096850e+01   2.4862666992e+01    0.5112256    0.2971725 -14.02  0.002441072    2.024    0.506
       211  -7.7014    181.8105     47.1733   5.1312900604e+01   3.3705684884e+01    0.1927469    0.1679514  10.43 0.0004476023    1.326    0.246
       212  -8.7431     19.9331     40.3423   1.0307905095e+02   6.8499817790e+01     0.256573    0.2203607  57.09  0.001375894    1.386    0.279
       213  -7.1117     15.2245     39.0171   1.0547279638e+02   6.9156097878e+01     0.272992    0.1308714 -42.61   0.00130377    1.911    0.477
       214  -8.6568     12.2349     36.1529   1.0647200001e+02   7.0023086689e+01    0.2329611    0.2115388  81.26 0.0009910663    1.258    0.205
       215  -7.9489    106.6521     39.9038   6.4356933852e+01   5.3800806864e+01    0.2034434    0.1819218 -33.42  0.000370395    1.120    0.107
       216  -9.4976     67.8403     27.0514   7.2131129621e+01   6.4539580353e+01    0.6145135    0.3178672 -39.50   0.00204738    1.889    0.471
       217  -9.5797     67.3837     36.4613   7.6816819288e+01   6.2921616335e+01     1.047641    0.5074487  24.83  0.003471261    3.819    0.738
       218  -9.9348     51.9426     37.3834   8.4392614401e+01   6.5394309908e+01    0.4101424    0.2794994 -41.16 0.0008435372    1.368    0.269
       219  -8.2524     56.4916     36.4859   8.1779503760e+01   6.4845331893e+01    0.2423124    0.1780341  24.58 0.0007703497    1.476    0.323
       220  -8.6877     59.2400     33.7303   7.9221464999e+01   6.4920450452e+01    0.3564914    0.2626878 -51.26  0.001305352    1.428    0.300
       221  -8.8062    216.3692     38.9929   4.4693819518e+01   2.6562238382e+01    0.2326622      0.19395  76.83  0.001376645    1.296    0.228
       222  -8.9414    212.5458     37.4963   4.4689765771e+01   2.7613829447e+01    0.3104621    0.2240306 -75.58  0.001453924    1.504    0.335
       223 -10.3082    211.7965     33.1973   4.3600176893e+01   2.8302239804e+01     0.514024    0.3007963 -51.65  0.001033809    1.630    0.387
       224  -9.3598    119.8228     38.8741   6.0390785190e+01   5.0727467145e+01     0.288727    0.2412278  63.92  0.000435231    1.211    0.175
       225 -10.3941    124.5227     35.6675   5.7988228217e+01   5.0023614861e+01     0.450296    0.3608445 -43.12  0.001081916    1.263    0.208
       226  -9.2238     99.9937     38.0030   6.5549638106e+01   5.5696956885e+01    0.3459569    0.3180156 -37.93 0.0009892908    1.096    0.088
       227  -8.2945    102.2373     34.6106   6.3422838377e+01   5.5717469963e+01    0.2864549    0.1997567  34.25 0.0007377191    1.571    0.364
       228  -9.8791     13.8877     30.1291   1.0355497976e+02   7.1308226641e+01    0.4121985    0.2370687  10.62   0.00218936    1.992    0.498
       229  -8.3582    168.3341    248.2995   9.5773744226e+01   4.5582968023e+00     0.109727   0.06854299  11.80 0.0003181772    1.652    0.395
       230 -10.1138      5.1493     33.8841   1.1030958828e+02   7.0936617684e+01    0.5721349    0.2529151 -70.49  0.002399145    1.952    0.488
       231  -9.0156    110.3341     36.6549   6.1980970839e+01   5.3431298871e+01    0.4089204     0.279612 -72.80  0.001622516    2.105    0.525
       232  -9.1769    114.2522     35.4367   6.0432703819e+01   5.2651183008e+01    0.5558442    0.2895103  45.62  0.002251462    1.959    0.489
       233  -9.4400     24.8269     32.9255   9.7618089997e+01   6.9777595816e+01     0.403088    0.2896199 -84.28  0.001785491    1.814    0.449
       234  -9.3807    243.2167    244.6787   8.2950944826e+01  -3.9931929107e+00    0.2036684     0.111909   5.48  0.001420292    1.600    0.375
       235  -8.7603    236.2431     35.4631   4.1918811256e+01   2.2654734191e+01      0.34099    0.1900402 -76.22  0.001654911    2.281    0.562
       236  -8.4998    192.9001     36.6267   4.6671553089e+01   3.2372879529e+01    0.2404982    0.2098364  18.07 0.0005278792    1.351    0.260
       237  -9.7934    153.7594     33.4437   5.1309093096e+01   4.2737947961e+01    0.4206988    0.2755168 -27.82  0.000513385    1.545    0.353
       238  -7.7983    165.5105     34.9982   4.9930809765e+01   3.9478987901e+01    0.2122084    0.1406058 -30.94  0.000403797    1.476    0.323
       239  -8.4560     33.9906     34.4800   9.2784687884e+01   6.8462788388e+01    0.2685581      0.21289 -89.50  0.001485049    1.709    0.415
       240  -7.9467    241.3372     36.6325   4.1775604077e+01   2.1466185675e+01    0.1985631     0.116885 -53.58 0.0008389429    1.612    0.380
       241  -9.0932    134.2770     32.0889   5.4461074172e+01   4.8015597330e+01    0.3562792    0.2576897  79.86 0.0003813849    1.522    0.343
       242  -8.5437    130.8691     28.0648   5.3605839382e+01   4.9447901775e+01    0.3930238    0.1636578 -42.31  0.001436663    2.462    0.594
       243  -8.6807     39.5907     32.4697   8.8750415911e+01   6.8197290036e+01    0.2344676    0.2052894 -25.34 0.0007221383    1.058    0.055
       244  -8.9577    213.6054    244.5986   8.7591971570e+01  -6.1281782422e-01    0.2702628    0.1289229  40.12  0.001404129    2.148    0.534
       245  -9.1735    186.8083     29.2603   4.5215107736e+01   3.4780230624e+01    0.5347425    0.2754377 -39.02  0.001848569    1.755    0.430
       246  -9.5628    192.9595     24.2616   4.3025272738e+01   3.3839040515e+01    0.3936341    0.2825599  -4.54  0.001698415    1.703    0.413
       247  -8.9908    194.0636    242.8612   9.0627475982e+01   1.9481089500e+00    0.2640826    0.1108072  28.73  0.001485536    1.918    0.479
       248  -8.4736    234.6748    242.6839   8.3983936385e+01  -2.8625160716e+00    0.1077384   0.05876352   7.88 0.0004175024    1.670    0.401
       249  -8.4316    178.3362    242.1288   9.3266695472e+01   4.0169887380e+00    0.2445027    0.1161288  29.86  0.001445874    1.639    0.390
       250  -8.4123     47.1615     30.6869   8.3811183323e+01   6.7489180233e+01    0.4488432    0.1869149 -32.14   0.00127773    3.459    0.711
       251  -8.1017     51.4842     28.5137   8.0517591109e+01   6.7233513361e+01     0.243821    0.1342806  34.79  0.000587659    1.919    0.479
       252  -9.0575     51.6478     24.9884   7.8658839057e+01   6.7868019473e+01    0.3533256    0.3309912 -72.72  0.002145099    1.324    0.245
       253  -9.6152     84.3629     29.5303   6.6915108767e+01   6.0658594350e+01    0.3354915    0.2468848 -30.38 0.0005953806    1.356    0.262
       254  -9.1106    224.6487     28.6450   4.1191625297e+01   2.5926409429e+01     0.434566    0.2071323 -30.15  0.001694683    1.813    0.448
       255  -9.4130    247.3860    239.2209   8.1564125383e+01  -3.9514357050e+00     0.161888    0.1149149 -17.87  0.001310964    1.470    0.320
       256  -8.5725    227.0801    239.9398   8.4796672617e+01  -1.7286559559e+00     0.249366    0.1054837  18.13  0.001318293    2.588    0.614
       257  -8.8353    156.3481     28.7273   4.9242121698e+01   4.2669215671e+01    0.2648861    0.1981699  84.52  0.000742575    1.402    0.287
       258  -8.1540    161.2094     22.0222   4.6203041024e+01   4.2201537164e+01    0.3042852    0.2413297  44.63  0.001226502    1.360    0.265
       259  -8.0282    157.3379     22.7042   4.6995178562e+01   4.3139766859e+01    0.2061543     0.142406 -82.81 0.0008282884    1.604    0.376
       260  -8.2011     97.0460     29.4352   6.2699976929e+01   5.7760300297e+01     0.218453    0.1982339 -26.84  0.000583918    1.107    0.097
       261  -8.3739    178.8258     23.7832   4.4485824824e+01   3.7436915449e+01    0.3058418     0.210813  29.89  0.001293152    1.862    0.463
       262  -8.4130    175.0021     26.5103   4.5828405485e+01   3.8095268038e+01    0.4949352    0.1508606 -45.74  0.001595133    3.360    0.702
       263  -9.5459    169.2056     26.9959   4.6758162681e+01   3.9530188020e+01    0.8210347    0.2792685  47.32  0.002669044    3.538    0.717
       264  -8.4567    168.5013     23.0023   4.5539074099e+01   4.0184313212e+01    0.2966671    0.1912763  67.15 0.0005632536    1.525    0.344
       265  -9.8069    123.8663     26.5905   5.4505191312e+01   5.1465616701e+01    0.3345269    0.2347568 -22.83  0.001593394    1.504    0.335
       266  -8.8346    104.9196     27.1462   5.9395709216e+01   5.6192486465e+01    0.4336516    0.2407542 -13.84  0.001027528    2.414    0.586
       267  -7.8131     61.5591     27.7165   7.5241925869e+01   6.5624285912e+01    0.1852365    0.1294412 -47.69 0.0008632416    1.509    0.337
       268  -7.7373    115.0028     27.2653   5.6837695930e+01   5.3650337627e+01     0.208438    0.1859229  59.30 0.0004806064    1.099    0.090
       269  -8.3140     30.1751     24.6165   9.0762385767e+01   7.1005863578e+01    0.2940626    0.1725444  -8.82  0.001163908    2.455    0.593
       270  -8.3526    234.7377     25.6390   3.9606419528e+01   2.4074826504e+01    0.2431668      0.15437 -28.53  0.001348423    1.408    0.290
       271  -9.9017    136.9908     25.3649   5.1355476351e+01   4.8189864119e+01    0.3614704    0.2575513 -60.66 0.0004832127    1.559    0.359
       272  -7.7420     72.0309    239.5146   1.1308351893e+02   1.7893039167e+01    0.1687928   0.05368258  48.18 0.0008094911    2.480    0.597
       273  -9.7868    171.9179    233.5863   9.3347714976e+01   5.8958284021e+00    0.2801457    0.2418884  26.89  0.002167345    1.227    0.185
       274  -7.9188    153.2979    233.3607   9.6764370339e+01   8.4142720485e+00    0.1131436   0.07721983   4.85 0.0007034103    1.712    0.416
       275  -7.6005    250.3005    230.6634   7.9899842690e+01  -3.4798321181e+00    0.0850094   0.07470532   7.35 0.0007035264    1.660    0.398
       276  -8.4566    219.1079    228.8546   8.4524510569e+01   3.6619981964e-01    0.1939088    0.1073881  35.42  0.001252832    1.643    0.391
       277  -7.8352    102.4876    229.4699   1.0625579250e+02   1.5759253878e+01     0.116956   0.09008211  41.51 0.0001138791    1.013    0.013
       278  -9.3351    127.9450     18.9476   5.0548603852e+01   5.1355471229e+01    0.4255749    0.2551368  63.94   0.00140903    1.595    0.373
       279  -8.5278    238.9408     24.7821   3.9078425146e+01   2.3282788689e+01    0.2129282    0.1567733 -33.46 0.0004696327    1.177    0.151
       280  -8.2925    237.5864     20.7418   3.8188137818e+01   2.3999497171e+01    0.2614439    0.1612025  50.61  0.001424065    2.007    0.502
       281  -8.1823    110.3462    219.6808   1.0368926920e+02   1.6303290232e+01    0.1246255   0.07572807  55.80  0.000704908    1.729    0.422
       282  -9.0066     78.3412     23.8409   6.6328741074e+01   6.2882399189e+01    0.4651725    0.3330692 -11.02  0.002298004    1.596    0.373
       283  -7.8414     41.9318     25.2302   8.4022875016e+01   6.9342644785e+01    0.2250209    0.1547185  29.26 0.0003743693    1.532    0.347
       284  -7.9577     38.5108     24.9817   8.5869453222e+01   6.9874375774e+01    0.2269106    0.1439851 -21.92  0.001114854    1.834    0.455
       285  -8.6019    239.3101    215.9672   7.9371174100e+01  -7.4512583868e-01    0.1546101    0.1115757  -0.86  0.001156436    1.096    0.088
       286  -8.5992    152.6328     23.0397   4.7824328602e+01   4.4340956702e+01    0.3984331    0.2177939 -28.12  0.001729855    1.822    0.451
       287  -8.6575    234.9591    208.2636   7.8849059405e+01   6.1974690070e-01    0.2430369     0.137671 -12.31   0.00143106    1.717    0.417
       288  -8.8538    113.4051     22.6795   5.5258349311e+01   5.4670953375e+01    0.4315703    0.2152594  34.77  0.001382177    2.644    0.622
       289  -8.6069    246.0320     23.1499   3.8180804697e+01   2.1998615742e+01    0.1815827     0.149242 -46.78 0.0003082093    1.019    0.019
       290  -8.6383     29.3546    198.9463   1.1945918094e+02   2.9849200893e+01    0.2212184    0.1209823 -89.43 0.0007617439    1.791    0.442
       291  -8.1485    232.4835     36.5161   4.2508588950e+01   2.3325812135e+01    0.2117547    0.1592821   2.54 0.0005371202    1.681    0.405
       292  -8.8114    103.8548     21.0623   5.6941418846e+01   5.7290925740e+01    0.3228495    0.2411604 -12.01  0.001233436    1.470    0.320
       293  -8.4222     58.0640     21.3873   7.3585171846e+01   6.7373452392e+01     0.215823    0.1731107 -21.91  0.001205271    1.203    0.169
       294  -7.7110    173.1564    194.8148   8.7611468324e+01   1.1065072569e+01    0.1700193    0.1282109   8.85 0.0006356503    1.300    0.231
       295  -7.4266    220.4346    193.4724   7.8798786609e+01   4.2775902487e+00    0.1171272    0.0929295   6.31 0.0002666281    1.028    0.028
       296  -7.2009    224.3127    153.3158   7.0783871965e+01   8.9655302575e+00    0.1305412   0.08594014   3.81 0.0007034136    1.641    0.390
       297  -8.8515     39.6694    136.0211   1.1203965671e+02   4.2810136869e+01    0.2038428    0.1883262  33.74 0.0002719561    1.228    0.185
       298  -9.6605     66.0440    131.5490   1.0349549529e+02   4.0746324783e+01    0.5430762    0.3190338  20.56  0.001111041    2.138    0.532
       299  -8.4147     13.4560    133.0733   1.1959238969e+02   4.5856061667e+01    0.2209801    0.1611542  47.40 0.0006354546    1.305    0.234
       300  -8.6291     25.3725    128.4996   1.1562087930e+02   4.6018662851e+01    0.2857337    0.1294863  55.52  0.001288599    2.191    0.544
       301  -8.2168    206.5041     20.1293   4.0510533491e+01   3.1025313910e+01     0.252392    0.1848639 -40.13 0.0008272404    1.214    0.177
       302  -7.8725    198.2055    126.1680   6.9521093026e+01   1.7620281868e+01    0.1700297    0.1585656 -53.10 0.0002359805    1.273    0.215
       303  -7.6661    142.3838    126.8745   8.1435520488e+01   2.8588824367e+01    0.1982118    0.1356387 -30.79 0.0003808538    1.649    0.394
       304  -7.6544     17.2448    124.9706   1.1783255270e+02   4.7548725550e+01    0.1718715    0.0953276 -81.71  0.000879343    1.580    0.367
       305  -9.9916     69.2191    122.8061   1.0108181813e+02   4.2446369635e+01    0.2421416    0.2234855  76.07 0.0002519122    1.018    0.018
       306  -7.8536     10.2890    121.3795   1.1973487865e+02   4.8930389314e+01    0.1310045   0.08110275 -53.02 0.0007017216    1.737    0.424
       307  -8.5628     71.0507     20.1846   6.7255781718e+01   6.5002487498e+01    0.2456252    0.2034764 -49.52   0.00134968    1.367    0.269
       308  -9.1585     12.0301    114.9955   1.1868443450e+02   5.0392649921e+01    0.2720444    0.2247622  80.67 0.0004759738    1.040    0.038
       309  -9.1922    197.0028     18.1970   4.0842819036e+01   3.3518536311e+01    0.3656498    0.2236351 -62.10   0.00138257    1.657    0.397
       310  -9.3422     15.5076    112.5291   1.1731675023e+02   5.0768110978e+01    0.2215578    0.1915501  85.10 0.0006678881    1.029    0.028
       311  -9.1683    169.1517     18.1683   4.3860235061e+01   4.0559561961e+01    0.2672248    0.2403713  10.61 0.0004573837    1.276    0.216
       312  -8.6441    173.0896     17.0000   4.3004195836e+01   3.9665685630e+01    0.3039347    0.1802437  68.18 0.0008168591    1.645    0.392
       313  -8.2780     22.4930    114.0294   1.1512059807e+02   4.9863223201e+01    0.2016728    0.1144361 -77.37 0.0005531016    1.548    0.354
       314  -9.2832      5.9850    113.0417   1.2052245273e+02   5.1259883747e+01     0.301277    0.2266445  37.13  0.001879918    1.412    0.292
       315  -7.5708     44.1984    105.0098   1.0640074062e+02   5.0090361732e+01    0.1827055    0.1006103 -69.02 0.0003667021    1.663    0.399
       316  -8.2826    246.3854    104.1787   5.7091379164e+01   1.1956902411e+01    0.1823392   0.09775639 -37.51 0.0003968979    1.640    0.390
       317  -8.2008     19.6005    104.2470   1.1506741751e+02   5.2558056126e+01    0.1922244    0.1025574 -65.61 0.0009468134    1.633    0.388
       318  -8.7979    119.7983    102.8654   8.1425135733e+01   3.8264665510e+01    0.2837244     0.235216  61.13 0.0006540712    1.285    0.222
       319  -8.5683     25.6819    103.2037   1.1276757072e+02   5.2343673774e+01    0.2177769    0.1676571  47.68 0.0006484182    1.329    0.248
       320  -9.6663      9.7964    101.0484   1.1824446289e+02   5.4027959785e+01    0.3004451     0.164685  30.83  0.001099254    1.930    0.482
       321  -8.4291     33.9680     16.4962   8.4170401782e+01   7.2132498772e+01    0.2459029    0.2013529  20.47 0.0006824202    1.257    0.204
       322  -8.5081    204.1111     97.4869   6.1659902000e+01   2.1004889950e+01    0.2891591    0.2134543 -55.71  0.001487545    1.584    0.369
       323  -7.8296    130.6659     97.8535   7.7151389490e+01   3.7038726569e+01    0.2119215    0.1390596 -52.95 0.0004398373    1.614    0.380
       324  -7.6395     24.3594     98.2768   1.1261477046e+02   5.3707584528e+01    0.1345274   0.09167006 -40.43 0.0002905894    1.660    0.398
       325  -7.8464     56.1723    100.1708   1.0124679135e+02   4.9880478486e+01    0.1996955    0.1576325  74.09 0.0003562323    1.338    0.253
       326  -8.1789    230.3671     96.1626   5.7394419767e+01   1.5966311106e+01    0.1933436    0.1036649 -39.20 0.0003846326    1.685    0.406
       327  -9.2868     71.2438     95.1489   9.4781982321e+01   4.8992008957e+01    0.6530496    0.2702442  37.62  0.002482493    2.431    0.589
       328  -8.5501     38.9941     94.4815   1.0652779362e+02   5.3333493771e+01    0.3279035    0.1265913 -51.38  0.001280463    2.480    0.597
       329  -8.0388    212.9462     94.5122   5.9524701118e+01   1.9640624707e+01    0.2065227    0.1777857 -78.01 0.0007340388    1.457    0.314
       330  -9.2008    109.8025     15.6047   5.2973349951e+01   5.6467285811e+01    0.2636545    0.2245957  77.84 0.0005609156    1.218    0.179
       331  -8.5752    210.0169     91.4462   5.9213319826e+01   2.0704426192e+01    0.1999481    0.1380865  53.52 0.0007368655    1.594    0.373
       332  -7.7589     79.0264     15.4820   6.1750655613e+01   6.3945111180e+01    0.2000876    0.1320508  49.48 0.0003507322    1.463    0.317
       333  -8.6460    248.9951     92.8140   5.4222898075e+01   1.2992230468e+01    0.1947426    0.1372368 -63.89  0.001057992    1.978    0.494
       334  -7.6251    174.5726     93.2028   6.5849514511e+01   2.8117011508e+01    0.2053547    0.1396274 -22.76 0.0008492278    1.604    0.377
       335  -7.8623    145.8785     92.8807   7.1971511052e+01   3.4672342022e+01    0.2172545    0.1967638  17.40 0.0003839413    1.184    0.155
       336  -7.1995    133.3071     92.3011   7.4919661358e+01   3.7608182673e+01    0.1536688     0.122798   4.88 0.0003185811    1.598    0.374
       337  -9.4586     19.5949     90.8350   1.1344327971e+02   5.5970605639e+01    0.3744066    0.3088035  81.08  0.001721914    1.141    0.124
       338  -9.1071    242.2730     86.9157   5.3689967883e+01   1.4988653881e+01    0.3302348    0.1478465 -31.42  0.001255812    1.859    0.462
       339  -8.8144      1.5150     37.0062   1.1330025879e+02   7.0347197671e+01    0.3165857    0.1827543 -88.24  0.001093526    1.801    0.445
       340  -7.9166     99.5618     90.9602   8.4197466919e+01   4.5009622092e+01    0.2256062    0.1470869 -50.60 0.0005612446    1.511    0.338
       341  -8.9042     55.5147     89.6982   9.9285567366e+01   5.2607030862e+01     0.520101    0.2479325  57.27  0.001885504    3.076    0.675
       342  -7.7512    136.6670     89.2390   7.3188398140e+01   3.7475864192e+01    0.3825794    0.1406813 -33.14  0.001102615    3.729    0.732
       343  -9.0647      5.2713     88.0371   1.1870994189e+02   5.7557862715e+01    0.4356764      0.24626 -24.52  0.002209551    2.307    0.567
       344  -8.0436      1.3706     85.5728   1.2000937948e+02   5.8361354845e+01    0.3226385    0.1064816 -89.62  0.001229716    2.976    0.664
       345  -9.4742    189.1834     87.9599   6.1734349678e+01   2.5734193462e+01    0.2541602    0.2387041 -51.44 0.0002336504    1.102    0.093
       346  -8.7159     27.8586     88.5637   1.0986063302e+02   5.5898826330e+01     0.273184    0.1870576  72.10  0.001435953    1.554    0.356
       347  -7.3081    102.6628     86.2899   8.1895560765e+01   4.5450034244e+01    0.1554198    0.1210813  82.22 0.0005121994    1.638    0.390
       348  -8.2587    235.7260     84.7324   5.3989528690e+01   1.6517692362e+01    0.2801455    0.1165575 -45.48  0.001158693    2.516    0.603
       349  -7.1941     97.2898     85.2808   8.3308060645e+01   4.6749387232e+01    0.1472015    0.1209827  -8.67 0.0003294782    1.526    0.345
       350 -10.2205     65.4181     83.4280   9.4007164670e+01   5.2765991991e+01    0.4768304    0.3828473  27.34            0    1.365    0.268
       351  -8.0070    230.5051     84.3381   5.4563192094e+01   1.7585459573e+01    0.2194788    0.1267368  57.45  0.001099426    2.004    0.501
       352  -9.0579    199.9127     76.9139   5.7019020979e+01   2.5080369954e+01    0.3813882    0.2361769 -42.44  0.001460623    1.525    0.344
       353  -7.9536    195.5440     77.4938   5.7862350738e+01   2.5969751417e+01    0.1999138    0.1749648 -34.48 0.0001613064    1.059    0.056
       354 -10.1496    195.6658     82.0613   5.9067329297e+01   2.5233518725e+01    0.3116041    0.2885888  71.22 0.0005337023    1.192    0.161
       355 -10.3906    188.8009     82.1446   6.0239179002e+01   2.6759402804e+01    0.3307908    0.2570245  39.63 0.0003197152    1.388    0.280
       356  -9.1470     87.3425     83.0002   8.5956257559e+01   4.9173711936e+01    0.4043491     0.295549 -80.72  0.001363262    1.769    0.435
       357  -8.9280     11.9484     82.6611   1.1544486856e+02   5.8552971252e+01    0.3924669    0.1290588 -50.92  0.001555779    2.825    0.646
       358  -7.8937    154.8141     83.2099   6.7157846023e+01   3.4448292902e+01    0.2064462    0.1780601   4.69 0.0003643487    1.320    0.243
       359  -8.1776    146.0133     82.7168   6.9009057191e+01   3.6599615154e+01    0.2054302    0.2023752  59.59 0.0004053832    1.032    0.031
       360  -8.5963     37.8322     82.4094   1.0471840548e+02   5.6529701243e+01    0.3353771    0.1941744  61.10  0.001507812    2.146    0.534
       361  -8.0389    125.5944     82.0299   7.3939707799e+01   4.1437193767e+01    0.3265782    0.2042518  31.53  0.001328354    1.978    0.494
       362  -7.4102    169.3114     81.6453   6.3686720493e+01   3.1330670057e+01    0.1576662    0.1147873 -66.53 0.0007044222    1.731    0.422
       363  -7.7425     49.6123     79.7591   9.9308467356e+01   5.5856814393e+01    0.1404512    0.1048984 -22.27 0.0003844228    1.651    0.394
       364  -9.5676    152.9202     78.0360   6.6045676659e+01   3.5839729065e+01    0.3716746    0.2226939  55.22 0.0005579269    1.726    0.421
       365  -8.7377     75.9692     78.3349   8.8647620113e+01   5.2294629081e+01    0.2264657     0.204365  86.15 0.0007030203    1.190    0.160
