#   1 NUMBER                 Running object number                                     
#   2 MAG_AUTO               Kron-like elliptical aperture magnitude                    [mag]
#   3 X_IMAGE                Object position along x                                    [pixel]
#   4 Y_IMAGE                Object position along y                                    [pixel]
#   5 X_WORLD                Barycenter position along world x axis                     [deg]
#   6 Y_WORLD                Barycenter position along world y axis                     [deg]
#   7 A_WORLD                Profile RMS along major axis (world units)                 [deg]
#   8 B_WORLD                Profile RMS along minor axis (world units)                 [deg]
#   9 THETA_WORLD            Position angle (CCW/world-x)                               [deg]
#  10 FWHM_WORLD             FWHM assuming a gaussian core                              [deg]
#  11 ELONGATION             A_IMAGE/B_IMAGE                                           
#  12 ELLIPTICITY            1 - B_IMAGE/A_IMAGE                                       
         1 -13.3878    201.7883     41.6723   4.1018464602e+01   3.0305115512e+01     1.152276     1.043506 -29.90  0.004534276    1.250    0.200
         2 -13.4870    213.0629     31.0563   3.7260195594e+01   2.9143329535e+01    0.9035828    0.7759447  34.01  0.002376677    1.540    0.351
         3 -12.7188    238.6635      5.7042   2.9760405226e+01   2.6647816041e+01     0.779368     0.554248 -89.68  0.005438446    1.243    0.196
         4  -9.5306     58.3255      6.9131   5.9438004188e+01   6.5846064771e+01    0.1733733    0.1458886 -27.36 0.0006723854    1.455    0.313
         5 -11.9355    186.4165    212.2842   8.2517167485e+01   3.1360980721e+00    0.6568575     0.318059  17.95   0.00250466    3.100    0.677
         6  -9.2721    139.9910    249.8293   9.8015509100e+01   3.7222516931e+00    0.2134688    0.1256801  52.96  0.001094891    2.018    0.504
         7  -9.5399    102.1485    250.1094   1.0580244582e+02   9.0743348602e+00    0.2252084    0.1506876  43.70 0.0006992898    1.268    0.212
         8 -10.2576    101.5830    245.2964   1.0538789335e+02   1.0034774465e+01    0.3306535    0.1268608 -63.04  0.001428935    3.194    0.687
         9 -12.2835     68.8418    170.7784   1.0341729896e+02   3.0869487490e+01     1.214523    0.5619142 -33.22  0.003831841    4.528    0.779
        10 -14.4517     70.7617    150.3814   9.9576176577e+01   3.5658925460e+01     3.851882     2.258655  75.95  0.006459539    2.847    0.649
        11 -10.2495    111.0039    203.4669   9.7843721041e+01   1.7071354523e+01    0.2623735    0.2284278  72.72  0.001481874    1.237    0.192
        12  -8.3238     76.4229    184.5149   1.0346924695e+02   2.6529237867e+01    0.1380596     0.126568  81.89 7.357518e-05    1.038    0.037
        13  -8.6367     82.5312    182.4185   1.0162248712e+02   2.6165626058e+01    0.2003604     0.124043 -51.01 0.0005201337    1.636    0.389
        14  -9.0495     79.4747    182.0019   1.0233517112e+02   2.6699893095e+01    0.3232578    0.2136815  83.52  0.001510374    1.914    0.478
        15  -9.3834     99.3893    180.8767   9.7103551090e+01   2.3995499352e+01    0.2615567    0.2096099  21.62 0.0007748381    1.363    0.266
        16 -14.7879     37.9946    193.2568   1.1384849775e+02   2.9163885638e+01     4.763431     1.838256  65.63   0.01112723    4.422    0.774
        17  -9.8862    187.2201    175.6260   7.5323614720e+01   9.7797054343e+00    0.3615925    0.2791281 -48.68   0.00120228    1.412    0.292
        18 -15.4574      6.4682    168.8794   1.1909924680e+02   3.7753764079e+01     12.27398     1.214651 -74.47   0.02938146    8.074    0.876
        19  -8.8028    147.9835    174.0086   8.3796491364e+01   1.7224295554e+01    0.2175211    0.1831113  84.70 0.0003622105    1.569    0.363
        20  -9.6677     34.8460    171.7908   1.1236501624e+02   3.4585634796e+01    0.2431367    0.1826984  73.03 0.0008509633    1.304    0.233
        21  -8.3231    193.3516    170.6876   7.3025413486e+01   9.6380532189e+00    0.1372119    0.1176135 -89.82 0.0007045532    1.725    0.420
        22 -10.1754    240.2532    169.3584   6.3988178850e+01   2.0310194475e+00    0.1831929    0.1419847 -21.85 0.0004909186    1.090    0.082
        23  -8.6216    185.0000    167.9763   7.4198237973e+01   1.1672754164e+01    0.2404236   0.07937321 -43.01 0.0007135547    2.918    0.657
        24  -8.9583    110.8428    167.8379   9.1849873799e+01   2.5200064388e+01    0.2047534    0.1762267  75.36 0.0004674727    1.316    0.240
        25  -8.3149    120.4886    165.5549   8.8915169099e+01   2.4070940321e+01    0.1467926    0.1458091  29.13 0.0001531606    1.023    0.022
        26 -11.5874     87.3820    152.8145   9.5329480758e+01   3.2636656491e+01    0.6487407    0.4500046 -15.37  0.001230474    2.056    0.514
        27 -10.4831    133.6999    144.6905   8.1068718293e+01   2.6458330687e+01     1.162838    0.2844302 -53.16  0.002671577    5.815    0.828
        28  -8.8130    111.7223    149.9758   8.8045647292e+01   2.9293471137e+01    0.3144699    0.1789354  59.23  0.001162888    2.594    0.614
        29  -8.6372     82.5807    194.7721   1.0338442122e+02   2.3270407766e+01    0.1870716    0.1285745 -79.47 0.0007936439    1.598    0.374
        30  -9.3375    174.8690    149.1332   7.2263654662e+01   1.7393717054e+01    0.2269365    0.2089256 -71.47 0.0007410443    1.281    0.219
        31  -9.9318     29.6371    144.0667   1.1036789625e+02   4.1909754406e+01    0.3210705    0.2662019  11.53  0.001942764    1.459    0.314
        32 -10.3856    101.6655    138.5482   8.8368110267e+01   3.3793560778e+01    0.6023807    0.3643815 -20.63  0.002232742    2.705    0.630
        33 -11.5622     88.8581    138.2303   9.1988506851e+01   3.5995204417e+01    0.3036567    0.2601001 -37.89 0.0003608188    1.162    0.139
        34 -10.0312     25.7853    137.4974   1.1058982377e+02   4.3878394275e+01    0.3377652    0.1858975  36.27   0.00152462    1.995    0.499
        35 -10.0064    105.8919    131.0606   8.5462306801e+01   3.4844785626e+01    0.3953919    0.3395467 -52.60  0.001336866    1.145    0.126
        36  -9.4732    110.8746    129.7651   8.3741577170e+01   3.4245766713e+01    0.3120347    0.2475626  -2.29 0.0009198146    1.525    0.344
        37 -10.0278    135.2188    129.1735   7.7004832304e+01   2.9668832257e+01    0.4029399    0.3293995 -59.69  0.001959689    1.332    0.249
        38 -13.8037     19.9325    220.2563   1.1994699568e+02   2.5011348943e+01    0.8139814     0.602932  65.95  0.002264384    1.124    0.111
        39 -16.9844     15.4683    242.7614   1.2215290895e+02   2.0887642841e+01     6.045722      2.21162  24.80   0.02742984    3.821    0.738
        40  -9.0499    160.7581    127.7345   7.0393964508e+01   2.4714555833e+01    0.2520109    0.1207922 -52.25 0.0008946037    2.408    0.585
        41 -10.3581     98.0615    125.4098   8.6404934388e+01   3.7570230462e+01    0.3232453     0.268304  -9.94 0.0007538666    1.363    0.266
        42 -10.1237    116.9962    124.0151   8.0624550993e+01   3.4431355345e+01    0.3722636    0.2410245  -0.46 0.0007385474    2.686    0.628
        43  -9.6720    135.0000    120.3617   7.4852210725e+01   3.1664997745e+01    0.5082765   0.08702603 -45.26  0.001132736    5.702    0.825
        44  -8.3123    163.6471    121.2963   6.8135895404e+01   2.5440585262e+01    0.1539783    0.1235603 -87.07 0.0004798524    1.689    0.408
        45  -9.0962    107.4406    118.4371   8.1943926595e+01   3.7522036504e+01    0.2471032    0.2201803  17.54  0.001276442    1.168    0.144
        46  -8.9546     84.7711    118.7774   8.8849076256e+01   4.1373946966e+01     0.202283    0.1774836  81.99 0.0008056946    1.361    0.265
        47  -9.4878     32.4929    119.0304   1.0568510649e+02   4.7871170377e+01    0.2131718     0.116817 -63.43  0.000504547    1.564    0.360
        48 -10.0266    231.2680    113.6662   5.3645658196e+01   1.3062742661e+01    0.2552414    0.2449207 -49.80 0.0007612769    1.115    0.103
        49 -10.8573     33.3630    108.4543   1.0346618773e+02   5.0379609325e+01    0.4920679    0.2421741 -66.58  0.002217215    1.908    0.476
        50 -11.6945    247.2960    107.3596   4.9986538417e+01   1.1175356792e+01      0.51656    0.2519132 -42.67  0.002490915    1.723    0.420
        51  -9.6497    115.2599    108.5271   7.7104820077e+01   3.8260376482e+01    0.3458865    0.1797971 -34.05  0.001295408    2.201    0.546
        52 -13.3667     51.9635    187.2683   1.0988399259e+02   2.9005142697e+01     1.545216    0.9945192  71.76  0.008002009    1.682    0.406
        53  -9.9671    120.3733    103.8093   7.4381516771e+01   3.8258601176e+01    0.2309284    0.1395617 -34.05 0.0009532716    1.752    0.429
        54  -9.4813    147.2104    186.5975   8.6422334541e+01   1.4669100225e+01    0.2773371    0.2009547 -44.47  0.001384406    1.405    0.288
        55  -9.4130    205.3369    110.2464   5.7085974897e+01   1.8764460652e+01    0.2809079    0.2022464  43.83  0.000794351    1.525    0.344
        56 -10.9542    192.0284    193.2931   7.7839827778e+01   5.6284141550e+00    0.7338716    0.3855223 -62.17  0.002271044    5.363    0.814
        57  -9.9102     36.0269    101.0381   1.0104511124e+02   5.1915043810e+01    0.2109668    0.1855875 -55.54 0.0009477023    1.071    0.066
        58  -9.2222     53.0057     90.9839   9.2575598687e+01   5.2414208947e+01    0.1727889    0.1529122 -32.55 0.0005448334    1.013    0.013
        59  -9.4075    107.5859    203.7751   9.8694448497e+01   1.7535697327e+01    0.1871877    0.1330695 -75.39 0.0009430849    1.670    0.401
        60  -8.1115     75.6164     85.3144   8.2960136047e+01   5.0468122749e+01    0.1433353    0.1162125  75.52 0.0007020633    1.818    0.450
        61  -8.7758    151.0751     82.8629   6.0706614709e+01   3.5699960216e+01    0.2261838    0.1957072 -75.46 0.0005500902    1.329    0.247
        62  -8.0020     68.7134     81.2811   8.4183984827e+01   5.2398056110e+01    0.1283171    0.1144192  82.29 0.0002310591    1.521    0.342
        63  -8.4830    109.7573     79.6306   7.0330004976e+01   4.5351003058e+01    0.1994624    0.1395469  51.85  0.000726419    1.555    0.357
        64  -8.2390    184.3755     77.3040   5.2579249534e+01   2.9032286691e+01    0.1466839    0.1107019  21.65 0.0007029044    1.766    0.434
        65 -14.8251      9.6387    207.4183   1.2119999787e+02   2.8715133554e+01     1.326697     1.086754 -19.53   0.00898402    1.835    0.455
        66  -8.5027     52.4222     64.4770   8.5058875313e+01   5.8147458132e+01    0.1345713    0.1176298 -22.03 -1.320071e-05    1.050    0.048
        67 -11.2185     12.2623     59.5093   1.0054627223e+02   6.3134790151e+01    0.5239573    0.2227442  28.55  0.002562738    2.679    0.627
        68 -10.1894    119.5512    245.1773   1.0164426362e+02   7.4996747018e+00    0.2737498    0.1742968 -55.68   0.00124207    1.819    0.450
        69 -11.0187     95.0218    241.5624   1.0633682138e+02   1.1648843980e+01    0.4646199    0.2070048 -63.45  0.002204257    2.585    0.613
        70 -10.2581    121.5907    197.7393   9.4438057848e+01   1.6622060821e+01    0.4068425    0.2383994 -67.35  0.001774943    2.211    0.548
        71  -8.9650    198.4010     23.3507   3.7013117160e+01   3.3264406295e+01    0.2052051    0.1222185 -26.21 0.0006391474    1.935    0.483
        72 -12.9366    192.0594     48.7070   4.4027340274e+01   3.1570751741e+01     1.019999    0.7847049  33.96  0.001131946    1.637    0.389
        73  -8.7030    189.4966     15.0355   3.5960237864e+01   3.6159592462e+01    0.1723982    0.1199819 -33.01 0.0005856395    1.546    0.353
        74  -9.0587     89.1168    210.9984   1.0399875961e+02   1.8711408277e+01    0.1968407    0.1781238  69.99 0.0004986888    1.059    0.055
