#   1 NUMBER                 Running object number                                     
#   2 MAG_AUTO               Kron-like elliptical aperture magnitude                    [mag]
#   3 X_IMAGE                Object position along x                                    [pixel]
#   4 Y_IMAGE                Object position along y                                    [pixel]
#   5 X_WORLD                Barycenter position along world x axis                     [deg]
#   6 Y_WORLD                Barycenter position along world y axis                     [deg]
#   7 A_WORLD                Profile RMS along major axis (world units)                 [deg]
#   8 B_WORLD                Profile RMS along minor axis (world units)                 [deg]
#   9 THETA_WORLD            Position angle (CCW/world-x)                               [deg]
#  10 FWHM_WORLD             FWHM assuming a gaussian core                              [deg]
#  11 ELONGATION             A_IMAGE/B_IMAGE                                           
#  12 ELLIPTICITY            1 - B_IMAGE/A_IMAGE                                       
         1 -15.3311     12.6564    147.4861   1.4284415730e+02   4.2981294212e+01     10.58291     3.530292 -85.43   0.03576398    4.739    0.789
         2 -12.4604      6.7088     51.9420   1.2837396736e+02   6.3695614387e+01    0.4081544    0.2446851 -48.22  0.002108484    1.240    0.193
         3 -13.4910    198.2838     27.2771   6.8127196087e+01   3.2447735190e+01     1.526623     1.307352  30.04  0.007343404    1.470    0.320
         4 -13.4968    213.3963      8.5735   6.1842746289e+01   3.0933640616e+01    0.9598864    0.7940409  64.52   0.00438182    1.251    0.200
         5 -11.3455      3.4265      2.8259   1.1313664812e+02   7.1799354116e+01    0.3699025    0.2149459 -11.13  0.002654953    1.463    0.316
         6 -11.0651    198.7642    245.6841   1.1726590771e+02  -5.7756672872e+00    0.2011619    0.1880901  -5.29  0.001403985    1.210    0.174
         7 -11.1038    249.5606    248.9339   1.0863683378e+02  -1.4169721261e+01    0.3726321     0.208922  26.84  0.002211521    1.538    0.350
         8 -11.6634    125.3352    249.9970   1.3159942148e+02   6.0778830104e+00     0.479526    0.1897899  41.17  0.002188649    2.213    0.548
         9 -11.7352     99.1337    248.2904   1.3618893411e+02   1.0610995041e+01    0.3708341    0.3179641  23.84  0.002335735    1.706    0.414
        10 -11.3738     45.9507    248.8946   1.4542019925e+02   1.8067080996e+01    0.3208234    0.1996937  76.77  0.001372264    1.276    0.216
        11 -12.9056     11.4352    231.9094   1.4990034200e+02   2.5257565193e+01    0.8250255    0.4653958  66.44  0.005681764    1.361    0.265
        12 -12.3309     19.9509    244.2697   1.4928412285e+02   2.2015902888e+01    0.6444579    0.3420827  86.23  0.003924583    1.512    0.339
        13 -13.0231      6.6958    248.4411   1.5154079473e+02   2.2675451676e+01     1.591195    0.4782421  44.65  0.008915252    2.666    0.625
        14 -12.7043     12.1614    241.0529   1.5031316566e+02   2.3456982201e+01    0.7060893    0.4736097  36.15   0.00507617    2.028    0.507
        15 -11.5017     29.2344    248.4873   1.4808213319e+02   2.0180811912e+01    0.5038511    0.2407901 -74.23  0.003155256    1.900    0.474
        16 -12.6225     34.9715    244.5036   1.4690307524e+02   2.0237295684e+01    0.5962021    0.4158859  80.81  0.004371363    1.084    0.077
        17 -10.9197    139.1486    245.6838   1.2849259055e+02   4.4814579232e+00    0.2037485    0.1684446  89.90  0.001174585    1.351    0.260
        18 -11.3780    138.6474    250.2440   1.2916653185e+02   3.8034994669e+00    0.4382413    0.1574195  48.08  0.001900461    2.327    0.570
        19  -9.5370    186.3341    240.6608   1.1881937267e+02  -2.9116373401e+00     0.125474   0.09545575  68.43 0.0001611002    1.749    0.428
        20  -9.5146    183.6456    238.6734   1.1902224558e+02  -2.1377061152e+00     0.132346   0.09284471  13.87 0.0007046437    1.770    0.435
        21 -10.9349    237.7394    249.3713   1.1077837959e+02  -1.2485965510e+01    0.2255499    0.1297786  27.99   0.00131623    1.492    0.330
        22 -10.1212    173.8992    222.9590   1.1841500956e+02   2.1834704566e+00    0.3791297    0.2521201  61.60  0.001919787    1.795    0.443
        23 -12.9326     32.0430    233.6042   1.4663080888e+02   2.2654964088e+01     0.276549    0.2239949 -76.76 0.0007358406    1.429    0.300
        24 -12.7130    114.1540    231.4333   1.3145524458e+02   1.1285768912e+01    0.9652703    0.1772328  44.40  0.003015793    4.343    0.770
        25 -12.5560      9.8020    207.1449   1.4859863961e+02   3.0324855238e+01    0.6227339    0.4927239  30.24  0.003134322    1.864    0.463
        26 -11.7652     59.1803    199.5090   1.3858649602e+02   2.6277844371e+01    0.2660813    0.2173025 -73.69  0.000521109    1.235    0.190
        27  -9.3529    191.8852    193.0066   1.0942593457e+02   4.1128926186e+00     0.330837    0.1895322 -65.12  0.001233396    3.268    0.694
        28 -10.7089     11.5625    195.4646   1.4744251443e+02   3.2578384061e+01    0.2630182    0.1552097  61.60 0.0007731661    1.509    0.337
        29  -8.8886    152.5068    213.0898   1.2113463446e+02   7.9501016671e+00    0.1778857    0.1379684 -54.70 0.0003073889    1.434    0.303
        30 -10.8918     76.3231    178.0162   1.3222283092e+02   2.8685625147e+01    0.2459072    0.2088928 -77.28 0.0003708502    1.095    0.087
        31 -13.2355     62.8284    176.0584   1.3497690455e+02   3.1040107462e+01     0.515788    0.2760529 -46.96  0.001809492    2.322    0.569
        32 -12.0203     65.7503    191.0290   1.3624715080e+02   2.7251563517e+01    0.2747241    0.2277533 -68.76 0.0004501062    1.246    0.197
        33  -8.9228     96.9802    173.9979   1.2688485106e+02   2.6360705191e+01      0.23634    0.1571585  76.34  0.001118008    1.753    0.430
        34 -11.8825     83.5814    169.2280   1.2923692274e+02   2.9623162227e+01    0.6422043    0.5485122 -44.39   0.00371286    1.392    0.282
        35 -13.9183     36.9093    226.9066   1.4530513587e+02   2.3389828166e+01    0.6435882    0.4841907  76.16  0.002377559    1.048    0.046
        36 -10.2361     96.7547    153.0438   1.2326113878e+02   3.1296480992e+01    0.3104289    0.2888127 -51.17 0.0008228676    1.169    0.145
        37  -9.3719     99.9292    148.6358   1.2162195642e+02   3.1794415100e+01    0.2381674    0.1873402 -49.36 0.0003863943    1.284    0.221
        38 -12.0959     85.2798    151.9129   1.2590878671e+02   3.3432671638e+01     0.300863    0.2424261 -47.57 0.0006111432    1.317    0.241
        39  -8.9900    134.0000    147.0121   1.1282637817e+02   2.5711961178e+01    0.2604992   0.08648589 -49.53  0.000809756    2.993    0.666
        40 -12.2912     67.4331    143.5550   1.2893558318e+02   3.8029872746e+01    0.6720699    0.4367425  67.54  0.002186194    1.843    0.457
        41 -12.8544     90.2131    226.9400   1.3553465037e+02   1.6031998058e+01     1.764259    0.1980859  48.85  0.003995843    8.945    0.888
        42  -9.9985    109.0137    137.5215   1.1701170572e+02   3.2787179945e+01    0.4410574    0.2923619 -21.72  0.001423023    2.489    0.598
        43 -11.0359     29.6456    130.6593   1.3656899257e+02   4.5347649955e+01    0.3478407    0.2061271  56.49 0.0008435276    2.008    0.502
        44 -11.9017     21.2752    126.2047   1.3808159373e+02   4.7091110984e+01    0.5148556    0.2343981  48.80  0.001692308    2.704    0.630
        45 -10.5445     95.9509    134.9166   1.1985450519e+02   3.5712305368e+01    0.2595282    0.2241597 -32.92 0.0004015352    1.304    0.233
        46  -9.0982    106.3189    124.0767   1.1468956863e+02   3.6407413818e+01    0.1978761    0.1769956 -60.95 0.0003104135    1.067    0.063
        47  -8.8269     78.4946    131.2140   1.2372859379e+02   3.9370063998e+01    0.1889205    0.1269362 -72.60 0.0004562501    1.563    0.360
        48  -9.6083    168.0082    113.3337   9.6637545176e+01   2.5566292069e+01    0.2934445    0.2140199 -62.64 0.0007733144    1.567    0.362
        49  -9.0930     41.6073     96.6350   1.2708774586e+02   5.1886669135e+01    0.2231258    0.1328213  52.91 0.0007852476    2.333    0.571
        50 -12.7016     47.0993    215.8542   1.4255432131e+02   2.4376334269e+01    0.6735247    0.5623029 -74.74  0.003646391    1.344    0.256
        51  -9.9110    158.1494     76.8529   8.8880500208e+01   3.5022808043e+01    0.2369837    0.2085739 -75.86 0.0006312184    1.238    0.192
        52 -12.0610    173.4896    247.9183   1.2233123114e+02  -1.7988224937e+00    0.6068116    0.2591166  53.24  0.002578494    2.683    0.627
        53 -11.5631    152.4276    248.6495   1.2638749055e+02   1.7131079317e+00    0.3437124    0.1564475  46.45  0.001664882    1.812    0.448
        54 -11.0343     80.3576    248.5540   1.3955316762e+02   1.3412748771e+01    0.3574426    0.1664567  58.39  0.001883917    1.875    0.467
        55 -11.4276      3.7146     20.8737   1.2013897891e+02   6.9190769992e+01    0.2755725     0.137597 -38.51   0.00180215    1.469    0.319
