#   1 NUMBER                 Running object number                                     
#   2 MAG_AUTO               Kron-like elliptical aperture magnitude                    [mag]
#   3 X_IMAGE                Object position along x                                    [pixel]
#   4 Y_IMAGE                Object position along y                                    [pixel]
#   5 X_WORLD                Barycenter position along world x axis                     [deg]
#   6 Y_WORLD                Barycenter position along world y axis                     [deg]
#   7 A_WORLD                Profile RMS along major axis (world units)                 [deg]
#   8 B_WORLD                Profile RMS along minor axis (world units)                 [deg]
#   9 THETA_WORLD            Position angle (CCW/world-x)                               [deg]
#  10 FWHM_WORLD             FWHM assuming a gaussian core                              [deg]
#  11 ELONGATION             A_IMAGE/B_IMAGE                                           
#  12 ELLIPTICITY            1 - B_IMAGE/A_IMAGE                                       
         1 -13.5191    222.1632      7.6957   3.5355774605e+01   2.9134029370e+01     1.247975    0.9929464  56.86  0.004874485    1.433    0.302
         2 -14.2670    195.5158     38.4824   4.5843412146e+01   3.1811607884e+01     2.636628      1.61219  23.88   0.01111805    2.816    0.645
         3 -11.0193     77.4116     14.1839   6.2409621290e+01   6.2338389639e+01    0.6132171    0.2974929  65.84  0.002196122    4.475    0.777
         4 -10.7524    192.8264      4.4439   3.7242491651e+01   3.6283505115e+01    0.3356018    0.1566097 -54.82   0.00153732    2.278    0.561
         5  -8.1607     75.9701    221.4712   1.1329007736e+02   1.8819656251e+01    0.2380077    0.1104736 -55.62  0.001159084    2.411    0.585
         6 -11.2276    242.8770    248.6871   8.4160978079e+01  -1.0514387785e+01    0.3237188    0.2218457   7.88  0.002225442    1.145    0.126
         7 -12.2044    248.8519    247.1038   8.2877268670e+01  -1.1089853620e+01      1.15466    0.2416648 -37.65  0.004309439    5.368    0.814
         8 -19.5084     13.0002    145.4705   1.2007663445e+02   4.2875932309e+01      19.1434     4.553562 -76.65   0.06485795    3.997    0.750
         9  -9.7882     35.6334    208.6547   1.2041953257e+02   2.6433056316e+01    0.1486546   0.09855381  65.21 0.0004797331    1.284    0.221
        10 -11.0472     66.0101    207.0477   1.1391734668e+02   2.3137942153e+01    0.2244816    0.1737642 -87.70 0.0003235306    1.215    0.177
        11 -11.5234     64.3550    202.7883   1.1383303355e+02   2.4268346306e+01    0.2352909    0.1966317 -88.09 0.0005107446    1.119    0.106
        12  -8.3280    223.8196    206.6162   8.0353783881e+01  -2.2399523552e+00    0.1637205    0.1133715  40.08 0.0003603638    1.555    0.357
        13  -8.9182     93.5707    205.6540   1.0772639525e+02   1.9563626009e+01    0.2345292    0.1894092  13.73 0.0004858692    1.605    0.377
        14  -9.1866     96.3778    202.2162   1.0665565680e+02   1.9867551563e+01    0.2389004    0.1229876 -57.53 0.0008720343    2.029    0.507
        15 -10.9036    193.0049    195.1975   8.4241664940e+01   4.7102205814e+00    0.8953754    0.4646899 -58.85  0.003217491    4.007    0.750
        16  -8.7555    186.9803    186.4890   8.3817609363e+01   7.3316828483e+00    0.2172308    0.1729475  67.04  0.001113474    1.783    0.439
        17 -11.8014    135.1863    203.1802   9.8090005272e+01   1.3363244465e+01    0.5008718    0.3202232 -64.21  0.002455835    1.928    0.481
        18 -11.9036    133.2415    194.8481   9.7182423610e+01   1.5381898329e+01    0.4519264    0.3306368  83.63  0.001676633    1.899    0.473
        19  -9.9111    204.4120    199.7741   8.2809222569e+01   1.9809925174e+00    0.1893024    0.1187093 -24.69 0.0009509147    1.676    0.403
        20 -11.4927    141.2631    198.7236   9.6013520955e+01   1.3201911838e+01    0.4609629    0.2997625 -79.18  0.002021605    2.556    0.609
        21 -12.4586     53.4561    197.2595   1.1565345622e+02   2.6844276893e+01    0.5193209    0.2794573 -46.62  0.002526543    2.504    0.601
        22  -9.4344     38.7736    199.6437   1.1904003387e+02   2.8018912070e+01      0.15918    0.1336881  75.25  0.000572463    1.056    0.053
        23 -11.4149    127.8448    192.7064   9.8065723178e+01   1.6760069528e+01    0.4006437    0.2536528 -81.98  0.001544801    2.536    0.606
        24 -10.8426     71.9846    246.1242   1.1633444748e+02   1.4645065851e+01    0.4050342    0.1723479 -70.25  0.002091058    2.618    0.618
        25 -10.7649     62.4493    250.4934   1.1844434171e+02   1.5080956041e+01    0.2097781    0.1083115  50.96  0.001246092    1.528    0.345
        26  -9.3582     81.3418    193.9864   1.0900814717e+02   2.3880630462e+01    0.3879116    0.2275736  67.44  0.001841526    1.992    0.498
        27 -11.2570    149.4135    188.1389   9.2344537073e+01   1.3878317505e+01    0.5079297    0.3704877 -76.87  0.002436192    1.962    0.490
        28 -11.5648     73.9018    188.5990   1.1005111652e+02   2.6132784251e+01    0.5203633    0.2665611  68.65  0.002158214    2.688    0.628
        29 -11.9682     62.3407    184.3684   1.1223833518e+02   2.8635207689e+01    0.7329976    0.4268937 -63.58  0.003809423    1.638    0.389
        30 -11.8811     66.9869    181.4936   1.1079103609e+02   2.8691311975e+01    0.7448239    0.3228768 -67.32  0.002517806    2.241    0.554
        31 -11.9931     49.0393    248.9122   1.2075528505e+02   1.7002361589e+01    0.1900592    0.1375412  88.32 0.0005695837    1.300    0.231
        32  -9.3187     92.9988    185.0621   1.0506381205e+02   2.4147986843e+01     0.284735    0.2357485  14.77  0.001021828    1.499    0.333
        33 -10.9248     99.0119    180.9916   1.0300787312e+02   2.4129187528e+01    0.3732418    0.3029365   5.18  0.001737106    1.628    0.386
        34 -10.2741     59.6385    220.4476   1.1653212827e+02   2.1166927566e+01    0.2597048     0.211045  -3.41   0.00161159    2.000    0.500
        35 -10.3842    143.3416    178.6055   9.1988496221e+01   1.6961787015e+01    0.2818967    0.1841268 -45.69 0.0006849214    1.602    0.376
        36  -9.9830    188.0189    176.4532   8.1598943100e+01   8.9930072556e+00     0.337258    0.2883807  50.22  0.001186586    1.323    0.244
        37  -8.9189    149.0232    176.2984   9.0225875012e+01   1.6389533213e+01    0.1981513    0.1843416  41.32  0.000448744    1.054    0.051
        38  -9.7763    146.8378    172.7828   9.0054605300e+01   1.7542414032e+01    0.3162533    0.2080926 -75.78 0.0008305342    2.464    0.594
        39 -10.0019     46.3607    173.2613   1.1474888382e+02   3.3143004208e+01    0.3389068    0.3157861  -4.06   0.00130401    1.414    0.293
        40 -10.9364    239.4770    174.1716   7.1182861624e+01   2.7502048571e-01    0.2426232    0.1547969  21.72  0.001260298    1.683    0.406
        41 -10.5534    126.0214    172.9790   9.5074603791e+01   2.1346114648e+01    0.2350302    0.2232495  48.24  0.001327783    1.016    0.015
        42  -8.8893    193.9802    171.3475   7.9300652817e+01   8.8248930815e+00    0.2058167    0.1759472  29.10 0.0007463482    1.140    0.123
        43  -9.6459    185.5029    169.2562   8.0644239466e+01   1.0832136733e+01    0.3208985    0.2441348 -59.00  0.001586135    1.660    0.398
        44 -10.1433    137.7872    169.4150   9.1550634048e+01   1.9971222192e+01    0.3426267    0.2629267  28.35 0.0007679536    1.354    0.262
        45  -9.3803     84.1421    173.8069   1.0555960582e+02   2.8074982826e+01    0.2068387    0.1735854  75.41 0.0004576623    1.164    0.141
        46 -10.0489     54.4894    173.5138   1.1281595578e+02   3.2134093018e+01    0.2630369    0.1893001  70.61 0.0006905202    1.357    0.263
        47 -10.6516     57.8520    165.5253   1.1097758136e+02   3.3618826376e+01    0.4812555     0.277753 -40.74  0.002237783    2.275    0.561
        48 -11.6963     94.1476    151.2383   9.9191018939e+01   3.1903022084e+01    0.6975455    0.6022457 -17.56     0.003733    1.395    0.283
        49 -10.7975    133.7751    145.4384   8.7560546296e+01   2.6107962709e+01     1.198188    0.3205161 -54.44  0.002900635    5.375    0.814
        50  -9.1564    112.8825    150.9259   9.4145768735e+01   2.8775843603e+01    0.2419352    0.1817408  77.84 0.0007339658    1.690    0.408
        51  -9.4651    174.7887    148.9341   7.8541359460e+01   1.6995334156e+01    0.2767891     0.212727 -60.05  0.000764496    1.554    0.356
        52  -8.4322    109.6431    147.8573   9.4379685135e+01   3.0079962761e+01    0.2007782    0.1396317 -65.28 0.0003344869    1.547    0.354
        53 -10.7316    106.0122    137.8221   9.3257903330e+01   3.3117443404e+01    0.6333122    0.3496081 -37.43  0.002505803    2.159    0.537
        54 -10.5083    105.8794    130.7556   9.1733007957e+01   3.4829419292e+01    0.3909568    0.3339231 -63.30  0.001169995    1.180    0.153
        55 -11.6529     93.9458    137.3075   9.6510747381e+01   3.5309958869e+01    0.2796696    0.2616436 -34.90 0.0003342813    1.120    0.107
        56 -10.6256    135.6415    129.6215   8.3406002546e+01   2.9320560697e+01     0.841834    0.1496434 -49.87  0.001711097    7.045    0.858
        57  -8.3595     98.3182    129.7601   9.3652988453e+01   3.6398751667e+01    0.1456397    0.1145686  69.39 0.0003055562    1.513    0.339
        58  -9.3444    160.8984    128.1284   7.6783947728e+01   2.4279376491e+01    0.2446781    0.2196501 -80.63 0.0007907171    1.296    0.228
        59 -10.3279    101.3080    124.7834   9.1663581895e+01   3.7070492152e+01    0.2906602    0.2373609 -25.60 0.0005194696    1.369    0.270
        60 -10.8172    119.8870    123.1133   8.6022147088e+01   3.3985703691e+01    0.5236464    0.3291688 -24.50  0.002048736    2.237    0.553
        61 -10.6218    113.9225    129.0997   8.9107930424e+01   3.3739102942e+01    0.3510344    0.3299322 -26.70 0.0009625411    1.090    0.083
        62  -9.3810    109.4898    118.1990   8.7725941942e+01   3.7130883801e+01    0.2503699    0.2108745  38.19 0.0002832119    1.226    0.184
        63 -10.0789    231.2379    113.7782   5.9342913575e+01   1.1909379645e+01    0.2802594     0.254639 -31.54 0.0007323655    1.016    0.016
        64  -9.4051    167.7823    113.0974   7.1359573045e+01   2.5871027006e+01    0.3676105    0.2445772 -61.73  0.001515018    1.948    0.487
        65 -11.4640    118.3397    109.9597   8.3086853013e+01   3.7298481548e+01    0.6005607    0.4660876  73.48  0.002698848    1.695    0.410
        66  -9.4058    205.3044    110.2356   6.2953245887e+01   1.7995802896e+01    0.2972335     0.207681  43.00  0.001034627    1.530    0.346
        67 -10.0417    134.6028    104.4759   7.7152341242e+01   3.5095299371e+01    0.6139246    0.1779255 -44.18  0.001773951    3.401    0.706
        68  99.0000     50.5937    218.4786   1.1818672157e+02   2.2679612240e+01    0.5631832    0.2270602  57.93  0.002606563    2.488    0.598
        69  -8.8636     81.0787    220.4786   1.1212890714e+02   1.8315389411e+01    0.1813344    0.1102237  39.97 0.0003718157    1.493    0.330
        70  -9.8942    184.5512    212.2876   8.9058565671e+01   3.2452980366e+00    0.2307778    0.1309116 -46.88  0.001125055    2.056    0.514
        71 -10.5544    163.9806    212.1557   9.3303070198e+01   6.7457429587e+00    0.2506132    0.2115082  45.74  0.001163173    1.203    0.169
        72  -8.3693    156.2807     82.6349   6.5539845925e+01   3.4501575687e+01    0.1593542    0.1201733 -68.91 0.0007014178    1.682    0.405
        73  -8.3196    184.6755     76.6854   5.8002314156e+01   2.8720427641e+01    0.1521897     0.117437  18.39 0.0003774165    1.664    0.399
        74  -9.3362     65.1930     70.1974   8.8697786214e+01   5.5322886255e+01    0.2067099    0.1714574 -19.91 0.0003845632    1.133    0.118
        75  -9.6279     56.6129    209.6667   1.1617226763e+02   2.3778514813e+01    0.3812246    0.1828332  83.36  0.001116912    2.717    0.632
        76 -12.7140    179.6102     52.6453   5.2168290764e+01   3.3760666016e+01     0.744688    0.7096089  29.47 0.0008416357    1.142    0.124
        77  -9.0677    167.9778    231.9862   9.5601803174e+01   2.7309890940e+00    0.1904903    0.1612836  29.48 0.0004419284    1.031    0.030
        78  -9.7702     42.4102    208.4990   1.1902271194e+02   2.5712623721e+01    0.2758951    0.1455485  63.91  0.001322794    1.801    0.445
        79  -9.5060    189.7734     14.8911   4.0290992573e+01   3.5977258819e+01    0.1935377    0.1736742  52.26 0.0007431042    1.222    0.182
        80  -9.3497     58.1626    228.0637   1.1748294184e+02   1.9829077422e+01    0.1501377    0.1188383  68.66 0.0002970904    1.032    0.031
