#   1 NUMBER                 Running object number                                     
#   2 MAG_AUTO               Kron-like elliptical aperture magnitude                    [mag]
#   3 X_IMAGE                Object position along x                                    [pixel]
#   4 Y_IMAGE                Object position along y                                    [pixel]
#   5 X_WORLD                Barycenter position along world x axis                     [deg]
#   6 Y_WORLD                Barycenter position along world y axis                     [deg]
#   7 A_WORLD                Profile RMS along major axis (world units)                 [deg]
#   8 B_WORLD                Profile RMS along minor axis (world units)                 [deg]
#   9 THETA_WORLD            Position angle (CCW/world-x)                               [deg]
#  10 FWHM_WORLD             FWHM assuming a gaussian core                              [deg]
#  11 ELONGATION             A_IMAGE/B_IMAGE                                           
#  12 ELLIPTICITY            1 - B_IMAGE/A_IMAGE                                       
         1 -12.6178     66.8467     16.2808   2.4047216266e+01   6.5866778847e+01    0.2603828     0.219331  -2.40 0.0004309578    1.209    0.173
         2 -11.5945     75.2053     11.8015   1.8801108239e+01   6.4492093189e+01    0.3470253    0.1765222  -6.28  0.001134178    2.801    0.643
         3 -11.2740     85.1847     10.1910   1.5068728726e+01   6.2295714914e+01    0.1770601    0.1563127 -67.12 0.0004253989    1.323    0.244
         4 -11.1711     92.2630      8.4230   1.2438037832e+01   6.0731588911e+01    0.1840101    0.1238078  75.84  0.000633192    1.524    0.344
         5 -13.2994    215.2547      2.6874   3.5590987409e+02   3.0804173009e+01    0.2537084     0.208153 -67.74 0.0006131256    1.064    0.060
         6 -10.8947     88.0652      4.2033   1.1454987838e+01   6.2133447946e+01    0.1875842   0.09445667  63.11 0.0006081362    1.725    0.420
         7 -11.2447    162.8528    246.1746   5.7171738902e+01   1.7420694343e+00    0.1774911    0.1349278  31.55 0.0004883285    1.205    0.170
         8 -13.4673    246.4804    249.8508   4.2691496816e+01  -8.5893938888e+00     0.239251    0.1565929   6.00 0.0009152738    1.111    0.100
         9 -11.4614    237.0079    250.5813   4.4326764378e+01  -7.6973990899e+00    0.1524044   0.08137073  22.89 0.0003727089    1.551    0.355
        10 -12.5379    139.7991    248.2109   6.2081513424e+01   4.5246568600e+00    0.3420203    0.1927126 -53.77  0.001933636    2.324    0.570
        11 -11.1103    124.8409    249.7533   6.5344224499e+01   6.2970054865e+00    0.1998007    0.1277687 -33.04  0.001162475    2.049    0.512
        12 -10.9152    106.2631    250.6693   6.9313173334e+01   8.6265874378e+00    0.1680424   0.09346276  27.48 0.0004737698    1.567    0.362
        13 -11.5766     84.7446    250.6579   7.3823702654e+01   1.1426228432e+01    0.2124236   0.09408869  30.53 0.0005505166    1.902    0.474
        14 -10.9371     77.5128    250.5707   7.5331549815e+01   1.2354834829e+01    0.1234471   0.09085599  45.62 3.700118e-05    1.072    0.068
        15 -12.8070     69.1079    224.3480   7.4952415402e+01   1.8370978000e+01    0.4678805    0.2937357 -89.47  0.002572038    1.871    0.466
        16 -12.1598     55.7629    249.4583   7.9782912776e+01   1.5192814526e+01    0.4360545     0.251512  26.36  0.002534397    1.704    0.413
        17 -12.9088     46.0746    200.4027   7.8360674959e+01   2.6360890581e+01    0.6267198    0.2506469  20.61   0.00238943    3.335    0.700
        18 -12.5729     62.7960    240.3961   7.7664600208e+01   1.6028468935e+01    0.6366353    0.3120548  15.74  0.002729672    3.310    0.698
        19 -13.4198     57.5470    221.9056   7.7393421351e+01   2.0320020750e+01    0.5179355    0.3749246 -64.75  0.003140589    1.581    0.367
        20 -14.0398     72.9018    232.0410   7.4774956435e+01   1.6361989868e+01    0.8961947    0.3689865 -59.79  0.003716561    2.758    0.637
        21 -13.9971     55.5969    206.4162   7.6542442079e+01   2.3869004968e+01     1.072385    0.4948093  45.53  0.003320396    1.821    0.451
        22 -13.0667     61.6151    234.4021   7.7466129163e+01   1.7319069165e+01     0.678228    0.1568363  32.78  0.002546008    3.256    0.693
        23 -13.4738     57.6518    228.9588   7.7925112079e+01   1.8874654145e+01    0.6017849    0.3164932  44.37  0.001810047    1.507    0.336
        24 -12.8514     62.5040    216.4789   7.5783972761e+01   2.0835111878e+01    0.3550377    0.2233684  64.74  0.001112731    1.583    0.368
        25 -12.5951     66.9179    216.1317   7.4714343766e+01   2.0344938761e+01    0.4260516    0.2234253  55.83  0.001426143    1.853    0.460
        26 -12.5036     64.1014    245.7071   7.7779121290e+01   1.4882800180e+01     0.254088    0.2041885 -18.67 0.0003966847    1.850    0.460
        27 -13.6537     68.7324    247.5546   7.6939761801e+01   1.3981275647e+01    0.4571462    0.3384374  50.69  0.002738018    1.104    0.095
        28 -12.7601     72.0473    245.0770   7.6046292136e+01   1.4020369477e+01    0.3504187    0.1887791  56.85  0.001208403    1.796    0.443
        29 -16.4070     37.6699    202.4476   8.0583008268e+01   2.6853574999e+01     4.087776      1.56933  84.39    0.0152728    3.613    0.723
        30 -14.9085     34.9047    228.8310   8.2942167084e+01   2.1516615884e+01     1.135259     0.417655 -69.92  0.005419597    2.831    0.647
        31 -16.6541     22.7371    216.5244   8.4954312994e+01   2.5341051714e+01     3.193214     1.006188  60.65   0.01291682    3.158    0.683
        32 -15.4290     23.4675    240.2426   8.5943056882e+01   2.0468280728e+01     1.025417    0.5152068 -78.52  0.005996845    2.098    0.523
        33 -14.5396     10.4399    216.0858   8.7663762523e+01   2.6615257688e+01    0.5752869    0.2523412  32.98  0.002902462    1.958    0.489
        34 -16.1310      2.9622    223.2348   8.9535606932e+01   2.5800569868e+01     1.651923    0.4046136 -83.03  0.006698051    3.945    0.747
        35 -15.7657     14.9687    227.0831   8.7145758371e+01   2.3910353303e+01    0.8601355    0.4731162  63.04  0.005161156    1.484    0.326
        36 -15.6013      6.0038    248.8322   8.9729117516e+01   2.0548184170e+01    0.9836591    0.2659557  28.41  0.004466408    3.267    0.694
        37 -16.7192      8.0235    238.3618   8.9002073674e+01   2.2334972686e+01     1.248534    0.7026834  47.24  0.008075394    1.309    0.236
        38 -11.1199     99.6510    246.6769   7.0312625224e+01   1.0176816814e+01    0.1191178   0.08870441   0.74 0.0007049029    1.746    0.427
        39 -10.9069    205.6676    244.3002   4.8789436597e+01  -3.4387275543e+00    0.1001037     0.083528  35.52 0.0004043378    1.650    0.394
        40 -11.7818    119.4529    244.5276   6.5889000224e+01   7.8759148364e+00    0.1241036   0.09962376  29.26 4.569069e-06    1.037    0.036
        41 -11.8365     78.0547    243.2194   7.4610241072e+01   1.3601644313e+01    0.1761191    0.1688789  63.14 0.0008399349    1.229    0.186
        42 -11.4513    142.6788    242.5903   6.0796545274e+01   5.0066333997e+00    0.2394536    0.1282777  38.10  0.001299414    1.576    0.365
        43 -10.5799    193.0640    242.5605   5.0846647283e+01  -1.6659170080e+00    0.1591001   0.09317306  27.80 0.0001151361    1.416    0.294
        44 -11.5699    126.2533    241.7158   6.4128001990e+01   7.4095109923e+00    0.1780892    0.1604535  58.50  0.000573771    1.309    0.236
        45 -11.2520    198.6948    241.1443   4.9596703005e+01  -2.1821573190e+00    0.2042223    0.1354388  42.73   0.00125149    1.961    0.490
        46 -10.8522    187.0106    241.4944   5.1831717808e+01  -7.5478747200e-01    0.1725349   0.09530393  28.01  0.000345188    1.492    0.330
        47 -10.5065    167.3256    240.6876   5.5542074710e+01   1.9436997451e+00    0.1132844   0.08721494  48.20 0.0007041188    1.662    0.398
        48 -12.1602    149.1435    238.1045   5.8880367123e+01   4.8197338301e+00    0.3096129    0.2425715 -68.26  0.001933496    1.931    0.482
        49 -12.2245    103.5249    237.1178   6.8501844136e+01   1.1333715577e+01    0.2376715    0.2120879  47.12  0.000730032    1.126    0.112
        50 -11.0878    137.5112    237.2841   6.1204943382e+01   6.5737050371e+00    0.1570162    0.1130823 -27.90 0.0008408859    1.652    0.395
        51 -11.3419     80.1615    237.0473   7.3614340262e+01   1.4470623865e+01      0.25081    0.1513076   7.95  0.001198447    2.648    0.622
        52 -11.5897    210.2333    235.7936   4.6699492895e+01  -2.9068078140e+00    0.1648064    0.1350036   6.15   0.00105437    1.185    0.156
        53 -10.4998     88.4536    236.4997   7.1742580628e+01   1.3482431897e+01    0.1269625    0.1016546  43.36  8.38486e-05    1.023    0.023
        54 -11.0508    196.7732    233.8124   4.8860280999e+01  -9.5914826140e-01    0.1794661    0.1432719 -51.89 0.0008721124    1.985    0.496
        55 -11.6752    194.8774    229.1622   4.8505927071e+01  -6.9307223314e-02    0.1910442    0.1503915 -13.29 0.0003653519    1.194    0.163
        56 -12.4419    108.4501    240.0567   6.7747936703e+01   1.0140017532e+01    0.3358358    0.1853958  25.44  0.001085561    1.703    0.413
        57 -11.5928    182.2915    232.1797   5.1375432426e+01   1.1725067414e+00    0.2125338    0.1467975  48.28  0.001235581    1.988    0.497
        58 -12.0391    178.1414    228.3622   5.1617729543e+01   2.2981431827e+00    0.2022608     0.149345 -16.24 0.0006287399    1.349    0.259
        59 -12.8100     77.1266    218.9395   7.2588810542e+01   1.8420938079e+01    0.4157977    0.2032205  43.27  0.002027423    1.695    0.410
        60 -12.3812     79.1484    228.4263   7.3044652394e+01   1.6252995440e+01    0.3083713    0.1852328  52.18 0.0008456712    1.510    0.338
        61 -11.9611     81.4949    225.4667   7.2226061293e+01   1.6522825587e+01    0.2827307    0.2114124   7.28  0.001157768    1.710    0.415
        62 -13.1874     80.1704    222.1457   7.2201124393e+01   1.7362283464e+01    0.5390689    0.3015458  30.09  0.002229113    1.626    0.385
        63 -12.7806    231.9150    227.0808   4.1575098900e+01  -4.3860451719e+00    0.3260643    0.1791691  -2.84  0.001881091    1.900    0.474
        64 -10.8257     97.6732    228.2958   6.8849146436e+01   1.3766275172e+01    0.1335894   0.08356985  54.73 0.0005299181    1.628    0.386
        65 -11.1009    120.8111    227.2056   6.3544684265e+01   1.0684961583e+01    0.1729017    0.1386861   7.28 0.0004332939    1.343    0.256
        66 -13.0896    106.6421    226.5822   6.6635911235e+01   1.2829450023e+01    0.3269244    0.2017775  42.18  0.001785117    1.380    0.275
        67 -11.6709    129.0676    226.1476   6.1586276525e+01   9.6775443529e+00    0.1963096    0.1573198   6.56 0.0004994344    1.310    0.237
        68 -12.3169    116.4982    225.9271   6.4345543199e+01   1.1539747755e+01    0.2031374    0.1732851 -71.22  0.001002238    1.446    0.308
        69 -10.9451    182.4904    225.5108   5.0326883049e+01   2.1256070562e+00    0.1250632    0.1003774  10.84 0.0008105202    1.003    0.003
        70 -12.2037    173.3382    224.7206   5.2025477361e+01   3.5205674295e+00    0.2152137    0.1512262  37.18 0.0005197062    1.408    0.290
        71 -13.6540    174.2500    220.1724   5.1142168960e+01   4.1005256915e+00    0.3713261     0.279835 -30.94 0.0007076702    1.399    0.285
        72 -11.7766     91.8457    224.7036   6.9783184607e+01   1.5263955063e+01    0.2010531    0.1717541 -51.60 0.0006445952    1.403    0.287
        73 -12.0477    212.0323    223.5542   4.4462168413e+01  -1.5130255976e+00    0.2275124    0.1533933 -23.13 0.0003649496    1.370    0.270
        74 -12.4166    160.0765    222.8962   5.4470427248e+01   5.7076003769e+00    0.3352925    0.2473281  30.92  0.001857455    1.187    0.158
        75 -12.5517    245.9741    221.1323   3.8316741864e+01  -5.2564920601e+00    0.2563856    0.1477078 -13.72   0.00162819    1.502    0.334
        76 -12.8227    119.7465    213.6724   6.2019807702e+01   1.3365280535e+01    0.4723561    0.2106822  50.27  0.001907009    2.669    0.625
        77 -11.5861    193.4410    220.6915   4.7449102665e+01   1.3378848423e+00    0.2063473    0.1153398 -42.67  0.001120242    2.043    0.510
        78 -13.4779    124.0304    221.1154   6.2042780531e+01   1.1324694201e+01    0.5063652    0.3562043  76.27  0.002635342    2.193    0.544
        79 -11.1262     97.2904    220.2877   6.8042408420e+01   1.5366496996e+01    0.1215832   0.09856779  -2.95  0.000194447    1.540    0.350
        80 -13.8077    144.4373    214.9582   5.6639337496e+01   9.3832646051e+00    0.8533615    0.5341858  60.12   0.00393923    2.531    0.605
        81 -13.1462    145.5467    201.4211   5.4297112700e+01   1.1688816819e+01    0.4303679    0.3047048  59.87  0.002009695    1.918    0.479
        82 -12.4328    127.4985    214.4940   6.0358984489e+01   1.2037382418e+01    0.2241552    0.1873313  62.58 6.661937e-06    1.405    0.288
        83 -13.0059    108.0446    214.8257   6.4884995452e+01   1.4886852779e+01     0.360043    0.2235516 -76.72  0.001617414    2.275    0.560
        84 -11.5218    225.9145    216.2077   4.0823565715e+01  -2.2697758360e+00    0.1631285    0.1348473   2.99 0.0003504103    1.190    0.160
        85 -11.1442    207.2886    216.0136   4.4095490515e+01   1.4875195778e-01    0.1645516    0.1305554  -5.18 0.0003222588    1.065    0.061
        86 -11.2931    154.4258    216.4692   5.4699721431e+01   7.6148577762e+00    0.2815146    0.1911317 -60.25  0.001409402    2.082    0.520
        87 -11.7560    156.4328    213.3056   5.3784404606e+01   7.8568016923e+00    0.3480529      0.26224 -77.18  0.001851412    2.282    0.562
        88 -11.8191    142.4067    205.0891   5.5587274369e+01   1.1498529364e+01    0.3159921    0.1905022  46.10 0.0006554631    1.714    0.417
        89 -12.8279     84.0907    214.5704   7.0495262755e+01   1.8372979358e+01     0.785491    0.2199794  36.71   0.00294219    2.756    0.637
        90 -11.6190    187.2517    211.5024   4.7153967230e+01   3.5927005644e+00    0.2081784    0.1593014 -24.63 0.0003381945    1.284    0.221
        91 -10.9602    161.8343    215.8352   5.3029705906e+01   6.6171057208e+00    0.1614369    0.1420948  39.40 0.0002407548    1.283    0.221
        92 -11.3307     97.8095    213.1335   6.7079583141e+01   1.6722923564e+01    0.3640505    0.1942433  81.58  0.001316655    4.138    0.758
        93 -10.8660    170.3634    210.1346   5.0341273383e+01   6.2953518235e+00    0.1569052    0.1229801 -51.93 0.0003988599    1.638    0.389
        94 -11.5342    162.2564    210.4058   5.2085792136e+01   7.4730099761e+00    0.2533393    0.1496001  38.85  0.001305592    1.593    0.372
        95 -12.7495    159.3269    206.3931   5.2065766662e+01   8.6181050189e+00    0.4174609    0.2627567  38.57  0.002123914    1.493    0.330
        96 -11.7099    225.3946    204.1798   3.8872894741e+01  -5.6788784074e-01    0.1946055    0.1805511   7.60 0.0002605359    1.445    0.308
        97 -12.0721    229.6731    208.9506   3.8963548221e+01  -1.7677573480e+00    0.2100055    0.1694052   4.16 0.0006907706    1.137    0.120
        98 -12.3836    230.0486    204.4172   3.8122237306e+01  -1.1998193178e+00    0.3594152    0.2033366  -2.97   0.00140262    2.006    0.501
        99 -12.5860    180.6110    207.6641   4.7837454129e+01   5.1723066353e+00    0.4314044    0.2647328  35.69  0.002345194    1.538    0.350
       100 -12.3376    103.7736    207.0556   6.4894863989e+01   1.7088159638e+01    0.3774688    0.3258629  41.00  0.002273008    1.017    0.017
       101 -16.1339     10.9109    186.9808   8.6187271265e+01   3.3067371918e+01     1.552457     1.494195  40.30  0.008862374    1.285    0.222
       102 -11.4363    247.5177    212.9923   3.6730082221e+01  -4.4297971860e+00    0.1621203    0.0908116 -28.94 0.0005122788    1.534    0.348
       103 -12.5607    116.3307    205.0748   6.1627492497e+01   1.5581189014e+01    0.2947374    0.1770244 -64.87   0.00141823    2.087    0.521
       104 -12.5665    111.2324    204.4392   6.2754357351e+01   1.6495152125e+01    0.2468118    0.2280852 -33.08 0.0006037884    1.224    0.183
       105 -12.1713    240.1048    203.7464   3.6345426333e+01  -2.3658107256e+00    0.2174197    0.1287997  23.58  0.001120879    1.625    0.385
       106 -13.4919     75.4400    184.9099   6.9186644933e+01   2.6157925567e+01      1.74608    0.9326994  85.54  0.006835364    2.858    0.650
       107 -11.9615     65.5462    183.4623   7.1645591796e+01   2.7870892324e+01    0.4146544    0.3358694  80.88  0.002222879    1.218    0.179
       108 -12.3069     63.5900    177.1487   7.1419523626e+01   2.9658742223e+01    0.5859597    0.1810862  37.83  0.002112895    2.704    0.630
       109 -11.0983     81.1479    200.1519   6.9580465504e+01   2.1868916823e+01    0.1845867    0.1693621  66.69            0    1.080    0.074
       110 -11.7811     91.1953    189.1802   6.5628739293e+01   2.2854514731e+01    0.2558965    0.2032734 -77.91 0.0006542169    1.383    0.277
       111 -13.2764     93.9377    193.3464   6.5496225835e+01   2.1504957359e+01    0.8316385    0.3434979  38.39  0.003385181    2.094    0.522
       112 -11.9829     86.8278    201.8475   6.8370467695e+01   2.0686049733e+01    0.2983517    0.1890884  58.53 0.0003374259    1.657    0.396
       113 -12.8404     91.1937    199.8930   6.7044391055e+01   2.0475249449e+01    0.6159174    0.3204719 -39.42  0.002579836    2.752    0.637
       114 -11.2989    167.0351    202.3276   4.9747538408e+01   8.1327292810e+00    0.1909772    0.1508492  26.09  0.000426435    1.136    0.120
       115 -12.0219    212.5939    200.2538   4.0440681888e+01   1.7161596798e+00    0.2046373    0.2021986  76.16 0.0006907319    1.620    0.383
       116 -11.0915    136.8325    200.8412   5.6191109855e+01   1.3190813251e+01    0.1824163    0.1536337  54.15 0.0003887955    1.322    0.244
       117 -11.6590    134.5033    197.4863   5.6199495175e+01   1.4221308597e+01    0.2197316    0.1396669 -66.23  0.001024226    2.186    0.543
       118 -12.4276    120.8853    201.1143   5.9971507545e+01   1.5670976317e+01    0.2130484    0.1765613  52.50 0.0005641603    1.238    0.193
       119 -12.9369    122.4851    196.5393   5.8898843797e+01   1.6349473204e+01    0.3210422    0.2760389  61.57   0.00142143    1.282    0.220
       120 -13.2835    173.8503    195.9424   4.7216426891e+01   8.1752118522e+00    0.5163387    0.3541477  61.36  0.002139269    2.495    0.599
       121 -11.7559    180.5041    199.4908   4.6465528470e+01   6.5351100166e+00     0.220084    0.1844569   5.38  0.001011626    1.033    0.032
       122 -10.7575    183.2985    197.6805   4.5583210410e+01   6.4090577427e+00    0.1899721    0.1401534  -1.56 0.0004961814    1.350    0.259
       123 -11.5265    225.0000    198.9686   3.8029151179e+01   2.1695364726e-01     0.192747   0.06065506 -37.31 0.0008024516    2.943    0.660
       124 -12.7945    201.6098    196.4544   4.1793131969e+01   3.8600617575e+00    0.3156866    0.2281521   9.78 0.0005251201    1.290    0.225
       125 -13.0419    123.5992    210.2018   6.0649265032e+01   1.3449710581e+01    0.3213222    0.2563205  89.08  0.001064389    1.686    0.407
       126 -12.8963    110.5313    196.0569   6.1732901979e+01   1.8351356895e+01    0.2888802    0.2497386 -35.28 0.0003009911    1.309    0.236
       127 -14.0530    110.1053    186.8273   6.0449453514e+01   2.0412167941e+01    0.6536677    0.3951324 -75.85  0.002823682    2.367    0.577
       128 -12.4438    193.1913    194.2877   4.3018373751e+01   5.4592828140e+00    0.3569217    0.2677636  -8.53  0.001475144    1.263    0.208
       129 -11.5380    189.4764    192.9604   4.3508525922e+01   6.2443943273e+00    0.2378369    0.1643084 -50.74  0.001028737    1.850    0.459
       130 -12.6737    129.7045    216.6570   6.0162076917e+01   1.1301392035e+01    0.2580107    0.1927195   7.02  0.001010616    1.487    0.327
       131 -11.1390    212.5099    193.5468   3.9259667498e+01   2.7329280887e+00    0.1262114     0.104188  -3.92 4.935629e-05    1.028    0.027
       132 -12.6051    133.4416    190.4308   5.5300937198e+01   1.5809916877e+01    0.3117976    0.2341664   8.65  0.001605153    1.509    0.337
       133 -12.1677     49.2321    183.0307   7.5962390956e+01   3.0055749285e+01    0.3025472    0.1906896  28.25 0.0009788111    1.615    0.381
       134 -12.4227     50.7497    189.9091   7.6236318605e+01   2.8232062065e+01    0.3034114    0.2227559  35.78 0.0009177303    1.295    0.228
       135 -11.6533     53.7734    184.9781   7.4951587108e+01   2.9032137883e+01    0.2778945    0.2111144 -11.24  0.001347373    1.889    0.471
       136 -11.0638    174.5101    188.9862   4.5836048255e+01   9.2920834751e+00    0.1914349    0.1074463 -19.66 0.0007741385    2.434    0.589
       137 -11.6091     97.1100    188.4029   6.3997448565e+01   2.2123588708e+01     0.210493    0.1892582 -51.13 0.0005586885    1.228    0.185
       138 -11.2320    206.5562    188.4927   3.9424823180e+01   4.3807956795e+00    0.1296138     0.107592  -5.30 0.0002414817    1.006    0.006
       139 -11.4568    195.4687    187.4301   4.1325368111e+01   6.2340253217e+00    0.1741455    0.1650778  57.32 5.029612e-05    1.478    0.323
       140 -13.0438    191.3293    184.0163   4.1496890518e+01   7.4533914872e+00    0.4574395    0.3011181 -24.77  0.002438135    1.504    0.335
       141 -13.0066    132.4095    185.6419   5.4741940969e+01   1.6966589253e+01    0.2776698    0.2382379  36.76 0.0003386688    1.091    0.083
       142 -13.9436    126.7975    186.1599   5.6190950552e+01   1.7801802620e+01    0.7172233    0.2518512  35.69  0.002575118    2.615    0.618
       143 -12.5146    248.5863    185.0659   3.1702224743e+01  -9.1069353173e-01    0.3728216    0.1976287   1.85  0.001816864    2.694    0.629
       144 -10.7287    187.2817    186.6442   4.2790104878e+01   7.6495384881e+00    0.1203878    0.1092368 -82.25 0.0003080644    1.663    0.399
       145 -12.3009    157.4894    185.1519   4.8824733372e+01   1.2817527603e+01    0.4142318     0.248142  -8.30  0.001653932    2.811    0.644
       146 -11.2491     43.4541    186.5243   7.7822464617e+01   2.9897514919e+01    0.1350223    0.1162768  65.44 8.344325e-05    1.008    0.008
       147 -11.2464    163.8854    184.8649   4.7358411434e+01   1.1795883909e+01    0.1794371    0.1642758  51.89 0.0003943524    1.302    0.232
       148 -12.5357     94.2629    182.0812   6.3817929796e+01   2.4006968046e+01    0.5414745    0.2864079 -72.45  0.002217364    2.438    0.590
       149 -12.1589    137.5013    181.9590   5.2878522985e+01   1.6862664338e+01    0.2733161    0.1370677 -44.89  0.001078359    2.117    0.528
       150 -12.2337    142.0790    181.5495   5.1716780579e+01   1.6159636514e+01    0.2864762    0.2063889 -45.55 0.0004526374    1.470    0.320
       151 -12.8624    100.6490    181.8530   6.2110007544e+01   2.3049586439e+01    0.3532322    0.2678215 -79.32  0.001803306    1.535    0.348
       152 -11.9651     88.6221    180.8971   6.5138440835e+01   2.5154516528e+01    0.5185242    0.2922384  76.44  0.001969412    2.923    0.658
       153 -12.0538    232.8560    181.1788   3.3480491310e+01   1.7165277804e+00    0.2306277    0.1883001 -45.86 0.0007325488    1.620    0.383
       154 -13.9642    117.2804    179.3541   5.7420044026e+01   2.0872538422e+01    0.5497869    0.3656928  49.43   0.00163107    1.527    0.345
       155 -11.2784    198.1709    180.1896   3.9444869232e+01   7.0128336857e+00    0.1620266    0.1538603 -27.58 0.0002869953    1.287    0.223
       156 -12.7736    247.3226    176.3184   3.0291425649e+01   4.6142758676e-01    0.3823194    0.2294339  -8.31  0.001032207    1.779    0.438
       157 -12.2537    242.5024    175.4712   3.0874537464e+01   1.2239145010e+00    0.2111019    0.1775379 -14.25  0.000585051    1.134    0.118
       158 -13.8793    130.8867    169.2360   5.2175719440e+01   2.0730476774e+01    0.6813632    0.4113048  57.77  0.002827398    2.181    0.542
       159 -13.6845    126.7942    176.5377   5.4534840282e+01   1.9860559990e+01     0.397916    0.3383519  17.56  0.001323756    1.195    0.163
       160 -12.8617    125.9141    172.0590   5.3950082010e+01   2.0993982409e+01    0.3065596    0.2556805  27.19 0.0004472959    1.166    0.142
       161 -12.1955    160.4711    168.4965   4.4991963625e+01   1.5545823843e+01    0.2494355    0.2127377 -23.89 0.0007744009    1.164    0.141
       162 -12.3067    156.9600    165.8994   4.5269624305e+01   1.6701234189e+01    0.2848696    0.2334409 -47.75 0.0007473611    1.297    0.229
       163 -12.8900    152.9172    170.1096   4.7033637534e+01   1.6580778714e+01    0.3003586    0.2637398  24.83  0.001199445    1.081    0.075
       164 -13.1229    152.4346    165.6470   4.6263478362e+01   1.7579258383e+01    0.3569894    0.2817201 -48.20  0.001851041    1.338    0.253
       165 -13.4885    147.4256    174.6597   4.9188117543e+01   1.6633398747e+01    0.8667419    0.4301065  58.69  0.002711648    4.316    0.768
       166 -12.4511    154.1545    174.8876   4.7670947527e+01   1.5399057966e+01    0.2942931    0.1920141 -31.94 0.0007575825    1.664    0.399
       167 -12.3818    137.5645    177.0136   5.1974550228e+01   1.7881504160e+01    0.2755869    0.2034113  36.03 0.0003152025    1.272    0.214
       168 -10.8019     52.9928    177.0229   7.4315464605e+01   3.1058547470e+01    0.1702705    0.1409906  45.12 0.0003158583    1.136    0.120
       169 -12.1213    223.8321    175.8968   3.3990411102e+01   3.7880199631e+00    0.2081949    0.1531612  -6.60  0.001258248    1.258    0.205
       170 -12.9048    106.5212    175.9510   5.9633230188e+01   2.3442629686e+01    0.3353828    0.2030731  35.64 0.0007910465    1.543    0.352
       171 -12.8164     10.4858    173.9814   8.5569448755e+01   3.6208716195e+01    0.5527329    0.2707098  47.12  0.002784851    1.777    0.437
       172 -13.5048     12.1073    161.2500   8.4317924331e+01   3.9225873132e+01    0.5735424    0.2898289  89.62  0.002747314    1.821    0.451
       173 -13.8148      5.0495    161.3402   8.6295524053e+01   3.9748350897e+01      1.18781    0.4113016  64.74    0.0043353    3.029    0.670
       174 -13.8850     18.2959    168.1837   8.3083524361e+01   3.6965297120e+01    0.5802364    0.3969812  -9.86  0.002191304    2.158    0.537
       175 -13.1038     22.8870    167.4031   8.1752114310e+01   3.6741547145e+01    0.3810206    0.2421421  87.15  0.002014833    1.448    0.309
       176 -11.7352    173.2031    173.5096   4.3194103716e+01   1.2333046820e+01     0.234013    0.1877055 -35.62 0.0002947385    1.244    0.196
       177 -12.7387     79.5615    173.3718   6.6514233757e+01   2.8318736108e+01    0.2745502    0.2532395  62.99  0.001089696    1.013    0.013
       178 -14.9966     84.3699    159.0735   6.2943401568e+01   3.1105831116e+01    0.7037328    0.6263475  56.88    0.0038093    1.074    0.069
       179 -14.0130     82.4383    145.1011   6.1069627569e+01   3.4952156494e+01    0.8208065    0.3543958  22.15  0.002552842    3.578    0.721
       180 -13.4149     76.4896    154.7954   6.4550271610e+01   3.3408244914e+01    0.4268178    0.2452904  42.06 0.0004475616    1.661    0.398
       181 -14.5353     83.3792    150.3983   6.1744139026e+01   3.3449408610e+01    0.7395509    0.4455893  26.77 0.0009684744    1.815    0.449
       182 -12.7425     91.7234    166.0485   6.2007980126e+01   2.8211368936e+01    0.3132621    0.2249449 -45.74 0.0003165466    1.526    0.345
       183 -13.7310     87.3750    165.2857   6.3102565951e+01   2.9092796450e+01    0.6729562     0.400162   1.65  0.002352419    3.436    0.709
       184 -12.4653     94.8149    172.1606   6.2146981790e+01   2.6244325951e+01    0.2919831    0.2137603  27.38 0.0009871449    1.398    0.285
       185 -11.2874    191.0377    171.9687   3.9235146080e+01   9.5774381986e+00    0.1654481    0.1457529   1.80 0.0004700667    1.034    0.033
       186 -13.0058    100.1727    170.9818   6.0503211948e+01   2.5650119750e+01    0.3490817    0.2452368  25.92 0.0004538775    1.491    0.329
       187 -12.3993     83.8409    171.8766   6.5112511734e+01   2.8035738480e+01    0.2052457    0.1972481 -10.36 0.0003886806    1.182    0.154
       188 -11.5441    197.8132    170.4514   3.7620141570e+01   8.7174985171e+00    0.2191794     0.166638 -10.95 0.0007321212    1.284    0.221
       189 -11.4993    163.6546    170.9504   4.4766236008e+01   1.4494894203e+01    0.1977128    0.1774348 -25.93 0.0004728679    1.107    0.096
       190 -11.9605     61.8002    170.9167   7.1144529002e+01   3.1434518602e+01    0.2845386    0.1916859  39.35 0.0008636104    1.388    0.280
       191 -13.7583     52.9800    167.7772   7.3264150288e+01   3.3361185106e+01     0.764384    0.2798285  46.77  0.002013932    2.621    0.618
       192 -12.5564     40.6873    168.4240   7.6836374221e+01   3.4655469674e+01     0.284916    0.2507371  74.75  0.001022994    1.012    0.012
       193 -13.2274     30.7108    167.4130   7.9559662747e+01   3.5976208329e+01    0.3533448    0.2767971  56.34  0.001319297    1.157    0.135
       194 -12.8630    122.2675    167.7116   5.4081908274e+01   2.2607553156e+01    0.4145023    0.2301892  30.27  0.001270815    1.863    0.463
       195 -13.6581     90.4398    171.6158   6.3255387051e+01   2.7072376430e+01     0.549984    0.3224756 -48.37 0.0006554819    1.863    0.463
       196 -12.1965     71.9280    166.6866   6.7700408591e+01   3.1083840887e+01    0.2454768    0.1880013 -58.40 0.0004682948    1.352    0.261
       197 -12.5876    200.5376    165.6099   3.6136209456e+01   9.0964969515e+00     0.455004    0.2339864  57.86   0.00164082    4.169    0.760
       198 -13.1556    111.4588    164.1295   5.6265931241e+01   2.5339052799e+01    0.4025916      0.29989 -22.45 0.0009554856    1.719    0.418
       199 -12.4159    103.4732    164.9200   5.8570661875e+01   2.6532662938e+01     0.246578    0.1982353  37.60  0.001251374    1.187    0.158
       200 -12.9790     57.7135    164.5876   7.1507441502e+01   3.3563717637e+01    0.4074128    0.2239077  63.11  0.001725217    2.084    0.520
       201 -11.3561    212.2195    164.0058   3.3679491960e+01   7.4560534192e+00    0.1812092    0.1494032 -21.07 0.0002123649    1.058    0.055
       202 -13.8266     68.1392    159.4700   6.7751952820e+01   3.3445614491e+01    0.5778439    0.3654684  -2.88  0.002309466    2.721    0.632
       203 -12.4883     41.5303    162.0913   7.5924139299e+01   3.6168348352e+01    0.4517054    0.1933059  56.75  0.001736964    2.604    0.616
       204 -11.3969    229.5961    161.7939   3.0291285939e+01   5.1015465140e+00    0.1719212    0.1055058 -41.28 0.0004349302    1.587    0.370
       205 -12.8599    169.4232    159.9740   4.1276278107e+01   1.5594544804e+01    0.3287233    0.2988209  64.46  0.001259762    1.342    0.255
       206 -12.6093     95.6070    159.1568   5.9740182839e+01   2.9253109039e+01    0.3110048    0.2485137   1.93 0.0009690187    1.573    0.364
       207 -14.0532    120.4526    157.5023   5.2602828409e+01   2.5265808537e+01    0.6102563    0.3945964  31.69  0.002723792    1.567    0.362
       208 -15.0966     34.4519    248.7377   8.4107357498e+01   1.7718546371e+01    0.9613388    0.5426254  34.96  0.003767581    1.466    0.318
       209 -11.2815    145.8629    157.7753   4.6218014611e+01   2.0449802795e+01    0.1934603    0.1769601  83.83 0.0003487426    1.296    0.229
       210 -13.5699     31.9455    156.6644   7.8178006613e+01   3.8591390740e+01    0.4460656    0.3169295  84.32  0.001724603    1.319    0.242
       211 -12.8994     46.7567    160.7501   7.4238172759e+01   3.5907353570e+01     0.371564    0.2291688  60.61 0.0009660587    1.641    0.391
       212 -11.9282    190.4171    155.3921   3.5973509775e+01   1.2644794193e+01    0.2598772    0.1566136 -41.21 0.0007178495    1.595    0.373
       213 -12.0992    105.5222    158.8517   5.6909725971e+01   2.7628006248e+01    0.3217736    0.2183375  67.39 0.0007207008    1.901    0.474
       214 -11.0553    141.4934    155.5193   4.6813086870e+01   2.1764286897e+01    0.1491251     0.144595  21.71 -1.678336e-05    1.026    0.025
       215 -12.9400     12.1462    150.2867   8.3513204023e+01   4.2009928594e+01     0.410017    0.2396353 -59.55  0.002095197    1.689    0.408
       216 -13.0356     19.9221    154.7333   8.1564416438e+01   4.0225365705e+01    0.3857407    0.2404959  13.10  0.001946136    1.985    0.496
       217 -12.9215     19.7523    150.1967   8.1222222257e+01   4.1410370885e+01    0.3628163    0.2275019 -50.31  0.001021268    1.751    0.429
       218 -11.3571     25.1268    153.8185   7.9935303091e+01   3.9990781364e+01    0.2079406    0.1580716  67.15 0.0004206492    1.206    0.171
       219 -11.5154    212.3167    153.6680   3.1553463520e+01   9.1548832557e+00    0.1266866    0.1052029 -64.72 0.0007047113    1.687    0.407
       220 -12.8947     63.3262    152.3223   6.8129762141e+01   3.5957751624e+01    0.2977729    0.2192831 -30.10  0.001422745    1.747    0.428
       221 -12.9157     57.9461    143.9063   6.8517792588e+01   3.8889014028e+01    0.3608923    0.2335977 -42.16 0.0004551031    1.790    0.441
       222 -13.7433     42.2640    145.8400   7.3770704056e+01   4.0312239618e+01    0.6856076    0.4011482 -25.23  0.002793389    2.748    0.636
       223 -13.9730     51.0178    142.6001   7.0534187726e+01   4.0127824798e+01    0.6134003     0.311672  42.46  0.002334201    1.915    0.478
       224 -11.9241     51.3292    152.4834   7.1823051422e+01   3.7491661255e+01    0.2649271    0.2349728 -86.36  0.000969392    1.061    0.057
       225 -12.7871     53.5392    149.4853   7.0728871628e+01   3.7997340036e+01    0.3031825      0.24108 -71.93 0.0008900034    1.207    0.171
       226 -12.1201    172.0429    151.3233   3.8873416639e+01   1.6797481184e+01    0.3233911    0.1970659 -49.88  0.001005189    1.772    0.436
       227 -12.9595    133.1183    150.0493   4.7763322350e+01   2.4580000130e+01    0.4884416     0.230322 -55.27  0.001791009    2.417    0.586
       228 -12.2606     44.0000    152.0417   7.4013833905e+01   3.8485529482e+01    0.2142027    0.1913328  81.81  0.001226537    1.013    0.013
       229 -11.8943      1.4913    151.9031   8.6746375645e+01   4.2365605307e+01    0.1999048    0.1103034 -83.97  0.001021314    1.556    0.357
       230 -13.0486     69.3348    150.4520   6.6003074697e+01   3.5588802354e+01    0.2932178    0.1844204 -69.92 0.0008329098    1.615    0.381
       231 -12.9543    109.1149    149.1270   5.4023311223e+01   2.9325384308e+01    0.3746636    0.3453391  28.83  0.001009032    1.096    0.088
       232 -12.9195     27.2834    148.7830   7.8789328183e+01   4.1096371583e+01    0.4015494    0.2704194 -58.57  0.001829788    1.482    0.325
       233 -12.2991      5.0893    149.5823   8.5553631088e+01   4.2709283722e+01    0.2925142    0.1543707  54.32  0.000736498    1.772    0.436
       234 -11.4691    146.9188    148.8061   4.4055524839e+01   2.2169132958e+01    0.2270909    0.2009198  -0.53 0.0003968982    1.193    0.162
       235 -12.6737     96.1120    148.9069   5.7703573660e+01   3.1696977109e+01    0.2395897    0.2044175  75.53 0.0006632416    1.257    0.205
       236 -12.1703     32.4648    147.8938   7.7091137258e+01   4.0821488586e+01    0.2368907    0.2090562 -54.06 0.0006591899    1.234    0.190
       237 -13.3049    119.5203    144.4324   5.0160141822e+01   2.8494723147e+01    0.5025527    0.3285862  57.50   0.00115931    1.805    0.446
       238 -12.3796      8.4786    146.5905   8.4335762438e+01   4.3235023105e+01    0.2834988    0.1513743  74.80  0.001358254    1.792    0.442
       239 -13.6339     95.0247    140.3120   5.6320827935e+01   3.4036278407e+01    0.6013662     0.405591  19.02  0.002572004    1.844    0.458
       240 -12.6970    103.3309    144.9032   5.4812498033e+01   3.1407410184e+01    0.4022683    0.3155372  37.53 0.0009813657    1.255    0.203
       241 -12.3315    101.1409    141.1723   5.4681271785e+01   3.2725490695e+01    0.3190372    0.2879361 -17.63 0.0008271707    1.246    0.198
       242 -11.4827    170.2361    145.4081   3.7964364714e+01   1.8310088910e+01     0.200075    0.1403253  52.32 0.0009418725    1.619    0.382
       243 -11.5018    157.9056    145.0882   4.0641832001e+01   2.0793663742e+01    0.2186561    0.2102054  -5.40 0.0003360442    1.008    0.008
       244 -11.2728    228.9931    145.2639   2.7044791298e+01   7.7869969632e+00    0.1720003    0.1516345 -11.78 0.0003183402    1.085    0.078
       245 -13.6528     12.5093    142.1609   8.2753225450e+01   4.4083662585e+01    0.4516467    0.3130631  75.28  0.002481785    1.321    0.243
       246 -12.2726    187.2897    143.2422   3.3962562544e+01   1.5454827406e+01    0.2386416    0.2254378 -37.79  0.000259058    1.125    0.111
       247 -12.0573     70.4813    143.4776   6.4483758384e+01   3.7231388265e+01    0.1508711    0.1415541  77.91 -5.779917e-05    1.013    0.013
       248 -12.9178     19.8280    142.1863   8.0460458444e+01   4.3492048915e+01    0.3321972     0.233482   0.03  0.001275764    1.864    0.463
       249 -10.9634    178.4191    142.4843   3.5582880013e+01   1.7294328374e+01    0.1447869     0.134724 -23.83 -6.981794e-05    1.030    0.030
       250 -11.7022    166.5190    141.9881   3.8007470607e+01   1.9723324895e+01    0.2937922    0.2073899 -67.93  0.001295589    2.031    0.508
       251 -12.0712     41.2801    139.8900   7.3301321184e+01   4.1998754421e+01    0.2364832    0.1412615 -46.01 0.0008087928    1.856    0.461
       252 -13.6096     59.6400    135.6832   6.6632025729e+01   4.0833928213e+01    0.5493948    0.2447385 -65.59  0.002098064    2.184    0.542
       253 -13.1385     57.1309    133.8422   6.7150128399e+01   4.1662694945e+01    0.3552463     0.211187  36.39  0.001262081    1.675    0.403
       254 -11.0235    212.4745    138.0147   2.8204424746e+01   1.1768455379e+01    0.2057558    0.1202528 -36.62 0.0004665033    1.515    0.340
       255 -11.1210    109.5150    137.4703   5.1451110095e+01   3.2076306674e+01    0.2860366    0.1381803 -41.99  0.001024094    2.321    0.569
       256 -13.2518     51.0699    137.0071   6.9673235893e+01   4.1605835953e+01    0.4485555    0.2139425 -65.02   0.00182929    1.954    0.488
       257 -12.9099    118.3980    136.0277   4.8613061699e+01   3.0701722492e+01    0.3214201    0.3093592 -63.03 0.0003963221    1.054    0.051
       258 -13.0017     89.0399    135.5209   5.7161094932e+01   3.6296203156e+01    0.5147985    0.2358758  50.25  0.001113993    2.527    0.604
       259 -12.8544     66.4664    135.2563   6.4316297908e+01   3.9979971407e+01    0.5044714    0.2558993  10.03  0.001581697    3.930    0.746
       260 -13.2682     44.4364    134.6737   7.1522426901e+01   4.3028920859e+01    0.4830373    0.2642921  57.57  0.001501502    2.061    0.515
       261 -11.5944     26.9696    136.0210   7.7506492031e+01   4.4489243777e+01    0.2342466    0.1440259  62.88 0.0008388798    1.679    0.404
       262 -13.1857     13.7227    134.5543   8.1696422196e+01   4.5982905746e+01    0.3888645    0.2588302  58.43    0.0020682    1.470    0.320
       263 -13.4759     18.5525    131.3940   7.9789456898e+01   4.6443358809e+01    0.4851604    0.3202273   2.46  0.002084129    1.956    0.489
       264 -11.7380    197.1939    134.8858   3.0210428609e+01   1.5113376532e+01    0.2684953    0.2045988  63.28 0.0009405158    1.710    0.415
       265 -12.4170    128.1484    133.8830   4.5458269570e+01   2.9252191675e+01    0.2335358    0.2131854 -88.75 0.0003742524    1.209    0.173
       266 -13.2199    103.1678    133.9805   5.2536930748e+01   3.4131764175e+01    0.4980434    0.2416468  29.67  0.001578634    2.443    0.591
       267 -13.5880     34.9577    131.7130   7.4295418416e+01   4.4858962113e+01    0.5719548    0.3320432   8.62  0.002510887    2.296    0.564
       268 -11.3150    191.9644    131.9972   3.0528700256e+01   1.6640556787e+01    0.1729505    0.1582306 -24.14 0.0003897266    1.004    0.004
       269 -12.0563      7.3866    131.5169   8.3496260692e+01   4.7225070884e+01    0.2630483    0.1489298 -37.65 0.0009788767    2.166    0.538
       270 -12.0321    230.0906    130.6548   2.3809750889e+01   9.9327984180e+00    0.2325423    0.1611277 -30.37 0.0004110103    1.234    0.190
       271 -12.0934     94.6041    129.2529   5.4086158606e+01   3.6896542211e+01    0.3592768    0.1773366 -35.26   0.00117186    3.026    0.670
       272 -13.1501     46.3731    129.5213   7.0076075790e+01   4.4179000478e+01    0.3409339    0.2693611  39.57  0.001720373    1.295    0.228
       273 -12.0800    121.5420    128.0897   4.5884506783e+01   3.1945756601e+01    0.3051947    0.2316888 -68.31  0.001377562    1.527    0.345
       274 -13.3778     82.6064    127.8495   5.7585584087e+01   3.9366667838e+01    0.4480212    0.3347134  17.59  0.001826991    1.588    0.370
       275 -13.0935    186.9423    124.4078   2.9717007686e+01   1.9041400652e+01    0.5556816    0.3392453 -30.70  0.002281154    1.656    0.396
       276 -13.8882     58.8542    125.7667   6.5129432623e+01   4.3577280476e+01    0.4752529     0.340796  -5.07  0.001915534    1.917    0.478
       277 -13.4622     53.6341    126.8428   6.7126684363e+01   4.3990315812e+01    0.3607831    0.2971588 -43.46 0.0009488486    1.289    0.224
       278 -12.7069     26.6955    125.1138   7.6267526117e+01   4.7423261790e+01    0.4079394    0.2503089  78.34  0.001718851    1.747    0.428
       279 -14.8936     76.2902    120.6190   5.8105724857e+01   4.2294178754e+01    0.8783149    0.6265747 -52.89  0.002403772    1.370    0.270
       280 -11.7338    169.5396    125.9813   3.3608726546e+01   2.2320813837e+01     0.223602    0.1428822 -39.86 0.0003125215    1.502    0.334
       281 -13.5582     14.4811    119.0240   7.9852370034e+01   5.0036192440e+01    0.3528081    0.2636805 -35.52   0.00125854    1.515    0.340
       282 -12.2997     23.5409    116.1205   7.6205999477e+01   5.0105076945e+01    0.4702836    0.2330433 -56.45 0.0007792177    1.815    0.449
       283 -12.9508     18.4878    114.9295   7.7909740017e+01   5.0829443605e+01    0.4106323    0.2522498 -78.89  0.002033756    1.471    0.320
       284 -12.8196    130.4551    128.5001   4.3564325052e+01   3.0013855873e+01    0.2795421    0.2759289 -42.10  0.001483722    1.013    0.013
       285 -13.4527     20.6692    122.9454   7.8112838253e+01   4.8519564022e+01    0.3214187    0.2856781  24.30 0.0008211876    1.273    0.214
       286 -12.9127      4.9448    123.1217   8.3594616854e+01   4.9578711825e+01    0.3200327    0.1944515  83.21  0.001588891    1.529    0.346
       287 -12.8822    195.0241    122.5372   2.7772649601e+01   1.7764887244e+01    0.2595787     0.247819 -23.48 0.0003387434    1.054    0.051
       288 -11.9327     64.3236    119.3304   6.1958643841e+01   4.4502356352e+01    0.2746459    0.1043816 -51.25 0.0009401338    2.511    0.602
       289 -11.7317     35.1720    127.1583   7.3588424727e+01   4.6056711178e+01    0.2103665    0.1580642  74.09  0.001081526    1.353    0.261
       290 -11.6648    224.1043    120.3601   2.2476338468e+01   1.2633873745e+01    0.1714898    0.1642602 -27.89 0.0005424708    1.135    0.119
       291 -13.4840    105.9317    121.4563   4.8790551251e+01   3.6677910589e+01    0.5159211    0.3440012  52.84  0.001712551    1.615    0.381
       292 -10.8408     47.8003    119.6459   6.7905820261e+01   4.6652223603e+01    0.2017735    0.1300407  39.57 0.0003889073    1.585    0.369
       293 -10.9001     36.0045    119.2267   7.2104245410e+01   4.8099127454e+01    0.1777404    0.1205373  24.94 0.0004398825    1.607    0.378
       294 -11.7992     94.7584    117.4774   5.1283501384e+01   3.9823028626e+01    0.3067967    0.2247407 -52.11  0.001395609    1.351    0.260
       295 -12.7544      9.1346    117.1476   8.1562648090e+01   5.0894059289e+01    0.2147152    0.1666924 -57.56  0.001057738    1.235    0.190
       296 -11.5386    241.3669    115.8997   1.9074675412e+01   1.0341450377e+01     0.186806    0.1726137 -80.66 0.0007056437    1.350    0.259
       297 -12.7609    108.6444    111.4596   4.5428668074e+01   3.8540345420e+01    0.3174225    0.2828264 -64.89 0.0007508671    1.155    0.134
       298 -10.2672     29.5330    116.5185   7.4056833222e+01   4.9465098996e+01    0.1425724     0.128052 -77.39  0.000102138    1.004    0.004
       299 -12.3136    100.4494    119.5289   4.9994968087e+01   3.8224188539e+01     0.247472    0.2359746 -77.97 0.0004931464    1.056    0.053
       300 -12.6607    104.4579    113.9563   4.7355596837e+01   3.8794588861e+01    0.3124852    0.2201765  57.14 0.0007865125    1.586    0.369
       301 -13.1913     67.8841    113.4929   5.9438105198e+01   4.5496217559e+01     0.407514    0.1851737 -55.62  0.001532967    2.065    0.516
       302 -12.8928     62.8481    112.8038   6.1095029821e+01   4.6439771794e+01    0.3491784    0.2208233 -67.64  0.001142244    1.609    0.378
       303 -12.4951     62.1919    108.8397   6.0452156274e+01   4.7576193631e+01    0.2648931    0.2078398 -77.15 0.0007383492    1.337    0.252
       304 -12.4060     58.6205    114.0778   6.2902715903e+01   4.6713326175e+01    0.2565874    0.2209398  19.29 0.0003794454    1.274    0.215
       305 -11.5179    121.5922    112.8922   4.2037169268e+01   3.5472643090e+01    0.3097732    0.2312593  42.57  0.001407312    1.348    0.258
       306 -12.2514    116.6524    112.8723   4.3437777664e+01   3.6531212811e+01    0.3016925    0.2305096  50.13 0.0006223075    1.334    0.250
       307 -14.1277     10.7459    104.5706   7.9540549323e+01   5.4116735105e+01    0.8971841    0.4487858  85.70  0.003334892    2.172    0.540
       308 -12.5393     11.8897     98.2554   7.8260113299e+01   5.5709033640e+01    0.4249999    0.2391284  29.56 0.0004338247    1.929    0.482
       309 -11.6317    171.5424    112.4867   2.9851839561e+01   2.4552188929e+01    0.1505719    0.1425464 -30.69 9.455354e-05    1.027    0.026
       310 -11.6061      5.3303    112.3162   8.2449377805e+01   5.2396441629e+01    0.1417658   0.08533929 -46.91 0.0004422284    1.682    0.405
       311 -11.5076     90.3564    110.9361   5.1079244559e+01   4.2284104653e+01    0.2234193    0.2001548 -53.44 0.0005269777    1.101    0.092
       312 -11.8227     52.6675    110.6311   6.4381881616e+01   4.8437245679e+01    0.2818521     0.223179  14.31 0.0007540872    1.440    0.306
       313 -11.7111    210.2913    108.5748   2.1920223087e+01   1.7185729278e+01     0.245976    0.1931578 -41.51 0.0005304455    1.134    0.118
       314 -10.8359    237.2713    108.3231   1.7987708831e+01   1.2208514720e+01    0.1251876   0.09305017 -10.22 0.0002831516    1.572    0.364
       315 -12.8054      2.7389    107.3286   8.2911682928e+01   5.3845947601e+01    0.2805321    0.2387965 -79.93  0.001201539    1.006    0.006
       316 -12.4032    159.2203    106.5514   3.0933854101e+01   2.8457631802e+01    0.2760364    0.2642809 -47.24 0.0003718197    1.012    0.012
       317 -13.3056     82.8719    113.4053   5.4201207519e+01   4.3026860335e+01    0.7905831    0.2283751 -52.32  0.002345657    3.245    0.692
       318 -11.2198     92.7383    105.5769   4.8890288554e+01   4.3153838899e+01    0.2209582    0.1480528  50.03 0.0009400654    1.574    0.365
       319 -12.0326    153.7815    100.9662   3.0644109562e+01   3.0817682809e+01    0.4262492     0.261618 -47.90  0.001809165    1.624    0.384
       320 -13.7457     77.7443     92.2606   5.0420348859e+01   4.9224010752e+01    0.5631149    0.3667636  53.57  0.001770688    1.768    0.434
       321 -12.6998     79.1342    101.7337   5.2535677301e+01   4.6636433375e+01    0.3393532    0.2977949  75.31 0.0005162112    1.258    0.205
       322 -12.2793     76.5523     97.4802   5.2320681439e+01   4.8153280096e+01     0.288797    0.2292517 -46.32 0.0007460912    1.237    0.192
       323 -12.7154     55.5247    101.4441   6.1274323183e+01   5.0465279322e+01      0.31394    0.2576982 -36.47 0.0005347481    1.268    0.211
       324 -11.2540     57.4657     97.4955   5.9568425136e+01   5.1212412678e+01    0.4084073    0.2537945  37.29  0.001396934    1.661    0.398
       325 -13.2421    162.5688     99.2795   2.8269520218e+01   2.9129682044e+01    0.5356038    0.3017803 -65.74  0.001845114    3.028    0.670
       326 -11.9528     84.8560    101.0131   5.0329031885e+01   4.5773809816e+01    0.2491164    0.2266352  36.56 0.0003428845    1.121    0.108
       327 -12.9717     94.5607     98.9935   4.6472559754e+01   4.4387856229e+01    0.6037222     0.289473  50.86  0.002133542    2.396    0.583
       328 -11.8868    168.5307     99.0538   2.6978195344e+01   2.7809777201e+01    0.2357589    0.1437249 -40.40 0.0007497967    1.561    0.359
       329 -11.5158     31.9632     98.9922   7.0172468446e+01   5.3905857546e+01    0.2187996     0.191671 -54.66 0.0003194415    1.069    0.064
       330 -12.1686    105.0012     97.4842   4.2680290402e+01   4.2586784982e+01    0.2861612    0.2288268 -48.08  0.001347144    1.244    0.196
       331 -12.0484    178.7749     96.6042   2.4344756428e+01   2.5948249534e+01    0.3058269    0.2293996 -54.04  0.001300431    1.344    0.256
       332 -12.5887     66.5194     94.4905   5.5269252390e+01   5.0593973950e+01    0.2972473    0.2129464 -46.94 0.0008349077    1.355    0.262
       333 -12.4976    156.3629     94.0474   2.8164299268e+01   3.1585526636e+01     0.290285    0.2294571  65.99 0.0005973318    1.368    0.269
       334 -11.4451     26.4684     99.3757   7.2486428286e+01   5.4314578023e+01     0.286601    0.1683479  70.40   0.00124824    2.165    0.538
       335 -10.4078    226.2720     92.6939   1.5949021697e+01   1.6655032908e+01    0.1332474   0.09018702 -57.12 0.0002066088    1.541    0.351
       336 -10.9757     41.4632     91.5616   6.4665667611e+01   5.4834655142e+01    0.1435396    0.1351041 -71.24 0.0001558654    1.055    0.052
       337 -10.3972    243.7117     90.6526   1.3358812115e+01   1.3739683701e+01    0.1225965   0.09298294  -8.17 0.0005550539    1.658    0.397
       338 -11.0024     28.3499     90.3093   6.9997450355e+01   5.6526823640e+01    0.1522591   0.09494817 -35.80 0.0007044346    1.713    0.416
       339 -12.5761    125.4582     86.8084   3.3528219086e+01   4.0337097599e+01    0.4980145    0.3792745 -27.03   0.00227629    1.481    0.325
       340 -11.9251     10.8773     87.0864   7.7046298671e+01   5.8687601820e+01      0.35733    0.1986066   8.15  0.001236975    2.126    0.530
       341 -12.2530      3.1765     88.0497   8.0533746655e+01   5.8847451084e+01    0.2819749    0.1830256 -78.41 0.0008766549    1.354    0.261
       342 -11.2384    171.4640     88.4402   2.3543683069e+01   2.9107215731e+01    0.1498869    0.1409226 -58.44 6.524175e-05    1.016    0.016
       343 -12.7445    149.5954     83.7523   2.6705565561e+01   3.5174295054e+01    0.5678984    0.2051334 -35.78  0.001812924    2.940    0.660
       344 -11.1713     39.0245     88.1997   6.4923155180e+01   5.5981616168e+01    0.1820047    0.1782351 -66.99            0    1.067    0.063
       345 -12.5016     68.8959     86.6465   5.2140912269e+01   5.2140418482e+01    0.2537957     0.198233 -43.19 0.0002505779    1.254    0.202
       346 -12.8327     54.8484     85.7339   5.7559301312e+01   5.4572257242e+01    0.5082323    0.4123946  -0.60   0.00213872    1.407    0.289
       347 -11.4216    177.0546     85.9836   2.1842663217e+01   2.8249574399e+01    0.1767055    0.1687989  88.53 0.0004669347    1.075    0.069
       348 -10.8826    100.5130     86.5081   4.0802873432e+01   4.6040965834e+01    0.1557156    0.1547647 -13.17 2.032897e-05    1.012    0.012
       349 -12.5032    165.4869     84.4909   2.3607347790e+01   3.1229318831e+01    0.2598445    0.2257302  50.88 0.0007216951    1.207    0.172
       350 -10.6944    141.4559     85.5466   2.9101427490e+01   3.6787529447e+01    0.1550786    0.1507653 -73.96 0.0001873145    1.006    0.006
       351 -11.2772    134.1215     84.1177   3.0458505142e+01   3.8828995665e+01    0.2333902    0.2125164  25.19 0.0005664759    1.204    0.169
       352 -13.1684     64.4152     82.5263   5.2697887853e+01   5.3884904013e+01    0.6069422    0.3815625   2.80  0.002355349    2.572    0.611
       353 -11.6313    215.9547     80.2448   1.4388054477e+01   2.0647563931e+01    0.2298448    0.1706707 -38.77 0.0003848849    1.181    0.154
       354 -11.6142    108.2252     80.6892   3.6535204545e+01   4.5601492908e+01     0.253188    0.2110213 -57.14 0.0004901992    1.258    0.205
       355 -12.4119    224.6690     80.0181   1.3232075684e+01   1.8917641271e+01    0.2134015    0.1928569  86.69 0.0004134534    1.230    0.187
       356 -14.0713      6.8213     77.9754   7.7420359498e+01   6.1253022321e+01    0.4847094    0.3505824 -32.86  0.002224084    1.400    0.286
       357 -11.3084    212.5387     86.4597   1.6338447677e+01   2.0373967662e+01    0.1384542    0.1203936 -46.20 1.436695e-05    1.006    0.005
       358 -11.8748    161.0255     77.5021   2.2495692920e+01   3.3555723263e+01    0.2310449    0.1488642  56.57  0.001029152    1.582    0.368
       359 -12.3622    206.1948     75.3333   1.4492841808e+01   2.3474185554e+01    0.2575211    0.1879542  -9.54  0.001016503    1.851    0.460
       360 -11.4544     75.2380     75.9937   4.6341709371e+01   5.3516540170e+01    0.2043153    0.1260274 -48.54 0.0008762286    1.598    0.374
       361 -11.4471     85.2723     75.4818   4.2423114712e+01   5.1674323848e+01    0.2954441    0.1504335  36.24  0.001122343    2.102    0.524
       362 -11.9196    106.3692     73.1374   3.4603609748e+01   4.7588274314e+01    0.3924288    0.2694817  71.70  0.001636473    1.945    0.486
       363 -12.1931      2.9264     72.1467   7.8319389288e+01   6.2912174226e+01     0.256735    0.1640612 -56.72 0.0009636589    1.298    0.230
       364 -11.6898     88.4703     79.0362   4.2466206741e+01   5.0237363973e+01     0.245913     0.211031  40.05 0.0007843249    1.170    0.145
       365 -11.8166     71.1520     69.8152   4.5853921940e+01   5.5658097887e+01    0.3119363    0.2063843   6.86 0.0005859263    2.272    0.560
       366 -12.1853    188.8196     70.3289   1.5697179950e+01   2.8154975916e+01     0.274399    0.2282255 -75.04 0.0006669866    1.219    0.180
       367 -11.5682    132.9632     70.4258   2.6453194307e+01   4.1735618945e+01    0.2193116    0.2048988 -46.14 0.0002807789    1.078    0.072
       368 -11.3385     61.4641     71.4687   5.0424699408e+01   5.6976608569e+01    0.1484365    0.1395471 -23.51 0.0002066477    1.021    0.020
       369 -13.0185    114.3005     76.4664   3.3360794137e+01   4.5074454437e+01    0.5612071    0.4141388  -4.74  0.001947487    1.945    0.486
       370 -12.7022     54.7389     68.2073   5.2268586914e+01   5.8798486620e+01     0.260959    0.2419675 -11.69  0.000255785    1.056    0.053
       371 -11.5323    154.5505     68.1421   2.1008415668e+01   3.6777867221e+01    0.2511479    0.2011759  76.48 0.0004661017    1.304    0.233
       372 -11.6494    165.3549     66.2732   1.8420073030e+01   3.4420860789e+01    0.3861128    0.1155145 -40.04   0.00124049    3.026    0.670
       373 -11.0052     60.2469     66.9631   4.9415064344e+01   5.8201372212e+01    0.1880918    0.1219982 -50.07 0.0004106626    1.510    0.338
       374 -12.5275     10.0972     63.0118   7.2925172275e+01   6.4812312625e+01    0.3559157    0.3190922 -77.79 0.0003937258    1.170    0.146
       375 -11.3635     12.1809     59.6014   7.1014699160e+01   6.5512584892e+01    0.2359924    0.2243989  38.25 0.0008335894    1.231    0.188
       376 -11.8619     67.9669     65.0729   4.5470346987e+01   5.7277480806e+01     0.217784    0.2076783  -5.22 0.0003197447    1.013    0.013
       377 -11.0944    188.5089     64.0113   1.4057196496e+01   2.9218476043e+01    0.2110328    0.1302029 -38.36 0.0003724665    1.498    0.332
       378 -11.3849     92.1270     63.8281   3.5914705293e+01   5.2658567625e+01     0.223877    0.2072011 -88.62 0.0003965089    1.211    0.174
       379 -10.6973     39.3895     64.4973   5.8254978330e+01   6.1790684207e+01    0.1422195    0.1251817 -36.80 0.0001385199    1.037    0.036
       380 -11.7831    109.4883     60.0531   2.9099883681e+01   4.9368560750e+01    0.3094101    0.2260804 -36.82  0.001455014    1.409    0.290
       381 -12.7159    109.7913     55.8906   2.7499793477e+01   5.0035148367e+01    0.3055774    0.2299775  63.48  0.001027282    1.377    0.274
       382 -12.5495     41.6076     59.5963   5.5529375866e+01   6.2638878914e+01    0.2986363    0.2659875  29.39  0.001545074    1.201    0.167
       383 -10.8427    129.8196     59.4287   2.3573714366e+01   4.4467117040e+01    0.2072965    0.1390526  46.40 0.0004244187    1.516    0.340
       384 -12.9005    100.5187     57.6659   3.0902545723e+01   5.1926287044e+01    0.3652153    0.2629807 -42.09 0.0006847623    1.426    0.299
       385 -11.0380     25.2843     59.2743   6.3860784367e+01   6.4555134200e+01    0.1748649    0.1596796  74.69 0.0002026447    1.317    0.241
       386 -12.6431     19.0039     49.0101   6.4169058693e+01   6.7493199584e+01    0.5771847    0.1226501 -51.10  0.001662764    3.283    0.695
       387 -12.2449     19.8221     53.0822   6.4983157308e+01   6.6489951045e+01    0.2454121    0.2246929  88.16 0.0003991202    1.309    0.236
       388 -11.6534    198.6416     57.7167   1.1022346341e+01   2.7823454044e+01    0.2512357    0.1605973  53.16   0.00125487    1.754    0.430
       389 -10.8414    181.6628     58.6668   1.3604052432e+01   3.1657024705e+01    0.1428856    0.1119853  24.15 0.0007051997    1.742    0.426
       390 -12.6822     37.2454     54.8524   5.6083999210e+01   6.4264059079e+01    0.5657691     0.314111 -33.82  0.002559058    1.905    0.475
       391 -12.8392    193.3104     56.0521   1.1275870334e+01   2.9294295664e+01    0.2990447    0.2611442 -15.44   0.00171559    1.362    0.266
       392 -10.6582     54.6522     57.2535   4.8399187786e+01   6.1244772680e+01    0.1375043    0.1126865  64.61 0.0003543616    1.590    0.371
       393 -10.9836     71.8504     56.8823   4.0799176546e+01   5.8254591769e+01    0.1745632    0.1677096  75.68 0.0002612168    1.187    0.157
       394 -10.8231    205.4242     54.4929   9.3706235431e+00   2.6756249961e+01    0.1364452    0.1177505 -55.75 6.013176e-05    1.017    0.016
       395 -12.3502    120.8097     52.2915   2.3274743552e+01   4.7920788035e+01    0.3066934    0.2417103 -47.18 0.0006940385    1.312    0.238
       396 -12.2670    115.6933     54.2868   2.5304051489e+01   4.8864390204e+01    0.2227676     0.200229 -40.37 0.0002463179    1.147    0.128
       397 -12.6667    113.5916     51.2601   2.4754264201e+01   4.9888730377e+01    0.4711016    0.3059337  -3.73  0.001870893    2.490    0.598
       398 -12.8294    162.0493     50.7379   1.4372809534e+01   3.7675979795e+01     0.364989    0.2122567 -19.37  0.001366387    2.272    0.560
       399 -12.0030    130.5592     51.2944   2.0622880941e+01   4.5614837961e+01    0.3490803    0.2040556  30.26  0.001327237    2.562    0.610
       400 -13.1864     30.5831     50.3752   5.8051373174e+01   6.6047651433e+01    0.3011733    0.2710117 -58.44 0.0005777249    1.212    0.175
       401 -12.3037    100.2364     50.2277   2.8154350601e+01   5.3301894122e+01    0.2929943    0.2454757 -81.46   0.00144503    1.441    0.306
       402 -12.1917    174.0291     48.8752   1.1963667117e+01   3.4959706256e+01    0.3308126     0.169907 -39.93 0.0009448981    1.810    0.447
       403 -11.2314    152.1788     49.6023   1.5721087994e+01   4.0347334595e+01    0.2038275    0.1293734  52.36 0.0003004996    1.594    0.373
       404 -11.7886     41.7242     47.2828   5.0850966263e+01   6.5302436324e+01    0.2990721    0.2416227 -55.17  0.001669378    1.351    0.260
       405 -12.0320    142.6926     45.8232   1.6255286694e+01   4.3336418795e+01    0.2253955    0.1953582   8.57 0.0006292238    1.412    0.292
       406 -11.5219    197.1624     44.1622   7.6804979254e+00   3.0068600986e+01    0.1935559    0.1384231 -63.07 0.0003652563    1.307    0.235
       407 -11.8138     96.1235     44.3052   2.7061289882e+01   5.5255029683e+01    0.2463285    0.1747136  34.97  0.001167107    1.484    0.326
       408 -10.8084    189.9585     43.0199   8.2224308683e+00   3.1913494636e+01    0.1654947    0.1446403 -66.27  0.000353523    1.003    0.003
       409 -12.1807    123.8286     39.6192   1.7973891486e+01   4.9084783977e+01    0.2459315    0.2113282 -23.41 0.0003376167    1.277    0.217
       410 -12.9415    119.1389     38.9712   1.8795834057e+01   5.0375839353e+01    0.4589646    0.4059846  14.63  0.002487364    1.285    0.222
       411 -12.8404     23.6119     55.8552   6.3727280056e+01   6.5511960546e+01    0.3330855    0.2451699 -18.44 0.0006364724    1.388    0.280
       412 -12.2390    160.8454     38.6334   1.0874252280e+01   3.9684907903e+01    0.3857386    0.2759704  17.31 0.0006146195    2.081    0.519
       413 -11.6785    157.9898     35.2112   1.0244248232e+01   4.0862716617e+01    0.2138526    0.1966704 -69.95 0.0002681843    1.046    0.044
       414 -11.3187    159.7926     31.9484   8.9695416925e+00   4.0816621423e+01    0.2034789    0.1886568  46.03 0.0004644086    1.230    0.187
       415 -12.3855     34.1046     40.6017   5.2227874506e+01   6.7702588173e+01    0.3290296    0.1535088  32.07  0.001467937    2.176    0.540
       416 -12.0664    205.3660     39.4144   5.5795826422e+00   2.8816669158e+01    0.2233798    0.1924912 -57.65 0.0004766078    1.045    0.043
       417 -11.4783     87.4554     39.0563   2.7640047911e+01   5.8107304129e+01    0.2073434     0.127869  -3.44 0.0008088704    2.621    0.619
       418 -13.2060     28.0612     36.6066   5.4050916567e+01   6.9254945486e+01    0.3974386    0.1507302 -45.95  0.001659862    2.349    0.574
       419 -12.9864     31.4789     31.7967   4.9785594241e+01   6.9773857826e+01    0.3355144    0.2781007  17.26  0.001083062    1.186    0.157
       420 -11.2745     80.3314     35.8628   2.8677899737e+01   6.0213581333e+01    0.2877578    0.1204192 -41.76  0.001092079    2.591    0.614
       421 -11.1872     53.2279     34.4304   3.9273771937e+01   6.5919200562e+01    0.1854842     0.128375  48.75  0.000939863    1.614    0.380
       422 -11.8216    106.7307     32.3404   1.9219449596e+01   5.4427787035e+01     0.250351    0.2165556 -76.67 0.0006731724    1.282    0.220
       423 -10.6298     64.3146     32.2765   3.3210330228e+01   6.4171406221e+01    0.1415987    0.1019417  15.12 0.0002200372    1.565    0.361
       424 -12.3404      2.0862     31.0711   6.9066658690e+01   7.2623118692e+01    0.2405801    0.1650151 -41.96  0.000387819    1.186    0.157
       425 -11.4744    141.9821     31.0284   1.1426517836e+01   4.5525464964e+01    0.2127934    0.1960738  83.30  0.001218326    1.017    0.017
       426 -13.0566     46.6183     26.9650   3.8825778824e+01   6.8329146399e+01    0.4962012    0.2714356 -42.08  0.001768644    1.917    0.478
       427 -11.7144     96.8376     31.1225   2.1358131898e+01   5.7036624630e+01    0.2008535    0.1580348  33.39 0.0003576754    1.302    0.232
       428 -11.2686     20.3084     29.6860   5.5877289499e+01   7.1494261352e+01    0.1157114    0.1022329  65.08 0.0001959414    1.627    0.386
       429 -10.5033      1.3149     26.3087   6.7935121509e+01   7.3678063662e+01    0.1335457   0.07094792 -33.91 0.0007029258    1.630    0.387
       430 -12.2337    190.6623     24.0964   3.0827794578e+00   3.4119208403e+01    0.2320072      0.18874 -82.68 0.0003416956    1.107    0.097
       431 -12.5174     84.8302     24.4091   2.1931188098e+01   6.0790649171e+01     0.275999    0.2077808 -59.72 0.0008122284    1.693    0.409
       432 -10.9032     70.3310     21.3109   2.5359441553e+01   6.4480958964e+01    0.1460671   0.09684963  24.00 0.0007042675    1.671    0.402
       433 -11.9135     80.1505     18.3490   2.0514041346e+01   6.2622827403e+01    0.3468138    0.1787231  46.16  0.001255991    1.753    0.430
       434 -10.8502     79.3032     14.7077   1.8985382888e+01   6.3230433113e+01    0.1753941    0.1174812 -21.76  0.000235027    1.623    0.384
       435 -11.5356     92.3355     17.6991   1.6675895275e+01   5.9782019392e+01    0.3003857    0.1808025 -50.37  0.001387646    2.056    0.514
       436 -10.5325    149.6989     17.2749   5.7065012365e+00   4.5102822566e+01    0.1417654   0.09454154 -67.93 0.0002088441    1.537    0.349
       437 -10.7027    131.6062     17.4633   8.4154092493e+00   4.9783930193e+01    0.1378434    0.1260892  82.40 6.897735e-05    1.021    0.020
       438 -10.4050    198.4479    249.4690   5.0841173396e+01  -3.2212781398e+00    0.1129855   0.08720896  13.22 5.229581e-05    1.103    0.093
       439 -11.9372    114.7983    247.0271   6.7144621641e+01   8.0918865483e+00    0.2857769    0.1726693 -50.84  0.001670675    2.044    0.511
       440 -10.4182    193.4863     12.4646   3.5978142650e+02   3.4735649449e+01    0.1303327    0.1088331 -71.00  0.000125864    1.013    0.013
       441 -10.9068     54.5403     12.4349   2.6916677120e+01   6.8910643319e+01    0.1330914    0.1138762  23.90 8.902613e-05    1.016    0.016
       442 -10.6480    117.7171     11.7110   8.6112483194e+00   5.3965806013e+01    0.1386156   0.09578476  40.66 0.0001921161    1.528    0.346
       443 -11.1472     90.5052     11.5295   1.4311782165e+01   6.0871150065e+01    0.1373975    0.1231329  54.48 5.337197e-05    1.019    0.018
       444 -13.3105     53.1694    243.1623   7.9911851253e+01   1.6657939388e+01    0.5535567    0.3793359 -55.94  0.002590756    1.881    0.468
       445 -12.8759     50.0402    239.7181   8.0349641046e+01   1.7674292359e+01    0.3208589    0.2199994  52.06   0.00137175    1.154    0.133
       446 -12.6395     47.6253    235.1548   8.0569872734e+01   1.8835433501e+01    0.2649201    0.1808836 -70.55  0.001668502    1.669    0.401
