#   1 NUMBER                 Running object number                                     
#   2 MAG_AUTO               Kron-like elliptical aperture magnitude                    [mag]
#   3 X_IMAGE                Object position along x                                    [pixel]
#   4 Y_IMAGE                Object position along y                                    [pixel]
#   5 X_WORLD                Barycenter position along world x axis                     [deg]
#   6 Y_WORLD                Barycenter position along world y axis                     [deg]
#   7 A_WORLD                Profile RMS along major axis (world units)                 [deg]
#   8 B_WORLD                Profile RMS along minor axis (world units)                 [deg]
#   9 THETA_WORLD            Position angle (CCW/world-x)                               [deg]
#  10 FWHM_WORLD             FWHM assuming a gaussian core                              [deg]
#  11 ELONGATION             A_IMAGE/B_IMAGE                                           
#  12 ELLIPTICITY            1 - B_IMAGE/A_IMAGE                                       
         1  99.0000    136.6270    123.0428   4.8446812834e+01   3.0166915165e+01     9.357921     2.988416 -36.84   0.02459256    4.817    0.792
         2 -14.4441    160.4532    102.7449   3.7618273469e+01   2.9067573263e+01      6.06885     3.276763 -44.09   0.02483951    1.860    0.462
         3 -15.5973    241.6668     97.9290   2.2428236361e+01   1.2649901239e+01     5.933511     1.893327  42.79   0.02103311    4.319    0.768
         4 -14.1839    248.3384     44.8407   9.6953786417e+00   1.8500786627e+01     3.527214     1.492442  48.16  0.009690419    3.242    0.692
         5 -13.7533    177.9334     94.3133   3.1749347287e+01   2.6621764116e+01     2.312559     1.130016 -24.35  0.006726103    2.803    0.643
         6 -14.3460    243.8530     26.5484   5.9439291398e+00   2.1575604636e+01     3.714892     2.582622 -88.66   0.02279351    1.487    0.328
         7  -8.7858    179.5354      7.4026   6.6209582605e+00   3.8489116120e+01    0.2279194    0.1216071 -32.04 0.0006694151    1.846    0.458
         8 -10.7425    182.6163      3.5405   5.2142936781e+00   3.8083047757e+01    0.4986939    0.2625382 -78.32  0.002096276    2.040    0.510
         9 -15.7184    238.4386     82.2007   1.9268966595e+01   1.5509127024e+01     9.185911     1.827663 -32.69   0.02796136    4.345    0.770
        10  -8.3195     98.0145      1.5191   1.6800546857e+01   5.9931388795e+01    0.1945343    0.1227503  63.43 0.0003232975    1.444    0.308
        11  -9.1940    116.4873    199.1657   6.7442161573e+01   1.8044890054e+01    0.1768436    0.1536487  40.01 0.0003637371    1.016    0.016
        12  -9.5434    249.8661    249.5677   4.9415389142e+01  -7.8365061700e+00     0.223085   0.09356198 -16.95  0.001232323    2.723    0.633
        13  -8.5790    101.0081    249.7115   7.6314799135e+01   1.1517553065e+01    0.1568345    0.1149339  41.57 0.0004101955    1.031    0.030
        14  -8.6031     26.0153    243.2750   9.0300590836e+01   2.1485764395e+01    0.1472181    0.1030098  51.96 0.0002659759    1.057    0.054
        15 -11.5337    191.3547    153.9837   4.3161299531e+01   1.3260881876e+01     0.557496    0.4925312  34.51  0.002020597    1.160    0.138
        16 -11.0152    186.4322    169.9180   4.7331280767e+01   1.1460681996e+01    0.5153948    0.3119104 -47.65  0.002531893    1.940    0.484
        17 -11.0828    192.1127    144.9950   4.1111619746e+01   1.4655880616e+01    0.5520402    0.3022431 -34.91  0.001309711    1.810    0.447
        18 -11.2076    177.0666    170.0332   4.9256757135e+01   1.3101066000e+01    0.4352166    0.2372771 -43.64  0.002036986    1.971    0.493
        19  -8.2556     25.9941    164.0123   8.5688786857e+01   3.7592610722e+01    0.1490905    0.1239999  75.03 0.0009639765    1.006    0.006
        20 -14.0208    199.5260    100.4720   2.9374169624e+01   2.0755996655e+01     3.255823    0.9043078  45.60    0.0101062    3.987    0.749
        21  -9.7923    165.3316    164.2355   5.0618656159e+01   1.6263795598e+01    0.2533827    0.2155976  52.92  0.000505543    1.303    0.232
        22 -10.3841    168.5225    155.9601   4.8273314850e+01   1.7192921872e+01     0.245945    0.2250781   4.58 0.0004494355    1.046    0.044
        23  -9.3928    165.4630    156.4901   4.9045437590e+01   1.7673949580e+01    0.2049446    0.1318358  49.43  0.000704987    1.643    0.391
        24 -10.2564    249.1743    240.2364   4.8155827202e+01  -6.8436141863e+00    0.1923965    0.1329041 -27.18  0.001440724    1.655    0.396
        25 -10.9769    173.4783    149.8001   4.5931270124e+01   1.7380201565e+01    0.3994276     0.267068 -23.56  0.001904962    1.705    0.413
        26  -9.9979    143.3103    144.7457   5.1682504398e+01   2.4262192391e+01    0.5359384    0.2624354 -63.70  0.001683874    4.049    0.753
        27 -11.6589     67.4887    143.8288   7.1930180055e+01   3.7596496939e+01    0.8111457    0.4488649  53.50  0.002855526    1.903    0.474
        28 -10.4516    245.0987    229.5919   4.7183272640e+01  -5.2650862604e+00    0.2896662    0.1708369  42.35  0.001745958    2.273    0.560
        29 -12.3153      2.5562    134.9266   8.9899835941e+01   4.6324315195e+01    0.8931456     0.319088 -79.98  0.002956634    2.370    0.578
        30 -13.1585     13.6850    134.1479   8.6614200276e+01   4.5736649019e+01     1.874764     1.353047 -75.38   0.01141226    1.222    0.182
        31 -12.3931     47.6884    128.2486   7.5542308096e+01   4.3956833903e+01     0.716572    0.4608612 -67.61  0.001852824    1.444    0.308
        32 -13.0389     39.9916    127.0219   7.7786650630e+01   4.5117206598e+01    0.9131173    0.6310975 -62.35  0.001741366    1.353    0.261
        33 -12.3388     31.7961    129.0668   8.0613176471e+01   4.5436428412e+01    0.5595519    0.4684645   2.86  0.001271848    1.491    0.329
        34 -10.4095    213.5524    129.3806   3.3752236060e+01   1.3168560197e+01    0.2986527    0.2289174 -37.79 0.0008308508    1.263    0.208
        35  -8.8315    245.5033    216.0393   4.4967435763e+01  -3.8250867604e+00    0.1506909   0.09326079 -22.38 0.0003542436    1.473    0.321
        36 -10.8288    210.9838    135.9007   3.5636489904e+01   1.2603328721e+01    0.5733862    0.2933749 -18.35  0.001774274    2.811    0.644
        37  -9.3249    207.8391    133.2377   3.5605479065e+01   1.3629430583e+01    0.2752267    0.1761175  -5.94  0.001250339    2.106    0.525
        38 -13.7175    233.2430     95.0203   2.2892559928e+01   1.4675069803e+01     1.482125    0.7369267  67.85  0.004569058    3.054    0.673
        39 -10.6053    245.9409    185.5398   3.9665040018e+01  -2.2922240938e-01    0.2146119    0.1840529   9.59 0.0004506177    1.232    0.188
        40  -8.1480     60.0614    183.0735   7.8852221614e+01   2.9486632373e+01    0.1453873    0.1247507  60.01 -0.001320134    1.020    0.020
        41  -8.7151    171.2839    177.9302   5.1941167409e+01   1.2754573908e+01    0.1842398    0.1704921  -5.37 0.0006896177    1.099    0.090
        42  -9.4107    208.4413    126.8509   3.4069743730e+01   1.4559028485e+01    0.2607836    0.1899055  36.28  0.001302661    1.428    0.300
        43  -9.4701    248.9300    177.8449   3.7792998936e+01   3.3208924580e-01    0.2143148    0.1423829  18.19  0.001337539    1.430    0.301
        44 -10.0371    129.1937    118.4350   4.9252120195e+01   3.2704977596e+01    0.2771585    0.2119784 -47.42 0.0004035693    1.331    0.249
        45  -8.7191     91.7230    118.4500   5.9929085802e+01   3.9945825947e+01    0.1923725    0.1463971  23.42 0.0004798236    1.494    0.330
        46 -11.8825    125.1076    105.5185   4.7062490794e+01   3.6366401513e+01     1.232444    0.8338625 -76.76  0.004928768    2.305    0.566
        47 -12.7356     60.3722    124.9333   7.1012824626e+01   4.3200910293e+01     1.864016      1.17227  43.74  0.009087347    1.590    0.371
        48 -10.9894    149.8419    108.9270   4.1671998475e+01   3.0240283501e+01    0.3779911    0.3260495  54.53  0.000670093    1.186    0.157
        49 -10.4915    112.4817    104.6825   5.0383723485e+01   3.9193151991e+01    0.4399909    0.3603475  31.23  0.002173574    1.281    0.220
        50 -10.5696    143.9948    100.4313   4.0824987988e+01   3.3259348592e+01    0.3533428    0.3048656 -85.42 0.0006970813    1.361    0.265
        51  -9.1243    113.9804     94.9958   4.7319088253e+01   4.1018657308e+01    0.2304605    0.2283583  39.27 0.0003590662    1.007    0.007
        52 -11.6547    193.0814     79.2929   2.5037563009e+01   2.5661624139e+01     1.324469     0.531682 -36.84  0.005038123    2.303    0.566
        53 -10.7178    190.7539     75.1597   2.4320363034e+01   2.6861241400e+01    0.4692686    0.2973859 -24.44  0.002144053    1.721    0.419
        54 -11.0445    193.0064     68.2591   2.2099696694e+01   2.7408957920e+01    0.5450624    0.3823204  65.73  0.001477487    1.510    0.338
        55  -9.6764    127.1325     84.4269   4.0570360203e+01   4.0332317581e+01    0.3876595    0.2173263 -38.54   0.00107861    1.832    0.454
        56  -9.9214    221.6455    212.5425   4.8363773163e+01  -2.7300276666e-01     0.213684    0.1765778  28.18 0.0007761769    1.351    0.260
        57  -8.0457     86.3496     79.7165   5.1584530988e+01   4.9933646378e+01    0.1506506    0.1187267  76.77  0.000505741    1.653    0.395
        58 -13.7542    211.8288    176.4466   4.3753340304e+01   6.1381893377e+00     4.238713     1.914595  25.75   0.01769085    2.807    0.644
        59 -10.0546    206.2559     65.0687   1.9299761242e+01   2.4813214211e+01    0.3193105     0.263751 -51.82  0.000984428    1.146    0.127
        60  -9.7331    212.7877     62.6987   1.7811185534e+01   2.3677959991e+01    0.3132404    0.2534842  61.93  0.001779322    1.322    0.243
        61 -10.0848    137.0234     60.9608   3.0679910832e+01   4.2349212695e+01    0.2296007     0.221251  86.89  0.001241004    1.051    0.048
        62  -9.1363    208.3464     58.6792   1.7361744248e+01   2.5252571908e+01    0.2613817    0.1611856 -28.47 0.0008303166    1.612    0.380
        63  -9.7575    182.2995     46.9471   1.7786134461e+01   3.3123118220e+01    0.2694015    0.2004015  84.91  0.001076976    1.429    0.300
        64 -10.3110    184.5636     52.9251   1.9156247082e+01   3.1720691256e+01    0.2990746    0.2557142 -45.62 0.0006171998    1.123    0.109
        65  -9.5763    185.7804     49.0196   1.7867064091e+01   3.1974993680e+01    0.2590168    0.1967358 -38.94 0.0004557082    1.268    0.212
        66 -10.4354    140.9865     51.4844   2.6644848166e+01   4.2909476901e+01    0.2396308    0.2035846 -34.55  0.000840504    1.209    0.173
        67  -9.9634    178.3474     49.8262   1.9221117520e+01   3.3701448771e+01     0.315692    0.2152805 -74.36  0.001465779    1.751    0.429
        68  -8.4855    200.5140     47.9689   1.5557902301e+01   2.8558463838e+01     0.187258    0.1225003   3.58   0.00064943    2.455    0.593
        69 -11.6027    136.3010     41.4156   2.4217288558e+01   4.5617468624e+01    0.5166267    0.3787284 -23.32  0.001957003    1.492    0.330
        70  -9.5548    191.3340     40.3943   1.4673886810e+01   3.1777239276e+01    0.4026363    0.1978646  51.22  0.001048211    2.177    0.541
        71 -10.5957    168.7386     39.6163   1.7673259040e+01   3.7537698101e+01    0.3634393    0.2614919  29.09 0.0009176515    1.765    0.433
        72  -8.6085    190.1857     36.5355   1.3742108738e+01   3.2555457885e+01     0.214667    0.1611853 -26.09 0.0006962699    1.405    0.288
        73  -9.5305    181.0047     36.0920   1.4823637900e+01   3.4892815959e+01    0.3527071    0.2126278 -15.27  0.001496242    2.103    0.525
        74  -8.6092    175.2017     42.8158   1.7641240182e+01   3.5466388827e+01    0.1852148     0.165944  27.79 0.0002296919    1.282    0.220
        75  -9.5464    198.7876     34.6406   1.2176420134e+01   3.0700244225e+01    0.2051392    0.1971313  16.52  0.000656006    1.226    0.184
        76 -10.8746    147.5083     38.3810   2.0926551290e+01   4.3165941807e+01    0.4526607    0.1455786 -29.64  0.001484535    3.226    0.690
        77  -9.5891    123.0334     31.4458   2.3522229001e+01   5.0377392072e+01    0.2251528    0.1979928 -25.33 0.0006068089    1.203    0.169
        78  -9.4487    185.4586     27.6881   1.1821304191e+01   3.4813474535e+01    0.3562153    0.2301757  -2.41  0.001487846    2.240    0.554
        79  -9.2128    194.5338     27.2055   1.0631266858e+01   3.2630449773e+01    0.2548202    0.2018804 -71.18  0.001119013    1.202    0.168
        80  -9.3957    185.8619    208.5846   5.4263212815e+01   5.4788630719e+00    0.2219972    0.1731128  52.59  0.001128345    1.684    0.406
        81  -9.0099    189.9695     14.9766   7.7284461075e+00   3.5117768713e+01    0.2094382    0.1848887 -70.91 0.0008216011    1.016    0.016
        82  -9.9146    149.2298    176.8002   5.6516975908e+01   1.6832094497e+01    0.4073172    0.2759277 -75.26  0.001847928    2.520    0.603
        83 -11.9268    199.5322    163.6285   4.3544680784e+01   1.0192051052e+01    0.9345466    0.5921999 -21.28  0.004644558    1.692    0.409
        84  -8.6849    225.0602    207.5169   4.6944653347e+01  -1.1220976194e-01    0.1693591    0.1006359  33.26 0.0008576654    1.543    0.352
        85 -10.7127    204.0687    201.5573   4.9670685907e+01   3.7194399115e+00    0.3170746    0.2699917   7.80 0.0008192706    1.087    0.080
        86 -11.9472    190.6787    161.2560   4.4780598020e+01   1.2155511975e+01    0.7638839    0.4707987 -44.17   0.00104909    1.762    0.432
        87 -10.9021    192.9669    195.0243   5.0639120647e+01   6.3833948016e+00    0.8568429    0.4577804 -59.55  0.003018304    5.494    0.818
