#   1 NUMBER                 Running object number                                     
#   2 MAG_AUTO               Kron-like elliptical aperture magnitude                    [mag]
#   3 X_IMAGE                Object position along x                                    [pixel]
#   4 Y_IMAGE                Object position along y                                    [pixel]
#   5 X_WORLD                Barycenter position along world x axis                     [deg]
#   6 Y_WORLD                Barycenter position along world y axis                     [deg]
#   7 A_WORLD                Profile RMS along major axis (world units)                 [deg]
#   8 B_WORLD                Profile RMS along minor axis (world units)                 [deg]
#   9 THETA_WORLD            Position angle (CCW/world-x)                               [deg]
#  10 FWHM_WORLD             FWHM assuming a gaussian core                              [deg]
#  11 ELONGATION             A_IMAGE/B_IMAGE                                           
#  12 ELLIPTICITY            1 - B_IMAGE/A_IMAGE                                       
         1 -14.4872    160.7592     56.7883   7.3626080588e+01   3.7632746737e+01     1.509173     1.442935  66.31  0.001009575    1.065    0.061
         2 -14.8032    174.0632     41.7425   6.6315298407e+01   3.6439155588e+01     1.325821     1.109609   5.04  0.004154362    1.353    0.261
         3 -15.1416    197.5800      9.2029   5.3142424210e+01   3.4158226849e+01     3.121241     1.096388  63.54   0.01210053    2.461    0.594
         4  -9.8623    167.9565    245.5727   1.1227105257e+02   3.5757927578e+00    0.1478129    0.1325821  36.26 0.0002265646    1.187    0.158
         5 -14.1188    247.1209    242.0596   9.8387793108e+01  -7.9571785601e+00     1.308085    0.5838652 -23.73  0.007498819    2.536    0.606
         6 -17.0053     86.0165    182.7826   1.2033007956e+02   2.6914614826e+01     5.699724     2.301297 -48.74   0.02410506    3.260    0.693
         7 -19.1565     47.7686     99.2648   1.1741593944e+02   5.0295369233e+01     15.49033    0.8888648 -62.20   0.02579883   15.125    0.934
         8  99.0000     12.6265    206.0395   1.3662922115e+02   3.1005186315e+01    0.2872828    0.1202955  51.87   0.00179046    1.859    0.462
         9 -10.6130     37.1890    183.8458   1.3059963113e+02   3.2836784609e+01    0.1401066    0.1107111  87.78 0.0003115493    1.100    0.091
        10 -11.2720    188.9475    176.2731   9.7603405253e+01   1.0078057149e+01    0.5659098    0.3249991 -59.91  0.002345003    3.108    0.678
        11 -10.7578    185.2359    169.8409   9.7109343497e+01   1.1852198580e+01    0.3890398    0.2518525 -56.59  0.001375037    2.116    0.527
        12 -11.0930     26.7946    180.0023   1.3238781685e+02   3.4672708139e+01    0.1411913    0.1244767  86.60 0.0006102601    1.240    0.193
        13 -10.0819    166.4854    235.5685   1.1126653045e+02   5.1293323469e+00    0.1852211    0.1200847 -47.85  0.001095314    1.998    0.499
        14 -11.4644    204.3593    175.2247   9.4419948336e+01   7.3209653379e+00    0.3619799    0.3454679 -62.03  0.001434526    1.352    0.261
        15 -11.2849    196.6598    175.6333   9.5974993679e+01   8.7133752694e+00    0.3397853    0.2547614  46.33  0.001888179    1.307    0.235
        16 -12.0112    230.3862    167.4037   8.8098166265e+01   3.6337447667e+00    0.4127043    0.1808449 -45.13  0.001670896    3.064    0.674
        17 -10.7025    192.3592    164.9607   9.4725600344e+01   1.1270494185e+01    0.2853523    0.2438824 -39.19 0.0009277649    1.292    0.226
        18 -12.4150    125.2817    161.8116   1.0850117723e+02   2.4800728103e+01    0.3420334    0.2771268 -69.16  0.001020813    1.327    0.246
        19 -10.5752    139.7880    162.3698   1.0533282204e+02   2.2017031720e+01    0.1960062    0.1252573  35.95 0.0006685584    1.569    0.363
        20 -11.3534    130.1679    157.5784   1.0662794161e+02   2.4769224686e+01    0.2596323    0.2056937  73.87 0.0005641696    1.411    0.291
        21 -13.4026    134.0643    146.4902   1.0360338825e+02   2.6302248505e+01     1.422963    0.3878516 -55.55  0.003658171    5.845    0.829
        22 -11.9070    189.0091    154.5812   9.3264690609e+01   1.3694188523e+01    0.5179785    0.4273536  47.75    0.0028455    1.211    0.174
        23  -9.7582    177.7744    156.0322   9.5870682347e+01   1.5724583303e+01    0.1884951    0.1784619  18.57 0.0002193649    1.038    0.037
        24 -12.2169    134.5849    108.6968   9.4926779707e+01   3.4081206993e+01     1.771128    0.2485242 -42.81  0.003556962    7.906    0.874
        25 -12.9546    152.5107    151.9178   1.0047691997e+02   2.1594099110e+01    0.7728374    0.4754222 -88.23  0.002533859    4.362    0.771
        26 -14.2195    145.3169    146.6107   1.0102062213e+02   2.4075280082e+01     1.267134    0.7781423 -75.78  0.004851871    3.004    0.667
        27 -12.7827    135.7584    127.8172   9.9226320038e+01   2.9847273852e+01     1.314224    0.2508697 -50.70  0.002885841    7.106    0.859
        28 -11.7975    163.5145    151.4800   9.7963681715e+01   1.9460029695e+01    0.2951734    0.2512617  74.16 0.0008237169    1.378    0.274
        29 -11.4169    174.4548    148.8056   9.5052220692e+01   1.7710864927e+01    0.3283127    0.2794134 -75.79  0.001038168    1.488    0.328
        30 -12.2346    160.9200    128.3459   9.3441421075e+01   2.4458353877e+01    0.5078787    0.3959702 -72.86  0.002435511    1.661    0.398
        31 -11.6913    107.2058    123.8204   1.0556378777e+02   3.6156916135e+01    0.2945099    0.2514704 -19.68 0.0007505837    1.425    0.298
        32 -10.7518    113.2344    117.9848   1.0269066842e+02   3.6341964822e+01    0.2556323    0.2069529  54.69 0.0004261369    1.266    0.210
        33 -11.6875    168.0029    112.8520   8.8073706862e+01   2.5883557583e+01    0.4300607    0.3284946 -61.59  0.001452912    1.573    0.364
        34 -17.1807     68.3004    232.3627   1.2856474536e+02   2.0156483416e+01     8.439369     5.742611  81.17   0.04925054    1.359    0.264
        35 -11.5336    130.2437    109.8434   9.6318369186e+01   3.4747063593e+01    0.3351121     0.257799 -29.87 0.0008946007    1.442    0.307
        36 -10.9525    205.2734    110.2535   7.9815199110e+01   1.7818519491e+01    0.3646132    0.2435655  42.11  0.001013782    1.506    0.336
        37 -10.1530    161.2973    199.3132   1.0707549824e+02   1.1416570928e+01    0.1261782   0.09617665  12.32 0.0003218631    1.602    0.376
        38  -9.7987    124.7716     92.2089   9.3083767453e+01   3.9552743726e+01    0.2008792    0.1754812   3.12 0.0003918009    1.290    0.225
        39  -9.9764     93.5125     87.5414   1.0066125936e+02   4.6534598180e+01    0.1415113    0.1347989 -51.07 1.446735e-05    1.030    0.029
        40 -10.6613     75.7281     86.5634   1.0587445114e+02   4.9600246235e+01    0.1890925    0.1287106  48.76 0.0009568914    1.670    0.401
        41 -10.7269    148.9370     81.3533   8.3832356988e+01   3.6289171183e+01    0.2235838    0.1940803  47.54 0.0007062054    1.144    0.126
        42 -11.8201    153.7438     78.4906   8.1855098327e+01   3.5674152166e+01     0.729652    0.4181638  80.33  0.002174292    4.281    0.766
        43 -10.0474    108.2370     74.7571   9.2589940576e+01   4.6458758584e+01    0.2051142    0.1707094  -6.81 0.0008994501    1.349    0.259
        44  -9.7579    159.6968    248.8146   1.1410040178e+02   4.4356612436e+00    0.1254754    0.1047304 -67.73  0.000421535    1.655    0.396
        45 -11.8213    235.5692    247.5892   1.0107763554e+02  -6.8652824473e+00    0.2014118    0.1568955  26.28 0.0006654705    1.182    0.154
        46 -13.0604    178.3917     34.8126   6.3422364716e+01   3.6232362356e+01    0.4643861    0.3872539  33.67 0.0009489522    1.276    0.216
        47 -10.8874     13.4833     59.4614   1.2104624799e+02   6.1997959960e+01    0.2184897    0.1696805 -55.73  0.000608023    1.008    0.008
        48 -12.2233    187.5346     31.4506   6.0966973534e+01   3.4277052996e+01    0.2658781    0.2522675  73.14 0.0008773894    1.013    0.013
