#   1 NUMBER                 Running object number                                     
#   2 MAG_AUTO               Kron-like elliptical aperture magnitude                    [mag]
#   3 X_IMAGE                Object position along x                                    [pixel]
#   4 Y_IMAGE                Object position along y                                    [pixel]
#   5 X_WORLD                Barycenter position along world x axis                     [deg]
#   6 Y_WORLD                Barycenter position along world y axis                     [deg]
#   7 A_WORLD                Profile RMS along major axis (world units)                 [deg]
#   8 B_WORLD                Profile RMS along minor axis (world units)                 [deg]
#   9 THETA_WORLD            Position angle (CCW/world-x)                               [deg]
#  10 FWHM_WORLD             FWHM assuming a gaussian core                              [deg]
#  11 ELONGATION             A_IMAGE/B_IMAGE                                           
#  12 ELLIPTICITY            1 - B_IMAGE/A_IMAGE                                       
         1 -14.9179    162.1520     42.3945   8.0418195088e+01   3.9336385747e+01     1.468069     1.101418 -12.22  0.003709541    1.490    0.329
         2 -14.5994    175.4375      9.5631   6.7292146093e+01   3.9527079410e+01     1.078037     1.045591   9.72  0.003794296    1.129    0.114
         3 -12.7416    197.2878      6.9701   6.4262742258e+01   3.3959544167e+01    0.3169245    0.1870639 -89.91  0.001352052    1.754    0.430
         4 -12.1419    125.0429    243.8530   1.3132823236e+02   1.1802264670e+01    0.2045115    0.1539427 -55.77 0.0009117064    1.874    0.466
         5 -20.0586     76.2551    174.1552   1.3498317825e+02   3.0291581241e+01     15.63134     6.828117 -70.24   0.07114403    2.646    0.622
         6 -12.0512    169.8444    195.3294   1.1628277659e+02   1.2097494545e+01    0.2555566     0.174463  31.72 0.0008134636    1.170    0.145
         7 -13.0226    180.5458    193.1793   1.1377342025e+02   1.0689866606e+01    0.3580023    0.3379863  89.11  0.001725384    1.660    0.398
         8 -14.1662    165.6772    188.7367   1.1610555260e+02   1.3752847668e+01    0.8572444    0.3668432  41.20  0.003631473    2.003    0.501
         9 -14.7004    175.2974    186.0154   1.1366121022e+02   1.2574409179e+01     0.982081     0.551811 -52.85   0.00472706    2.811    0.644
        10 -11.6034    170.4214    185.2249   1.1453978520e+02   1.3500845165e+01    0.2496727    0.2222775 -73.00 0.0007910086    1.714    0.417
        11 -13.5867    174.5069    192.5173   1.1488565446e+02   1.1755115626e+01     0.571489    0.2996823 -48.06  0.002848681    2.627    0.619
        12 -13.7262    207.2724    178.1848   1.0601278959e+02   8.4078705209e+00    0.5690004    0.4031264   5.12   0.00273067    1.304    0.233
        13 -11.1027     21.7794    240.6188   1.5085716796e+02   2.4137124089e+01    0.1325812    0.1018017  65.98 0.0006350208    1.220    0.180
        14 -12.4449    153.5624    185.4664   1.1817767593e+02   1.6265841097e+01     0.245373    0.2000634  29.50  0.001412972    1.010    0.010
        15 -10.9842    131.2773    237.2016   1.2946377254e+02   1.1869086612e+01    0.2188233    0.1444522 -49.22 0.0009338443    2.074    0.518
        16  -9.7052    137.8132    244.9476   1.2899027852e+02   9.9585396876e+00    0.2476189    0.1493493  66.79  0.001041199    3.206    0.688
        17 -10.5418     26.9087    180.3368   1.4754480215e+02   3.4511123855e+01     0.292334    0.1872255 -29.82  0.001627037    2.724    0.633
        18 -14.9940    141.4337    170.3328   1.1844993231e+02   2.0897506880e+01     1.266036    0.6690581  35.22  0.005735202    1.639    0.390
        19 -12.4237    203.3382    172.5708   1.0572272090e+02   9.8084794251e+00    0.4716184    0.3265251  -9.42  0.002719509    1.455    0.313
        20 -13.6508    195.6363    170.5045   1.0682279674e+02   1.1399594321e+01    0.5520303    0.4109664 -36.91  0.001945114    1.584    0.369
        21 -12.1975    193.8033    165.5715   1.0625114063e+02   1.2428287836e+01    0.3142174    0.2509783  28.64 0.0008456734    1.124    0.110
        22 -13.2939    177.3554    171.0419   1.1062255499e+02   1.4486758605e+01    0.4521545    0.3121474 -39.85  0.002498301    1.686    0.407
        23 -11.0876     26.0206    173.9043   1.4743024182e+02   3.5911058825e+01    0.1720445    0.1360495  58.54 0.0003076818    1.020    0.019
        24 -10.1775    126.1963    237.3895   1.3047827156e+02   1.2531898875e+01   0.09703923   0.07747109  -2.07 0.0004652202    1.596    0.374
        25 -12.9168    122.2729    165.6980   1.2228734899e+02   2.5036993612e+01    0.5865224    0.2336127  49.23  0.002114396    2.773    0.639
        26 -11.2875     16.4661    250.1517   1.5204597384e+02   2.3145379260e+01    0.1206478   0.07866518  76.27 0.0009865627    1.462    0.316
        27 -11.6536    201.1474    164.4646   1.0460572382e+02   1.1308750061e+01    0.3947324    0.2750254 -38.86  0.002212858    1.698    0.411
        28 -10.3472     30.4984    232.5665   1.4897773367e+02   2.4612352324e+01    0.1693777     0.124718  66.33  0.001234018    1.205    0.170
        29 -10.9035    222.4673    161.6749   1.0013964078e+02   8.0701472641e+00    0.2261623    0.1921547 -49.86  0.000786029    1.832    0.454
        30 -13.2366    164.1056    156.5671   1.1076093649e+02   1.9234690351e+01    0.3635688    0.3463907  -9.47  0.001325637    1.180    0.153
        31 -12.9095    160.0414    151.3232   1.1064738062e+02   2.0909246909e+01    0.3218107    0.2951488   5.11  0.001895086    1.094    0.086
        32 -14.4277    135.6853    126.9310   1.1145010032e+02   3.0331921405e+01     2.301789    0.4515066 -49.70  0.005276974    6.829    0.854
        33 -14.8842    134.3850    146.7648   1.1591669973e+02   2.6600618953e+01     1.721424    0.6028127 -56.79   0.00519047    4.722    0.788
        34 -14.6071    143.4745    144.0373   1.1311282855e+02   2.5414690918e+01     1.098644    0.5545322 -55.38  0.004394847    2.644    0.622
        35 -10.9401    139.0654    250.2088   1.2927887032e+02   9.1248322874e+00    0.2054572    0.1461545  25.79 0.0009287686    1.173    0.148
        36 -10.5431     22.8869    156.1680   1.4725758975e+02   3.9972379511e+01    0.1818162    0.1288762  59.70 0.0003927998    1.178    0.151
        37 -10.5053     25.9231    228.8878   1.4972593084e+02   2.5652338258e+01    0.1109308   0.08117633  72.25 0.0004512662    1.267    0.211
        38 -12.5101    174.0104    149.0710   1.0707778328e+02   1.8635764564e+01    0.3298224    0.3163129  -4.25   0.00148327    1.187    0.157
        39 -10.9855     22.4779    221.0858   1.5013833377e+02   2.7288645065e+01    0.1476954   0.09018365 -76.79  0.001040078    1.861    0.463
        40 -11.8702    173.8963    140.1597   1.0522254860e+02   2.0162036213e+01    0.2124261    0.1960992  53.49 0.0006652445    1.281    0.219
        41 -11.1709     23.5835    215.4245   1.4972843884e+02   2.8171490807e+01    0.1238545    0.1067942 -78.05 0.0009004798    1.471    0.320
        42 -10.7333      8.5172    137.9381   1.5019685761e+02   4.5114370486e+01    0.2018832    0.1617674 -18.72  0.001104257    1.684    0.406
        43 -12.8614    160.6539    127.9746   1.0549742203e+02   2.5006918797e+01    0.4128841    0.3634756 -53.06  0.002042303    1.339    0.253
        44 -13.0677     11.3617    206.0301   1.5191313631e+02   3.0921353826e+01    0.3812869    0.2213039  26.44  0.002143816    1.743    0.426
        45 -11.8398    140.6324    120.7075   1.0872960593e+02   3.0579210020e+01    0.3623476    0.2350451  63.04  0.001049989    2.096    0.523
        46 -10.9270    167.2010    112.2171   1.0018636281e+02   2.6476072960e+01    0.2042476    0.1861965 -88.07 0.0006748775    1.379    0.275
        47 -13.0630    161.1858    197.5876   1.1841775489e+02   1.3146707638e+01    0.3565412    0.2796977  52.04  0.001758734    1.512    0.339
        48 -10.8471    205.2105    110.1915   9.1965490614e+01   1.8581138786e+01    0.2873974    0.1809744  35.28 0.0009738468    1.600    0.375
        49 -12.5187    163.8036    203.0694   1.1868884359e+02   1.1931931042e+01    0.2970005    0.2379025  50.15 0.0006686613    1.475    0.322
        50 -11.9904    154.4763    195.9693   1.1958726331e+02   1.4460600648e+01    0.3407722    0.2434286  68.97  0.001807165    2.360    0.576
        51 -12.5242    157.5800    201.8426   1.1979401638e+02   1.3082734957e+01    0.4540342    0.3122607  59.04  0.001817759    2.063    0.515
        52 -11.0175    139.1987    200.9770   1.2356641511e+02   1.6078602347e+01     0.264251    0.2003701  60.83 0.0008566785    1.629    0.386
        53 -10.7557    135.6598    196.3417   1.2370636546e+02   1.7377834325e+01     0.270387    0.1953768  60.69  0.001556197    1.705    0.414
        54 -14.3338    150.8055     57.1239   8.7774368833e+01   4.0138967792e+01     1.167845     1.033081  29.12 0.0009394893    1.152    0.132
        55 -10.3377    159.9923    246.6728   1.2500592556e+02   6.7703994216e+00    0.1871866    0.1059223 -28.71  0.001160481    2.502    0.600
        56 -12.9504    165.8411     34.0121   7.6904364683e+01   3.9449894958e+01     0.427771    0.3883131   6.61  0.000827454    1.186    0.157
        57 -10.9144     13.6575     60.0336   1.4168316927e+02   6.3718342912e+01    0.1933471    0.1702054  53.39 0.0005188183    1.267    0.211
        58 -10.1898    144.9853     34.0253   8.0809924790e+01   4.5145854657e+01    0.1916155      0.17046  59.12 0.0003363597    1.076    0.071
        59 -11.4772    133.8589    245.9089   1.2983871062e+02   1.0361320984e+01    0.1538309    0.1152849  30.04 0.0003463418    1.095    0.087
