#   1 NUMBER                 Running object number                                     
#   2 MAG_AUTO               Kron-like elliptical aperture magnitude                    [mag]
#   3 X_IMAGE                Object position along x                                    [pixel]
#   4 Y_IMAGE                Object position along y                                    [pixel]
#   5 X_WORLD                Barycenter position along world x axis                     [deg]
#   6 Y_WORLD                Barycenter position along world y axis                     [deg]
#   7 A_WORLD                Profile RMS along major axis (world units)                 [deg]
#   8 B_WORLD                Profile RMS along minor axis (world units)                 [deg]
#   9 THETA_WORLD            Position angle (CCW/world-x)                               [deg]
#  10 FWHM_WORLD             FWHM assuming a gaussian core                              [deg]
#  11 ELONGATION             A_IMAGE/B_IMAGE                                           
#  12 ELLIPTICITY            1 - B_IMAGE/A_IMAGE                                       
         1 -14.3455    161.5625     48.0167   2.9016953288e+02   6.2938052924e+00   0.08097804    0.0485038 -39.30  0.005921923    1.826    0.452
         2 -13.4001    177.8154     25.1094   2.8984247273e+02   6.4650325088e+00   0.02588443   0.02341753 -27.41  0.001195075    1.134    0.118
         3 -14.3227    173.9745     31.7747   2.8992729961e+02   6.4100759354e+00   0.05088579   0.04081458 -51.34  0.003705451    1.225    0.184
         4 -12.2939    189.6111     14.7003   2.8964244951e+02   6.5170950209e+00   0.01290624   0.01172018  69.55 0.0008731183    1.174    0.148
         5 -12.8495    191.4963      2.1925   2.8954521677e+02   6.6510632364e+00    0.0360456   0.01439716  26.50  0.002733242    2.525    0.604
         6 -10.7211    150.5744    220.7445   2.9133215738e+02   4.3514920320e+00  0.009459211  0.006491075 -78.69 0.0009563707    1.667    0.400
         7 -19.7820     53.7552    168.5325   2.9214762088e+02   5.5179376548e+00    0.9946578    0.3114752 -65.95   0.06773865    3.593    0.722
         8 -10.2825    130.3718    206.1266   2.9147987829e+02   4.6382764347e+00  0.009690234   0.00635979 -78.54 0.0009509367    1.776    0.437
         9 -13.7489    196.3586    195.9167   2.9065136032e+02   4.3746989051e+00   0.04228077   0.03179863  44.50  0.002388893    1.372    0.271
        10 -10.9137    120.1209    205.1794   2.9159350738e+02   4.7085791155e+00   0.01014324  0.008739846 -30.11 0.0005762883    1.206    0.171
        11 -10.7843     22.3078    205.1607   2.9273220940e+02   5.2732812259e+00   0.01227557  0.008950634  24.92 0.0006607256    1.387    0.279
        12 -11.5665    117.9227    201.5967   2.9159770042e+02   4.7629329300e+00    0.0165871    0.0100808  32.03  0.001655571    1.619    0.382
        13 -11.8235    188.5459    186.7648   2.9068742825e+02   4.5263056001e+00   0.02216751   0.01779275 -79.71  0.001864917    1.350    0.259
        14 -10.7910    136.2221    197.3018   2.9135909158e+02   4.7069855963e+00   0.01551596   0.01025502  80.19   0.00137533    2.063    0.515
        15 -12.0049    179.9333    193.1865   2.9082600332e+02   4.5016366597e+00   0.03212183   0.01738235 -88.92  0.002517123    3.117    0.679
        16 -11.8440    112.7142    196.0702   2.9162532662e+02   4.8572874739e+00   0.02931462   0.01561564 -17.78  0.002211011    3.373    0.704
        17 -11.1159    158.9001    194.4592   2.9107825183e+02   4.6087187055e+00   0.01240182  0.009387283  87.29 0.0009114631    1.567    0.362
        18 -13.0303    104.9891    193.9684   2.9170270427e+02   4.9263794350e+00   0.03961104   0.01990551 -30.55  0.003127306    2.934    0.659
        19 -12.1513    207.6466    185.4019   2.9045720314e+02   4.4313516454e+00   0.01897778   0.01646717 -15.44  0.001415462    1.229    0.187
        20 -12.2351    212.0613    181.4748   2.9038237324e+02   4.4513428020e+00   0.01824345   0.01410508 -35.97  0.001076301    1.358    0.263
        21 -10.4747    203.5057    188.4652   2.9052367761e+02   4.4197965672e+00   0.01092633  0.008605821 -48.88 9.183068e-05    1.253    0.202
        22 -10.4514    223.8468    184.1554   2.9026145793e+02   4.3518192754e+00  0.009291863   0.00754601 -29.13  0.001046363    1.314    0.239
        23 -11.4724    119.4434    182.4226   2.9146547864e+02   4.9769933940e+00   0.02579794   0.01236717  61.93   0.00176753    4.025    0.752
        24 -11.6521    198.3803    177.5850   2.9051812522e+02   4.5758935809e+00    0.0203215   0.01382652 -83.84  0.001337891    1.778    0.437
        25 -10.1733     21.0599    214.7738   2.9280393294e+02   5.1686759890e+00   0.01729231   0.01248412 -57.27  0.001879174    1.352    0.260
        26 -10.5013    145.2871    178.5368   2.9114143841e+02   4.8725708664e+00  0.009123061  0.006509887   7.87 0.0009448701    1.590    0.371
        27 -10.2773      1.4517    177.2690   2.9280918722e+02   5.7176460553e+00  0.007149369  0.006475318 -71.66 0.0003476013    1.123    0.110
        28 -11.5093    178.9366    173.6897   2.9072092655e+02   4.7339026030e+00   0.01326109   0.01009678 -75.56  0.001453343    1.412    0.292
        29 -11.3256    125.9478    172.3949   2.9132982442e+02   5.0558989686e+00   0.01389448   0.01022344 -65.82  0.001510977    1.375    0.273
        30 -10.6090    228.4989    171.0038   2.9012860498e+02   4.4775131043e+00  0.009588325  0.005759121  82.83 0.0008105952    2.572    0.611
        31 -12.5811    137.3220    171.2713   2.9119069629e+02   5.0031168538e+00   0.02704714   0.01648055  35.63  0.002712939    1.620    0.383
        32 -11.5873    145.3349    168.4662   2.9108065048e+02   4.9893101251e+00   0.01278606   0.01239178 -57.28 0.0006938412    1.026    0.025
        33 -10.3179    225.3033    166.6428   2.9013960707e+02   4.5467017154e+00  0.007031859  0.004999271  65.94  0.000676436    1.716    0.417
        34 -10.7805      1.8214    251.0000   2.9324310794e+02   4.8580902454e+00  0.009948944  0.003765794  26.28 0.0007610383    2.663    0.624
        35 -11.7808    100.9959    162.9164   2.9156373209e+02   5.3103925947e+00    0.0132967   0.01098893 -52.95 0.0004049146    1.188    0.158
        36  -9.9305    200.3444    163.6714   2.9041195507e+02   4.7260880116e+00   0.00714493  0.004929091  61.58 0.0007050672    1.749    0.428
        37 -10.4027     14.1488    160.1722   2.9255936799e+02   5.8433762044e+00    0.0115552  0.008379481 -46.97 0.0005783158    1.371    0.271
        38 -11.3815    164.8406    157.9447   2.9079066947e+02   4.9985267933e+00   0.01064157  0.008730428 -32.20  0.000559652    1.279    0.218
        39 -13.0424    105.2771    155.1338   2.9146734803e+02   5.3760859590e+00   0.03243801   0.01922831 -47.44   0.00319069    1.683    0.406
        40 -10.7328     94.5906    149.7975   2.9155993962e+02   5.4998959202e+00   0.01092228  0.008986779  80.75 0.0002734972    1.379    0.275
        41 -11.5793     91.5222    148.4368   2.9158755577e+02   5.5334467591e+00   0.01320959   0.01167454  51.68 0.0004404004    1.178    0.151
        42 -11.3149     27.2486    156.6234   2.9238550920e+02   5.8091967952e+00   0.01613249   0.01256292 -21.60  0.001612091    1.440    0.306
        43 -11.1388     22.9709    156.4902   2.9243458050e+02   5.8353868891e+00   0.01613079   0.01365462  89.53  0.001266577    1.299    0.230
        44 -12.8068    133.2270    145.1616   2.9108217036e+02   5.3302099253e+00    0.0450911   0.02196875 -71.99   0.00379021    2.453    0.592
        45 -10.6223     98.9331    150.9638   2.9151632015e+02   5.4612343776e+00   0.01878143  0.009332839  44.91 0.0007524123    2.176    0.540
        46 -11.1469    174.2967    149.0285   2.9062723648e+02   5.0472672253e+00   0.01436035    0.0116054  26.69 0.0009678545    1.243    0.195
        47 -11.7642    144.4196    145.7879   2.9095559181e+02   5.2581010281e+00   0.01693361   0.01104914  67.37  0.001623407    2.025    0.506
        48 -12.5190    113.4571    140.3120   2.9128341564e+02   5.5010039946e+00   0.02495115    0.0130636 -45.46  0.002282134    1.963    0.490
        49 -10.8382     11.2033    142.6544   2.9248928169e+02   6.0639917964e+00   0.01271293   0.01082318   5.51 0.0005514558    1.243    0.196
        50 -12.4866    103.0590    140.5947   2.9140624798e+02   5.5578753954e+00    0.0133278   0.01257249   7.57 0.0004621841    1.076    0.070
        51 -11.9250     23.3698    135.5500   2.9230502523e+02   6.0765207178e+00   0.01235851   0.01163665  -3.80 0.0004833947    1.084    0.077
        52 -10.7577    149.8013    134.0854   2.9082285410e+02   5.3628610647e+00   0.01004629  0.008667678  61.76 0.0004602649    1.250    0.200
        53 -11.5512    118.9448    130.4458   2.9116044291e+02   5.5838764643e+00   0.01744679   0.01437004 -38.65  0.001071305    1.239    0.193
        54 -11.3860    105.7639    131.0141   2.9131741654e+02   5.6535529944e+00   0.01555403   0.01356839  45.71  0.001130111    1.176    0.150
        55 -11.5789    107.0457    126.9538   2.9127818358e+02   5.6933130703e+00   0.01692623   0.01192892 -35.25  0.000722178    1.540    0.350
        56 -11.5470    160.2435    128.3152   2.9066670668e+02   5.3693454294e+00   0.01842177   0.01196616 -53.97  0.001901498    1.493    0.330
        57 -12.2472    135.3416    122.3921   2.9092120855e+02   5.5824805088e+00   0.03186638  0.008443937 -64.97  0.001984973    4.226    0.763
        58 -12.4933    124.3760    126.7396   2.9107498284e+02   5.5954895421e+00   0.03209791   0.01373462  50.13   0.00242064    3.095    0.677
        59 -12.3326     86.6199    121.8320   2.9148559418e+02   5.8709513674e+00   0.01713349   0.01441675 -55.73  0.001021745    1.168    0.144
        60 -10.9828    113.0563    119.3709   2.9116275219e+02   5.7466272093e+00   0.01174158  0.009695343 -72.19 0.0003982062    1.254    0.202
        61 -10.0595     12.8012    215.1972   2.9290261971e+02   5.2112883327e+00  0.008430129  0.006855833  -8.36 0.0004274918    1.367    0.268
        62 -10.0163    117.0447    115.7693   2.9109471059e+02   5.7653776892e+00  0.009054261  0.008369106  25.40 0.0003315205    1.088    0.081
        63 -11.3212    168.1666    113.9020   2.9048806645e+02   5.4907679529e+00   0.01626661   0.01311989  89.81 0.0008263118    1.402    0.286
        64 -11.3432    134.5412    104.0650   2.9082072152e+02   5.7999802542e+00   0.02018995  0.006773593 -64.80  0.001446752    3.162    0.684
        65  -9.7018    155.3434    213.3147   2.9123231352e+02   4.4102213348e+00  0.007122365   0.00491056 -26.49 8.605602e-06    1.710    0.415
        66 -10.6357      3.5351    112.2466   2.9239731833e+02   6.4615669540e+00   0.01270539  0.009338494  22.72  0.001381234    1.388    0.280
        67 -10.7199    205.4310    110.1598   2.9003193345e+02   5.3178495294e+00   0.01424273  0.009936846  10.92 0.0009206419    1.608    0.378
        68 -10.7756    165.3263    208.1279   2.9108521745e+02   4.4126806058e+00   0.01222699  0.009530649  33.17 0.0006535238    1.280    0.219
        69 -10.1948    147.8244     78.1974   2.9051082220e+02   6.0233102820e+00  0.009244734  0.007570542 -28.92 0.0004460297    1.300    0.231
        70 -10.6154     89.3029     78.1517   2.9119278602e+02   6.3628289591e+00   0.01064559  0.009054853   5.57 0.0003861184    1.245    0.197
        71 -10.0748     13.6390     59.9377   2.9196679340e+02   7.0110744070e+00  0.009297519  0.008107245 -65.62 0.0004170257    1.152    0.132
        72  -9.3977    218.6832    241.7173   2.9066588462e+02   3.7133475087e+00  0.006817826  0.004958187 -25.31  0.000206712    1.581    0.367
        73 -12.3182     16.0245    206.2321   2.9281176368e+02   5.2969927395e+00   0.01268506   0.01137913 -51.77 0.0006418444    1.098    0.089
        74 -12.0073    197.4852    225.9115   2.9081766388e+02   4.0197686469e+00   0.01876174  0.009120337  10.98  0.001464623    2.943    0.660
        75 -10.3443    126.3585     27.0585   2.9045401610e+02   6.7411981087e+00   0.01466264  0.007494293  43.44  0.001313823    2.057    0.514
        76 -13.2626     11.5554    205.7161   2.9286074447e+02   5.3287139337e+00   0.02616053   0.01926418   7.93  0.002418409    1.516    0.340
        77 -11.8485    187.0135    221.0264   2.9091016622e+02   4.1371939739e+00   0.01027152   0.01020035 -76.33 0.0007445568    1.021    0.021
