#   1 NUMBER                 Running object number                                     
#   2 MAG_AUTO               Kron-like elliptical aperture magnitude                    [mag]
#   3 X_IMAGE                Object position along x                                    [pixel]
#   4 Y_IMAGE                Object position along y                                    [pixel]
#   5 X_WORLD                Barycenter position along world x axis                     [deg]
#   6 Y_WORLD                Barycenter position along world y axis                     [deg]
#   7 A_WORLD                Profile RMS along major axis (world units)                 [deg]
#   8 B_WORLD                Profile RMS along minor axis (world units)                 [deg]
#   9 THETA_WORLD            Position angle (CCW/world-x)                               [deg]
#  10 FWHM_WORLD             FWHM assuming a gaussian core                              [deg]
#  11 ELONGATION             A_IMAGE/B_IMAGE                                           
#  12 ELLIPTICITY            1 - B_IMAGE/A_IMAGE                                       
         1 -12.6855    183.9392     39.3668   5.7296636710e+01   3.3747970541e+01     1.394588     1.005273  19.44   0.00416685    1.703    0.413
         2 -12.2400    206.8694      9.7451   4.5438324393e+01   3.1134025088e+01    0.9078279    0.6033518  57.50  0.003750163    1.574    0.365
         3 -11.2662    203.7251      4.5470   4.4156792120e+01   3.2425010488e+01    0.6747315    0.4329494  34.68  0.003139697    1.916    0.478
         4 -10.4272    208.8628      4.1286   4.3616148024e+01   3.1156601732e+01    0.3672684    0.3606048 -44.30  0.001371875    1.094    0.086
         5  -8.5370     72.1925    231.8356   1.1943846379e+02   2.0908764394e+01    0.1054623   0.07453343  84.52 0.0003614623    1.565    0.361
         6 -11.8233    248.8930    244.8076   9.0573189451e+01  -3.5643477146e+00    0.5518045    0.3625349  11.09   0.00459032    1.127    0.113
         7 -10.6367     71.2628    210.3027   1.1814328876e+02   2.4456240409e+01    0.2446669    0.1459605  37.15 0.0002297971    1.404    0.288
         8  -8.5557    143.2873    209.3284   1.0374965696e+02   1.4655359724e+01    0.1118341   0.08212245  12.06 0.0002439965    1.614    0.380
         9 -10.3519     64.0939    207.3205   1.1937224693e+02   2.5827984753e+01    0.2094521    0.1740064  56.46 0.0005461535    1.129    0.114
        10 -10.5344     12.0327    206.4792   1.2964228451e+02   3.1365655903e+01    0.3499073    0.1712255  38.38  0.002349436    1.613    0.380
        11 -10.9653      6.9939    206.2334   1.3059940725e+02   3.1843618302e+01    0.1495918   0.09383561  53.85 0.0003971847    1.115    0.103
        12  -9.3377    194.2448    197.1012   9.2548090676e+01   8.4642755706e+00    0.4078603    0.2342119 -59.45  0.001675394    5.393    0.815
        13 -10.5109     66.8322    196.5244   1.1800911708e+02   2.7392502757e+01    0.2785501    0.2150118 -42.75  0.001367781    1.914    0.478
        14  -9.0119     81.7384    196.2483   1.1483306979e+02   2.5547226673e+01    0.2505495    0.1645115 -46.11 0.0009098427    2.164    0.538
        15 -10.0756     94.2231    186.7102   1.1119868637e+02   2.5544692520e+01    0.3374653    0.2180883 -89.08  0.001351807    1.936    0.484
        16 -11.4004     76.4358    182.6292   1.1471301651e+02   2.8731826515e+01    0.6263517    0.5191384  55.63  0.004331375    1.041    0.039
        17  -8.6432    153.9959    185.0118   9.8334259858e+01   1.6563102475e+01    0.1921062    0.1452231  66.92   0.00112893    1.768    0.434
        18  -9.7176    147.7144    184.0285   9.9463175190e+01   1.7743413419e+01    0.1737413    0.1518203  34.14 0.0005384717    1.063    0.059
        19 -10.3818     99.3834    180.9097   1.0940578669e+02   2.5854207582e+01    0.2470662    0.2056726  36.77  0.000563346    1.175    0.149
        20 -10.8092    126.0083    172.9233   1.0244237124e+02   2.3154784864e+01    0.4112009    0.1849739  45.01  0.001901525    1.919    0.479
        21 -10.9917    119.3005    174.2324   1.0411350276e+02   2.4007599490e+01    0.2927042    0.2754655   1.93   0.00196499    1.262    0.208
        22  -8.3793    204.4640    175.4842   8.7170329428e+01   9.5273067536e+00    0.1248173    0.1006125  18.94 0.0001253228    1.002    0.002
        23  -8.4538    196.4211    175.3374   8.8590383549e+01   1.0877148002e+01    0.2537266    0.1375706  42.46   0.00134476    1.665    0.399
        24  -8.4763    188.6335    174.8179   8.9937470673e+01   1.2252715168e+01    0.1535758    0.1174002 -43.94 0.0005774316    1.662    0.398
        25 -10.2040    142.5572    173.7002   9.8975320846e+01   2.0269221106e+01     0.281636    0.2115536 -25.01  0.001638215    1.691    0.409
        26 -10.8428    104.0024    172.2753   1.0729598152e+02   2.6762499036e+01    0.3918478    0.3246457  31.44  0.002208187    1.239    0.193
        27 -10.5896     97.1015    168.7271   1.0843152989e+02   2.8483023557e+01    0.4187482    0.2121598  52.12  0.002041663    1.867    0.464
        28 -10.8673    112.2392    170.6784   1.0520512218e+02   2.5778808740e+01     0.516674    0.3766153  78.76  0.002947952    1.671    0.401
        29  -8.5101      2.8688    162.4933   1.3022629087e+02   4.0418657905e+01    0.1379479   0.09809306  34.42 0.0006261235    1.457    0.314
        30 -10.3021     94.6541    158.3432   1.0764135626e+02   3.0902615223e+01    0.2355305    0.2141711  47.58 0.0002300853    1.108    0.097
        31 -11.0798     99.7751    151.7583   1.0543950870e+02   3.1443038553e+01    0.5039142    0.4130743 -21.80  0.002670798    1.678    0.404
        32  -9.8547    134.1501    146.8306   9.6317757563e+01   2.6518406506e+01    0.5894632    0.1977043 -55.96  0.001907131    4.397    0.773
        33  -8.5961    167.9704    231.2771   1.0185749083e+02   8.2513568839e+00    0.1528176    0.1059565  31.70 0.0003936133    1.053    0.050
        34 -10.1796    109.5264    138.6506   1.0084857827e+02   3.2529143599e+01    0.4962568    0.2965423 -33.37  0.002174376    2.499    0.600
        35 -10.9288     98.7190    137.5567   1.0345342679e+02   3.4580474866e+01    0.2851259    0.2721896  21.92 0.0003544437    1.196    0.164
        36  -9.9641    105.8224    130.8202   1.0039177108e+02   3.4818706060e+01    0.3492854    0.2929174  64.08  0.001176822    1.171    0.146
        37  -9.3834    116.2972    129.2701   9.7359754571e+01   3.3276042877e+01    0.2746841    0.2243214  -1.12 0.0007911094    1.626    0.385
        38  -9.6319    104.4123    124.8368   9.9632856294e+01   3.6352162715e+01    0.2478506    0.2164361  17.08 0.0006393042    1.339    0.253
        39  -8.5228    111.0493    118.3489   9.6517794633e+01   3.6556149469e+01    0.2065704    0.1728777  45.29 0.0004228832    1.141    0.123
        40  -8.8923    168.3474    113.3723   8.1433894285e+01   2.5808432932e+01    0.2873963    0.2149309 -78.72  0.001055052    2.087    0.521
        41  -8.3780    135.0000    112.9546   8.9052648814e+01   3.2970691784e+01    0.2415849   0.08493311 -45.39 0.0008077001    2.979    0.664
        42  -9.0609    205.8299    110.1631   7.3420714844e+01   1.8338703721e+01    0.2014648    0.1941885 -44.94 0.0006113184    1.223    0.182
        43  -8.4089    134.6741    106.3372   8.7534103487e+01   3.4365492000e+01     0.153387    0.1188629  87.60 0.0004214543    1.723    0.420
        44  -8.9100    153.6718    213.3115   1.0226906972e+02   1.2559236280e+01    0.1135311   0.07814391  55.64 0.0007041928    1.666    0.400
        45  -8.6589    128.2242     95.4271   8.6399082764e+01   3.7956441704e+01     0.213394    0.1419976  57.35 0.0009397957    1.620    0.383
        46 -10.9608     56.4363    212.3328   1.2123040972e+02   2.5866627860e+01    0.1972106    0.1480008  45.69 0.0003049121    1.140    0.123
        47 -10.3316    166.3495     66.7722   6.9035041028e+01   3.4264559682e+01    0.6935371    0.3783731 -70.75  0.001949768    4.811    0.792
        48 -11.5894    169.2848     53.7298   6.4354210835e+01   3.5558949780e+01    0.5273629    0.4849942  23.94 0.0009768301    1.132    0.117
        49 -19.4397     31.2618    146.7061   1.2247696159e+02   4.1349255588e+01     17.79488     3.464692 -77.99   0.05696429    5.332    0.812
        50 -11.4856    188.5088     33.0903   5.4654635894e+01   3.3342601701e+01    0.5437748     0.481178  42.37  0.001381042    1.191    0.160
        51  -9.7208    189.8972     15.3391   4.8831674151e+01   3.4980416286e+01    0.2609262    0.1870568 -38.15  0.001087132    1.324    0.245
        52  -8.3220     83.7233    245.2363   1.1821137243e+02   1.7588100972e+01    0.1418959   0.09530102  62.81  0.001083262    1.395    0.283
        53  -8.4027     59.2283    228.7648   1.2166000025e+02   2.2881261104e+01    0.1422523   0.09668624  54.44  0.001070434    1.085    0.079
