#   1 NUMBER                 Running object number                                     
#   2 MAG_AUTO               Kron-like elliptical aperture magnitude                    [mag]
#   3 X_IMAGE                Object position along x                                    [pixel]
#   4 Y_IMAGE                Object position along y                                    [pixel]
#   5 X_WORLD                Barycenter position along world x axis                     [deg]
#   6 Y_WORLD                Barycenter position along world y axis                     [deg]
#   7 A_WORLD                Profile RMS along major axis (world units)                 [deg]
#   8 B_WORLD                Profile RMS along minor axis (world units)                 [deg]
#   9 THETA_WORLD            Position angle (CCW/world-x)                               [deg]
#  10 FWHM_WORLD             FWHM assuming a gaussian core                              [deg]
#  11 ELONGATION             A_IMAGE/B_IMAGE                                           
#  12 ELLIPTICITY            1 - B_IMAGE/A_IMAGE                                       
         1 -12.9751    196.5257     32.6499   6.5274500310e+01   3.2453150238e+01    0.8861923    0.6973153  53.19   0.00521169    1.381    0.276
         2 -13.7744    211.3522     14.8582   5.9497451880e+01   3.1112874066e+01     1.143005    0.9216758  35.04  0.007115994    1.786    0.440
         3 -11.5738      2.2035     13.3073   1.1290325004e+02   7.0882181772e+01    0.5730162    0.1258094 -47.42  0.002357309    4.552    0.780
         4 -11.5115      2.3142      4.5291   1.0915247669e+02   7.2040281021e+01    0.4628972    0.2347193 -29.64   0.00315053    1.550    0.355
         5  -9.9473     81.8677    247.0932   1.3514236665e+02   1.2505950874e+01    0.3026393    0.1706156 -66.96  0.001665834    1.862    0.463
         6  -9.4887    204.5474    250.5332   1.1149785577e+02  -8.1667553362e+00    0.1246787    0.1047741  21.19 1.929536e-05    1.021    0.021
         7 -10.3593    184.2739    250.4239   1.1539915178e+02  -4.8933766221e+00    0.2284115    0.1437106  34.36  0.001263545    1.372    0.271
         8 -11.1802    149.9343    248.6926   1.2193501447e+02   1.1484089093e+00    0.3619023    0.2854555 -77.89   0.00215994    1.607    0.378
         9 -10.4945    143.8013    249.4814   1.2326627063e+02   2.0482668940e+00    0.2375137    0.1709435 -83.55  0.001182385    1.900    0.474
        10  -9.7625    122.5243    249.4961   1.2749199594e+02   5.6081431171e+00    0.3072637    0.1924082  79.96  0.001526752    2.224    0.550
        11 -10.3435    126.9187    249.1489   1.2657801687e+02   4.9424439462e+00     0.390076    0.2664129  70.38  0.001718832    1.664    0.399
        12 -10.5168    121.6174    244.8292   1.2708223332e+02   6.6259049475e+00    0.3763466    0.1951275  59.62  0.001725051    2.175    0.540
        13 -11.9858    125.1267    240.7156   1.2583847372e+02   6.8149586628e+00    0.5831042    0.3840037  44.44  0.003202004    1.315    0.240
        14 -10.7372    135.7701    248.9471   1.2479284946e+02   3.4970668626e+00    0.2604587    0.1990933 -39.19  0.001245507    1.663    0.399
        15 -10.5537    132.1857    248.7962   1.2548618873e+02   4.1262722696e+00    0.3513102    0.2168304  68.77  0.001596904    2.083    0.520
        16 -10.9625    115.4674    250.3830   1.2899073638e+02   6.6036344759e+00    0.4499863    0.3348501  34.99 0.0008891366    1.394    0.283
        17 -11.2487    109.5622    246.7974   1.2972345018e+02   8.2368207331e+00    0.5103658    0.4328564  84.33  0.002834022    1.178    0.151
        18 -10.9051     99.0999    247.4281   1.3185016118e+02   9.7905640383e+00    0.5137289    0.3048931  63.68  0.002739734    1.666    0.400
        19  -9.9689    102.9412    247.4688   1.3110401892e+02   9.1735289477e+00    0.3147466    0.1820405  56.47  0.001324893    1.555    0.357
        20 -10.9458     87.3589    248.4806   1.3423466201e+02   1.1407476008e+01    0.3629261    0.2824432  56.44 0.0009419907    1.089    0.082
        21 -10.5205     74.4850    242.1291   1.3605639730e+02   1.4581368915e+01    0.5814976    0.3737037 -33.34  0.002711383    3.503    0.715
        22 -10.8969     67.7092    243.9769   1.3752589837e+02   1.5186940318e+01    0.3828011    0.2173993  47.18  0.002168169    1.523    0.343
        23  -9.0865     62.5379    250.4772   1.3907678465e+02   1.4629219336e+01    0.1750689    0.1428021  30.68 0.0007955994    1.684    0.406
        24 -11.3057     60.3745    245.8296   1.3906590095e+02   1.5842193575e+01    0.4320645    0.3480018  83.14  0.001804636    1.121    0.108
        25 -14.1458     11.4994    210.3846   1.4533342459e+02   2.9110162153e+01     2.443493     1.178266 -73.45    0.0139167    1.705    0.414
        26 -12.7630     14.0829    238.8004   1.4678711296e+02   2.2926908262e+01    0.6882629    0.4246364  56.77  0.001889485    1.355    0.262
        27 -12.7824     33.6459    227.5819   1.4249575993e+02   2.3020621654e+01    0.4210449    0.3088443 -66.88 0.0007967088    1.480    0.324
        28 -14.2122     40.2987    218.5321   1.4045304855e+02   2.4153972447e+01      1.60648     1.282758   5.97  0.009804539    2.207    0.547
        29 -11.7036    244.7035    241.4994   1.0252991867e+02  -1.2864083067e+01    0.3813245    0.1513239 -30.67  0.001770962    2.639    0.621
        30 -10.7238    105.0509    237.8804   1.2954675482e+02   1.0703645110e+01    0.3563958    0.2386885  30.60  0.001899511    1.751    0.429
        31 -10.6488     84.7453    240.9799   1.3394733126e+02   1.3282661491e+01    0.3877465    0.2820351  87.03  0.002351174    1.327    0.246
        32 -10.6922     85.3019    234.8550   1.3316655161e+02   1.4439774941e+01     0.410853    0.2176064  61.69  0.002009197    1.899    0.473
        33 -11.4910     98.9011    232.5767   1.3014785607e+02   1.2769590162e+01     1.012262    0.3640361 -71.26  0.003307455    4.764    0.790
        34 -11.0809     96.9620    239.5704   1.3137403830e+02   1.1666822169e+01    0.5170315    0.2729326 -40.80  0.002223172    3.356    0.702
        35 -10.7206     98.6159    223.3559   1.2904771049e+02   1.4737742148e+01    0.3701595    0.2735423  43.83  0.001098112    1.297    0.229
        36 -10.5034    113.2936    230.6737   1.2693433046e+02   1.0786533041e+01    0.3314482    0.2761073 -73.39  0.001404538    1.268    0.211
        37 -11.6868    105.1931    228.0256   1.2827351192e+02   1.2679946866e+01    0.7692299    0.4422357  68.32  0.003571687    2.092    0.522
        38 -10.6665     91.0815    241.7046   1.3278239008e+02   1.2164732334e+01    0.3842478    0.2385512  62.86  0.001901361    1.497    0.332
        39 -10.6248     89.9504    238.0756   1.3260049080e+02   1.3067101844e+01    0.2537196     0.215557 -63.86 0.0008565093    1.367    0.268
        40 -11.5186    176.1508    242.2615   1.1573473632e+02  -2.2147861990e+00    0.4300408    0.3036682  57.48  0.001627704    1.655    0.396
        41  -9.7736    158.0161    242.6071   1.1943250637e+02   8.3058704052e-01    0.2057966     0.183201 -83.82 0.0007310581    1.341    0.254
        42 -11.5565    129.2145    234.8459   1.2420168499e+02   7.2450794427e+00    0.4844545    0.2231829  53.31  0.002062361    2.241    0.554
        43 -10.8522    142.2730    221.6022   1.1948920273e+02   7.5504166890e+00    0.4018328    0.2544557  33.67 0.0009551202    1.601    0.375
        44 -12.5547    134.9704    234.2380   1.2292480642e+02   6.3664971677e+00     1.048221    0.4856152 -59.42  0.004565904    2.598    0.615
        45 -10.6998    166.1409    242.0924   1.1771642704e+02  -4.7638522592e-01    0.3480592    0.1768976  37.64  0.001658609    1.742    0.426
        46 -10.9618    116.9536    238.0770   1.2715439602e+02   8.6991986723e+00    0.4714442    0.2903091 -34.40  0.001943159    2.713    0.631
        47 -10.3942    122.4626    233.3306   1.2538944839e+02   8.6999328057e+00    0.3320885    0.2869549 -65.49  0.001777765    1.275    0.216
        48 -12.7379      2.7644    192.1829   1.4566715745e+02   3.3906402677e+01     1.659147    0.2612826 -71.50  0.005863068    4.236    0.764
        49  -9.4396    173.0958    235.9077   1.1534266647e+02  -6.0676802218e-01    0.1868205     0.166816  57.60  0.001150078    1.218    0.179
        50 -10.7258    156.7505    231.8197   1.1804610476e+02   2.9948788305e+00    0.2526337    0.2334594 -32.32 0.0004343485    1.226    0.184
        51  -9.3067     62.8559    232.9452   1.3739784856e+02   1.8121985125e+01    0.1663272    0.1492286  83.20 0.0002695424    1.228    0.185
        52 -10.0937    142.5728    227.7484   1.2037745587e+02   6.2852059008e+00    0.2731647    0.1851704 -76.01  0.001347297    1.979    0.495
        53  -8.8740     57.3804    231.1399   1.3828743104e+02   1.9252301862e+01    0.1660243    0.1005801 -88.46 0.0007423952    1.569    0.363
        54 -13.2941      3.7699    244.8943   1.4885790771e+02   2.2805864323e+01     1.080652    0.5232136  85.29  0.006664997    1.674    0.403
        55 -10.4842     84.7562    229.3474   1.3265205070e+02   1.5666213310e+01    0.2163951      0.20881  81.41 0.0001746711    1.287    0.223
        56 -10.7707    136.0874    225.5350   1.2141143135e+02   7.8729323982e+00    0.4362984    0.2496186 -48.60  0.001332559    1.963    0.491
        57 -10.4694     79.4956    225.7564   1.3331486393e+02   1.7225978991e+01    0.4499868     0.267735 -77.47  0.001380306    1.726    0.421
        58  -9.2531     77.3101    220.7059   1.3318490206e+02   1.8640494723e+01    0.2033028    0.1549343  77.51 0.0002995155    1.170    0.145
        59 -10.1188     91.8435    225.6321   1.3075192185e+02   1.5343183868e+01    0.4300898    0.1737133  52.69  0.001358139    2.431    0.589
        60 -10.4095    117.1635    224.3086   1.2525001570e+02   1.1431492858e+01    0.2707126    0.2359437  29.71 0.0003224706    1.311    0.237
        61  -9.3906     65.0463    224.5030   1.3611226714e+02   1.9601783143e+01    0.2242182    0.1617602 -57.92 0.0009787182    1.590    0.371
        62 -10.1653    160.4247    223.5871   1.1595950179e+02   3.8807844690e+00    0.2617024    0.1902613   1.66 0.0007308953    1.980    0.495
        63  -9.2196    111.0000    220.4999   1.2603107250e+02   1.3281393057e+01    0.2811511   0.07718517 -57.83 0.0008590933    3.880    0.742
        64 -10.4110     69.8286    217.8044   1.3440769965e+02   2.0374079068e+01    0.6707733    0.3241973 -83.59  0.002907262    2.546    0.607
        65 -10.5611    245.9896    219.2349   9.8324843345e+01  -9.8487550783e+00     0.237468    0.1439661 -21.77  0.001238206    1.643    0.391
        66  -8.5996    104.5373    218.5434   1.2714724669e+02   1.4788022751e+01    0.1377242    0.1201625  67.52 -1.291966e-05    1.006    0.006
        67  -8.6553     99.3012    218.2885   1.2823650685e+02   1.5710402300e+01    0.1214966    0.1096844 -12.13 0.0002861842    1.561    0.360
        68  -8.6248     89.2737    218.3297   1.3038211352e+02   1.7317031378e+01    0.2005756    0.1628139 -78.67 0.0004588181    1.201    0.167
        69  -9.5647     88.2591    213.1708   1.2993835055e+02   1.8609897251e+01     0.350627     0.197714 -89.23  0.001544849    2.308    0.567
        70  -9.0916     62.6011    217.9234   1.3591341166e+02   2.1372467334e+01    0.1874735    0.1671649  47.70 0.0005996914    1.323    0.244
        71  -8.5108    118.6803    217.6834   1.2397254313e+02   1.2554224061e+01    0.1313621    0.1117591  -5.93 0.0007040698    1.658    0.397
        72  -9.8769    137.3061    214.5063   1.1943328286e+02   9.8946811218e+00    0.2725515      0.21149 -76.19  0.001168226    1.477    0.323
        73  -9.5524    160.0033    213.7268   1.1439032144e+02   5.8692839616e+00    0.2111535     0.198878 -51.40 0.0004522169    1.150    0.130
        74 -10.2566    102.2333    211.9498   1.2673135764e+02   1.6606466203e+01    0.3860111    0.1876297  60.90  0.001527663    2.571    0.611
        75  -9.7277     97.4609    210.5582   1.2758351413e+02   1.7705723128e+01    0.2329439    0.1643091 -56.18 -1.220291e-05    1.511    0.338
        76 -10.4895     91.2007    204.8854   1.2818001345e+02   1.9998169235e+01    0.5218817    0.3332164  43.55  0.001419273    1.507    0.336
        77  -9.5052    106.8944    209.8149   1.2539928613e+02   1.6289639176e+01     0.196869    0.1924748 -37.43 0.0006138659    1.261    0.207
        78  -9.6257     74.1257    209.2403   1.3249295065e+02   2.1650832644e+01    0.3174275    0.2428396   5.71  0.001655322    2.247    0.555
        79  -9.9143    112.6265    208.4902   1.2393192259e+02   1.5593778438e+01    0.2585603    0.2298141  76.00 0.0007533091    1.042    0.041
        80  -8.5633    134.3378    208.3184   1.1908055575e+02   1.1738155109e+01    0.1409289    0.1147161  -2.31 0.0007049186    1.705    0.414
        81 -11.3089    199.7675    246.3873   1.1174783058e+02  -6.7858441008e+00     0.450618    0.1923627  44.27  0.002035293    2.270    0.560
        82 -10.9805    246.8821    206.3934   9.5762820532e+01  -7.9994337960e+00    0.2976758    0.2258751  24.72  0.001806562    1.301    0.232
        83 -10.4628    250.0965    201.4911   9.4259025814e+01  -7.7150653046e+00     0.433593    0.1819443 -25.41  0.001652681    3.257    0.693
        84  -9.0828     32.8592    206.9438   1.4088230357e+02   2.7586213301e+01    0.1711054     0.137441 -71.52 0.0003633586    1.287    0.223
        85  -9.4493     74.6095    203.8340   1.3171362996e+02   2.2806276595e+01    0.2520099    0.1938336  22.34 0.0009004517    1.778    0.438
        86  -9.2740    103.9020    203.1042   1.2507541702e+02   1.8297360006e+01      0.20966    0.1748149 -21.45 0.0007341672    1.708    0.414
        87 -10.6471     84.3555    201.3384   1.2922011398e+02   2.1894168923e+01    0.4064046    0.2568888 -41.65  0.001249958    2.163    0.538
        88  -8.9789     85.7326    195.6775   1.2811639221e+02   2.2987766780e+01     0.200281    0.1693511  62.52 0.0002456729    1.104    0.095
        89  -8.7672    183.1738    200.3731   1.0702186347e+02   4.1399882363e+00    0.1905886    0.1292431  49.44 0.0002605878    1.520    0.342
        90  -9.1480    127.9188    199.6909   1.1908566936e+02   1.4794314095e+01    0.1972556    0.1745283  56.07 0.0004069467    1.055    0.053
        91  -9.7681     44.2552    199.0831   1.3774417115e+02   2.8012688927e+01    0.2905294     0.210402 -27.16  0.001552034    2.440    0.590
        92  -8.8305    119.8375    199.1699   1.2083956517e+02   1.6386147542e+01    0.1788008    0.1720095 -12.97 0.0003225062    1.250    0.200
        93 -10.0869     55.1275    198.3328   1.3531563183e+02   2.6803369971e+01    0.5603434    0.1845575  43.43   0.00228574    2.788    0.641
        94 -11.5757     60.4070    194.4007   1.3368061487e+02   2.7010045541e+01     0.421025    0.3564619  40.18  0.001827058    1.363    0.266
        95 -11.3851     41.6223    205.9088   1.3899535363e+02   2.6784059444e+01    0.6055156    0.2682832  44.34  0.002148604    2.117    0.528
        96  -9.7470    102.3141    196.3459   1.2440794051e+02   2.0109442929e+01    0.3959524    0.2635907 -25.46  0.001243838    2.731    0.634
        97  -9.5834     96.5644    196.0610   1.2568734231e+02   2.1143168435e+01    0.3360907     0.195161  42.48  0.001571698    1.671    0.402
        98  -9.4483     38.5097    192.0453   1.3823288621e+02   3.0319553398e+01    0.2121556    0.1751788 -72.81 0.0005198871    1.198    0.165
        99  -9.8722     40.9801    188.5260   1.3731027759e+02   3.0848684627e+01    0.2741325    0.1912751  74.61 0.0007777739    1.324    0.245
       100 -11.6743     39.6116    230.2270   1.4159526913e+02   2.1743747050e+01    0.3222258     0.228963 -80.19 0.0002677627    1.269    0.212
       101  -8.8545     72.5291    193.0288   1.3076621187e+02   2.5618428765e+01    0.1901624    0.1235312 -66.50 1.995162e-05    1.441    0.306
       102 -10.3713     25.8914    192.4099   1.4096408789e+02   3.1633829306e+01    0.2591959    0.1681278  66.07 0.0007492162    1.423    0.297
       103  -9.7893    191.4792    191.4783   1.0354985033e+02   4.2944787694e+00    0.2461217    0.2344848  -8.16 0.0006213991    1.030    0.029
       104  -8.7580    113.4486    190.6442   1.2090072366e+02   1.9478275683e+01    0.3293663    0.0998488 -43.19 0.0008060788    6.098    0.836
       105 -13.6008     28.4338    246.9654   1.4486037533e+02   1.9691444878e+01     1.491967    0.7135473  45.63  0.008787625    1.828    0.453
       106  -9.4602     31.6180    189.9924   1.3950811535e+02   3.1572596355e+01    0.3338944    0.1529827  40.62  0.001677893    2.199    0.545
       107 -13.5859     39.8159    242.7962   1.4256101015e+02   1.9141956116e+01     1.437634    0.9084181  52.86  0.009228046    1.356    0.263
       108 -10.4565    249.8679    187.9281   9.1658588625e+01  -5.4664364939e+00    0.3435931    0.1977545 -30.12  0.001736899    1.632    0.387
       109  -9.6374     77.0243    188.7364   1.2913575248e+02   2.5963030293e+01    0.2200549    0.1796041 -76.81 0.0004082235    1.126    0.112
       110 -11.5426     66.8761    187.1139   1.3126754376e+02   2.7829814668e+01    0.3089007    0.2357301 -55.37 0.0004886538    1.391    0.281
       111 -10.2898     83.7902    186.9268   1.2728710826e+02   2.5352740231e+01    0.2254423    0.1870004  63.20  0.001263582    1.141    0.124
       112 -10.7251    249.5537    194.1096   9.2926072079e+01  -6.4375624345e+00    0.3270102    0.2618693   6.89   0.00199243    1.234    0.189
       113 -10.2393     28.4256    184.5796   1.3964739187e+02   3.3168968083e+01    0.3472465    0.2482166  21.73  0.001403124    1.951    0.487
       114  -9.6462     24.2958    184.2979   1.4051745483e+02   3.3662533933e+01    0.1867513    0.1496753 -67.58 0.0004728036    1.253    0.202
       115  -9.2712    140.1401    183.1511   1.1329680736e+02   1.6173429972e+01    0.2082008    0.2030757  -6.51 0.0002903881    1.133    0.117
       116  -9.6391    127.5920    182.4593   1.1611935862e+02   1.8755666989e+01    0.2503673     0.217814 -82.34  0.001092052    1.175    0.149
       117  -9.8194    107.8538    182.3869   1.2082069557e+02   2.2406792516e+01      0.24564    0.2006956 -58.18 0.0003502119    1.231    0.187
       118  -9.3802     36.8536    182.8372   1.3759476116e+02   3.2656218393e+01     0.282983    0.1519272 -67.15  0.001471317    1.591    0.371
       119 -12.4949    248.2419    173.0999   8.8969261517e+01  -2.6727594876e+00     1.053389     0.438432 -40.15  0.004484812    2.151    0.535
       120 -11.7773    245.4115    163.3668   8.7457002250e+01  -4.7007828902e-01    0.6462718    0.3380019 -51.30  0.002848039    2.151    0.535
       121 -12.2211    246.5251    157.8528   8.6124406030e+01   3.1826254628e-01     1.360535    0.8909543 -80.85   0.00545253    3.481    0.713
       122 -10.9623    249.5818    150.9460   8.4179459000e+01   1.0088430099e+00    0.5059038    0.3258304 -40.96   0.00219352    1.366    0.268
       123 -12.0725    247.9484    142.1989   8.2607134356e+01   2.8790741014e+00     0.867211    0.6773393  50.63  0.004904897    1.463    0.316
       124 -12.1246    248.6188    133.7133   8.0704879128e+01   4.2864690015e+00    0.9484029    0.5412079 -31.02  0.004404259    1.831    0.454
       125  -8.7562     65.8355    181.8977   1.3079524366e+02   2.9220573798e+01    0.1847912    0.1406564  74.58   0.00024228    1.264    0.209
       126  -8.7469      8.6690    182.3100   1.4366524369e+02   3.5601533868e+01    0.1261049   0.07179955  71.15 0.0007041985    1.669    0.401
       127  -9.1805    115.5152    178.4881   1.1828331347e+02   2.1944397120e+01    0.3829894    0.1816045 -47.06  0.001283225    2.255    0.556
       128 -13.3191    247.6576    115.7530   7.7021212846e+01   7.6991666641e+00     1.836056    0.8983918 -30.76  0.007529408    2.429    0.588
       129  -8.8123     47.8895    179.7981   1.3471855111e+02   3.2077964927e+01    0.1572067    0.1048476  34.95 0.0008488351    1.710    0.415
       130 -11.2109     11.8309    173.2608   1.4216357058e+02   3.7392509289e+01    0.4278857    0.1602761 -63.55  0.002056844    2.123    0.529
       131 -11.1031     12.3545    161.6518   1.4088286417e+02   4.0037318466e+01    0.5150778    0.2153067  89.21  0.002163338    2.895    0.655
       132 -12.1001      1.8233    163.2399   1.4343814285e+02   4.0511422651e+01     1.635799    0.2291995 -74.31  0.004424875    6.647    0.850
       133 -12.2523     16.9082    139.5522   1.3716924357e+02   4.4836461572e+01    0.6281807    0.2736306  53.55  0.002823866    2.996    0.666
       134 -13.3363      2.7005    127.5954   1.3936467168e+02   4.8632686135e+01     1.366987    0.3632205 -64.09  0.005875544    2.525    0.604
       135  -9.2118    126.0951    177.2063   1.1549369440e+02   2.0260705280e+01    0.2054533    0.1698873  81.45 0.0003751968    1.301    0.231
       136  -9.3204    103.1587    176.1948   1.2088023370e+02   2.4707656062e+01    0.2072486    0.1962071 -47.88 0.0002209846    1.186    0.157
       137 -12.0358    107.8650    172.9229   1.1913737789e+02   2.4658873317e+01    0.2861263    0.2644376  79.71 0.0002854567    1.022    0.021
       138 -10.7924     76.9394    175.0038   1.2710921841e+02   2.9269687146e+01    0.2938059    0.2348055 -54.12 0.0003620584    1.296    0.229
       139 -11.6683     63.8453    173.2547   1.3004023635e+02   3.1579727379e+01    0.3414064    0.2474124 -60.41 0.0004013056    1.302    0.232
       140 -10.4267     19.3696    172.9391   1.4045582630e+02   3.6781965383e+01    0.3736122    0.2231705  63.91  0.001468442    1.698    0.411
       141 -11.0709     14.1127    167.0163   1.4103539170e+02   3.8638202284e+01    0.3562348    0.2550882  49.09  0.001592165    1.510    0.338
       142 -10.2545     45.0023    164.9607   1.3347519046e+02   3.5983782189e+01    0.4331258    0.2645061 -88.24  0.001614962    1.691    0.408
       143 -10.5418     43.6953    169.2932   1.3436923348e+02   3.5092689711e+01    0.2942261    0.2353808 -78.32  0.001177108    1.054    0.051
       144  -9.5473     28.2711    171.1552   1.3823400046e+02   3.6329017295e+01    0.3691698    0.1556989 -58.52  0.001531705    2.074    0.518
       145  -8.6901    166.6230    170.5069   1.0465116106e+02   1.3632179612e+01    0.1495224    0.1460463 -47.18 -0.0002381464    1.033    0.032
       146  -8.6911    150.9742    170.0566   1.0815386017e+02   1.6962789102e+01    0.1804912     0.169974 -60.41            0    1.068    0.063
       147  -8.5719     52.6214    170.7631   1.3241239607e+02   3.3658836425e+01     0.123237    0.1018116 -29.69 0.0006017175    1.625    0.385
       148 -11.9353     84.7860    166.3591   1.2373907007e+02   3.0161202261e+01    0.6273732    0.5265452  40.63  0.003440432    1.284    0.221
       149 -11.0173      7.3232    166.9961   1.4256361574e+02   3.9216993172e+01    0.2782137    0.1678938 -81.25 0.0009309635    1.316    0.240
       150  -9.4791     68.4256    166.3898   1.2786719787e+02   3.2611163572e+01    0.2291886     0.188096  87.61 0.0007044412    1.155    0.134
       151  -9.2878     58.2094    162.5923   1.2984889457e+02   3.4927669025e+01    0.2170195    0.1632555 -81.65 0.0004528585    1.229    0.187
       152 -10.0941     89.8377    160.0923   1.2133322836e+02   3.0878246127e+01    0.2328528     0.206306  53.95 0.0003129146    1.157    0.136
       153  -9.1865     73.5095    159.5279   1.2544958660e+02   3.3558080510e+01    0.1437344    0.1277436 -82.41 0.0001166265    1.019    0.018
       154 -10.8933     45.9888    172.3141   1.3421338141e+02   3.4097171379e+01    0.3485157    0.2226694 -52.53   0.00028111    1.612    0.380
       155  -9.2751     16.4754    158.4693   1.3957003439e+02   4.0428905339e+01    0.1254213   0.09904087 -76.99 0.0002480347    1.033    0.032
       156 -10.6210     31.8227    155.8049   1.3550858337e+02   3.9621245197e+01     0.319621    0.1974909 -50.97 0.0008920928    1.614    0.380
       157  -9.3183     72.1374    156.2938   1.2525121954e+02   3.4551965681e+01    0.3030332    0.1882146   9.82  0.001242034    2.897    0.655
       158  -9.6439     83.9585    155.5569   1.2202703455e+02   3.2938561670e+01    0.3777127    0.1547695  28.12   0.00101822    3.573    0.720
       159 -11.1453     23.7278    154.7732   1.3738102955e+02   4.0650504820e+01    0.3813017    0.1868647  34.59   0.00195588    2.290    0.563
       160 -10.0074    104.8411    153.5480   1.1617279834e+02   2.9888740400e+01    0.2628059    0.2179901 -78.42 0.0002779663    1.233    0.189
       161  -9.8360     90.2778    153.0020   1.1988374612e+02   3.2541916276e+01    0.3559349    0.2058647 -41.36  0.001104625    1.994    0.499
       162  -9.5308    114.0575    150.6838   1.1318301415e+02   2.8875618773e+01    0.3092954    0.2020793 -59.13 0.0004274413    1.530    0.346
       163 -10.4578     97.3627    151.2061   1.1766105475e+02   3.1781340179e+01    0.3634087    0.3055476 -50.74  0.001901898    1.181    0.153
       164  -9.1753     69.8729    152.1012   1.2511608113e+02   3.5906525836e+01     0.212249    0.1773344  89.17 0.0003510563    1.182    0.154
       165  -9.2294     86.2112    149.9623   1.2037540847e+02   3.3950457627e+01    0.2642437    0.1659645 -60.00 0.0004329558    1.494    0.331
       166  -9.6857     84.3144    146.7216   1.2025359691e+02   3.5047696309e+01    0.2257761    0.1772769 -64.46 0.0005449625    1.190    0.160
       167  -9.7590     59.0969    149.8308   1.2758286168e+02   3.7930220135e+01    0.2959043    0.1651662  88.67  0.001191501    2.630    0.620
       168  -8.6212     55.3058    150.6318   1.2871782275e+02   3.8218846509e+01    0.1453677   0.09736643  78.88 0.0007035237    1.751    0.429
       169  -9.0134    228.5142    155.7174   8.8805092942e+01   4.0492336432e+00    0.1974659    0.1276821 -50.46 0.0008606637    1.574    0.365
       170 -10.1581     23.9891    149.5037   1.3665124908e+02   4.1876588999e+01    0.2034619    0.1427179 -71.01  0.000537048    1.155    0.134
       171 -12.2924     68.3283    144.3403   1.2413496132e+02   3.8026069726e+01    0.6857979    0.4993666  87.25   0.00223305    1.568    0.362
       172  -9.1478    100.8752    146.2660   1.1571722774e+02   3.2367523087e+01    0.3037986    0.1862776 -32.23  0.001220516    2.247    0.555
       173 -10.4580     11.0025    150.0391   1.3993633726e+02   4.2854446124e+01    0.1816242    0.1363448 -62.18  0.001178782    1.200    0.167
       174  -9.1961     53.1025    146.6505   1.2865008159e+02   3.9462629067e+01    0.2121067    0.1580256  66.18 0.0006313251    1.473    0.321
       175  -9.1593     40.3199    147.3082   1.3214110253e+02   4.0776502733e+01    0.1328783   0.09109452 -41.46 0.0004502483    1.640    0.390
       176 -10.2526    236.1160    146.0248   8.5384514003e+01   4.4060155580e+00    0.2318053    0.2084388  41.60 0.0006601788    1.228    0.186
       177  -8.9845    104.7921    142.9626   1.1396905458e+02   3.2462208297e+01    0.2056928    0.1864938 -61.93 0.0003472211    1.053    0.050
       178  -9.8314    133.2612    140.7963   1.0605299664e+02   2.7398277557e+01    0.3725011    0.2812944 -59.33  0.001728703    1.353    0.261
       179 -10.7752     32.8425    140.7283   1.3313491318e+02   4.3129066806e+01    0.2697121    0.1853053  83.92  0.001050669    1.572    0.364
       180 -13.5775      5.0081    141.8065   1.4047576086e+02   4.5213091628e+01     1.351312    0.4993649 -70.75  0.006386872    2.077    0.519
       181 -11.0144     60.3888    136.7470   1.2491884424e+02   4.0949660803e+01    0.3122917    0.2459005 -81.05 0.0004373139    1.278    0.218
       182  -8.9421     50.9770    137.9989   1.2776110479e+02   4.1818834478e+01    0.1612452    0.1453372 -70.73  0.000394095    1.044    0.042
       183  -9.9935    109.4309    136.1989   1.1122440414e+02   3.3224906008e+01    0.3972148    0.2881578  -9.68  0.001692493    2.134    0.531
       184 -11.3144     33.6471    130.2599   1.3127957916e+02   4.5543328636e+01    0.4048326     0.238457 -64.42  0.002149244    1.412    0.292
       185 -11.2035     44.9438    131.0006   1.2822235273e+02   4.4194298831e+01    0.4000496    0.2951816 -76.85  0.002250666    1.307    0.235
       186 -11.3106     67.8171    128.3253   1.2115761580e+02   4.1979365170e+01     0.413021    0.2818294  69.62  0.001029602    1.954    0.488
       187 -10.1335     59.1271    128.0144   1.2360356194e+02   4.3216535599e+01    0.2092237    0.1880959 -63.23 0.0004821867    1.019    0.018
       188 -11.1291     23.3487    127.0366   1.3365017449e+02   4.7237671756e+01     0.335764      0.17594 -82.11  0.001052024    2.119    0.528
       189 -10.2111    209.9352    125.7285   8.5508046168e+01   1.3690733138e+01    0.2972693    0.2221825 -43.16 0.0004813274    1.262    0.208
       190  -8.9939     50.2164    122.4338   1.2510644912e+02   4.5633628440e+01    0.1771558    0.1238823  46.57 0.0009446911    1.641    0.391
       191 -11.7691     12.8527    153.6426   1.3989525854e+02   4.1864507880e+01    0.3942501    0.2289813 -65.36   0.00119123    1.380    0.275
       192 -10.6580     28.2877    119.0379   1.3093169630e+02   4.8674582066e+01    0.1868485    0.1463446 -64.18 0.0005533386    1.065    0.061
       193  -9.7035     67.2066    116.2024   1.1873035187e+02   4.4931604990e+01    0.2261655    0.1589834  77.92  0.001061737    2.054    0.513
       194 -12.1628     11.0223    115.5752   1.3539107686e+02   5.0824667151e+01    0.3684022     0.275426 -21.81  0.001677978    1.612    0.379
       195 -10.2005    168.0367    113.2183   9.0938694848e+01   2.5777968103e+01    0.3648465    0.2809257 -89.05 0.0009541837    1.619    0.382
       196  -9.9726    231.8186    116.3727   7.9597831027e+01   1.0795353419e+01    0.2063815    0.1671318 -53.66 0.0006427318    1.134    0.118
       197  -9.0081    203.4734    111.5008   8.3350418709e+01   1.7912246403e+01    0.1500965    0.1421056 -59.83 5.739099e-05    1.028    0.028
       198 -12.8297    247.4723    100.5043   7.3783256553e+01   1.0423986935e+01    0.9121121    0.6049279 -43.57  0.004811769    1.332    0.249
       199 -10.3138     16.9379     99.1274   1.3081750937e+02   5.4097105873e+01    0.1756567     0.149076 -79.59  0.001186349    1.256    0.204
       200  -9.4281     28.6858     94.2746   1.2604193799e+02   5.4229610360e+01    0.2020736    0.1446364  37.83 0.0007346811    1.691    0.409
       201 -11.1533     15.0273    104.5731   1.3239968820e+02   5.3025600290e+01    0.2231114    0.1681032  15.39  0.001448114    1.636    0.389
       202  -8.2838     71.6917    100.2593   1.1352782253e+02   4.7909798888e+01    0.1296804    0.1090908  77.00 0.0002169293    1.524    0.344
       203  -9.2690     23.6722     86.2789   1.2597465327e+02   5.6366291322e+01    0.1108474   0.09243551  75.89 0.0001485464    1.596    0.373
       204 -10.2753    192.3387    248.7877   1.1357216174e+02  -5.9548117851e+00    0.2304147    0.1800413  35.25 0.0007445008    1.128    0.113
       205  -9.9316    193.8571    245.1492   1.1269609467e+02  -5.6365526198e+00    0.2329301    0.1793439 -25.30 0.0006014883    1.422    0.297
       206 -10.4424    169.6679    248.4902   1.1797976728e+02  -2.1541917948e+00     0.330434    0.2231217  10.80   0.00079208    2.006    0.502
