#   1 NUMBER                 Running object number                                     
#   2 MAG_AUTO               Kron-like elliptical aperture magnitude                    [mag]
#   3 X_IMAGE                Object position along x                                    [pixel]
#   4 Y_IMAGE                Object position along y                                    [pixel]
#   5 X_WORLD                Barycenter position along world x axis                     [deg]
#   6 Y_WORLD                Barycenter position along world y axis                     [deg]
#   7 A_WORLD                Profile RMS along major axis (world units)                 [deg]
#   8 B_WORLD                Profile RMS along minor axis (world units)                 [deg]
#   9 THETA_WORLD            Position angle (CCW/world-x)                               [deg]
#  10 FWHM_WORLD             FWHM assuming a gaussian core                              [deg]
#  11 ELONGATION             A_IMAGE/B_IMAGE                                           
#  12 ELLIPTICITY            1 - B_IMAGE/A_IMAGE                                       
         1 -13.8902    224.9264     28.4610   3.7780760926e+01   2.6365371050e+01     1.030862    0.8086478  46.32  0.006239162    1.653    0.395
         2 -13.5188     27.9935     12.6640   7.7475261956e+01   7.0693160970e+01     1.240729     0.966221  22.04  0.008035263    1.311    0.237
         3 -12.1023    235.3511      9.2637   3.2705309636e+01   2.6319051399e+01    0.5590851    0.2965314  78.19   0.00312049    1.770    0.435
         4 -12.2230    246.9387     14.8854   3.3065157120e+01   2.3264077292e+01    0.5610769    0.3412922 -41.73  0.002968844    1.460    0.315
         5 -12.5112    248.9929      4.4380   3.0823225284e+01   2.4003506648e+01    0.5732316    0.4210633 -62.91  0.003962599    1.057    0.054
         6 -11.8811      2.8754      8.1264   8.9165701412e+01   7.3891735756e+01    0.6080326    0.2379386 -47.25  0.003223788    2.447    0.591
         7 -10.7419     52.8772      7.0427   6.3486226429e+01   6.7673445620e+01    0.3226542    0.1706482 -16.78  0.001741775    1.937    0.484
         8 -11.4199     44.8310      6.6696   6.6543688396e+01   6.9032791442e+01    0.3253566     0.214015   5.05  0.002002799    1.442    0.307
         9  -9.8231    148.3448      2.3248   3.9315896271e+01   4.7301037533e+01    0.1376273    0.0836626  42.96 0.0005454777    1.740    0.425
        10 -11.3667     83.5047    226.9827   1.0963802732e+02   1.6483678296e+01    0.4882144     0.290802 -63.90  0.002407691    1.787    0.440
        11 -11.4308    249.5873    247.7608   8.0270456007e+01  -1.1614750461e+01    0.5154417    0.2349553 -29.01  0.002938772    2.093    0.522
        12 -11.4356     27.7191    250.2962   1.2225377711e+02   1.9010171208e+01    0.5994459    0.3748441  12.04  0.003155817    3.659    0.727
        13 -12.0075     28.9620    245.7380   1.2177173094e+02   1.9731565090e+01    0.4021184    0.3017952  39.84  0.002267389    1.468    0.319
        14 -15.5015     21.2460    171.4474   1.1789353613e+02   3.6604483382e+01     7.280218     2.537788  86.01    0.0230159    4.871    0.795
        15 -11.4968     49.1258    182.5571   1.1239378460e+02   3.0952504463e+01    0.3630096    0.2735864 -34.77  0.001550973    1.861    0.463
        16 -11.3976     56.3192    175.9348   1.0986089251e+02   3.1640778255e+01    0.2789102    0.2561925 -52.34 0.0004258478    1.282    0.220
        17  -9.2437    136.7320    165.6659   8.8028162156e+01   2.0942117841e+01    0.1981935    0.1704611  81.79 0.0006216867    1.317    0.241
        18 -10.6652     68.0022    165.6425   1.0548837654e+02   3.2591148420e+01     0.249286    0.2401626 -76.84 0.0004059545    1.145    0.127
        19 -12.9279     53.9509    162.2777   1.0865945349e+02   3.5275535591e+01    0.5279511    0.3149729 -43.72   0.00163759    2.021    0.505
        20 -13.0216      6.4351    187.2355   1.2249570344e+02   3.4270884151e+01     1.191612     0.708506  52.35  0.005140434    1.548    0.354
        21 -13.1032     17.5050    210.6248   1.2176323100e+02   2.8075302732e+01     0.586037    0.4302815 -62.00 0.0007845658    1.576    0.365
        22 -11.9462     76.3798    158.3677   1.0213380075e+02   3.3182865719e+01    0.5999294    0.5312455  85.33  0.002408836    1.069    0.064
        23 -12.5621     67.7489    143.8229   1.0200242994e+02   3.8059859215e+01    0.7733917     0.500726  65.60  0.002720609    1.857    0.462
        24  -9.7906     92.0728    144.8605   9.5380227236e+01   3.4055100633e+01    0.2702912    0.2121335 -61.72 0.0008706988    1.215    0.177
        25 -11.5860     79.9053    143.0135   9.8416724366e+01   3.6472682718e+01    0.3015067    0.2559804 -56.30 0.0004156696    1.129    0.114
        26  -8.9700     95.9410    141.0604   9.3528588888e+01   3.4334784606e+01    0.2421497    0.1836343 -22.35   0.00112234    1.734    0.423
        27 -13.6882      5.4287    175.8116   1.2191388073e+02   3.6967717001e+01     2.055592    0.6114167 -74.32  0.008860623    2.638    0.621
        28 -11.9728     57.4337    131.8680   1.0284129019e+02   4.2445976971e+01    0.9515933    0.3601503 -76.01  0.002499238    5.569    0.820
        29 -10.4240    106.0402    131.7724   8.8666858210e+01   3.4791079648e+01    0.4008343    0.3239046 -26.45  0.001029694    1.439    0.305
        30 -10.1880     92.3271    128.7807   9.1885712931e+01   3.7975186674e+01    0.2647074    0.2439155 -25.96 0.0003882627    1.181    0.153
        31  -9.2987    104.0642    120.2323   8.6465104963e+01   3.7928395761e+01    0.2173779    0.2014506 -13.34 0.0003527374    1.177    0.151
        32 -14.2007     25.5742    203.1382   1.1958529698e+02   2.8881227662e+01     1.356637    0.8629391  84.80  0.004721856    1.336    0.252
        33  -9.0220    204.3083    110.8360   6.0613501683e+01   1.8129053816e+01    0.3245161    0.1606871  32.70  0.001094821    3.461    0.711
        34 -11.1238     20.1622     97.8111   1.0854247576e+02   5.4642252472e+01     0.330486    0.2462319   6.27  0.001987462    1.646    0.392
        35 -13.0206      3.9157     69.8602   1.0911027774e+02   6.2107506479e+01     1.155483    0.3161653 -65.87  0.004595011    3.012    0.668
        36 -13.2536      5.5009     85.2097   1.1148392286e+02   5.8558387960e+01     1.055957    0.6112139 -51.81  0.006103355    1.372    0.271
        37  -9.8621     52.3836     89.8383   9.5304912113e+01   5.3307253903e+01    0.2218178    0.1904409  42.71 0.0007712117    1.339    0.253
        38  -8.6242     63.4664     83.4751   8.9588801161e+01   5.3254936396e+01    0.1405684     0.128096 -40.02 9.737121e-05    1.039    0.037
        39 -10.7466     22.9162     73.1623   1.0220715837e+02   6.0112399862e+01    0.5336846      0.18164 -65.02  0.002024333    3.139    0.681
        40  -9.2918     13.3065     60.2997   1.0289215270e+02   6.3611768788e+01    0.1292501   0.07246011 -35.35 0.0003623388    1.593    0.372
        41 -11.8023     12.4471     50.5228   1.0051578849e+02   6.5690083544e+01    0.4837908    0.2539209 -30.05  0.002634755    1.811    0.448
        42 -12.4336    100.3108    249.3334   1.0860549355e+02   9.7906446844e+00    0.7227878    0.3016716  33.71  0.003342333    2.360    0.576
        43 -11.9635     37.2230    248.8718   1.2047861288e+02   1.8198436329e+01    0.4947029    0.3532917  52.12  0.003512801    1.192    0.161
        44 -13.4984     10.3666    206.6281   1.2293335228e+02   2.9628954854e+01    0.8212433     0.688363  38.65  0.003806616    1.464    0.317
        45 -12.0078     82.5975    246.3507   1.1176256859e+02   1.2859114107e+01    0.3581814    0.2771097  31.74  0.002330337    1.435    0.303
        46 -14.1727    124.8624    244.1839   1.0316867608e+02   7.0238040237e+00      1.79932    0.8203572  29.41  0.008008795    2.490    0.598
        47 -10.8273    182.2277     17.3877   3.9461412298e+01   3.7623854314e+01    0.2743365    0.2016847 -58.44  0.001570242    1.321    0.243
        48  -9.3859    189.3487     15.3080   3.8122785409e+01   3.6129115861e+01    0.1308773   0.09218658  44.14 0.0007043697    1.707    0.414
        49 -14.3327      3.3953    242.7343   1.2609243965e+02   2.2964159586e+01     2.637199     1.377154 -76.30   0.01728546    1.782    0.439
        50 -11.1953     99.0172    228.7471   1.0660326131e+02   1.3844527407e+01     0.444976   0.06626164  40.70  0.001320852    4.725    0.788
        51 -12.6309    126.6157    230.9373   1.0112498354e+02   9.1327361586e+00    0.7283195    0.4258856  61.28  0.003530393    2.125    0.530
