#   1 NUMBER                 Running object number                                     
#   2 MAG_AUTO               Kron-like elliptical aperture magnitude                    [mag]
#   3 X_IMAGE                Object position along x                                    [pixel]
#   4 Y_IMAGE                Object position along y                                    [pixel]
#   5 X_WORLD                Barycenter position along world x axis                     [deg]
#   6 Y_WORLD                Barycenter position along world y axis                     [deg]
#   7 A_WORLD                Profile RMS along major axis (world units)                 [deg]
#   8 B_WORLD                Profile RMS along minor axis (world units)                 [deg]
#   9 THETA_WORLD            Position angle (CCW/world-x)                               [deg]
#  10 FWHM_WORLD             FWHM assuming a gaussian core                              [deg]
#  11 ELONGATION             A_IMAGE/B_IMAGE                                           
#  12 ELLIPTICITY            1 - B_IMAGE/A_IMAGE                                       
         1 -14.5857     68.4268    144.2821   1.0467324871e+02   3.7367101780e+01     4.646173     2.170029  67.49  0.007539784    3.503    0.715
         2 -14.3631    215.6640     23.7430   4.0683348666e+01   2.8495456653e+01     1.388957     1.025203  20.37  0.007538682    1.827    0.453
         3 -14.4900    202.5527     36.8725   4.5606055856e+01   3.0020261914e+01     2.220386     1.547899  26.78   0.00875249    1.924    0.480
         4 -11.5093      2.5711      3.6250   1.0143304495e+02   7.7771811636e+01    0.5021551    0.2034462 -50.80   0.00254031    1.883    0.469
         5 -11.2560     55.8709      5.7462   6.5384385605e+01   7.0165593796e+01    0.3669247    0.2344736  64.81  0.001512148    2.142    0.533
         6 -12.0696    240.3459      2.2368   3.3543098852e+01   2.5270370192e+01    0.6269501    0.2541638  80.25  0.002978624    2.655    0.623
         7 -14.3046     29.6359    247.5111   1.2149730428e+02   2.1129537292e+01    0.8833035    0.6424484  13.74  0.003969185    1.924    0.480
         8 -10.3118    139.8624    249.7385   1.0107047024e+02   7.9998992141e+00    0.1841694    0.1299029  64.15  0.001239688    2.048    0.512
         9 -14.4830     85.5930    229.0066   1.0961483692e+02   1.7977310859e+01     1.693315     1.168858  50.81  0.005740999    1.202    0.168
        10 -13.5127      8.2875    188.7271   1.2367313150e+02   3.3804895887e+01    0.6563209    0.3772539 -56.82  0.003461252    2.233    0.552
        11 -15.9144      7.1494    161.1527   1.2286167639e+02   3.9790469657e+01     5.401563     1.781991 -83.90   0.01682751    2.723    0.633
        12 -15.2807      9.5142    207.8963   1.2404570370e+02   2.9926824708e+01     2.020652     1.259027 -39.50   0.00395404    2.863    0.651
        13 -14.3977     40.8705    203.4158   1.1718554146e+02   2.7801265806e+01     1.295153    0.6834246  62.28  0.004330635    1.682    0.405
        14 -14.9402     49.7278    193.9021   1.1457275958e+02   2.8725289430e+01     2.068449     1.134378  66.79   0.01040823    1.777    0.437
        15  -9.5910    113.1768    207.6160   1.0176362786e+02   1.7943490397e+01    0.1866859    0.1574226  78.95   0.00060213    1.389    0.280
        16 -11.6287    194.1853    196.5118   8.3906849624e+01   7.6587512402e+00    0.9675435      0.57067 -63.31  0.003303795    7.275    0.863
        17 -11.2950     63.4675    199.8348   1.1192036502e+02   2.5952126546e+01     0.482632    0.1961228 -60.95  0.001031085    2.708    0.631
        18 -10.6451     66.6078    195.7798   1.1086431865e+02   2.6367085463e+01    0.3082995    0.2012876 -88.49  0.001379821    1.668    0.401
        19 -10.7444    209.0197    197.8374   8.1475611431e+01   5.3371801163e+00    0.1971332    0.1542928 -14.35 0.0007100462    1.226    0.184
        20  -8.8480    159.9638    197.0244   9.0571875645e+01   1.2747827486e+01    0.1466333    0.1260551  21.30 0.0003126472    1.033    0.032
        21 -10.1353    111.3402    196.0866   1.0077686067e+02   2.0254540640e+01    0.3322302    0.2153138  87.86   0.00170747    2.363    0.577
        22  -8.6383     92.4703    184.4724   1.0367065291e+02   2.5197911697e+01    0.1296573    0.1113942  49.53 0.0002941771    1.002    0.002
        23  -8.6589     70.6795    184.7286   1.0887643475e+02   2.8089325145e+01     0.113421   0.09790029  -8.62 0.0002896552    1.567    0.362
        24 -10.5028    145.9171    181.7066   9.1118880873e+01   1.7491368164e+01    0.2680638    0.2125294 -67.09  0.001563283    1.661    0.398
        25  -9.8270     99.4527    180.7553   1.0155319085e+02   2.4932050700e+01    0.2317391    0.1901319  25.86 0.0005400183    1.259    0.206
        26 -12.1932     65.7887    177.4106   1.0932467329e+02   3.0244751320e+01    0.3843907    0.3004765 -38.65  0.001246394    1.699    0.412
        27 -12.1749     70.6433    172.1116   1.0755379215e+02   3.0760282317e+01    0.3284733    0.2912486   6.68  0.001108822    1.410    0.291
        28 -10.9277    139.9888    172.5199   9.0923029413e+01   2.0113252300e+01    0.4357022    0.3240689  77.41  0.002259325    2.000    0.500
        29 -12.4455     86.5003    155.9807   1.0139005770e+02   3.2103601943e+01    0.6323947    0.4736991 -22.48  0.001610431    1.906    0.475
        30 -13.5148     80.0834    162.2426   1.0394192281e+02   3.1639262797e+01     2.322785    0.4664126  45.66  0.001240151    4.937    0.797
        31 -13.6783     67.2429    158.4489   1.0684712225e+02   3.4237907574e+01    0.5196357    0.4483783 -53.06  0.001620711    1.328    0.247
        32  -9.9969    134.2419    248.0705   1.0193763829e+02   8.9354047075e+00    0.1878201    0.1349444 -73.69  0.001302273    2.205    0.547
        33 -10.3816    174.3247    148.5247   7.9005517141e+01   1.8373436055e+01    0.3506875    0.2561553 -55.90  0.001631499    1.745    0.427
        34 -11.5257     48.1483    145.3457   1.1059108699e+02   3.9636391024e+01    0.5294343    0.1277841  26.67  0.001667855    4.562    0.781
        35 -15.8516     60.4008    247.4036   1.1579119229e+02   1.7956800794e+01     8.888982     2.575521  24.30  0.008938506    9.979    0.900
        36 -11.5279     53.6206    149.2072   1.0948040548e+02   3.8084365914e+01     0.410593    0.2218229 -53.93  0.001975744    2.011    0.503
        37 -11.7047     54.3287    144.3080   1.0870297922e+02   3.9162007946e+01    0.3310744    0.2513188 -24.88  0.001436059    1.847    0.459
        38 -13.1979     27.8279    215.1717   1.2055711466e+02   2.6887284501e+01     0.822394    0.3256928  71.51  0.003034248    2.569    0.611
        39 -10.8507    101.1793    140.6415   9.4938004729e+01   3.3239145870e+01    0.5665282    0.3531075 -26.55  0.002342647    2.611    0.617
        40 -12.2452     88.3466    140.7318   9.8495629775e+01   3.5295266167e+01    0.2655107    0.2496826 -38.98 0.0004421652    1.201    0.167
        41 -10.4436     81.3909    141.2422   1.0053753425e+02   3.6238566203e+01    0.2824654    0.1995339  60.27 0.0002845882    1.451    0.311
        42 -10.3476     34.5239    171.5186   1.1658311123e+02   3.5075547026e+01    0.2562076    0.1544608  60.42 0.0009291816    1.444    0.308
        43  -9.6230     32.1184    137.8585   1.1446834758e+02   4.3116268359e+01    0.2014353     0.147657  62.86 0.0004569932    1.235    0.190
        44 -11.4359     25.7169    137.5044   1.1631941295e+02   4.3790273373e+01    0.4316818    0.1587155  37.33  0.001697408    2.387    0.581
        45 -10.3854     46.2015    135.2469   1.0999367563e+02   4.2294843365e+01    0.2421354    0.2092886 -89.32  0.001469032    1.061    0.058
        46 -10.1439    110.6637    130.8590   9.0464788492e+01   3.3792071897e+01    0.3443287    0.2463758  11.58 0.0009691759    1.941    0.485
        47 -10.3009    105.9405    130.7242   9.1733535471e+01   3.4665283271e+01    0.3199589     0.291044 -85.43  0.001220676    1.136    0.120
        48 -10.9467    135.9229    127.6549   8.3192240569e+01   2.9707002072e+01    0.5109181    0.1812348 -52.32  0.001652731    3.349    0.701
        49 -12.1512     45.4544    129.0827   1.0946027055e+02   4.3893890133e+01    0.4810044    0.2782518  45.97  0.002391738    1.656    0.396
        50 -10.7935     98.0491    126.8849   9.3184124910e+01   3.6923010787e+01    0.3073825    0.2558659 -11.95 0.0009907526    1.532    0.347
        51 -16.3163      8.9183    240.5067   1.2505447173e+02   2.4186363087e+01     2.911768     1.905398  13.40   0.02046124    2.213    0.548
        52  -9.6407    116.7834    124.7979   8.7517540903e+01   3.4014004623e+01    0.2437348    0.1630113  -6.69 0.0009417011    2.739    0.635
        53 -10.1345    160.1494    127.1329   7.7386723576e+01   2.4977299533e+01    0.2713609    0.2013932 -45.98  0.001363669    1.400    0.286
        54  -9.3781     90.5375    123.5162   9.4702086028e+01   3.8984622010e+01    0.2484703    0.1239125  47.86 0.0002778152    2.059    0.514
        55  -9.9287    135.1533    119.6275   8.1536532404e+01   3.1531852651e+01    0.2865494    0.1062646 -48.02 0.0009235166    2.792    0.642
        56  -9.8851    107.2992    119.3852   8.8949727909e+01   3.7002922631e+01    0.2225391    0.2091072  -8.81  0.000478517    1.183    0.155
        57  -9.7936    168.3538    113.1104   7.2263799650e+01   2.5900839570e+01    0.3217312    0.2409971 -79.55  0.001440094    2.031    0.508
        58 -10.1534    135.0000    112.5576   7.9862798673e+01   3.3040998532e+01    0.3348562   0.08565837 -45.22 0.0009355319    3.941    0.746
        59 -10.2900    158.5164    161.3561   8.4861957791e+01   1.8961266396e+01    0.3033955    0.2382845 -72.92  0.001118642    1.841    0.457
        60 -10.1761    205.4304    110.3240   6.4569357240e+01   1.8728850095e+01    0.2832821    0.2233232  29.08  0.001062026    1.337    0.252
        61 -11.0408     33.7148    108.5613   1.1062493377e+02   5.0264051831e+01    0.3427736    0.2147927 -80.67  0.001750694    1.478    0.323
        62  -9.1443    140.2576    106.8533   7.7101587451e+01   3.3112384269e+01    0.2567596    0.1714654 -86.34 0.0009532111    2.829    0.647
        63 -10.5023    119.2204    105.2757   8.2209624007e+01   3.7854665883e+01    0.2934429    0.1910099  -3.89  0.001030956    3.168    0.684
        64 -11.5528    248.4825    102.3202   5.6411436299e+01   1.1838000809e+01    0.2590765     0.219313 -18.97  0.001534663    1.031    0.030
        65 -11.0214    134.0000    145.5946   8.7437694005e+01   2.6384060432e+01    0.7603948    0.2013534 -53.17  0.002141773    4.935    0.797
        66 -10.8424     35.8968    100.9697   1.0874733961e+02   5.1988057889e+01    0.3216946     0.205047  88.40  0.001252942    1.614    0.380
        67 -12.3606    242.1914     99.3610   5.6553245605e+01   1.3340575658e+01    0.4055775     0.222082 -23.60   0.00165953    1.677    0.404
        68  -9.6623    127.5345     94.5636   7.7070890106e+01   3.8407675342e+01    0.2777875    0.1449148  57.00  0.001026329    2.311    0.567
        69 -10.5313     41.6507     91.7401   1.0501536083e+02   5.3752048368e+01    0.2516599    0.2160396  83.56 0.0005630425    1.144    0.126
        70 -10.4480     53.0529     90.6272   1.0042438838e+02   5.2692044253e+01    0.2882634    0.1929433 -55.27 0.0008846882    1.393    0.282
        71  -9.0673     17.6027     90.2641   1.1414579405e+02   5.6257192300e+01    0.1382574   0.08466954  57.42  0.000697382    1.720    0.419
        72  -8.9170    156.6742     88.3805   6.8234663161e+01   3.3062516636e+01    0.1620573     0.118442 -71.83   0.00070199    1.844    0.458
        73  -8.9551     74.9805     84.9949   9.0877006463e+01   5.0871216788e+01    0.1759393    0.1668772  45.43 0.0003766612    1.097    0.089
        74  -9.2150    115.0104     83.9954   7.7496865383e+01   4.3366176838e+01    0.2530414     0.192136 -86.94 0.0008764947    1.784    0.440
        75  -9.7615    159.0442     81.4920   6.5743270478e+01   3.3767015005e+01     0.225244    0.1507631  53.57 0.0005650586    1.535    0.348
        76  -8.5102     69.6537     81.3182   9.1844555737e+01   5.2623369962e+01    0.1533554    0.1129201  74.61 0.0007048792    1.726    0.421
        77 -10.8169    243.4848     77.9756   5.1462846888e+01   1.5937823537e+01    0.2059347     0.109205 -29.84 0.0007361347    1.585    0.369
        78  -9.3459    106.0015     76.7542   7.7962360583e+01   4.6849477811e+01    0.2500275    0.1768559  78.05  0.001044262    2.048    0.512
        79  -9.2789     51.9595     64.2729   9.4153934384e+01   5.9348526980e+01    0.1882152    0.1799039  41.88 0.0004623927    1.130    0.115
        80 -10.5625     13.4832     60.0269   1.1128860741e+02   6.4162504565e+01    0.2475976    0.2034312 -76.88 0.0004878093    1.099    0.090
        81  -9.2934    204.3490     57.2717   5.1060021673e+01   2.6926125134e+01    0.1386398    0.1054666  25.99  0.000438252    1.627    0.385
        82  -9.4867    173.5126    244.5025   9.4408655835e+01   4.3517015309e+00    0.1612161    0.1092924 -45.69 0.0007136636    2.038    0.509
        83 -12.4754    193.8320     43.0009   4.8414324082e+01   3.1328489732e+01    0.6570988    0.5596574  29.30  0.001834555    1.371    0.271
        84 -10.3995    171.8579    241.0495   9.4285921459e+01   4.9792483274e+00     0.314659    0.1543242 -49.56  0.001811674    2.995    0.666
        85 -13.7241     24.6916    225.4911   1.2161205178e+02   2.5319431251e+01     1.051062    0.2568988  43.13  0.005267034    2.422    0.587
        86 -11.2134    140.5664     46.1090   5.8303775562e+01   4.4332761093e+01    0.3892805    0.2789966 -74.47 0.0008180079    1.756    0.430
        87 -10.3270    143.7308     40.8208   5.5767446305e+01   4.4317801431e+01    0.2684551    0.2275893 -86.86 0.0003540833    1.264    0.209
        88 -10.1104      2.4026     38.1577   1.1300143377e+02   7.0039762144e+01    0.1749797    0.1057683 -84.48 0.0005349037    1.632    0.387
        89  -8.3236    115.4923     31.4290   5.8462310868e+01   5.2937435269e+01    0.1477441    0.1422992  42.01 0.0001418437    1.026    0.025
        90 -10.8138      1.9937     24.0281   1.0978561855e+02   7.3357372076e+01    0.2719894    0.1437958 -66.60  0.001441589    1.585    0.369
        91  -9.7495    189.5057     14.9960   4.0622973502e+01   3.5707515898e+01     0.205578    0.1295419 -27.12 0.0005207683    1.546    0.353
        92  -9.4974    197.6820    223.0245   8.7318287169e+01   3.7719187309e+00    0.1496769    0.1202182   4.28 0.0004346856    1.129    0.115
        93  -8.8012    111.5616    217.5296   1.0320992556e+02   1.6492543750e+01    0.1195737   0.09692919  38.46 0.0001054721    1.017    0.017
