#   1 NUMBER                 Running object number                                     
#   2 MAG_AUTO               Kron-like elliptical aperture magnitude                    [mag]
#   3 X_IMAGE                Object position along x                                    [pixel]
#   4 Y_IMAGE                Object position along y                                    [pixel]
#   5 X_WORLD                Barycenter position along world x axis                     [deg]
#   6 Y_WORLD                Barycenter position along world y axis                     [deg]
#   7 A_WORLD                Profile RMS along major axis (world units)                 [deg]
#   8 B_WORLD                Profile RMS along minor axis (world units)                 [deg]
#   9 THETA_WORLD            Position angle (CCW/world-x)                               [deg]
#  10 FWHM_WORLD             FWHM assuming a gaussian core                              [deg]
#  11 ELONGATION             A_IMAGE/B_IMAGE                                           
#  12 ELLIPTICITY            1 - B_IMAGE/A_IMAGE                                       
         1 -11.5456     27.3432     73.4636   7.8488487603e+01   6.2180766072e+01     1.492151     1.061121 -45.87  0.007302125    1.381    0.276
         2 -13.0581    162.8232     63.4057   2.9918021959e+01   3.5934900220e+01     1.879226    0.7217479 -36.29  0.007236998    2.312    0.568
         3 -12.6353    178.8752     51.7872   2.4418204327e+01   3.4013857385e+01    0.9331373    0.8009208  30.51  0.005502233    1.525    0.344
         4 -11.8582     64.8991     39.2809   4.5586973783e+01   6.3778145632e+01     1.053676    0.8123232  55.95  0.005343641    1.299    0.230
         5 -10.7311     64.7110     25.3927   3.8285601571e+01   6.6086090270e+01     1.012733    0.6942536  48.74  0.003149092    1.386    0.279
         6 -11.9499     52.7930     33.5171   4.8142402767e+01   6.7434399247e+01     1.205053    0.6749043  45.70  0.001057215    1.735    0.424
         7 -11.3080     29.0505     17.1616   5.2175005074e+01   7.4893826493e+01     0.684267    0.5745724  18.63  0.002347204    1.154    0.133
         8 -11.4715     40.5093     18.7327   4.5723640187e+01   7.2448746417e+01    0.9170739    0.5318229  15.36  0.003552053    3.120    0.680
         9 -10.7609     57.8442      8.6026   3.0581780374e+01   6.9849579976e+01    0.9157275    0.6854286  21.37  0.004936375    1.499    0.333
        10 -11.3745     46.6870      4.1127   3.1796515517e+01   7.2971202169e+01    0.9787076    0.6699146  50.33  0.004522539    1.312    0.238
        11  -9.4977     21.1783      7.7223   5.0891738587e+01   7.7805007308e+01    0.3661008    0.2619153 -12.47  0.001487722    1.560    0.359
        12  -8.6546    206.6547     17.3009   1.2929081651e+01   3.2219366528e+01    0.1351643   0.06683425 -56.40 0.0004629286    1.682    0.405
        13  -9.3370    140.1184    250.0930   7.2042619273e+01   6.4365253587e+00     0.396528    0.1374554  31.74  0.001376205    2.272    0.560
        14  -9.9446    185.7740    227.2091   6.0440135879e+01   4.6545107845e+00    0.4125759     0.143307 -46.25  0.001898565    3.623    0.724
        15 -10.4044     56.0052    216.7758   8.7567061309e+01   2.1755658908e+01    0.2032677    0.1731338 -89.89 -0.000430966    1.314    0.239
        16 -12.0049    233.0767    209.9578   5.0083078637e+01   1.9260210908e+00    0.6456512    0.4358117 -12.66  0.002025233    1.094    0.086
        17  -9.2371    101.0289    214.9971   7.6442881806e+01   1.6806841727e+01     0.189136    0.1590451  25.72   0.00120094    1.011    0.011
        18 -10.7434    197.3221    187.3673   5.2138684171e+01   8.9758470692e+00    0.3405834    0.2813017  -5.32 0.0004230239    1.066    0.062
        19 -12.3637    194.3045    197.0282   5.4290331574e+01   7.9240733511e+00      1.86388    0.9714515 -53.11  0.008719065    3.388    0.705
        20  -9.8031     13.2103    206.7284   9.7783238762e+01   2.8068871920e+01    0.5531169    0.2862986  24.86  0.002894168    1.732    0.423
        21 -13.0059    208.4701    189.8902   5.0683037358e+01   7.2381869379e+00     2.330673      1.55849 -54.10   0.01335565    2.516    0.603
        22  -9.5605    115.7505    207.7614   7.2093646568e+01   1.6292383475e+01    0.2175903    0.1617053 -46.40  0.000929521    1.491    0.329
        23 -10.5134    124.1850    205.4369   6.9835570685e+01   1.5615739237e+01    0.3513945    0.2265532 -35.63  0.001921234    1.698    0.411
        24  -9.3551     88.1815    205.4772   7.8454534239e+01   2.0297902439e+01    0.2952557    0.1753665 -87.73  0.001367843    2.610    0.617
        25  -9.7504     47.5112    200.4219   8.8466428212e+01   2.6195095063e+01    0.3008204    0.2301407  -5.44  0.001640025    1.631    0.387
        26  -8.2101    138.9903    199.0024   6.5574899097e+01   1.4802104082e+01     0.147859    0.1263141  11.87 0.0009254331    1.021    0.021
        27  -8.7600    132.9696    198.9784   6.6911823182e+01   1.5625487281e+01    0.1805679    0.1579381  11.55            0    1.008    0.008
        28  -8.2579     44.3133    194.3233   8.8843181113e+01   2.7925776358e+01    0.1295457    0.1001829 -28.53 0.0007040559    1.659    0.397
        29  -8.9325    114.9744    191.9510   7.0073436945e+01   1.9469315658e+01    0.2048289    0.1542904  56.86 0.0005215323    1.599    0.375
        30  -9.1353    222.9805    188.0176   4.8058416534e+01   5.7977489737e+00    0.1648416    0.1239432 -13.65            0    1.004    0.003
        31  -8.7179    118.2818    186.4328   6.8438827930e+01   2.0112411309e+01    0.2250985    0.2120389  80.04  0.000530595    1.267    0.211
        32 -10.2880    180.6785    173.5880   5.2702829058e+01   1.3373213141e+01    0.5979549    0.2903983 -37.80  0.002944772    1.902    0.474
        33  -8.7794      6.0921    208.4965   9.9638403707e+01   2.8258683406e+01    0.2462313    0.2010784  36.67 0.0008135648    1.141    0.123
        34 -11.2878    237.5269    165.8783   4.2083832022e+01   7.0717828320e+00     1.014545    0.5640976 -41.37  0.006177741    1.772    0.436
        35 -10.8893    247.9964    167.8589   4.1026393911e+01   5.6076741493e+00     1.260111    0.3468471 -38.13  0.005748327    2.962    0.662
        36  -9.5190     53.9018    177.3309   8.4579418340e+01   3.0888714487e+01    0.2632404    0.2053132 -61.61 0.0009709858    1.379    0.275
        37 -10.1833    100.9959    175.9976   7.1206505448e+01   2.4856706897e+01    0.2007048    0.1869314  27.95            0    1.002    0.002
        38 -10.4813    155.6227    165.2811   5.6174682325e+01   1.8592629605e+01    0.6997039    0.4836324 -54.82  0.003652687    1.711    0.416
        39 -11.8773     18.4302    167.3574   9.4404423503e+01   3.7043906109e+01    0.7065687    0.5369933 -53.47  0.003906577    1.500    0.334
        40  -9.5060    203.0313    166.9317   4.7511741665e+01   1.1316367247e+01     0.307452    0.1624047 -40.91  0.001644122    1.767    0.434
        41  -9.6056    179.2840    164.2145   5.1211883537e+01   1.5149478677e+01     0.471043     0.242132 -59.59  0.001650477    4.686    0.787
        42 -10.6802     73.1945    161.6827   7.6888626523e+01   3.2267189995e+01     0.446972    0.2329797 -64.23   0.00176759    1.997    0.499
        43 -11.7085     23.7504    157.0540   9.1999034129e+01   3.9263743898e+01    0.6171947    0.3778901  24.75  0.002180947    1.617    0.382
        44 -10.3113    163.6262    157.5479   5.2995406023e+01   1.8757491937e+01    0.6471374    0.3663531 -43.57  0.003155733    1.702    0.412
        45  -9.6239    157.7126    150.4285   5.2789995419e+01   2.1064229873e+01    0.3144834    0.1721077  40.70  0.001454394    1.911    0.477
        46 -12.2375     36.4027    155.6630   8.7742025282e+01   3.8392740149e+01    0.9264455     0.543644 -89.55  0.004197228    1.782    0.439
        47 -10.4441     76.5886    156.0352   7.5002759151e+01   3.3192394617e+01    0.3508515    0.2807449  79.04  0.001028038    1.376    0.273
        48 -10.3291    190.6664    150.3690   4.6420132511e+01   1.5749354097e+01    0.7885973    0.3177598 -50.21  0.002995537    3.411    0.707
        49 -10.8788     30.3363    144.4642   8.8647824125e+01   4.2029228918e+01    0.5694886    0.3676266  67.53  0.002689139    1.548    0.354
        50 -11.9983    146.5661    146.7709   5.4467589446e+01   2.3689524206e+01     1.504477    0.9043455 -55.73  0.006824467    1.932    0.482
        51  -9.8749    135.8427    153.2520   5.8290528903e+01   2.4210987527e+01    0.3967666    0.1979498 -39.54  0.001315066    2.080    0.519
        52  -9.0322    199.8887    151.7229   4.5118117763e+01   1.4138378734e+01    0.2851854    0.1951991 -29.59  0.001533183    1.247    0.198
        53 -11.8303    174.0754    149.8501   4.9362443285e+01   1.8463270498e+01    0.7502385    0.4410326  38.77  0.003790329    1.817    0.450
        54 -10.0152    244.7863    149.4078   3.8130116105e+01   8.3924547863e+00    0.3332999     0.191131 -33.84  0.002121871    1.347    0.258
        55 -10.0158     52.8481    148.6712   8.1477550685e+01   3.8350304233e+01    0.5609643    0.3684049  81.29  0.002542607    1.714    0.416
        56  -9.4907      2.7374    148.2527   9.8391703129e+01   4.3238742701e+01     0.356705     0.169096 -64.82  0.001567821    2.084    0.520
        57 -10.2815     67.4990    147.5202   7.6501422444e+01   3.6683178909e+01    0.5988276    0.3597154  79.81  0.002394791    2.281    0.562
        58 -11.2663     68.1642    138.0503   7.4698709689e+01   3.9072320676e+01     1.692379    0.8877534  86.26  0.005488073    3.451    0.710
        59  -9.8978    230.0774    146.1576   3.9464072283e+01   1.0722845221e+01    0.3108036    0.1458952 -31.79  0.001666401    1.719    0.418
        60  -9.1233    242.0848    143.1957   3.7315952905e+01   9.5648687772e+00     0.176701    0.1612079 -54.63  0.001182166    1.545    0.353
        61  -9.7381    169.7783    139.8259   4.8091676398e+01   2.0993501904e+01    0.5205202    0.2885403  35.30   0.00244299    1.992    0.498
        62  -7.9570     85.6074    140.3012   6.9472731614e+01   3.5764686357e+01     0.202453    0.1410307 -49.79 0.0006004393    1.469    0.319
        63  -8.8587    211.1553    148.6286   4.2702306099e+01   1.2979438241e+01    0.2900526    0.1571759 -42.36  0.001552528    1.718    0.418
        64  -9.1343      2.3729    139.7293   9.8106304071e+01   4.5560516242e+01    0.2691609    0.1454277  34.45  0.001264815    1.728    0.421
        65 -10.8057    237.4958    132.9932   3.5941370310e+01   1.1568956002e+01    0.2848021    0.2248718 -21.34  0.002024344    1.080    0.074
        66  -8.8616    211.0022    136.7946   4.0353506787e+01   1.4816373001e+01    0.1846284    0.1185645 -47.12 0.0009791164    1.616    0.381
        67  -8.3839     85.3288    136.3168   6.8781818551e+01   3.6819243834e+01    0.1575954    0.1200732 -20.04 0.0007046036    1.680    0.405
        68 -10.0758    243.7994    130.5748   3.4695975585e+01   1.1052192483e+01    0.3374724    0.1832431 -33.87  0.002037763    1.389    0.280
        69  -9.0776     31.7367    132.0130   8.6754153817e+01   4.5327439730e+01    0.2140974    0.1833897 -86.21  0.000322833    1.104    0.094
        70 -10.3970    223.8779    129.7774   3.7082920970e+01   1.3953048287e+01    0.3335316     0.289678 -89.66  0.002262645    1.737    0.424
        71  -8.8162    216.0052    123.4855   3.6868055261e+01   1.6081913923e+01    0.1574748     0.125926  45.50 0.0004427523    1.541    0.351
        72  -9.1334    186.9150    118.3896   4.0199364307e+01   2.1773081972e+01    0.2706189    0.2220636  -9.12 0.0007757784    1.312    0.238
        73  -9.9107     34.5839    117.2073   8.3634350460e+01   4.9188307130e+01    0.6071429    0.3476745 -87.55  0.002519692    1.888    0.470
        74  -9.1048     78.1887    116.2379   6.6843224727e+01   4.3205557820e+01    0.4468286    0.2550858 -50.86  0.001818593    1.739    0.425
        75  -8.5469    167.1599    116.1289   4.3205894371e+01   2.5842413303e+01    0.1914306    0.1638844 -67.00 0.0004334707    1.334    0.251
        76  -9.3420    134.1307    107.1092   4.8013795124e+01   3.4296787461e+01    0.7231197    0.2227102 -48.92  0.002160196    3.443    0.710
        77  -9.8273    129.8613    106.9166   4.9005597876e+01   3.5235706102e+01     0.375564    0.2925434 -31.36   0.00182446    1.361    0.265
        78 -11.0837    122.0265    102.2506   4.9739455544e+01   3.7902931021e+01    0.9085075    0.6798682  72.01  0.004170609    1.645    0.392
        79 -11.6453    113.9960     98.3756   5.0823922321e+01   4.0479933640e+01     2.247852     1.225813 -66.72  0.007557363    3.013    0.668
        80 -11.2364    153.4129     97.9308   4.1302117724e+01   3.2032333746e+01    0.5008872    0.4160523 -37.24 0.0008347793    1.140    0.123
        81 -12.5163    183.2426     83.6889   3.2362585849e+01   2.8263103037e+01    0.8997132    0.6177143 -18.20  0.004540602    1.747    0.428
        82 -11.7126    194.4930     90.7378   3.2497110261e+01   2.4912746287e+01    0.6947278    0.3629867 -21.82   0.00295371    2.499    0.600
        83 -12.6644    189.8947     98.9060   3.5146286469e+01   2.4479491508e+01     1.314232    0.8521904 -66.43  0.006383053    2.108    0.526
        84  -9.9864    227.8497     94.9389   2.9264193413e+01   1.8369588991e+01     0.234407    0.1925649  10.16  0.000861662    1.547    0.354
        85 -11.3416     50.7218     78.0443   6.7797817593e+01   5.7829127832e+01     1.101066    0.6824945  72.03  0.004196741    2.505    0.601
        86  -9.8333     16.1093     63.8051   8.2658242866e+01   6.5847393819e+01    0.6350578    0.4067798  65.41  0.002920782    1.899    0.473
        87 -11.5915     37.5802     64.1003   7.0042507830e+01   6.3368149095e+01    0.9025509    0.6500333 -53.78  0.004411289    1.327    0.247
        88  -9.6617     25.2435     61.1264   7.6283218174e+01   6.5675891768e+01     1.070309    0.3996125 -54.05  0.003995697    2.347    0.574
        89 -10.7558     56.4375     88.6009   6.8283578265e+01   5.4156753573e+01    0.8791969    0.5245164  30.82  0.003684509    1.762    0.432
        90 -12.3914     35.4878     86.0689   7.7332460301e+01   5.7814921085e+01     1.509435     1.076205  76.60  0.006970351    1.627    0.385
        91  -9.9647    181.0087    243.9556   6.3576154873e+01   2.9574550165e+00     0.334872    0.1422879 -29.88  0.001841538    2.479    0.597
        92 -10.7750     67.6215    104.3650   6.7855117785e+01   4.8135914260e+01    0.9132343    0.4990088  46.14  0.003604675    1.890    0.471
        93  -7.9163    127.9928     91.0141   4.5023707188e+01   3.8965618882e+01    0.1738721     0.167131 -67.93 0.0009287231    1.017    0.017
        94 -11.4483    203.3983     87.5665   3.0535811801e+01   2.3718182354e+01    0.4311497    0.4058723 -25.95  0.002237743    1.164    0.141
        95 -10.7414    211.2250     85.8661   2.9162633178e+01   2.2533132883e+01    0.3815665    0.3358162 -41.32  0.002539411    1.084    0.078
        96  -8.1455    106.1294     81.8654   4.8069091366e+01   4.5830313277e+01    0.2360277    0.2078671 -79.80 0.0005166036    1.190    0.160
        97 -11.4635    197.5721     76.2116   2.8523081961e+01   2.6541456410e+01     1.232304    0.3754897 -28.98  0.003986107    3.959    0.747
        98  -9.8345    149.4991    248.4962   7.0020964168e+01   5.6542904387e+00    0.2563754    0.1659392 -34.89  0.001727697    1.687    0.407
        99 -10.7579    146.6622    245.1274   7.0176770533e+01   6.4352789877e+00    0.5287918    0.2713421   2.70  0.002680796    2.535    0.606
       100 -10.7627    102.9804     88.1392   5.0988450826e+01   4.5160428363e+01    0.7880563    0.5084186 -87.89  0.002833874    2.777    0.640
       101 -11.8590    173.0497     65.0201   2.8860224970e+01   3.3375623249e+01    0.6716784     0.274927 -46.41  0.002696076    2.223    0.550
       102 -11.8494    170.8095     54.2500   2.6128221126e+01   3.5482718456e+01    0.5465676    0.4503393 -21.96  0.000552576    1.355    0.262
       103  -9.3261    131.5895     66.2981   3.6520901007e+01   4.2858990933e+01    0.4161784     0.286126 -33.20  0.001902926    1.499    0.333
       104  -9.3617     70.0795     67.4164   5.5561699461e+01   5.6894625700e+01    0.2588897    0.2101922 -37.37 0.0004005738    1.293    0.227
       105 -12.2233     73.0584     59.2296   5.1177059335e+01   5.8068148679e+01    0.9105284    0.7935227  73.11  0.002583764    1.235    0.190
       106 -11.8064     81.5276     51.2779   4.4680022719e+01   5.7756010050e+01     1.058441    0.9448147  34.21  0.003196659    1.195    0.163
       107 -11.2004    152.5276     64.4786   3.1916303760e+01   3.8158337667e+01    0.5270455    0.4181176  53.33  0.002790209    1.381    0.276
       108  -9.9414     61.4714     59.8326   5.6349074161e+01   6.0331557122e+01    0.3642829    0.2411398 -27.46     0.001196    1.951    0.488
       109  -9.6081    141.8972     58.0921   3.1806997781e+01   4.1739445505e+01     0.345613    0.1971151 -66.78  0.001379737    2.295    0.564
       110  -9.9221    148.8436     57.3969   3.0364315297e+01   4.0167580304e+01    0.3562886    0.2349381 -75.27  0.001634916    1.796    0.443
       111 -10.2702    197.2837     53.2578   2.2766841663e+01   2.9858192707e+01    0.6178992     0.103507 -41.82  0.001984138    3.847    0.740
       112 -11.3934     61.2526     48.3169   5.1514311244e+01   6.2836449657e+01    0.5287924    0.4434522  17.43  0.002712229    1.358    0.264
       113  -9.8788    156.5363    104.5113   4.2399738302e+01   3.0133333175e+01    0.5087845    0.3847848 -28.38  0.002589001    1.361    0.265
       114  -7.8815     21.9392     47.9936   7.4025311609e+01   6.9358550172e+01    0.4956023    0.2661068   0.40  0.001958373    2.683    0.627
       115  -7.7514     18.9657     45.7797   7.5306385588e+01   7.0220557451e+01    0.1807537    0.1629912  59.44 0.0004632609    1.251    0.201
       116 -10.4569    223.1702    239.9486   5.5995594543e+01  -6.3155538435e-01    0.3232962    0.1257664 -42.00  0.001775858    3.221    0.690
       117  -7.7643    248.6922    241.3720   5.2419925803e+01  -2.9732208365e+00   0.08094315   0.06808038 -15.65 0.0007033025    1.767    0.434
       118 -12.4963     51.9627     38.4448   5.1191720346e+01   6.6690310394e+01    0.9593456    0.7945516 -72.44  0.003215373    1.477    0.323
       119  -8.9792    219.5118    246.4955   5.7460055268e+01  -1.0310158340e+00     0.102962   0.07083565  -2.22 0.0008105567    1.006    0.006
       120 -11.2082     87.5377     72.6397   5.0868869906e+01   5.2007225536e+01    0.8341845    0.5477661  46.37  0.002202142    1.535    0.348
       121  -8.5329     94.8811     52.0011   4.0627780075e+01   5.4426367986e+01    0.2199535    0.2121695  87.28 0.0003407313    1.012    0.012
       122  -9.3186    172.0632     50.0307   2.4757534267e+01   3.5796076828e+01    0.2045646     0.173171 -53.78  0.001194824    1.018    0.018
       123 -10.2075     38.1913     39.7228   5.9614518094e+01   6.8987413705e+01    0.6290606    0.3259398  17.81  0.002199614    3.366    0.703
       124  -8.6239    189.8586     36.8565   1.9193047889e+01   3.3549966922e+01    0.1818426    0.1700138 -34.55  0.000373063    1.233    0.189
       125  -9.3967     27.6018     35.1287   6.4337905777e+01   7.1626818293e+01     0.327269    0.2152333  22.14  0.001610373    1.609    0.379
       126  -9.9906     26.3833     31.9202   6.3534585600e+01   7.2490303764e+01    0.3641732    0.2522254  10.31  0.001477412    1.667    0.400
       127 -10.0770     25.7512     26.7673   6.1070282642e+01   7.3648216110e+01    0.7276382    0.4090759 -10.11  0.002612212    3.686    0.729
       128  -9.7994    180.9795    233.1955   6.2141287170e+01   4.3668567042e+00    0.3078197    0.1550963  24.94  0.001841288    1.702    0.413
       129  -9.7649    173.7204     33.7275   1.9870059095e+01   3.7557970201e+01     0.291466    0.1738885 -59.03  0.001474182    1.558    0.358
       130  -9.3009    132.8563     30.6030   2.3940184978e+01   4.7978276074e+01    0.3295781     0.225585 -15.92  0.001592535    1.783    0.439
       131  -9.4569    221.8376     22.7544   1.3388649078e+01   2.8627296579e+01    0.3168888     0.157024 -23.33 0.0008287203    2.103    0.525
       132  -7.8390     78.4400     23.4138   3.2481810968e+01   6.2996939396e+01    0.1423816    0.1331003  74.86   8.7633e-05    1.028    0.027
       133 -11.8416    214.3841    227.0798   5.5557026729e+01   1.7012357689e+00    0.5662851    0.3884081  -8.15  0.001647441    1.101    0.092
       134 -10.8973    156.5303    229.5715   6.6271713252e+01   7.5960297139e+00    0.3748946     0.245601  28.63   0.00240071    1.361    0.265
       135  -9.5275    189.0698    222.3305   5.9148001045e+01   4.9552803971e+00    0.2072182    0.1212305  17.50  0.001295944    1.508    0.337
       136  -9.2143     75.0150     16.9925   3.0059601099e+01   6.4655860339e+01    0.2054374    0.1937601 -88.43 0.0003282505    1.069    0.065
       137  -8.4634     20.3192     35.2721   6.9871554712e+01   7.2556024762e+01     0.256494    0.1643073   8.83  0.001040866    1.788    0.441
       138 -10.4271     94.2139     67.0746   4.6642727627e+01   5.1675683950e+01     0.884705    0.3947423  49.01  0.002471904    2.243    0.554
       139  -9.3864     36.8792    224.8435   9.2772533451e+01   2.2074566630e+01    0.1732078     0.153129  25.92 0.0003488621    1.187    0.157
