#   1 NUMBER                 Running object number                                     
#   2 MAG_AUTO               Kron-like elliptical aperture magnitude                    [mag]
#   3 X_IMAGE                Object position along x                                    [pixel]
#   4 Y_IMAGE                Object position along y                                    [pixel]
#   5 X_WORLD                Barycenter position along world x axis                     [deg]
#   6 Y_WORLD                Barycenter position along world y axis                     [deg]
#   7 A_WORLD                Profile RMS along major axis (world units)                 [deg]
#   8 B_WORLD                Profile RMS along minor axis (world units)                 [deg]
#   9 THETA_WORLD            Position angle (CCW/world-x)                               [deg]
#  10 FWHM_WORLD             FWHM assuming a gaussian core                              [deg]
#  11 ELONGATION             A_IMAGE/B_IMAGE                                           
#  12 ELLIPTICITY            1 - B_IMAGE/A_IMAGE                                       
         1 -15.1790    119.8663     54.8359   9.2555412077e+01   4.7687959048e+01     1.594382    0.9556391  31.56  0.001930562    1.957    0.489
         2 -14.9546    122.6845     36.7715   8.4941489811e+01   4.9921438954e+01     1.514762    0.6366174  42.67  0.004060709    2.511    0.602
         3 -15.2640      6.3833     71.9342   1.4138618960e+02   6.0287587898e+01     1.432863    0.7617828 -64.18  0.003445423    1.501    0.334
         4 -13.5748    186.9032     13.4264   6.5760944929e+01   3.6319137218e+01     1.084385    0.6642228  17.16  0.003217313    2.182    0.542
         5 -13.9279    190.2014     27.1418   6.9560728035e+01   3.4092349551e+01     1.441215    0.4760397 -43.23  0.005068522    3.035    0.671
         6 -12.5005    194.9129     23.7126   6.7980862005e+01   3.3315572049e+01    0.6574161     0.300873 -25.81  0.001917931    2.045    0.511
         7 -14.9781     42.3705      8.2793   1.0079885221e+02   7.1101151557e+01     1.924083     1.221246 -19.48  0.009005216    1.549    0.354
         8 -13.5496     25.1476     31.5745   1.2252307550e+02   6.8721713118e+01    0.9734535    0.6924462 -73.55  0.004700593    1.716    0.417
         9 -13.4819      8.1084      3.1004   1.2134327933e+02   7.6070437346e+01    0.7343546    0.5645686  19.26  0.004844365    1.479    0.324
        10 -15.0699      8.1754     29.3460   1.3194638674e+02   7.0431366639e+01     1.038895    0.8797316  36.27  0.006877219    1.468    0.319
        11 -15.3495     14.2831     19.5583   1.2456737670e+02   7.2225488297e+01     1.478165    0.6757386 -37.97  0.007185852    1.926    0.481
        12 -13.7362     25.1629     14.0546   1.1471726485e+02   7.2370969482e+01    0.6004724    0.3932553  14.76  0.002563148    1.623    0.384
        13 -12.9818    139.1180     21.6330   7.5419083580e+01   4.7724158114e+01    0.6863214    0.6018954 -85.21 0.0007358477    1.262    0.208
        14 -14.6761    166.6798     30.2573   7.3798660942e+01   3.9620427225e+01     1.442441    0.7745028  66.88  0.003236242    1.925    0.480
        15 -14.5016    146.1134     30.7412   7.7508935082e+01   4.4828186828e+01     1.218317    0.6172653  56.55  0.005060845    1.881    0.468
        16 -13.2261    232.1652      2.5594   5.9036467443e+01   2.6798774866e+01      1.30088    0.3799813  63.08  0.004838738    3.338    0.700
        17 -12.6095    222.9377     21.5466   6.4591285178e+01   2.7030204399e+01     0.379535    0.3372542  -4.04  0.001334758    1.209    0.173
        18 -13.3947    215.2738     20.7799   6.5072714526e+01   2.8829591938e+01    0.6207316    0.4412788  11.57  0.002255074    1.746    0.427
        19 -13.9100    218.6505     15.1195   6.3252902236e+01   2.8623014887e+01    0.6965222    0.5661312  30.69  0.003571276    1.442    0.307
        20 -13.2270    215.2881      9.5728   6.2039072102e+01   2.9908728246e+01    0.5364546    0.3235577  63.95 0.0008821681    1.723    0.420
        21 -15.6403     99.8232     12.9867   8.0574447069e+01   5.8634874903e+01     1.531875    0.7886022  55.43  0.003152678    1.832    0.454
        22 -12.0238    202.3007     11.3439   6.3630202669e+01   3.2773052387e+01    0.2900475    0.2202304  11.99   0.00089985    1.564    0.361
        23 -11.8405    162.4964      8.7821   6.7089168298e+01   4.2954807315e+01    0.3128996    0.2247159 -76.66  0.001581279    1.543    0.352
        24 -11.3564    125.9419      8.7005   7.2713268168e+01   5.2501653758e+01    0.2546098    0.1976223   6.58  0.001321232    1.372    0.271
        25 -11.4191    153.3691      8.1135   6.8059273795e+01   4.5390169832e+01    0.2463275    0.1790188  56.58 0.0005293827    1.312    0.238
        26 -12.0614    121.0746      4.1105   7.1674491532e+01   5.4185795756e+01    0.4011983    0.2252128  87.00  0.001477615    2.353    0.575
        27 -11.8116     26.6715      3.7799   1.0773163124e+02   7.4080025970e+01     0.262849    0.1937743  -5.74 0.0006854265    1.267    0.210
        28 -12.0306     80.8875      1.8435   8.0342485559e+01   6.4311411192e+01    0.6072312    0.1485075  53.82  0.002038474    3.295    0.696
        29 -11.9498     60.7603      1.8143   8.7677446847e+01   6.8672942158e+01    0.4591274    0.1789901  50.03  0.001890355    2.478    0.596
        30 -12.7758    164.6798    194.9700   1.1552899398e+02   1.3107802187e+01    0.5995202    0.3943337 -61.76  0.003135472    2.672    0.626
        31 -14.7510     97.5227    237.2260   1.3410171976e+02   1.5822144989e+01     1.757503    0.7749249  55.47  0.008982856    2.795    0.642
        32 -13.6557     25.9418    238.1662   1.4757264350e+02   2.3231183360e+01    0.7348977    0.3952482  74.08  0.005200037    1.762    0.432
        33 -12.6934     16.0386    197.5596   1.4786700646e+02   3.1181083314e+01    0.5109227    0.2071269 -60.63  0.002506755    2.852    0.649
        34 -13.7962      9.9551    210.6413   1.4957829309e+02   2.9265471853e+01    0.7339966    0.5136608  30.94  0.005560076    1.441    0.306
        35 -12.4752     24.6066    217.1292   1.4697993958e+02   2.6875168003e+01    0.5138017    0.2811329  60.18  0.003470346    1.499    0.333
        36 -13.3004     26.5145    226.0088   1.4698815159e+02   2.5176922551e+01    0.4499883    0.2884761 -72.56  0.003327816    1.769    0.435
        37 -13.7614     20.3833    224.4287   1.4807782925e+02   2.5986615196e+01    0.4600762    0.3419492  67.05  0.002342365    1.136    0.120
        38 -11.8265      3.0924    249.8519   1.5186011170e+02   2.3343778013e+01    0.2548383    0.1218287  43.17  0.001913621    1.426    0.299
        39 -14.1549      9.1435    245.6898   1.5074710557e+02   2.3490817209e+01    0.6764882    0.3265575  49.01  0.003082916    1.413    0.292
        40 -14.0947     22.6193    181.1143   1.4565298787e+02   3.3852095045e+01    0.6275584     0.548553 -62.28   0.00347507    1.371    0.270
        41 -15.1217      8.3377    183.5190   1.4892160179e+02   3.4515122096e+01     1.085045    0.8409768  58.07  0.008185803    1.063    0.059
        42 -15.3813     15.5055    175.3757   1.4696272825e+02   3.5607709050e+01      2.36524    0.9829035  67.72   0.01187565    2.332    0.571
        43 -12.8247    201.4066    191.7908   1.0791057010e+02   8.0493432561e+00     0.389854    0.2723323   3.79  0.001593827    1.300    0.231
        44 -10.5054    107.5874    193.2109   1.2745135072e+02   2.1784361444e+01    0.1599223    0.1139181 -41.96  0.000946853    1.669    0.401
        45 -10.5618     81.2423    193.3960   1.3336233687e+02   2.5223387808e+01    0.1818965   0.09157377  41.80 0.0009547338    1.673    0.402
        46 -11.1182    211.3153    190.6437   1.0591904500e+02   6.7470414328e+00    0.1023038   0.09968163  54.56 0.0007044856    1.745    0.427
        47 -12.2599     98.4068    187.0967   1.2876078848e+02   2.4172850401e+01     0.371029    0.2634265   7.37  0.002079527    1.822    0.451
        48 -11.1890    109.2799    183.7864   1.2584612644e+02   2.3273979460e+01    0.2668009    0.1649401  24.54  0.001408371    1.654    0.395
        49 -12.4430     48.7515    180.9813   1.3965062154e+02   3.1404329396e+01    0.4990932    0.2744701 -60.30  0.002765495    1.947    0.486
        50 -11.1599    123.0076    182.3006   1.2251288103e+02   2.1534549016e+01    0.3129626    0.2041548  69.93  0.001510406    2.495    0.599
        51 -11.8020    198.7825    183.0316   1.0686799061e+02   9.6226946005e+00    0.2361284     0.157334  27.54  0.001395032    1.296    0.228
        52 -12.3442     85.4211    180.1626   1.3093841778e+02   2.7248237329e+01    0.3956682    0.2532561  52.37  0.002216907    1.512    0.339
        53 -12.3309    194.8683    177.6508   1.0663650353e+02   1.0982733929e+01    0.3156346    0.2652637 -21.73  0.001316978    1.278    0.217
        54 -13.1580    123.9445    166.6227   1.1985737170e+02   2.4313332733e+01    0.5945233    0.4526589 -80.39  0.003217372    1.831    0.454
        55 -10.8012    177.4711    167.4948   1.0817942349e+02   1.5326835054e+01    0.1341818    0.1137908  11.64 0.0001481194    1.004    0.004
        56 -12.8296    238.2001    159.7043   9.5568833966e+01   6.6615451376e+00    0.6046191    0.1132798  38.00  0.001906273    5.536    0.819
        57 -11.5919     27.6223    158.8133   1.4304532806e+02   3.8127203926e+01     0.269974    0.2013228  85.51  0.001756055    1.204    0.170
        58 -12.6002     25.2662    155.8528   1.4342662695e+02   3.8979584458e+01    0.4307759    0.3207685 -10.29   0.00240493    1.894    0.472
        59 -12.5397    112.0669    156.1457   1.2099529821e+02   2.8264701006e+01    0.5842539    0.3453139  65.17  0.002437563    2.761    0.638
        60 -12.4862     77.7160    157.1510   1.2994146550e+02   3.3038294747e+01    0.7065097    0.3060822  40.31  0.001574939    2.092    0.522
        61 -13.0621     74.4864    153.3492   1.3027436062e+02   3.4291037198e+01    0.6799958    0.4493163  22.28  0.002998055    1.679    0.404
        62 -12.2170    122.0767    155.8190   1.1846100433e+02   2.6722762407e+01    0.3926669    0.2802567 -18.77  0.001982415    1.801    0.445
        63 -11.7851     55.3765    156.2427   1.3566637737e+02   3.5953066259e+01    0.3737486    0.2467721   3.83  0.001747174    2.182    0.542
        64 -12.9410    208.5310    154.8161   9.9666763732e+01   1.2032403193e+01     0.658765    0.3343475  39.68  0.003224451    1.928    0.481
        65 -12.0938     85.5614    153.5912   1.2738943648e+02   3.2750214208e+01    0.5202518    0.3022079 -43.12  0.002507647    2.013    0.503
        66 -12.1388     42.0163    154.2020   1.3895755280e+02   3.7814620547e+01     0.294014    0.2108825  51.36  0.001787331    1.286    0.222
        67 -11.9768    103.4587    149.9541   1.2213675280e+02   3.0898620829e+01     0.372245    0.2820427 -22.82  0.001484039    1.639    0.390
        68 -12.3656      6.4304    148.3988   1.4776590803e+02   4.2045158716e+01    0.4467528    0.2940658  77.38  0.002852537    1.298    0.229
        69 -12.1716    244.4554    147.3913   9.2109704553e+01   7.2439128582e+00    0.2812432    0.2289104  -9.17  0.001878695    1.119    0.106
        70 -11.8423     44.5765    145.4011   1.3738377531e+02   3.9550301904e+01     0.213729    0.2081326 -65.63 0.0006377845    1.162    0.140
        71 -12.0133     38.4038    145.6628   1.3909855077e+02   4.0097852083e+01    0.2221252    0.2059584 -64.46 0.0006994124    1.180    0.152
        72 -11.0875    149.7286    141.3452   1.0900098361e+02   2.4720385716e+01    0.3899093    0.2154331  58.67  0.001479294    3.012    0.668
        73 -13.0323     44.1385    137.5284   1.3663339557e+02   4.1418344274e+01    0.7294304    0.3499269 -47.23  0.003328986    2.404    0.584
        74 -10.9750     39.0245    136.4961   1.3797916568e+02   4.2162911166e+01    0.2579164    0.1225851  26.26 0.0006733627    2.211    0.548
        75 -10.4520     14.9985    139.0162   1.4493246877e+02   4.3575982012e+01     0.140297    0.1226374  66.90  0.000387691    1.086    0.079
        76 -10.8193     56.4256    137.7337   1.3314625392e+02   4.0047040074e+01    0.1868089     0.112811 -57.01  0.000950653    1.629    0.386
        77 -12.6800    246.4497    134.3902   8.9100564087e+01   8.5615594846e+00    0.3832754    0.3165927 -42.83  0.002451872    1.618    0.382
        78 -10.7934     31.8182    136.1729   1.4000158376e+02   4.2899412480e+01    0.1687174    0.1381562 -53.25 0.0006154919    1.318    0.241
        79 -13.5438    232.8223    126.9870   8.9579326569e+01   1.1778639779e+01    0.6411153    0.4356985  40.45  0.003663229    1.581    0.368
        80 -13.4266    232.2000    133.4955   9.1103777972e+01   1.1011227599e+01    0.6791075    0.3975145  40.26  0.003640018    1.784    0.439
        81 -12.4401    223.5418    128.4384   9.1396730259e+01   1.3193442327e+01    0.4904277    0.4211678  71.39   0.00290316    1.821    0.451
        82 -11.5557     62.3281    133.9433   1.3091594867e+02   4.0237724814e+01    0.4203215    0.2404217  30.88  0.001743714    1.773    0.436
        83 -11.2757    137.1354    133.2778   1.1029072126e+02   2.8600152603e+01    0.2295693    0.2129718  12.77 0.0006013704    1.014    0.014
        84 -11.9785    132.8031    131.7037   1.1102854176e+02   2.9715062381e+01    0.9070224    0.3318457 -46.36  0.003251983    2.816    0.645
        85 -10.3212     11.2439    134.3980   1.4564786747e+02   4.4899472105e+01     0.154925   0.09909012  42.05 0.0003772528    1.525    0.344
        86 -12.2268    110.7155    131.7924   1.1682262464e+02   3.3617761566e+01    0.5610736    0.4124078  12.22  0.002760349    1.645    0.392
        87 -12.6684    109.8552     96.1411   1.0865447833e+02   4.1571728373e+01    0.4470721    0.3207324 -74.57 0.0003332599    2.022    0.505
        88 -14.2220    105.0677    123.3627   1.1662402666e+02   3.6425235583e+01     2.346598    0.9414293  32.39  0.008455808    2.730    0.634
        89 -13.3169     85.0664    115.5609   1.2085628899e+02   4.1447112042e+01     1.143847    0.6304867  18.58  0.004593706    2.538    0.606
        90 -13.8018     90.9953    109.1264   1.1763408803e+02   4.2004560631e+01      1.20443    0.7863157  16.14   0.00536506    1.989    0.497
        91 -11.4208     85.1388    110.2215   1.1969602461e+02   4.2684553615e+01    0.2123659    0.1900818 -24.79  0.001022152    1.188    0.158
        92 -11.8211     60.0504    125.7105   1.3035395608e+02   4.2459274833e+01    0.5753068    0.3088314 -37.12  0.002477356    2.495    0.599
        93 -13.6171     32.6261    111.4939   1.3696872464e+02   4.8755643499e+01     1.113815    0.3865394 -68.30  0.004541199    2.463    0.594
        94 -13.1784     28.1720    123.6275   1.3979741389e+02   4.6185690400e+01     1.149757    0.3306356 -56.67  0.004475777    3.060    0.673
        95 -12.5022      4.2119    119.8949   1.4669040150e+02   4.8722034017e+01    0.4939782    0.2383378  19.20  0.002270991    2.374    0.579
        96 -12.7960      6.3053    112.9734   1.4555791935e+02   5.0253636070e+01    0.9472452    0.3674197  72.25  0.003947482    2.970    0.663
        97 -13.8906      2.6373     96.8603   1.4545869602e+02   5.4335822866e+01    0.9038205    0.4366442 -86.15   0.00351621    1.810    0.448
        98 -15.1199     17.2384    109.7923   1.4179507565e+02   5.0354011254e+01     2.124899    0.9776205 -86.48   0.00338361    2.112    0.527
        99 -14.1627     20.9341     96.8048   1.3905574203e+02   5.3294015625e+01    0.9658104    0.5821648 -84.37  0.005102292    1.557    0.358
       100 -14.4566     29.1956     92.4152   1.3544506358e+02   5.3761769553e+01     1.177769    0.8454849  66.17  0.006567064    1.529    0.346
       101 -11.2206    184.9244    124.1430   9.7450901708e+01   2.1054754912e+01    0.2370701    0.2178792  48.76 0.0007127199    1.298    0.229
       102 -12.0989    180.8030    121.0958   9.7560186089e+01   2.2374940471e+01    0.3843144    0.2473494  33.36   0.00128046    1.561    0.359
       103  -9.9095     72.2704    121.3272   1.2589435120e+02   4.1938468840e+01    0.1391573    0.1029503 -32.79 0.0002961856    1.579    0.367
       104 -14.8668    106.1490    108.1580   1.1284230641e+02   3.9617201445e+01     1.659227     1.386092 -19.10  0.008622714    1.314    0.239
       105 -12.3164    121.0718    111.7948   1.0950027852e+02   3.6053590709e+01    0.4074145    0.3145542  70.90  0.001460779    1.742    0.426
       106 -11.9932     46.3275    109.5115   1.3215844094e+02   4.7932220852e+01    0.4416389    0.2986748 -47.31  0.001912967    1.497    0.332
       107 -11.3936    175.9845    111.6932   9.6242835014e+01   2.4950281352e+01    0.2134658    0.1899691  23.05  0.001176785    1.094    0.086
       108 -12.9777     62.3617    102.5739   1.2550689887e+02   4.7763226505e+01     1.307685    0.5191497 -64.82  0.004903786    2.611    0.617
       109 -13.1912     49.7334     98.4731   1.2907752948e+02   5.0283152261e+01    0.8187354    0.6143206   2.91  0.002968539    1.638    0.390
       110 -11.7062     42.9812     90.6581   1.3003540191e+02   5.2936127904e+01     0.550308    0.2443126 -69.31  0.001851044    2.204    0.546
       111 -11.1141    222.5187    109.6533   8.7239151264e+01   1.6017976583e+01    0.2191959    0.1260558  47.59  0.001076536    1.901    0.474
       112 -12.9817    122.7139    102.2103   1.0660192169e+02   3.7759470104e+01    0.6071301    0.4949473  32.04  0.003084634    1.231    0.188
       113 -12.9443    135.0663    103.2107   1.0356201936e+02   3.5052448616e+01    0.9458719    0.3531075  46.95  0.002621384    2.800    0.643
       114 -12.7970    137.1577     96.2993   1.0114061874e+02   3.5991929128e+01    0.5031157    0.3743424 -44.18  0.001491001    1.369    0.270
       115 -12.1100    249.1464     99.6705   8.1054965392e+01   1.2508795285e+01    0.2385477    0.1505493 -33.04  0.001333662    1.395    0.283
       116 -11.6902    127.8842     95.7925   1.0344441085e+02   3.8038622974e+01    0.2921874    0.2197418  62.91  0.001353383    1.661    0.398
       117 -12.8467     97.9770     94.4528   1.1182818705e+02   4.4157880451e+01    0.6810602    0.3498998  50.58  0.002647183    2.337    0.572
       118 -11.3167     76.0162     95.7831   1.1936085504e+02   4.7493041426e+01    0.2249024    0.1968713 -52.41 0.0002366555    1.090    0.082
       119 -13.7783    188.4177     84.3678   8.6580973173e+01   2.6775486431e+01     1.407347    0.8120652  61.10  0.001715323    2.118    0.528
       120 -14.4697    160.8570     80.6028   9.0976610967e+01   3.3629796010e+01     1.726811     1.049601  18.29  0.001462381    2.470    0.595
       121 -14.0948    170.3628     77.1980   8.7989000422e+01   3.2007489895e+01     1.051335    0.6672934  40.35  0.004753102    1.637    0.389
       122 -11.8738     89.5702     87.6038   1.1268199131e+02   4.7196408424e+01    0.4680581    0.2740709  46.51  0.002024337    1.864    0.463
       123 -12.3883    131.9326     85.9480   9.9525308135e+01   3.9150095768e+01    0.6257808    0.3722588  62.51   0.00242251    2.403    0.584
       124 -11.8244    125.4822     86.4178   1.0140583838e+02   4.0442929124e+01    0.4040522    0.3496712  70.49  0.002042484    1.396    0.283
       125 -10.4801     78.9878     87.5067   1.1625204377e+02   4.8983616434e+01    0.2108555    0.1450613  34.80 0.0004120833    1.516    0.340
       126 -12.7379    241.8301     83.8367   7.8298424114e+01   1.5839098144e+01    0.4353857    0.2844844  55.82  0.002393034    1.819    0.450
       127 -13.4246    238.6974     80.4166   7.7873895335e+01   1.6867762415e+01    0.5476189     0.365717  66.03   0.00288468    1.961    0.490
       128 -10.9248     98.1251     84.0735   1.0887525462e+02   4.6439208105e+01    0.2293416    0.1868117  82.37 0.0005520983    1.649    0.394
       129 -12.8865     63.6517     58.1474   1.1325082281e+02   5.8104734614e+01    0.6910928    0.5129128  27.75  0.003206934    1.435    0.303
       130 -12.8047     39.8678     67.5811   1.2621157772e+02   5.8926167347e+01     1.110415      0.50315  17.27  0.004586023    2.785    0.641
       131 -13.5296     64.7080     65.5098   1.1523114956e+02   5.6286000051e+01    0.8797261    0.4873674 -52.20  0.003679272    1.693    0.409
       132 -13.3210     57.7716     65.8344   1.1815434325e+02   5.7201912990e+01    0.6070957    0.5496715  47.34  0.003514094    1.250    0.200
       133 -13.3696     51.0537     68.8331   1.2180310466e+02   5.7365145526e+01    0.8991801      0.62021  86.24  0.004203431    2.129    0.530
       134 -13.4682     56.5542     78.5455   1.2216333581e+02   5.4346745392e+01    0.6296089      0.38213 -35.73  0.001447085    1.798    0.444
       135 -13.6675     60.8301     75.3510   1.1965496187e+02   5.4544975601e+01    0.5956324    0.4359037 -54.44 0.0007973881    1.267    0.211
       136 -11.8074    219.5250     74.9802   7.9079275834e+01   2.1416018384e+01    0.2500478    0.2232197  25.23  0.000553559    1.179    0.152
       137 -12.6850    216.9965     79.9294   8.0721390047e+01   2.1270221337e+01    0.5411556    0.4110245  12.11  0.002026974    1.442    0.306
       138 -12.8291    210.6669     76.8025   8.0846464304e+01   2.3037182805e+01    0.5429805    0.4254497 -60.20  0.001579531    1.571    0.364
       139 -11.9347    113.7708     80.8484   1.0306706910e+02   4.4036404572e+01    0.3966223    0.3723938  16.50   0.00112944    1.056    0.053
       140 -13.0606    134.9585     79.6091   9.6813792757e+01   3.9705024517e+01    0.8443821    0.4282623  50.56  0.002470955    2.067    0.516
       141 -11.6547     90.9474     80.2100   1.1009615887e+02   4.8615031599e+01    0.4164799    0.3164031 -15.12  0.001756968    1.567    0.362
       142 -11.4014    235.3419    248.6855   1.1083858500e+02  -2.5822989155e+00    0.0888764   0.07082555  27.97 0.0007047619    1.706    0.414
       143 -14.0315     77.6324     72.4833   1.1243868971e+02   5.2660707848e+01     1.627202    0.9068859  10.77  0.005603639    3.501    0.714
       144 -14.0584     87.7443     65.5923   1.0655189818e+02   5.2385495668e+01     1.112866    0.6393768 -23.11  0.003594503    2.489    0.598
       145 -13.9004    111.8036     41.1273   8.9583742716e+01   5.1870725382e+01    0.8195599    0.5644441  15.05  0.001622593    1.803    0.445
       146 -13.3485     55.1080    246.9954   1.4270927868e+02   1.9053628243e+01    0.8377779      0.40184  20.71  0.004733785    2.675    0.626
       147 -13.6545    170.8515    242.3633   1.2091256485e+02   5.8874987812e+00    0.7451602    0.4014471  26.90  0.004719994    1.437    0.304
       148 -13.8375      4.7835     64.0629   1.4098060852e+02   6.2291285373e+01    0.5333777    0.4844538 -24.81  0.003569247    1.250    0.200
       149 -12.0534     41.8680     77.0946   1.2764299286e+02   5.6398915758e+01    0.3116052    0.2659675 -58.78 0.0006165722    1.048    0.046
       150 -12.3564    193.8084     75.3936   8.3153729169e+01   2.6933885941e+01    0.4240614    0.1955386  49.16  0.001727792    2.222    0.550
       151 -13.5586    199.0978     70.1736   8.0838803703e+01   2.6503283372e+01    0.9507635    0.4750879  41.95  0.002727447    2.219    0.549
       152 -13.2494    133.8815     67.3247   9.3164179618e+01   4.2218459859e+01      1.05227    0.6503793  20.25  0.004082703    2.343    0.573
       153 -14.6639    101.8689     50.6329   9.6330817398e+01   5.2488876847e+01     1.540328    0.7927877  40.97  0.004791249    1.992    0.498
       154 -11.6695    100.7006     64.6113   1.0182197240e+02   5.0047790302e+01     0.430781    0.2963818  -6.97  0.001577264    2.001    0.500
       155 -11.2383    158.1749     63.8834   8.6417793826e+01   3.7036595987e+01    0.2382639    0.2089955 -53.96  0.001233217    1.252    0.201
       156 -13.1856     78.7189     61.0276   1.0827783895e+02   5.4997817150e+01    0.5600421    0.5088082 -11.13  0.002075952    1.075    0.069
       157 -13.7754    177.9667     57.6468   8.0695004796e+01   3.3209551238e+01    0.7346256    0.6023259 -55.75  0.002148209    1.348    0.258
       158 -11.8019     38.9047     60.5746   1.2479471705e+02   6.0710773120e+01    0.3184403    0.2403433  64.46  0.001701306    1.718    0.418
       159 -12.3148     24.5818     60.2288   1.3126918958e+02   6.2079240410e+01    0.3081652    0.2122588 -62.04 0.0006437932    1.242    0.195
       160 -13.1818    249.4047     50.4383   6.9416256929e+01   1.8404665708e+01     0.647603    0.3347958 -15.97  0.001307613    2.012    0.503
       161 -11.7439    230.8808     55.3254   7.2571693690e+01   2.1553319725e+01    0.3228551     0.242576  78.78   0.00183655    1.639    0.390
       162 -11.0682     71.5584     45.4408   1.0524717097e+02   5.9494503745e+01    0.4492347     0.201783  29.94  0.001655651    2.803    0.643
       163 -13.2642     65.3580     51.0435   1.0999963802e+02   5.9383822123e+01    0.7930571      0.41187 -45.22   0.00345331    1.784    0.439
       164 -12.1296     69.7439     50.0024   1.0778325904e+02   5.8878456705e+01    0.4431835    0.2512275 -57.62  0.001847659    2.210    0.547
       165 -10.0089     36.3324     53.3183   1.2391305599e+02   6.2692268006e+01     0.146121   0.09025165 -31.61 0.0007048139    1.692    0.409
       166 -11.5779      5.9055     50.7812   1.3827242933e+02   6.5479751698e+01    0.3321813    0.1938676 -46.52  0.001400444    1.481    0.325
       167 -11.4133     86.4086     49.5620   1.0117574082e+02   5.5901968408e+01    0.2544077    0.2362944 -11.79 0.0005488236    1.008    0.008
       168 -11.8368    201.5818     46.0397   7.3666236887e+01   2.9153164339e+01    0.3313304    0.1947268 -51.39  0.001377387    1.880    0.468
       169 -11.7291    169.1854     43.3703   7.7711667446e+01   3.7338208087e+01    0.6352278     0.267545  65.34  0.002316935    2.655    0.623
       170 -12.7708    154.2245     46.5656   8.1518780177e+01   4.0638496002e+01    0.6279047    0.2564556  52.75  0.001617892    2.346    0.574
       171 -13.2819    158.7341     43.5644   7.9635135161e+01   3.9929474346e+01    0.8161135    0.4142531  60.80  0.002998819    2.020    0.505
       172 -12.3699    144.9966    231.5340   1.2440257658e+02   1.0627486014e+01    0.3134698    0.1681243 -44.66  0.001893482    2.332    0.571
       173 -12.6361    147.1509    238.7019   1.2482318252e+02   9.3894985029e+00     0.276273    0.2462428  84.88  0.001171873    1.703    0.413
       174 -13.6196     27.8341    246.6235   1.4755071403e+02   2.1734286444e+01    0.5141898    0.3574472  46.32   0.00425848    1.075    0.070
       175 -13.3301      8.7894     42.9978   1.3516647341e+02   6.7214584902e+01    0.8982472    0.5960758  40.97  0.005155046    1.853    0.460
       176 -14.1414     30.0643    169.7044   1.4321886902e+02   3.5565100554e+01    0.9695602    0.7652733  51.83  0.006125674    1.125    0.111
       177 -12.4889     46.5954     33.6483   1.1166961583e+02   6.5822613959e+01    0.6980156    0.3225566 -28.22  0.002600705    3.017    0.669
       178 -13.1081     56.0640     27.7229   1.0427274830e+02   6.5546915314e+01    0.5608959    0.3851327  39.64  0.001702993    1.575    0.365
       179 -12.1734    235.5040    229.0078   1.0799781537e+02  -7.5022144035e-01    0.1774208    0.1341591  55.39  0.001047571    3.578    0.721
       180 -12.8371     34.2457     32.9622   1.1792113604e+02   6.7503652336e+01     0.459643    0.2954574  39.64   0.00175664    1.872    0.466
       181 -13.4558     57.3981    203.7518   1.3950818593e+02   2.6062829944e+01    0.7468424    0.3723402 -78.92  0.004176652    2.284    0.562
       182 -12.8960     53.0546    214.3110   1.4115852250e+02   2.4619085735e+01    0.5368158     0.213279  51.23  0.002849199    2.168    0.539
       183 -13.7927     67.4125    223.3111   1.3888880899e+02   2.1520203885e+01     0.700597    0.4963213  20.04  0.004799087    1.578    0.366
       184 -14.7224     62.8573    215.0070   1.3920354713e+02   2.3444399683e+01     1.232205    0.5593508  46.54  0.006994396    1.781    0.438
       185 -13.5680    205.3815     40.3320   7.1560300072e+01   2.8962733088e+01    0.9734702    0.5150263 -85.88  0.003763524    3.190    0.687
       186 -10.8463     25.5389     43.0102   1.2620599435e+02   6.6100321881e+01     0.202594    0.1128317 -58.04 0.0003995832    1.536    0.349
       187 -12.6818    242.1308     36.1019   6.6605121441e+01   2.1428607568e+01    0.6212664    0.3232981  75.46   0.00298258    2.363    0.577
       188 -11.6564    104.7309     36.8912   8.9912284430e+01   5.4191888082e+01    0.3651941    0.2021181 -29.09  0.001540186    1.816    0.449
       189 -12.8441     75.7885     37.5517   1.0022037661e+02   6.0229604886e+01    0.3790044    0.2694344  38.83 0.0008194569    1.439    0.305
       190 -12.1304     70.5219     36.6361   1.0195379201e+02   6.1383265426e+01    0.3327207    0.2700226  21.05 0.0008533221    1.243    0.195
       191 -11.1087     51.7356     36.4541   1.1032742002e+02   6.4519010159e+01    0.3273118    0.1372095  30.67  0.001300919    2.659    0.624
       192 -10.7066    163.3441    225.3190   1.2014488239e+02   9.0085697603e+00    0.1194917   0.07597131   8.35 0.0007049372    1.723    0.420
       193 -13.5505     94.5131    218.7662   1.3303246021e+02   1.9088948811e+01    0.3858905    0.2801507  41.08  0.001943344    1.108    0.097
       194 -12.8052    152.4426     31.3645   7.6563020307e+01   4.3126807383e+01     0.459804    0.3452757   8.62  0.001317551    1.522    0.343
       195 -13.6414     98.7047    216.7042   1.3197306834e+02   1.8903884758e+01    0.4937434    0.4088354 -47.88  0.003555247    1.491    0.329
       196 -11.4487    211.4312     33.3335   6.8902867712e+01   2.8373301811e+01    0.2218777    0.2016213 -62.68 0.0003501849    1.119    0.106
       197 -11.2904    249.2039    225.3889   1.0528636692e+02  -2.0169173911e+00    0.1423187    0.0822114  33.31 0.0009602801    1.714    0.416
       198 -11.7008     85.3124    215.9697   1.3466185627e+02   2.0683489098e+01    0.2727968    0.1426327  34.97   0.00158166    1.557    0.358
       199 -13.1479    216.0466     28.9685   6.7223003582e+01   2.7800587672e+01    0.4884351    0.2792027 -50.17  0.001444246    1.760    0.432
       200 -11.9785    185.4236    213.7116   1.1437634070e+02   7.4863639568e+00    0.1917223    0.1124231 -41.42  0.001132396    2.125    0.529
       201 -10.9595    157.5120    213.5072   1.1968442717e+02   1.1435705918e+01    0.1206164   0.09582346  24.81 1.175786e-05    1.022    0.022
       202 -11.3856    136.8217    211.1035   1.2350418988e+02   1.4702625984e+01     0.178085    0.1467869  42.44 0.0008306774    1.205    0.170
       203 -12.0712    121.5078     27.5204   8.1502057015e+01   5.1497033594e+01    0.3606156    0.2454034  64.55   0.00102938    1.563    0.360
       204 -12.0448     96.7133     27.4545   8.8250747343e+01   5.7475436467e+01    0.3446366    0.3006034  -6.89  0.001421339    1.105    0.095
       205 -10.9557     39.4307    210.8920   1.4372331236e+02   2.6605638621e+01    0.3101971   0.09126186  38.94  0.001547991    2.383    0.580
       206 -11.4184     80.4966    208.5082   1.3499125771e+02   2.2555543536e+01    0.2690359    0.1318847  58.40  0.001338241    2.335    0.572
       207 -10.8086    149.7051    206.8345   1.2031640394e+02   1.3525580891e+01    0.2177145    0.1392396  24.94  0.001280913    1.372    0.271
       208 -11.3212     71.7601    206.3890   1.3665894244e+02   2.3967757056e+01    0.2058289    0.1957547 -37.65  0.001563579    1.326    0.246
       209 -12.3056     45.2570    197.4680   1.4166563801e+02   2.8515422381e+01    0.3822066    0.2200775 -79.93  0.002340617    1.814    0.449
       210 -11.4264     70.7930     16.9980   9.2279604213e+01   6.4619679145e+01    0.2256421    0.1907855  32.67 0.0004180148    1.161    0.139
       211 -12.0213     41.6089    200.8315   1.4266851336e+02   2.8243771340e+01    0.2343555    0.1611701 -85.47  0.001557736    1.478    0.324
       212 -13.3414     39.3802    195.3703   1.4279970049e+02   2.9501106721e+01    0.4676426     0.344999  66.99  0.002142975    1.184    0.155
       213 -14.2055    217.6741     42.0398   7.0587627553e+01   2.5971236462e+01     1.031484     0.560608  62.39  0.004484601    1.979    0.495
       214 -10.8824    212.4940    200.4645   1.0737723696e+02   5.3582833070e+00    0.1998823   0.09766422 -20.28  0.001029139    2.267    0.559
