#   1 NUMBER                 Running object number                                     
#   2 MAG_AUTO               Kron-like elliptical aperture magnitude                    [mag]
#   3 X_IMAGE                Object position along x                                    [pixel]
#   4 Y_IMAGE                Object position along y                                    [pixel]
#   5 X_WORLD                Barycenter position along world x axis                     [deg]
#   6 Y_WORLD                Barycenter position along world y axis                     [deg]
#   7 A_WORLD                Profile RMS along major axis (world units)                 [deg]
#   8 B_WORLD                Profile RMS along minor axis (world units)                 [deg]
#   9 THETA_WORLD            Position angle (CCW/world-x)                               [deg]
#  10 FWHM_WORLD             FWHM assuming a gaussian core                              [deg]
#  11 ELONGATION             A_IMAGE/B_IMAGE                                           
#  12 ELLIPTICITY            1 - B_IMAGE/A_IMAGE                                       
         1 -14.6194    181.5183     79.1990   5.7757167514e+01   2.9347237173e+01     4.155063     1.062046 -42.06   0.00535467    3.767    0.735
         2 -14.7304    144.8039     40.3700   5.3371395456e+01   4.4161203864e+01     6.272518     1.648357  51.87    0.0203841    3.250    0.692
         3 -16.0483    241.0103     49.6438   4.1718075422e+01   2.0411668660e+01     6.572989          nan -36.55  0.008463488   11.009    0.909
         4 -17.2920    243.1445     16.0503   3.4202356540e+01   2.4106807814e+01     11.24568     4.067605 -22.10   0.03635576    4.744    0.789
         5 -14.1458    216.3971     55.0401   4.5873590704e+01   2.5005049611e+01     1.026133    0.9384373  17.76  0.003524524    1.329    0.248
         6 -15.6947    229.0936     49.3428   4.2956441758e+01   2.2987011371e+01     5.589969     1.791616 -53.67   0.01752263    4.534    0.779
         7 -16.0868    236.7653     70.0933   4.6873084340e+01   1.8390198051e+01     5.699261     2.470143 -17.28   0.01194081   11.233    0.911
         8  -9.2053    154.3257      4.2569   4.0307008089e+01   4.5707774641e+01    0.1328907   0.08447296  45.65 0.0003299293    1.552    0.356
         9 -10.2292    133.7336      1.5645   4.2511493799e+01   5.0879661413e+01    0.2140743    0.1481036  74.15 0.0006223862    1.379    0.275
        10 -13.3775    196.3278     67.5195   5.1992187147e+01   2.7767720855e+01     1.167184    0.4771254  42.11  0.004024501    3.323    0.699
        11 -12.7492    135.8579    245.0604   1.0257616598e+02   5.6958013028e+00    0.7227822    0.4136573 -27.81   0.00348552    2.900    0.655
        12 -12.7094    142.3976    236.1115   1.0008161477e+02   6.2110131499e+00    0.6387331    0.3648446 -28.66  0.003060123    2.649    0.622
        13 -11.2932    164.3336    204.4608   9.0549150360e+01   8.3046787093e+00    0.5200838    0.2771566 -38.26  0.002382937    2.050    0.512
        14 -14.2485      4.3681    196.4011   1.2486411406e+02   3.1777816952e+01    0.8561292    0.4294046 -79.95  0.005030925    1.646    0.392
        15 -11.0446    191.5208    192.3054   8.2552114007e+01   5.8392549409e+00    0.5899707    0.3106426 -61.70  0.001836046    5.337    0.813
        16 -12.3123    230.5584    167.4110   6.9883912193e+01   3.4310482051e+00    0.4078559    0.2378542 -44.95  0.001727767    1.850    0.460
        17 -11.8164     69.3260    145.6637   1.0367114277e+02   3.6949793892e+01    0.3789567    0.3103553  83.02   0.00126247    1.295    0.228
        18 -11.8032     66.4748    144.4830   1.0426841030e+02   3.7616790399e+01     0.485096    0.2988142 -74.78  0.001463881    1.711    0.416
        19 -12.3942    190.9200    131.5964   6.9478884398e+01   1.7482285515e+01    0.4131504    0.2910434  58.56  0.001284989    1.728    0.421
        20 -12.3073    160.7094    128.4528   7.5383275220e+01   2.4528765936e+01    0.4407511    0.3659501 -52.53  0.001755553    1.268    0.211
        21  -9.8488    136.0000    129.9666   8.1892683924e+01   2.9353046349e+01    0.2647497   0.08766534 -46.43 0.0008048429    2.959    0.662
        22 -11.9019    228.1372    173.0495   7.1499019467e+01   2.8979420147e+00    0.3223069    0.1694168 -26.66  0.001466314    1.899    0.473
        23 -12.5208    167.5862    113.6315   7.0000200959e+01   2.6100418485e+01    0.4522391    0.4012491 -43.62 0.0007393664    1.118    0.106
        24 -11.6185    134.5872    108.1977   7.6626867878e+01   3.4460499605e+01     1.111786    0.1492208 -44.33  0.002193091    7.310    0.863
        25 -10.8602    156.2053    112.0897   7.2238221976e+01   2.8937195012e+01    0.2920422    0.2122713 -58.60 0.0006366012    1.607    0.378
        26 -14.0116    175.7605     65.3485   5.4953368035e+01   3.3000620315e+01    0.8352489    0.6466851 -70.05  0.002293367    1.506    0.336
        27 -10.9799    211.1168    103.9064   5.8835554063e+01   1.8339478980e+01    0.2199453    0.1864623 -59.18 0.0002788579    1.261    0.207
        28 -10.2148    142.9644    103.4919   7.3157822541e+01   3.3645035552e+01    0.2345495     0.155048  43.46 0.0005305716    1.541    0.351
        29 -12.8656    196.1393     96.2170   5.9568996583e+01   2.2995195530e+01    0.5424705    0.4515059 -46.90  0.001245184    1.169    0.144
        30 -11.3605    149.2455     99.0966   7.0363884214e+01   3.3147558012e+01    0.3616033    0.3074824   2.54 0.0008629966    1.312    0.238
        31 -11.7143    161.6651     97.5383   6.7000352975e+01   3.0633064960e+01    0.3260663    0.2581289  -5.54 0.0008464955    1.507    0.337
        32 -10.5659    135.3091     95.8205   7.2958791241e+01   3.6911085467e+01    0.2707561    0.2360192  87.09 0.0006998976    1.418    0.295
        33 -12.1666    158.2548     92.7531   6.6436536384e+01   3.2341665523e+01    0.5180245    0.2992192  43.07  0.001709592    1.786    0.440
        34 -12.0109    161.6667     90.6899   6.5079056547e+01   3.1944502875e+01    0.3365019    0.2782179  50.97 0.0008516659    1.239    0.193
        35 -11.6024    143.1272     88.4960   6.8821593715e+01   3.6630669378e+01    0.3260983    0.3040269 -56.50 0.0005820249    1.144    0.126
        36 -12.9417    158.5743     81.5031   6.3128345754e+01   3.4365387195e+01    0.4329371    0.3099677 -34.79  0.001000286    1.388    0.280
        37 -12.1680    216.9897     82.9586   5.2696639820e+01   2.0615518885e+01    0.5564499    0.2400193 -41.50  0.002252422    2.095    0.523
        38 -12.4304    218.3150     72.9405   5.0027761202e+01   2.1915461570e+01    0.6703424    0.3157508 -35.04  0.002871106    1.973    0.493
        39 -11.3518    224.9019     79.2695   5.0628208864e+01   1.9491630703e+01    0.3445994    0.2679599  28.72  0.001701421    1.632    0.387
        40 -11.4167    150.6430     70.6119   6.1658567499e+01   3.8158558766e+01    0.4081044    0.2824223  52.09  0.001115404    1.437    0.304
        41 -10.1089    155.9584     69.2266   6.0061762111e+01   3.7128506809e+01    0.2231074    0.1997652 -76.62 0.0005523213    1.250    0.200
        42 -10.5426    130.3358     65.9296   6.5076509055e+01   4.3695594414e+01    0.2699665    0.2569014  75.13 0.0009818204    1.173    0.148
        43  -9.9350    147.9504     58.7223   5.8575922679e+01   4.0751634397e+01    0.1984353    0.1894956  55.20 0.0002932509    1.047    0.045
        44 -11.5868    193.2361     56.9377   4.9655191004e+01   3.0097292895e+01    0.3802228    0.2139742 -49.24  0.001090697    1.828    0.453
        45  -9.3612    203.7035     45.7513   4.5204179389e+01   2.9202780050e+01    0.1267858    0.1023359  36.14 0.0003252148    1.487    0.327
        46 -11.2179    169.0789    196.3785   8.8080124234e+01   8.9953482721e+00    0.5479634    0.2451569 -50.95  0.002189903    2.666    0.625
        47 -14.4517     21.2432    184.1272   1.2047251830e+02   3.3028015832e+01     1.544984    0.8961815  88.16  0.008820943    1.544    0.353
        48 -11.4541    202.0250     35.5492   4.2800972072e+01   3.0918909787e+01    0.2280565    0.1830743 -42.42  0.000225973    1.221    0.181
        49 -11.5820    118.8286     28.7464   5.5084982996e+01   5.1765549422e+01    0.3176373    0.1785443 -30.35  0.001241299    1.869    0.465
        50 -10.0508    142.0065     13.0866   4.4968336947e+01   4.7910512452e+01    0.1870517    0.1765089  62.70  0.000427197    1.057    0.054
        51 -10.4419     42.6639     10.3232   7.2301298840e+01   6.8597875207e+01    0.1022363    0.0989871 -40.35 0.0007050835    1.713    0.416
        52 -14.3588     36.1431    174.4807   1.1618381854e+02   3.3819096370e+01    0.8023995    0.7466148  76.44  0.001369937    1.150    0.131
        53 -14.4138     47.1582    167.3608   1.1270625937e+02   3.4340160432e+01     1.048546    0.8626298 -60.38  0.002701428    1.212    0.175
