#   1 NUMBER                 Running object number                                     
#   2 MAG_AUTO               Kron-like elliptical aperture magnitude                    [mag]
#   3 X_IMAGE                Object position along x                                    [pixel]
#   4 Y_IMAGE                Object position along y                                    [pixel]
#   5 X_WORLD                Barycenter position along world x axis                     [deg]
#   6 Y_WORLD                Barycenter position along world y axis                     [deg]
#   7 A_WORLD                Profile RMS along major axis (world units)                 [deg]
#   8 B_WORLD                Profile RMS along minor axis (world units)                 [deg]
#   9 THETA_WORLD            Position angle (CCW/world-x)                               [deg]
#  10 FWHM_WORLD             FWHM assuming a gaussian core                              [deg]
#  11 ELONGATION             A_IMAGE/B_IMAGE                                           
#  12 ELLIPTICITY            1 - B_IMAGE/A_IMAGE                                       
         1 -14.8212     17.0376    167.8325   1.4260392908e+02   3.8358734837e+01     6.394662     1.689947 -89.83   0.02388426    5.507    0.818
         2 -13.2239    191.2912     27.8657   7.1556039988e+01   3.3724949583e+01     1.377437      1.24719  30.88  0.006002803    1.087    0.080
         3 -13.5585    205.1992      9.2438   6.3748583240e+01   3.1956041485e+01     1.840599     1.119678  37.29  0.008373129    1.773    0.436
         4 -13.2018      4.5486     12.1743   1.2433464296e+02   7.1910150709e+01     1.779947    0.5377706 -56.16  0.008577449    2.197    0.545
         5  -9.8672     46.6043    248.6340   1.4187913768e+02   2.2600302454e+01    0.2334458   0.09414692  69.30  0.001127981    2.423    0.587
         6 -11.5066    139.8402    249.3714   1.2794090879e+02   1.1275592539e+01    0.3505419    0.2166244  50.14  0.002677031    1.251    0.200
         7 -10.9369    126.3448    249.9961   1.3006157759e+02   1.3000720188e+01    0.3558672   0.09914552  38.88  0.001739758    3.025    0.669
         8  -9.7021     98.4265    249.2225   1.3424638616e+02   1.6652566253e+01    0.1445363   0.08949595 -61.02  0.001144261    2.128    0.530
         9  -9.1280     67.0859    250.5106   1.3899817245e+02   2.0159264019e+01      0.13689   0.06431296  45.83   0.00100298    1.515    0.340
        10 -11.2020     34.4427    245.4601   1.4348750004e+02   2.4252934325e+01    0.3292136    0.2894418 -63.36  0.003277702    1.863    0.463
        11 -10.0713     28.8823    249.3529   1.4442611785e+02   2.4261208753e+01    0.2068553    0.1321425  72.98  0.001130627    1.222    0.182
        12 -11.1528     25.5427    247.4765   1.4482571457e+02   2.4832270623e+01    0.3120749   0.08148548  50.77  0.002018342    2.287    0.563
        13 -12.1687     12.2018    240.1573   1.4645519816e+02   2.7063470153e+01    0.7539938    0.3322849  88.61  0.005857391    2.039    0.510
        14 -11.0702      2.5584    248.6501   1.4801905924e+02   2.6726786098e+01    0.4282872    0.1790288  49.20  0.003535144    1.568    0.362
        15 -11.7229      4.1331    241.0790   1.4760783190e+02   2.7634507414e+01    0.4346495    0.2219221  69.27  0.002026755    1.372    0.271
        16  -9.6220    161.4158    248.7798   1.2457425625e+02   8.3862727873e+00    0.1140844   0.09389561 -12.25 0.0009580272    1.692    0.409
        17  -9.3316    152.3391    248.2965   1.2591937628e+02   9.6923464812e+00   0.09804079   0.06455249  26.10 0.0002502057    1.657    0.397
        18  -9.9511     81.5041    242.4308   1.3635052988e+02   1.9575627524e+01    0.2374976    0.1187861  65.19  0.001632494    1.936    0.484
        19 -10.1428    196.5033    241.4760   1.1837109494e+02   4.1596737734e+00    0.1436409   0.09944239 -50.96  0.001040382    2.395    0.582
        20 -14.0299      7.9657    207.2985   1.4598259309e+02   3.2352681885e+01     7.604903          nan  39.95   0.00540067    5.623    0.822
        21 -12.9769      2.4884    182.6585   1.4594640885e+02   3.6899009054e+01     1.539503    0.4485633 -75.04  0.005095579    2.874    0.652
        22 -11.9563      2.2651    152.1869   1.4460591747e+02   4.2462683481e+01    0.7891642    0.2081273 -84.19  0.003685407    3.337    0.700
        23 -11.0658    243.8636    248.8719   1.1227439578e+02  -3.0472040647e+00    0.2665057    0.1166554  41.32   0.00172691    1.756    0.430
        24  -9.1866    183.4458    238.5079   1.2003636591e+02   6.3321787833e+00    0.1061313   0.07647773  35.74 8.559322e-05    1.019    0.018
        25  -8.7164    152.4727    212.9861   1.2202885021e+02   1.3896901384e+01    0.1277197    0.1121824 -53.67 0.0003753996    1.460    0.315
        26 -12.5023     40.5206    233.9403   1.4209005906e+02   2.5264171121e+01    0.2321624    0.1862958 -86.36 0.0007779883    1.440    0.306
        27 -11.7838     22.4719    201.0860   1.4337806773e+02   3.2077088635e+01    0.3259159    0.1295776  53.96  0.002145801    1.874    0.466
        28 -10.7461     15.0242    198.2535   1.4448208537e+02   3.3212872882e+01    0.2763857    0.1218487  56.94   0.00138204    1.692    0.409
        29 -11.2085     65.5305    199.3118   1.3588206015e+02   2.7880145742e+01    0.2295542    0.1965326 -53.90 0.0006595055    1.642    0.391
        30  -9.7256    191.9645    193.0030   1.1242442516e+02   1.0124371607e+01    0.3587203    0.2102909 -61.00     0.001612    4.193    0.762
        31  -8.6977     51.3273    197.0999   1.3821985054e+02   2.9848458913e+01    0.1370584     0.100421  75.20   0.00036999    1.109    0.098
        32  -9.7613     43.6776    192.4837   1.3925621503e+02   3.1441238175e+01    0.2253143    0.1985537  24.28 0.0006924106    1.676    0.403
        33 -11.5250     71.2008    191.2373   1.3419660013e+02   2.8554056865e+01    0.2054497    0.1855599 -81.19 0.0005079334    1.317    0.240
        34 -13.0772     67.8356    176.3377   1.3347573908e+02   3.1566910111e+01    0.3944272    0.2431521 -46.57  0.001745473    2.327    0.570
        35  -8.2885    103.7191    179.7583   1.2686265955e+02   2.6209769096e+01   0.09894413    0.0870083  20.89 0.0006803523    1.451    0.311
        36 -10.6647     80.6245    178.4091   1.3119740061e+02   2.9598851303e+01    0.1964157     0.170044  69.94 0.0003000955    1.082    0.076
        37  -8.5339    171.4513    173.0903   1.1286946142e+02   1.6302901647e+01     0.158876    0.1239246 -33.96 0.0003458792    1.470    0.320
        38 -11.6053     87.9291    168.8648   1.2869165507e+02   3.0346550913e+01      0.53711    0.4456093  49.41  0.003799994    1.167    0.143
        39 -10.5263    190.4321    153.9117   1.0581991043e+02   1.5609146851e+01     0.420814    0.3096045 -85.37  0.001710012    2.766    0.638
        40 -10.4238     32.5559    155.3019   1.3869228525e+02   3.9335349144e+01    0.2554186   0.08546221 -71.63   0.00129395    2.571    0.611
        41  -9.8451     99.7559    152.5400   1.2407166196e+02   3.1707287496e+01    0.2541187    0.2311646  57.43 0.0008036106    1.090    0.082
        42  -8.8751    102.4979    148.5081   1.2287395657e+02   3.2064524964e+01    0.1946831    0.1109547 -46.71 1.001918e-05    2.007    0.502
        43 -11.8683     88.4424    152.0778   1.2645442865e+02   3.3429549889e+01    0.2296445    0.2193509 -43.94 0.0006878371    1.304    0.233
        44 -12.3044     67.2671    144.0522   1.3007582722e+02   3.7803806299e+01    0.6688031    0.4198787  76.20  0.003877276    1.703    0.413
        45  -9.4773    184.2677    147.5921   1.0572480320e+02   1.7715441357e+01    0.2553082    0.2128554 -89.52 0.0009513619    1.784    0.439
        46  -9.0499    180.1750    143.0138   1.0557993103e+02   1.9208228409e+01    0.1901057    0.1815076  85.08 0.0005394203    1.291    0.225
        47  -9.5940    110.5581    137.7144   1.1931364211e+02   3.2885719457e+01    0.2910177    0.2134759 -20.10   0.00129244    2.094    0.523
        48  -9.8957     86.6454    136.5987   1.2461670842e+02   3.6748207847e+01    0.2352479    0.1774835  71.94  0.000542102    1.344    0.256
        49 -14.4774     46.5117    226.3746   1.4079367931e+02   2.5751524767e+01     2.790965     1.181146  36.76  0.007185023    2.267    0.559
        50 -10.4408     98.0384    134.8563   1.2169522637e+02   3.5423502431e+01    0.2411256    0.2065633 -33.40 0.0004192312    1.432    0.302
        51 -11.2848     57.3527    131.6510   1.3078876097e+02   4.1527097284e+01    0.5064856    0.2635719 -82.43  0.002604979    2.076    0.518
        52 -11.4864      7.4242    226.6852   1.4672027957e+02   2.9421975579e+01    0.3711146    0.2472461 -70.01  0.003324022    1.877    0.467
        53  -9.9752    163.4005    127.7554   1.0570681340e+02   2.5026154406e+01    0.5284351    0.3464753  88.95  0.001976064    3.671    0.728
        54  -9.4153    107.5020    124.0910   1.1752952885e+02   3.6092142996e+01    0.1789885    0.1674606  60.53 0.0003459966    1.055    0.052
        55 -10.4612    173.8187    222.3805   1.1961882204e+02   9.5065559088e+00     0.325261    0.2246882  58.87  0.002213055    1.698    0.411
        56 -10.2452    168.0306    113.1733   1.0134736543e+02   2.6567145583e+01    0.3176109    0.2784111  85.90 0.0008270511    1.443    0.307
        57  -9.2282    203.2541    111.5705   9.4021708100e+01   1.9219869262e+01     0.201931    0.1243088  36.58 0.0005524675    1.590    0.371
        58  -9.5620     35.0929     93.0997   1.3117468024e+02   5.2168647999e+01    0.2432076    0.1559159  45.63 0.0008658222    1.728    0.421
        59 -11.2379     14.4060     65.5621   1.3320382042e+02   5.9891263953e+01    0.3183888    0.2199941  45.49  0.001127768    1.740    0.425
        60 -11.7880      6.3595     62.8380   1.3551187045e+02   6.0966187797e+01    0.4621501    0.2796866  42.67  0.001417324    2.004    0.501
        61  -9.3708     31.0094     61.5994   1.2667321769e+02   5.9544690279e+01    0.2277605    0.1611537  53.04  0.001061525    1.737    0.424
        62 -10.5689     10.4525     54.6044   1.3266388707e+02   6.2555437964e+01    0.3667468    0.1082105  35.61  0.001661787    3.888    0.743
        63 -10.5321      1.8094     51.6167   1.3533076246e+02   6.3664194757e+01    0.2792229    0.1105855 -73.55  0.001409238    1.976    0.494
        64 -10.8540      2.3962     47.2088   1.3433619203e+02   6.4601207763e+01    0.2273258    0.1503961 -74.87  0.001344625    1.217    0.178
        65 -10.5183    102.3728    247.7192   1.3353783615e+02   1.6352386914e+01     0.194281    0.1388126  59.84 0.0006946331    1.150    0.131
        66 -10.2302     81.7848    248.5402   1.3670384595e+02   1.8739001114e+01    0.2189277    0.1151045  59.13  0.001357144    1.525    0.344
