#   1 NUMBER                 Running object number                                     
#   2 MAG_AUTO               Kron-like elliptical aperture magnitude                    [mag]
#   3 X_IMAGE                Object position along x                                    [pixel]
#   4 Y_IMAGE                Object position along y                                    [pixel]
#   5 X_WORLD                Barycenter position along world x axis                     [deg]
#   6 Y_WORLD                Barycenter position along world y axis                     [deg]
#   7 A_WORLD                Profile RMS along major axis (world units)                 [deg]
#   8 B_WORLD                Profile RMS along minor axis (world units)                 [deg]
#   9 THETA_WORLD            Position angle (CCW/world-x)                               [deg]
#  10 FWHM_WORLD             FWHM assuming a gaussian core                              [deg]
#  11 ELONGATION             A_IMAGE/B_IMAGE                                           
#  12 ELLIPTICITY            1 - B_IMAGE/A_IMAGE                                       
         1  -8.3949    239.4837      1.4709   4.5364152580e+01   2.4263687027e+01    0.1344513    0.1220454 -48.00 9.352653e-05    1.022    0.021
         2  -9.8739    176.1183    245.8691   1.0970871132e+02   4.2243285029e+00    0.2505359    0.1998242 -21.77  0.001968157    1.680    0.405
         3 -10.8690    215.5182    233.6879   1.0206635105e+02  -3.4827017813e-01     1.105139     0.570713 -46.18  0.006436245    3.173    0.685
         4 -10.1541    221.2467    150.1837   8.6722469133e+01   8.6582517385e+00     2.465131     1.217622  -3.94  0.007428009    5.492    0.818
         5 -11.4054    205.7630    212.3992   1.0055340225e+02   3.4263949059e+00     1.638295    0.7608875 -27.05  0.008555492    2.836    0.647
         6 -11.8271    214.8764    176.1148   9.2952009465e+01   6.3384695915e+00     4.057158      1.70841 -15.03  0.009747445   10.134    0.901
         7 -11.8426    217.2886    210.0697   9.8330118930e+01   1.8447161102e+00     1.424584    0.3678379 -36.52  0.005895779    4.500    0.778
         8 -11.6716    230.1277    235.4877   1.0009167517e+02  -2.6588627395e+00     1.370461     1.045891 -72.88  0.008188574    3.779    0.735
         9 -14.7479    246.5269     60.9436   6.0858710347e+01   1.5778793165e+01     7.484406     2.016303 -26.32   0.02369573    3.344    0.701
        10 -12.3432    245.4427    137.0795   7.9919696579e+01   5.7928700642e+00     2.109171    0.9332457  20.34  0.006257794    5.493    0.818
        11 -12.3415    248.2208    229.0605   9.6461167150e+01  -4.6769947622e+00    0.7004925    0.3907318 -33.35  0.004649281    2.283    0.562
        12 -12.7379    247.7966    215.8302   9.4488549318e+01  -3.4284968547e+00    0.7945021    0.4052961 -31.59  0.004873271    2.270    0.559
        13 -12.6221    245.1763    190.9708   9.0717557130e+01  -5.5170881158e-01    0.9071168     0.526355 -36.11  0.005315128    2.069    0.517
        14 -11.9348    241.3569    178.7632   8.9094296255e+01   1.4193479137e+00     0.717262    0.2903492 -30.62  0.003056913    2.524    0.604
        15 -10.2549    224.5895    249.5325   1.0280893834e+02  -3.1218208285e+00    0.1967136    0.1761467  19.36   0.00132687    1.372    0.271
        16 -10.9128    225.1457    242.3111   1.0177550504e+02  -2.5620687682e+00    0.3601916    0.2348054 -26.62  0.002685258    1.877    0.467
        17 -10.8853    209.7532    248.1618   1.0484374094e+02  -8.9846229770e-01    0.3713209    0.2865047 -21.58  0.003038442    1.622    0.383
        18 -10.5371    191.4392    247.4335   1.0753189248e+02   1.8186369463e+00    0.3114684    0.2916166 -34.76  0.002402429    1.486    0.327
        19  -8.8458    156.4062    247.3189   1.1293090867e+02   6.9383050744e+00    0.1473618    0.1026722 -41.85 0.0008859028    1.982    0.495
        20  -8.5548    139.5154    248.4726   1.1567383809e+02   9.2259449775e+00    0.1047465   0.07683619  47.79 0.0002082554    1.023    0.022
        21  -8.9233    163.4605    246.4758   1.1174308733e+02   6.0095288143e+00    0.1650214    0.1061056 -48.75 0.0009249027    2.118    0.528
        22  -9.9719    201.7450    241.5131   1.0522159352e+02   9.0945600304e-01    0.2250769    0.1912349 -30.57   0.00140566    1.559    0.358
        23  -9.4394    169.2109    241.5314   1.1029216978e+02   5.7303926388e+00    0.2134293    0.1661675 -16.10  0.001295828    1.795    0.443
        24  -8.1538    154.6874    241.6944   1.1260313606e+02   7.8582591379e+00    0.1008056   0.07178962  25.01 0.0007023187    1.618    0.382
        25  -9.9271    183.4025    238.8729   1.0774491115e+02   3.9131900525e+00    0.2433592    0.2018113 -27.13  0.001917148    1.555    0.357
        26  -9.6806    159.1986    237.8071   1.1145837711e+02   7.6615217793e+00    0.2695594    0.1779798 -53.93  0.001908633    2.041    0.510
        27  -9.0052    148.4791    239.5767   1.1336296355e+02   9.0319829502e+00    0.1743234    0.1074621 -53.02  0.001203358    2.145    0.534
        28  -8.4594    134.5107    240.5050   1.1568404300e+02   1.0947669576e+01    0.1072069   0.07958315  50.93 6.087801e-05    1.014    0.014
        29 -10.5844    193.3691    218.2028   1.0342623144e+02   4.7319650325e+00     0.360523    0.2537239 -33.30  0.001788276    1.737    0.424
        30  -9.7284    190.4085    225.5294   1.0491802288e+02   4.3456418663e+00    0.2918656    0.1717714 -34.76  0.001410069    2.141    0.533
        31 -10.1246    176.7076    235.0293   1.0833620766e+02   5.3557585493e+00    0.3184012    0.1718201 -34.55  0.001694065    2.549    0.608
        32 -10.8449    205.0221    234.7723   1.0383802929e+02   1.1081967594e+00    0.3329648    0.3178959  69.23  0.001858787    1.519    0.342
        33 -10.0567    198.9964    226.5940   1.0368391677e+02   2.8944938479e+00      0.32386    0.2194783 -49.02  0.002175995    2.144    0.534
        34  -8.8413    138.9814    236.2640   1.1453878648e+02   1.0850907288e+01    0.1551681    0.1148139  49.85  0.001080145    1.025    0.024
        35  -8.3554    129.3033    236.3595   1.1610936946e+02   1.2246118771e+01   0.09691946   0.07788777  19.52 0.0007038395    1.722    0.419
        36  -9.3386    170.5154    234.1454   1.0922027333e+02   6.3984055265e+00    0.1996619    0.1433932 -27.98  0.001182035    1.905    0.475
        37  -8.5292    165.4910    232.9865   1.0989120730e+02   7.3009019053e+00    0.1300243    0.1101496 -41.13 0.0007810341    1.541    0.351
        38  -8.5929    152.5878    233.2862   1.1201531777e+02   9.2145860753e+00    0.1211477    0.1044646 -25.71 0.0009416766    1.587    0.370
        39  -9.0770    144.9544    232.0457   1.1312036428e+02   1.0519719820e+01    0.1717577    0.1317197  50.01 0.0008224933    1.031    0.030
        40  -8.6621    122.6175    232.1704   1.1678309406e+02   1.3783970554e+01    0.1257616    0.1002159 -47.72  0.000952911    1.735    0.424
        41  -8.9647    158.0507    230.3376   1.1078789289e+02   8.7626709336e+00    0.1606585    0.1469892  -9.00 0.0009306998    1.414    0.293
        42  -9.2444    173.9778    228.5155   1.0797012962e+02   6.5432834373e+00    0.1822043    0.1470524   2.37 0.0009569645    1.546    0.353
        43  -8.5210    169.3388    228.7625   1.0875622203e+02   7.2289727981e+00    0.1643939    0.1040801 -27.04 0.0007318465    2.333    0.571
        44  -8.8659    170.2833    224.5956   1.0808045091e+02   7.5988980197e+00    0.1644267    0.1272644  -4.65  0.000606235    1.756    0.431
        45  -8.5771    152.3850    228.7927   1.1153715444e+02   9.8243430868e+00    0.1256517    0.1044791 -28.79 0.0006809405    1.643    0.391
        46  -9.1850    184.4114    227.4445   1.0614096661e+02   5.0555574860e+00    0.1748962      0.13285 -38.63  0.001015328    1.683    0.406
        47  -9.4593    162.8973    226.8156   1.0957285144e+02   8.4662920278e+00    0.1968896    0.1804156  13.03 0.0009570492    1.294    0.227
        48  -8.5367    138.5766    228.1560   1.1374400237e+02   1.1995279619e+01     0.128264    0.1043585 -34.60  0.000946367    1.740    0.425
        49  -8.6514    143.4878    227.0130   1.1280422394e+02   1.1411476070e+01     0.135588    0.1103878 -55.66  0.001020625    1.559    0.359
        50  -8.9932    155.2537    224.4122   1.1054737025e+02   9.9591631142e+00      0.16897    0.1350881 -31.72    0.0010474    1.678    0.404
        51  -8.4992    120.4597    225.4948   1.1647651623e+02   1.5047555661e+01    0.1099753   0.08500133  54.76  0.000160594    1.009    0.009
        52  -9.5198    180.3449    222.2041   1.0611316569e+02   6.3154693302e+00    0.2368278    0.1779676 -32.62  0.001229784    1.669    0.401
        53  -9.7973    148.2166    222.2348   1.1146494705e+02   1.1338819641e+01    0.2417303    0.2003594 -40.48  0.001689686    1.574    0.365
        54  -8.7694    135.3339    223.5657   1.1378143559e+02   1.3119736595e+01    0.1564627    0.1039686 -54.97  0.001057075    1.877    0.467
        55  -8.8543    128.7886    224.4338   1.1497346198e+02   1.3975890572e+01    0.1561531   0.08847729  37.38 0.0009472364    1.673    0.402
        56  -9.0927    174.5274    222.1810   1.0706928349e+02   7.2347958203e+00    0.1918854    0.1773373  31.93  0.001121702    1.182    0.154
        57  -9.8403    185.8925    220.5698   1.0498125516e+02   5.6368667485e+00    0.2613509    0.1641295 -32.81  0.001527099    2.005    0.501
        58  -8.8958    140.5923    221.1737   1.1262616146e+02   1.2657939227e+01    0.1839674    0.1388367 -31.99  0.001260291    1.930    0.482
        59  -8.7634    165.5035    221.0017   1.0841658713e+02   8.8059377984e+00     0.140072    0.1140341 -45.35 0.0007609117    1.555    0.357
        60  -9.3101    158.9122    218.5501   1.0921279207e+02   1.0168607528e+01    0.1903871    0.1579546 -11.43  0.001360535    1.624    0.384
        61  -8.3033    154.2583    219.3324   1.1009664510e+02   1.0794802952e+01    0.1026456   0.08160602  16.32 0.0004340878    1.568    0.362
        62  -8.7462    128.9604    219.0325   1.1436024330e+02   1.4732854670e+01    0.1613012    0.1312043  16.73  0.001125326    1.721    0.419
        63  -9.9796    170.6753    215.9498   1.0688905891e+02   8.6412510138e+00     0.290357    0.1995631 -34.23  0.001363879    1.857    0.462
        64  -8.7736    119.5969    218.1991   1.1586990816e+02   1.6254175065e+01    0.1336518    0.1042704 -48.84 0.0009527165    1.700    0.412
        65  -9.4958    179.2542    216.5221   1.0552680248e+02   7.1921486767e+00     0.200067    0.1692893  13.05 0.0008152492    1.283    0.221
        66  -9.1502    165.2184    215.5410   1.0775759058e+02   9.5692203651e+00    0.2060249    0.1549743 -38.76  0.001151388    1.668    0.401
        67  -9.3764    143.3236    215.3154   1.1147036686e+02   1.3068123394e+01    0.2294858    0.1765261  16.92  0.001522043    1.754    0.430
        68  -9.2817    186.0448    210.5854   1.0355209017e+02   6.8411324419e+00    0.2276221    0.1617747   6.17  0.001298923    1.798    0.444
        69  -9.0978     83.9781    215.6764   1.2172105601e+02   2.1660082762e+01    0.1580568   0.08811107  23.24 0.0007050131    4.386    0.772
        70  -9.1394     31.6551    215.6672   1.3041871183e+02   2.7873735111e+01    0.0831797   0.07456129 -65.08 0.0007050047    1.762    0.432
        71  -9.3197    154.3624    213.4399   1.0933867803e+02   1.1591156064e+01    0.2166244    0.1817435  12.73  0.000957988    1.474    0.322
        72  -9.0689    124.3990    215.7968   1.1478643500e+02   1.5900942397e+01     0.129558    0.1065055 -48.21 0.0009369096    1.595    0.373
        73  -9.0599    132.0679    214.1791   1.1327865461e+02   1.4978385006e+01    0.1708544    0.1380237  34.92  0.001136201    1.319    0.242
        74 -10.7309    190.8084    234.4638   1.0602660929e+02   3.2824366038e+00    0.3933315    0.2987218 -54.54  0.002575751    1.958    0.489
        75  -9.3075     64.2177    213.5821   1.2490937697e+02   2.4529005345e+01    0.1392857   0.09090216  37.92 0.0009558962    1.713    0.416
        76 -10.0051    176.9545    210.0054   1.0500719542e+02   8.4019722617e+00    0.2967311    0.2247907 -28.31  0.001365631    1.632    0.387
        77  -9.8227    192.7491    208.9689   1.0219006242e+02   5.9463912690e+00     0.282122    0.2127811 -34.91  0.001376463    1.594    0.373
        78 -10.3562    197.9124    203.1185   1.0043351933e+02   5.8196908222e+00    0.3839328    0.2460738 -16.72  0.001525384    2.013    0.503
        79 -10.2273    202.0991    196.5455   9.8680563558e+01   5.9400501622e+00    0.3347344    0.2518865  -5.24  0.001402888    1.493    0.330
        80  -9.4093    205.0443    190.2541   9.7135324877e+01   6.2362179448e+00    0.2772635    0.1653166 -26.08 0.0008887069    1.936    0.483
        81  -9.7872    161.1089    209.7991   1.0769781736e+02   1.1014034503e+01    0.2781374    0.2235592   1.53  0.001566232    1.652    0.395
        82  -9.1726    185.5039    214.9196   1.0426167242e+02   6.3874641975e+00     0.202527    0.1392746 -32.37  0.000863654    1.788    0.441
        83  -8.4820    140.4708    210.4660   1.1137356616e+02   1.4223422161e+01    0.1158259   0.09420846  49.59 0.0002356289    1.023    0.023
        84  -8.9715    131.3121    209.1713   1.1282351337e+02   1.5851611765e+01    0.1935135   0.09995718 -45.86  0.001065156    2.528    0.604
        85  -8.4958    107.3174    210.3265   1.1717447595e+02   1.9281448491e+01   0.09919825    0.0877467  13.96 0.0007045383    1.676    0.403
        86  -9.9104    149.5720    206.3214   1.0924893309e+02   1.3382343484e+01    0.2555397    0.1730651  39.80   0.00140466    1.293    0.227
        87  -9.5351    171.3631    206.8497   1.0551884378e+02   9.7420793959e+00    0.2276294     0.157427 -30.74  0.001138928    1.841    0.457
        88  -9.3067    172.8172    203.1767   1.0473934857e+02   1.0003753332e+01    0.2040639    0.1746183  22.24 0.0007513247    1.196    0.164
        89  -8.4798    167.3870    207.8316   1.0634350450e+02   1.0261757920e+01    0.1440929    0.1101532 -24.70 0.0009424391    1.693    0.409
        90  -9.0723    183.0055    206.6389   1.0349118292e+02   7.8464012695e+00    0.2046628    0.1552962  -4.44  0.001251784    1.655    0.396
        91  -9.8342    186.7264    202.6663   1.0226226935e+02   7.7453701341e+00    0.2542558    0.2251225 -31.64  0.001115456    1.346    0.257
        92  -9.0675    156.1181    206.1253   1.0807214629e+02   1.2346990339e+01    0.1793172    0.1721685 -51.24  0.001149848    1.266    0.210
        93  -8.7559    120.2159    206.8193   1.1451264069e+02   1.7924524290e+01    0.1489194      0.13049  32.34  0.001075691    1.371    0.271
        94  -8.6634    114.4779    207.4912   1.1560734213e+02   1.8681970306e+01    0.1138479   0.09329998  56.64  0.000185388    1.055    0.052
        95  -9.7892    139.5310    204.4982   1.1079165062e+02   1.5271521302e+01    0.2285248    0.1943881  26.56   0.00130665    1.358    0.263
        96  -8.7383     86.8267    205.1648   1.2028302167e+02   2.3025218692e+01    0.1409259    0.1269899  48.72 0.0007618442    1.369    0.269
        97  -9.4485    178.9311    203.3724   1.0370836561e+02   8.9559788572e+00    0.2060065    0.1710193 -13.51  0.001039833    1.435    0.303
        98  -8.9958    192.8795    201.6906   1.0106278969e+02   6.8405595217e+00     0.182464    0.1521019  -1.35 0.0008857475    1.309    0.236
        99  -9.8005    164.8955    201.3656   1.0586525253e+02   1.1581027799e+01    0.2726913    0.1945475   9.91  0.001142548    1.998    0.499
       100  -9.6988    131.7125    201.3545   1.1179600635e+02   1.7006879188e+01    0.2703241    0.1859553  13.71  0.001449666    2.631    0.620
       101  -9.0240     57.0285    202.4759   1.2531793452e+02   2.7307316196e+01    0.1254308   0.09608844  13.04 0.0008100217    2.553    0.608
       102  -8.7371    161.8367    198.2152   1.0595355758e+02   1.2550265287e+01    0.1843174    0.1386022  14.40 0.0008070419    1.700    0.412
       103  -8.6914    144.4772    201.0377   1.0945564094e+02   1.5003124792e+01    0.1531815    0.1182248 -49.06  0.000606827    1.555    0.357
       104  -9.5491     70.2725    200.8672   1.2284555333e+02   2.5955226410e+01    0.1989479    0.1205015  35.65   0.00113319    1.899    0.473
       105  -9.1929    156.5249    196.9918   1.0672917063e+02   1.3624494250e+01    0.1524677    0.1160328 -30.53 0.0007273185    1.685    0.407
       106  -8.2221     81.3264    199.3430   1.2072080181e+02   2.4775393139e+01    0.0965832   0.08988366 -21.96 0.0006662265    1.739    0.425
       107  -8.8390     42.4896    199.5000   1.2764796106e+02   2.9508675405e+01    0.1070019   0.07828481  72.23 0.0004192275    1.017    0.017
       108  -9.2292    191.2342    197.0610   1.0061825077e+02   7.7198432450e+00    0.2249626    0.1611685  -8.37 0.0007250852    1.754    0.430
       109  -9.5343    194.0454    193.8306   9.9614925270e+01   7.6652260284e+00    0.2326477    0.1892698  -5.57 0.0009267109    1.355    0.262
       110  -9.8673    184.3560    195.5229   1.0156769592e+02   9.1013425604e+00    0.3568615    0.2359369 -15.89  0.002015089    2.088    0.521
       111  -9.3206    185.2975    189.8757   1.0049756530e+02   9.7180027321e+00    0.2799757    0.1846966   4.13  0.001255256    2.256    0.557
       112  -9.3997    176.3048    196.7440   1.0316895791e+02   1.0309166483e+01    0.2446184    0.1940914 -16.10 0.0009823963    1.543    0.352
       113  -9.0513    149.3042    197.4965   1.0810339814e+02   1.4752812323e+01    0.2126506    0.1567259  32.04 0.0008491913    1.397    0.284
       114  -9.1746     50.0057    198.4852   1.2625864443e+02   2.8841293004e+01    0.1255919   0.09670599   9.69 0.0008104123    2.645    0.622
       115  -9.2100    170.0996    196.8342   1.0427945265e+02   1.1353099457e+01    0.2032981    0.1715245   2.29  0.001177102    1.403    0.287
       116  -9.0206    140.9235    196.0471   1.0942817000e+02   1.6362147054e+01    0.1803367    0.1435073  13.37  0.001128292    1.718    0.418
       117  -8.6610    125.1984    196.6389   1.1238992894e+02   1.8800705670e+01    0.1690813   0.09883092  37.32 0.0009418282    1.710    0.415
       118  -9.3804     90.6523    196.1780   1.1870563199e+02   2.4049973157e+01    0.2309474    0.1367587  22.15   0.00109767    3.492    0.714
       119  -8.8611    133.0743    193.9848   1.1059394084e+02   1.7975304641e+01     0.176904     0.144685  13.80 0.0008826199    1.682    0.405
       120  -9.2266    113.7873    194.4007   1.1422379382e+02   2.0954194618e+01    0.1679201    0.1019533  36.33 0.0008090902    1.740    0.425
       121  -9.2695    161.8516    191.4544   1.0494997941e+02   1.3555682976e+01    0.2216787    0.1822347   6.39 0.0009927801    1.508    0.337
       122  -8.9010    146.2349    191.8088   1.0786262637e+02   1.6153754479e+01    0.1604644    0.1385981  20.99  0.001064041    1.349    0.259
       123  -9.8544    198.8085    189.6461   9.8101254613e+01   7.3948881488e+00    0.3922448    0.2094442 -27.96  0.002036263    2.270    0.559
       124  -9.7137    193.2301    187.3611   9.8686048734e+01   8.6761777020e+00    0.3543018    0.2190443   7.23  0.001350408    2.525    0.604
       125  -9.2627    172.3526    190.0169   1.0282829680e+02   1.1954574192e+01    0.2319336    0.1793305 -10.70 0.0009401054    1.662    0.398
       126  -9.5479    178.9346    189.0705   1.0149700967e+02   1.0943852844e+01    0.2482169     0.179463 -26.88  0.001011424    1.657    0.396
       127  -9.7977     66.0521    190.2731   1.2268720108e+02   2.8399772065e+01    0.2617822    0.1366897  39.97  0.001541244    1.893    0.472
       128  -9.2313    157.0100    187.1485   1.0518247373e+02   1.5053905788e+01    0.2493512     0.173406  11.46  0.001320402    2.221    0.550
       129  -8.0529    150.6170    186.1268   1.0621559664e+02   1.6318685194e+01    0.1541784    0.1168655 -33.03  0.000774431    1.661    0.398
       130  -8.6224    128.9845    185.9953   1.1027791526e+02   1.9978869110e+01     0.183921    0.1495526  12.03   0.00112766    1.753    0.429
       131  -9.0140    166.6395    185.0349   1.0307632284e+02   1.3701043901e+01    0.2187844    0.1608942  21.73 0.0008990698    1.566    0.361
       132 -10.1407    203.4346    182.5837   9.6086025204e+01   7.5208237101e+00     0.314326    0.2426164 -14.92  0.001693002    1.401    0.286
       133  -8.4842    173.4551    184.4636   1.0173708492e+02   1.2584100815e+01    0.1257028    0.1080637  34.11 0.0002072619    1.056    0.053
       134  -8.8381    140.0450    183.9877   1.0788879744e+02   1.8474841512e+01    0.1866728    0.1502695  11.32 0.0009434646    1.705    0.413
       135  -8.9127     37.0012    184.4886   1.2760263479e+02   3.2867524956e+01    0.1222183   0.09776249  -2.76 0.0008104546    2.584    0.613
       136  -9.6078    183.7921    181.9564   9.9446086560e+01   1.1112284635e+01    0.2812699    0.2104682  -4.08  0.001202864    1.668    0.400
       137  -9.0067    189.5536    184.3979   9.8832265729e+01   9.7358622601e+00    0.1914298    0.1172047 -22.95 0.0008196473    2.088    0.521
       138  -9.1847    197.2527    181.6945   9.7007201131e+01   8.7408324585e+00    0.2221338    0.1597318 -17.92 0.0007709996    1.592    0.372
       139  -9.3254    176.7682    180.2736   1.0043508421e+02   1.2621840838e+01    0.2332179     0.173587 -22.56  0.001236861    1.619    0.383
       140  -8.9514     56.9912    180.2358   1.2349980347e+02   3.1408793594e+01    0.1442714    0.0829339  44.50 0.0006035965    1.635    0.388
       141  -9.6893    190.8976    178.1012   9.7501247642e+01   1.0389010042e+01    0.2761249    0.1960145 -19.48  0.001215374    1.655    0.396
       142  -8.3071    145.5303    178.9852   1.0608614362e+02   1.8374052727e+01    0.1557309    0.1100682 -18.45 0.0006696077    2.294    0.564
       143  -9.6888    205.0892    176.0208   9.4619871418e+01   8.1097985141e+00    0.2644397    0.1910971 -10.73 0.0008018446    1.551    0.355
       144  -8.7233    169.4660    177.0156   1.0123233172e+02   1.4439678623e+01    0.1667622    0.1103053 -12.34 0.0008049165    2.431    0.589
       145  -9.6507    197.8075    175.6596   9.5833291342e+01   9.4809544080e+00    0.2373734    0.1797784   5.22  0.001108423    1.468    0.319
       146  -8.7169    150.9574    176.0000   1.0457127037e+02   1.7923252663e+01    0.1964822    0.1539447  11.40  0.001127752    1.702    0.412
       147  -9.2456    182.5415    174.8075   9.8431226373e+01   1.2396396514e+01    0.2404076    0.1820229  16.85 0.0008693198    1.469    0.319
       148  -8.5591    140.0354    175.4669   1.0660160974e+02   1.9930125089e+01    0.1722419    0.1067348  23.84 0.0006586551    2.423    0.587
       149  -8.7118    161.9708    174.0424   1.0214084203e+02   1.6272507265e+01    0.2051874     0.153097  12.54  0.001128156    1.772    0.436
       150  -9.1344    192.8479    172.3548   9.6116585101e+01   1.0863446290e+01    0.2404684    0.1614515 -11.72 0.0009907155    1.927    0.481
       151  -8.7424    187.5070    171.5255   9.6933164186e+01   1.1973468564e+01    0.1985857       0.1225 -23.25 0.0008292841    2.035    0.509
       152  -8.8470    200.9434    170.9958   9.4418503772e+01   9.5646259629e+00    0.2004888    0.1414302   9.40 0.0006774783    1.652    0.395
       153  -9.1812    212.0496    168.4764   9.1996148273e+01   7.8682628257e+00    0.2255414    0.1650516  -6.70 0.0007120178    1.470    0.320
       154  -9.7335    205.4284    168.0442   9.3068400305e+01   9.1509153814e+00    0.2884603    0.2249374  -5.69  0.001030542    1.354    0.261
       155  -8.5990    197.0773    168.9871   9.4731040447e+01   1.0568947875e+01     0.200786    0.1423334  10.58 0.0005693053    1.661    0.398
       156  -8.2158    158.3333    169.3426   1.0203549827e+02   1.7712872643e+01    0.1313912    0.1003652   9.77 0.0007050764    1.757    0.431
       157  -9.0856    178.9541    167.5603   9.7787878737e+01   1.4175793255e+01    0.2390932    0.1793249 -15.84  0.001335961    1.618    0.382
       158  -8.2012    170.2940    167.3183   9.9379542288e+01   1.5835343003e+01    0.1291309   0.09932964  10.86 0.0003617326    1.607    0.378
       159  -9.4354    199.6130    163.5941   9.3244686167e+01   1.0878700867e+01    0.2773034    0.1866176 -15.68  0.001140301    1.754    0.430
       160  -9.5987    192.0317    163.8239   9.4663757722e+01   1.2281945630e+01    0.3182156    0.2128079 -11.32  0.001615249    1.952    0.488
       161  -8.9397    184.9731    164.0242   9.6004298914e+01   1.3591958049e+01    0.2131945    0.1523631  12.65  0.001119014    1.727    0.421
       162  -9.9392    205.6740    160.1397   9.1482171026e+01   1.0230113862e+01    0.3702978    0.2401577  -3.12  0.001401746    2.027    0.507
       163  -8.2417    172.6884    162.6615   9.8066761223e+01   1.6143846761e+01    0.1346252    0.1010118  10.03 0.0007045568    1.691    0.409
       164  -8.7971    176.8145    158.0068   9.6390310356e+01   1.6115615493e+01    0.2124975    0.1515234  -5.67  0.001065506    1.931    0.482
       165  -9.4919    197.3688    155.7130   9.2088156361e+01   1.2484512019e+01    0.3234906    0.2127876  -7.46  0.001311246    2.018    0.504
       166  -8.7899    211.5113    154.5136   8.9311263951e+01   9.9214058249e+00    0.2269674    0.1284492 -28.48 0.0005935362    1.847    0.459
       167  -8.6610    218.7766    143.2283   8.5652777647e+01   1.0123129305e+01    0.2485599    0.1593719  -1.11 0.0009319045    1.947    0.486
       168  -8.6524    211.5747    150.9348   8.8556080178e+01   1.0425002110e+01    0.2857699    0.1714644  -4.55 0.0007576576    2.381    0.580
       169  -9.7769    215.3672    147.6452   8.7196348467e+01   1.0159061649e+01    0.3506028    0.2448031  15.03 0.0009667212    1.567    0.362
       170  -8.6876    187.5750    154.4910   9.3654283443e+01   1.4587467518e+01    0.2313942    0.1271242 -25.08  0.001016435    2.324    0.570
       171  -9.2575    206.0815    152.9245   8.9944136152e+01   1.1204761733e+01     0.245464    0.1614837   1.57  0.001011447    1.986    0.496
       172  -9.0042    202.4911    150.4218   9.0068701835e+01   1.2282399773e+01    0.2186908    0.1271854 -20.49 0.0007717573    2.075    0.518
       173  -8.9179    196.9810    148.9366   9.0763006809e+01   1.3601608460e+01    0.2178946    0.1556368   8.36 0.0009840722    1.693    0.409
       174  -8.3270    191.3587    146.8052   9.1359172864e+01   1.5061789183e+01    0.1853658    0.1263565 -22.44  0.000772995    1.643    0.392
       175  -9.4979    208.3606    143.4238   8.7521516981e+01   1.2169034767e+01    0.2926718    0.2010315   9.89   0.00105694    1.747    0.427
       176  -8.7777    200.6336    143.8635   8.9012493333e+01   1.3656966592e+01     0.212421    0.1601892  -4.78  0.000947876    1.480    0.324
       177  -8.2070    176.6218    144.7041   9.3743481660e+01   1.8378865469e+01    0.1457566    0.1048729  15.98 0.0007023146    1.751    0.429
       178  -9.2493    214.2386    141.2374   8.6004581429e+01   1.1315656329e+01    0.2511935     0.184468   3.23 0.0007551854    1.485    0.327
       179  -9.6418    219.0549    136.6405   8.4146332531e+01   1.1020702505e+01    0.3190203    0.2080991   8.54  0.001068492    1.900    0.474
       180  -9.0510    208.9557    136.4411   8.5871281831e+01   1.3105067447e+01     0.252962    0.1852094  -3.25  0.000984903    1.520    0.342
       181  -8.6112    198.8882    135.6224   8.7515320574e+01   1.5310447489e+01    0.1990658    0.1648699   7.34 0.0007294987    1.247    0.198
       182  -7.6652    215.4139    134.2948   8.4246976379e+01   1.2105859952e+01    0.2146398    0.1538231  24.18 0.0006046819    1.440    0.305
       183  -8.2749    218.2963    132.2910   8.3290131747e+01   1.1813058634e+01     0.232213    0.1741615   9.57 0.0006003513    1.410    0.291
       184  -9.8618    225.9346    132.1193   8.1953112991e+01   1.0284535675e+01    0.3244787    0.2163076   2.18  0.001054052    1.750    0.429
       185  -8.0857    179.6918    130.6329   9.0052932388e+01   2.0170977033e+01    0.1503199    0.1106893   6.65 0.0007036838    1.755    0.430
       186  -8.5490    205.8315    129.4419   8.4831683677e+01   1.4835893506e+01    0.1981024     0.124624  35.07 0.0006209611    1.627    0.386
       187  -9.5048    221.1972    126.9929   8.1566270698e+01   1.1997021230e+01    0.3706061    0.2475143 -17.19  0.001842954    1.533    0.348
       188  -8.7860    212.3246    127.1471   8.3137706272e+01   1.3825529097e+01      0.19434    0.1713752 -14.89 0.0006112139    1.082    0.075
       189  -8.5889    192.7888    127.4487   8.6778700036e+01   1.7925735264e+01    0.2022841    0.1280011  35.38 0.0007034936    1.647    0.393
       190  -8.4903    217.7416    124.4090   8.1548691842e+01   1.3102124264e+01    0.1870674    0.1246169  35.04 0.0005315742    1.514    0.339
       191 -10.9890    227.9743    222.1908   9.8495153232e+01  -1.0788816307e+00     1.425292    0.4595805 -35.75  0.006945299    3.734    0.732
       192  -8.5034    212.6136    121.1699   8.1665396333e+01   1.4682448370e+01    0.1979907    0.1301204 -17.40 0.0004915224    1.624    0.384
       193  -7.9430    188.2980    121.3569   8.6187591600e+01   1.9920362994e+01    0.1522656    0.1116966   7.45 0.0004915539    1.703    0.413
       194  -8.7282    225.3819    114.7151   7.7922513900e+01   1.2926465428e+01    0.1945151    0.1271501 -15.87  0.000400795    1.576    0.365
       195  -8.7309    219.9836    113.6546   7.8562090442e+01   1.4242710033e+01    0.2004141     0.178671  22.10  0.000656057    1.095    0.087
       196 -11.4136    217.6095    184.2872   9.3975835906e+01   4.8171525173e+00      1.50968    0.5247835 -27.44  0.005973498    3.794    0.736
       197 -13.7790    243.9303    113.0578   7.4586962490e+01   9.2918735043e+00     3.375622     1.729971 -17.53   0.01456524    2.081    0.520
       198 -11.9828    225.0921    176.5150   9.1310584018e+01   4.4796675418e+00     2.287688      0.56771 -27.11  0.006316295    7.343    0.864
       199 -13.1784    230.0103    187.6735   9.2537993001e+01   2.2983624423e+00     4.023632     1.250415 -23.63   0.01339137    5.628    0.822
       200 -11.2496    236.1210    228.9290   9.8248056849e+01  -2.9276083918e+00     0.566175    0.3572573 -39.96  0.003811502    2.318    0.569
       201 -12.1113    247.0645    241.2727   9.8400212436e+01  -5.5422596083e+00    0.7290511    0.6036698 -35.74   0.00596702    1.931    0.482
       202 -11.6978    238.4177    219.5105   9.6484964398e+01  -2.3847850593e+00    0.5069951    0.3985888 -32.70  0.003453514    1.708    0.414
       203  -8.9711    126.1774     54.8848   8.0469484099e+01   4.6357685924e+01    0.2182652    0.1970162 -51.00 0.0002863035    1.143    0.125
       204 -13.0733    236.3163    191.4724   9.2198275876e+01   8.2616746327e-01     2.706982    0.6066285 -33.41   0.01012967    4.665    0.786
       205 -13.5247    247.8338    166.8149   8.5778581548e+01   1.6981971724e+00     4.075278    0.5298773 -30.15   0.01064718    7.794    0.872
       206 -12.5846    243.4692    149.1219   8.2844189656e+01   4.6190212562e+00     2.012802    0.9173284  -1.98  0.005326278    7.320    0.863
