#   1 NUMBER                 Running object number                                     
#   2 MAG_AUTO               Kron-like elliptical aperture magnitude                    [mag]
#   3 X_IMAGE                Object position along x                                    [pixel]
#   4 Y_IMAGE                Object position along y                                    [pixel]
#   5 X_WORLD                Barycenter position along world x axis                     [deg]
#   6 Y_WORLD                Barycenter position along world y axis                     [deg]
#   7 A_WORLD                Profile RMS along major axis (world units)                 [deg]
#   8 B_WORLD                Profile RMS along minor axis (world units)                 [deg]
#   9 THETA_WORLD            Position angle (CCW/world-x)                               [deg]
#  10 FWHM_WORLD             FWHM assuming a gaussian core                              [deg]
#  11 ELONGATION             A_IMAGE/B_IMAGE                                           
#  12 ELLIPTICITY            1 - B_IMAGE/A_IMAGE                                       
         1  -8.5336     38.7989     16.9572   7.9905578156e+01   6.8351872351e+01    0.3704678    0.1219729 -39.94  0.001582927    2.960    0.662
         2  -7.6691     83.4180     11.1787   5.9925270242e+01   6.1485471759e+01    0.1712745     0.115312 -32.09 0.0009021438    1.657    0.396
         3  -8.4552     55.5656     10.0528   6.9166187252e+01   6.6761246518e+01    0.1993351    0.1708829  47.33  0.000787135    1.549    0.355
         4  -7.7725     47.4482     10.2169   7.2644092580e+01   6.8025379208e+01    0.1616572    0.1049436 -34.69 0.0009474952    1.688    0.407
         5  -8.1728     90.9759      9.0319   5.6787140930e+01   6.0118712011e+01    0.1941271    0.1582582 -62.32 0.0008211547    1.764    0.433
         6  -7.7219     12.7943      8.9923   8.9476929962e+01   7.2354903137e+01    0.1470985   0.07326961 -39.75 0.0005327448    1.684    0.406
         7  -7.8375    101.4859      8.4557   5.3798073334e+01   5.7873058528e+01    0.1303344    0.1167373  40.14 7.825946e-05    1.080    0.074
         8  -7.9822      5.6904      8.3120   9.3254211966e+01   7.3031377140e+01   0.09070946   0.08661886 -28.84 0.0002680781    1.626    0.385
         9  -8.7410     33.3370      4.9272   7.6414217913e+01   7.0668040043e+01    0.2742077       0.1582 -45.96  0.001447007    2.742    0.635
        10  -8.4362     79.1817      4.1185   5.7998310621e+01   6.3015823619e+01    0.2096779    0.1590597 -20.15 0.0009235219    1.402    0.287
        11  -8.0167     28.0000      9.9795   8.1746609064e+01   7.0663282581e+01    0.1802612   0.05699591 -38.01 0.0004214419    2.845    0.648
        12  -7.7856    237.2878      8.3170   3.4898594306e+01   2.5095876227e+01    0.1105851   0.09339699  41.53 0.0007001407    1.591    0.372
        13  -7.8966    115.4702      2.4694   4.8296287948e+01   5.5157236634e+01    0.1302957    0.1162574  54.04 0.0001216343    1.074    0.069
        14  -7.5689    248.7424      1.6861   3.2691348970e+01   2.3329205105e+01     0.100046   0.09134813  40.94 0.0001860291    1.531    0.347
        15  -8.3059     62.1123      1.4748   6.2356413255e+01   6.6523552667e+01    0.1737625    0.1086431  45.97 0.0005514834    1.517    0.341
        16  -7.5957     52.6573      1.3059   6.5857391278e+01   6.8183957894e+01    0.1028631   0.09813564 -54.07 0.0007042002    1.687    0.407
        17  -7.4379     39.4549      1.4760   7.1625586911e+01   7.0228563507e+01    0.1187585    0.0927521   3.63 6.097863e-05    1.050    0.048
        18  -8.4810    168.9583    243.3628   9.8310968048e+01   7.0642211747e-01    0.1956933    0.1743853  88.58 0.0008158986    1.579    0.367
        19  -8.5663    249.1593    249.0275   8.4488184420e+01  -1.1742689529e+01    0.2884612    0.1332141 -25.44  0.001636014    2.176    0.540
        20  -9.4495    248.4964    242.1918   8.3485797902e+01  -1.0892168853e+01    0.3026374    0.1896454 -26.66  0.001494528    1.615    0.381
        21  -9.2146    247.8992    234.5492   8.2308749923e+01  -9.9239243121e+00    0.2875423    0.1844362 -36.50  0.001564272    1.898    0.473
        22  -9.3987    246.5005    229.2426   8.1642040176e+01  -9.0938492500e+00    0.3269235    0.1887157 -29.46   0.00174701    1.718    0.418
        23  -8.3630    183.9526    250.4835   9.6462550560e+01  -2.6387807813e+00    0.1943877   0.09711109  36.34 0.0006896052    1.603    0.376
        24  -8.6143     93.6791    249.4798   1.1353157392e+02   1.1271754947e+01    0.2540605    0.1318516  68.58  0.001280068    2.442    0.590
        25  -8.3154     25.4802    250.4714   1.2572107252e+02   1.9682951712e+01    0.1073317   0.07642414  66.87 0.0002752002    1.010    0.010
        26  -8.5314    139.1398    243.6624   1.0415715893e+02   5.3843162784e+00    0.1962949    0.1678813 -89.37  0.001310384    1.454    0.312
        27  -9.4825     77.6047    242.9161   1.1594905229e+02   1.4670322860e+01     0.308619    0.1829463  74.70  0.001672764    1.798    0.444
        28  -8.9367    213.3005    242.0578   8.9722836995e+01  -5.9468415263e+00    0.2439057    0.1705284   8.48 0.0008915014    1.314    0.239
        29  -8.7831    195.1443    242.8319   9.3225584869e+01  -3.3111645047e+00    0.2329236    0.1617761  13.95 0.0008446198    1.378    0.274
        30  -8.5965    194.0081    239.7424   9.2967227595e+01  -2.7103213546e+00    0.1798689    0.1546341  43.71 0.0004423231    1.369    0.270
        31  -8.4098     88.2537    242.3425   1.1388060024e+02   1.3292269983e+01    0.1923477    0.1227819  81.26  0.000784351    1.765    0.433
        32  -9.2126    183.3620    240.3449   9.5093291507e+01  -1.1294283325e+00     0.388005     0.257483  61.82  0.002013396    2.492    0.599
        33  -9.2788    160.2605    240.4890   9.9600500309e+01   2.5264268470e+00    0.2959927    0.2211924 -80.22  0.001308942    2.177    0.541
        34  -8.0640    153.3414    241.8586   1.0114325429e+02   3.4191314378e+00    0.2020144    0.1191644 -60.61  0.001061136    2.436    0.589
        35  -7.7965     49.4645    242.4987   1.2109357644e+02   1.8374779491e+01    0.1159493   0.08392939  65.02 0.0008090776    1.052    0.049
        36  -8.3466    240.6086    240.2076   8.4522655813e+01  -9.6051843716e+00    0.2197651    0.1010575 -28.08  0.001172747    2.216    0.549
        37  -8.4889    135.4630    238.9449   1.0428382053e+02   6.7389076655e+00    0.2339949    0.1447078  51.57 0.0008531043    1.512    0.339
        38  -8.2084    129.0424    238.9922   1.0556118184e+02   7.7462105572e+00    0.1983999    0.1318515  62.44 0.0008139056    1.680    0.405
        39  -9.0867    231.0735    236.6221   8.5614108088e+01  -7.8413115276e+00    0.3100308    0.1992487 -29.31  0.001262177    1.637    0.389
        40  -9.6750    108.6708    235.2139   1.0915804216e+02   1.1566388899e+01     0.395272    0.2619621 -80.86   0.00204739    1.881    0.468
        41  -8.5201     25.7678    237.1580   1.2495668122e+02   2.2071913402e+01    0.2067863    0.0692428  63.05  0.000962065    2.913    0.657
        42  -8.2736    217.3007    235.6926   8.7960880158e+01  -5.7144684209e+00    0.2036773    0.1584275  15.52 0.0006920911    1.008    0.008
        43  -9.3692    213.8748    232.0614   8.7996874281e+01  -4.7157368751e+00    0.2708153    0.2385175  75.94  0.001291975    2.024    0.506
        44  -8.9641    203.3044    234.9606   9.0452850922e+01  -3.4891841431e+00    0.2573594    0.2109507 -71.78  0.001313287    2.262    0.558
        45  -9.6909    175.7101    233.4254   9.5537281534e+01   1.1192611695e+00    0.4325336    0.2467322 -57.30  0.002126187    2.751    0.636
        46  -8.1351    170.4417    235.9242   9.6947285805e+01   1.5903802464e+00    0.1613777    0.1261635 -43.35 0.0004646531    1.544    0.352
        47  -7.9340     57.9202    237.0000   1.1914265843e+02   1.8347073865e+01     0.187378   0.05601602  37.02 0.0008071286    2.975    0.664
        48  -8.6284     99.8107    234.6521   1.1085420426e+02   1.3002534265e+01    0.2385697    0.1414239  75.31   0.00122967    2.174    0.540
        49  -9.2635     78.4235    234.3923   1.1502164138e+02   1.6123304186e+01    0.2652059    0.1700113  77.05  0.001021175    1.609    0.378
        50  -9.7235      8.2609    234.3986   1.2782102346e+02   2.4370495612e+01    0.1875176    0.1026276 -73.50  0.001257211    1.770    0.435
        51  -9.7759     68.5086    232.6142   1.1677616745e+02   1.7802472842e+01    0.5142711    0.1834128  59.51  0.002051524    3.470    0.712
        52  -9.2812    186.6678    230.9185   9.3002094420e+01  -2.7686309232e-01     0.327809    0.2572691 -81.17  0.001569068    2.371    0.578
        53  -9.2782    141.6701    231.3578   1.0204096224e+02   7.0182058101e+00    0.5763334    0.2319407  54.55  0.002079946    3.748    0.733
        54  -8.1568    132.7587    232.9168   1.0404880443e+02   8.1935575786e+00    0.1965893    0.1369696  76.49  0.001066508    1.966    0.491
        55  -8.5597     92.1604    231.5336   1.1204086890e+02   1.4706238074e+01     0.204172     0.143773  71.34 0.0004157584    1.410    0.291
        56  -8.6454    236.0079    230.8050   8.3754235205e+01  -7.8170026426e+00    0.1960208    0.1478443 -15.04 0.0004431668    1.256    0.204
        57  -9.1611      1.7047    230.8923   1.2876937715e+02   2.5645232673e+01    0.2045394    0.0989886  75.43 0.0008211609    1.645    0.392
        58 -10.0579    149.8831    226.5571   9.9695685621e+01   6.4838800283e+00    0.5827748    0.3639715 -85.38  0.002424448    3.748    0.733
        59  -8.6438    162.2577    227.8606   9.7376030770e+01   4.2087329394e+00    0.2986819    0.1927217  60.72   0.00129991    2.120    0.528
        60  -8.6763    128.0072    227.3211   1.0428251832e+02   9.9445043234e+00    0.2970529    0.1717467  58.62  0.001106342    1.962    0.490
        61  -8.2267    119.9880    227.9220   1.0600235568e+02   1.1122007984e+01     0.210926    0.1366648  65.34  0.001121714    1.780    0.438
        62  -8.2652    122.7342    234.1502   1.0622187604e+02   9.5744752427e+00    0.1920628    0.1449574  74.78 0.0007135479    1.527    0.345
        63  -7.9988    223.3720    227.2300   8.5426974110e+01  -5.5029162891e+00    0.1536546    0.1112549 -38.02 0.0004828147    1.678    0.404
        64  -8.5098    206.1335    226.2012   8.8477031187e+01  -2.7019296229e+00    0.1899013    0.1680991 -75.94 0.0004656986    1.903    0.474
        65  -8.2089    110.8228    227.6261   1.0783867509e+02   1.2618212335e+01    0.1921749   0.09712189  47.12 0.0009515143    1.693    0.409
        66  -8.0348     67.3101    227.2997   1.1653827924e+02   1.8982563721e+01    0.1024072    0.0953833 -21.08 0.0002480734    1.601    0.375
        67  -8.0595     49.1824    227.1099   1.2002342427e+02   2.1320953168e+01    0.1722788    0.1077721  69.09  0.001069425    1.376    0.273
        68  -8.2146    199.9983    226.3242   8.9672275382e+01  -1.7440580177e+00    0.1773831    0.1439746  25.41 0.0005373157    1.077    0.072
        69  -7.5987    188.6730    226.2852   9.1867004651e+01   9.3613043401e-02    0.1198583   0.09639437  56.39 0.0003257359    1.607    0.378
        70  -8.7183    180.4594    224.3889   9.3183710157e+01   1.7388731557e+00    0.2229929     0.185829  31.10 0.0006368812    1.068    0.064
        71  -8.9478    104.7179    223.7266   1.0862420124e+02   1.4295778681e+01    0.3369913    0.2111762  85.13  0.001679764    2.144    0.534
        72  -8.9785     94.3518    224.4960   1.1083997143e+02   1.5718065413e+01    0.4042206    0.1903259  59.20  0.001826499    2.409    0.585
        73  -8.6997    216.3404    223.6032   8.6107859313e+01  -3.9338301156e+00    0.2123365    0.1947119 -28.32 0.0008244852    1.420    0.296
        74  -8.6595    173.0006    223.3401   9.4510436498e+01   3.1505765127e+00    0.2152528    0.1849533 -75.52 0.0006264164    1.650    0.394
        75  -8.3689    113.8407    224.2054   1.0679951442e+02   1.2781826264e+01    0.2006263    0.1520086  62.16 0.0006910232    1.275    0.216
        76  -7.4789     38.2846    224.6941   1.2190628795e+02   2.3076856056e+01    0.1200312   0.06632414  66.41 0.0003531953    1.563    0.360
        77  -9.3755    192.3891    221.3947   9.0329950908e+01   2.2841600018e-01    0.2794252    0.2430822 -80.34 0.0008763564    1.822    0.451
        78  -8.2039    140.4786    222.9188   1.0110664120e+02   8.6828535209e+00    0.1694864    0.1320629 -59.35 0.0005559995    1.523    0.344
        79  -8.3044    194.3179    232.8747   9.1831474567e+01  -1.7874861499e+00     0.206516    0.1576457  48.17 0.0007529138    1.517    0.341
        80  -8.8301    238.8336    221.5916   8.1650848522e+01  -7.0437254911e+00     0.211259    0.1586718 -26.70 0.0005380643    1.400    0.286
        81  -9.0601    225.3945    221.7440   8.4106078778e+01  -5.0676929410e+00    0.2071939     0.187269  -1.45 0.0004526897    1.280    0.219
        82  -8.9949    158.9461    220.5069   9.6929923166e+01   5.9944104705e+00    0.2452266    0.1957254  73.84 0.0009595723    1.687    0.407
        83  -8.3532     73.3989    221.2563   1.1475973578e+02   1.9349460695e+01    0.2872385    0.1306432  62.55  0.001043739    2.524    0.604
        84  -9.6545      6.9608    221.6255   1.2743627308e+02   2.6929103188e+01    0.3392816   0.08173788  53.46  0.001553926    3.148    0.682
        85  -9.1499    120.4236    219.2272   1.0478437356e+02   1.2664047315e+01    0.4564093    0.2333864  64.99   0.00180137    3.239    0.691
        86  -8.9062     82.7104    220.6082   1.1279941369e+02   1.8174894101e+01    0.2731966     0.160849  89.25  0.001150013    2.039    0.510
        87  -7.9311     27.6135    221.2707   1.2367173541e+02   2.4931642865e+01    0.1477263   0.08982148 -72.30 0.0008728682    1.599    0.374
        88  -8.1161    210.0791    219.4453   8.6570580381e+01  -2.3558391319e+00    0.1847721    0.1528128 -12.50 0.0004541042    1.192    0.161
        89  -8.3066    202.7927    220.1350   8.8088003540e+01  -1.2837118917e+00    0.1792636    0.1666425  26.49 0.0006271628    1.273    0.215
        90  -8.5802    250.0272    218.8512   7.9202439750e+01  -8.2879439441e+00    0.1717084    0.1371495  50.62  0.001074004    2.038    0.509
        91  -9.3862    132.8783    216.2362   1.0174067106e+02   1.1170398735e+01    0.4585207     0.277968  76.35  0.001937129    3.038    0.671
        92  -8.3784     62.0379    217.4532   1.1669230373e+02   2.1629401061e+01    0.2848798    0.1387374  68.33  0.001361229    2.328    0.570
        93  -8.7473     51.6192    217.5741   1.1878606280e+02   2.2920841471e+01    0.2758009    0.1746439  71.09   0.00100429    1.411    0.291
        94  -7.8246     55.8636    217.1600   1.1790591139e+02   2.2477691120e+01    0.1406292    0.1318995 -82.55  0.001006601    1.321    0.243
        95  -7.8690    179.2880    217.6531   9.2317416323e+01   3.0121610759e+00    0.1229599    0.1034645  70.31 0.0007023399    1.656    0.396
        96  -8.7275    169.2602    216.1128   9.4108119804e+01   4.9803133373e+00    0.2784647    0.2267436 -85.94 0.0008445094    1.847    0.458
        97  -8.6570    142.9901    216.6054   9.9659364030e+01   9.3952378111e+00    0.2739042    0.1949858  79.06  0.001394021    2.071    0.517
        98  -8.5514     18.6034    216.3346   1.2504091372e+02   2.6847870043e+01    0.2151024   0.08974165 -84.83    0.0011383    2.178    0.541
        99  -8.4269    154.5414    215.1949   9.7016515584e+01   7.6722289055e+00    0.2334574    0.1851669 -89.01 0.0008721909    1.787    0.440
       100  -8.6051    232.2565    214.8185   8.1620899399e+01  -5.1615353049e+00    0.1970693    0.1876238 -21.46 0.0008059761    1.485    0.327
       101  -9.1022     93.2388    214.1740   1.0988784256e+02   1.7915917514e+01     0.360028    0.1811728  60.30  0.001403193    2.255    0.557
       102  -7.7476     41.3592    215.6673   1.2065381729e+02   2.4530907034e+01    0.1320298   0.06752534  64.71 0.0007041081    1.802    0.445
       103  -9.5040    214.0068    212.2785   8.4554268841e+01  -1.9360681598e+00    0.3356619    0.2595569  55.88  0.001224687    1.871    0.465
       104  -9.4291     73.0470    211.8646   1.1388217447e+02   2.1299516724e+01    0.6300265    0.2519269  62.48  0.002348399    3.647    0.726
       105  -8.5404    161.6727    212.5419   9.5099075998e+01   6.9071060076e+00    0.2011755    0.1673808 -88.53 0.0006766516    1.668    0.400
       106  -8.2679    106.6416    213.2651   1.0692413816e+02   1.6029638081e+01    0.2092348    0.1351363  69.22  0.001052562    1.798    0.444
       107  -8.5478    185.8018    214.5165   9.0475278112e+01   2.4134985182e+00    0.2247652    0.1786891 -62.13 0.0007093775    1.812    0.448
       108  -8.9192    204.3761    211.0270   8.6183895410e+01  -1.6605416881e-01    0.2448945    0.2090154 -66.03 0.0008418569    1.824    0.452
       109  -9.2923    175.6208    210.0332   9.1781570313e+01   4.9113376170e+00    0.3640249    0.2735336  84.20  0.001428091    2.382    0.580
       110  -9.5940      6.5902    209.4877   1.2687942274e+02   2.9374303938e+01     0.514074    0.1529969  74.75  0.001887683    4.736    0.789
       111  -7.5938    242.6803    211.7157   7.9190933277e+01  -6.2993846405e+00    0.1279864   0.08052972   5.47 0.0003054196    1.590    0.371
       112  -8.2121    192.2715    210.5951   8.8496642750e+01   1.9429156712e+00    0.2176993     0.159905 -49.54  0.000701234    1.719    0.418
       113  -8.8658    148.1116    210.6167   9.7654006677e+01   9.6112498069e+00    0.2994115     0.205599  62.50   0.00117175    1.803    0.445
       114  -9.0487    116.2819    210.4688   1.0447835494e+02   1.5032636074e+01    0.2919218    0.2054918  76.45 0.0009241404    1.729    0.422
       115  -8.6846     85.9067    209.7643   1.1093029467e+02   1.9903876928e+01    0.3220576    0.1628834  67.11  0.001391071    2.615    0.618
       116  -7.9910     46.7025    209.9381   1.1912819045e+02   2.5084349883e+01    0.2327496    0.0808213  60.67 0.0008908689    3.552    0.718
       117  -7.9591     32.4244    210.2512   1.2199968162e+02   2.6644598311e+01    0.1707683   0.08973798  85.56 0.0009187093    1.788    0.441
       118  -9.2403    236.3763    208.1121   7.9649458256e+01  -4.8600339670e+00    0.2884231    0.2149032 -41.86  0.001146894    1.714    0.417
       119  -9.8288    124.3483    206.3233   1.0213269106e+02   1.4512366193e+01    0.3373612    0.2205719  72.03  0.001613411    2.069    0.517
       120  -9.3398    246.3621    207.4587   7.7758846110e+01  -6.2680402027e+00    0.2177836    0.1866995 -15.11 0.0005980773    1.267    0.211
       121  -7.9399    156.7425    208.1879   9.5425639315e+01   8.5471320953e+00     0.211381    0.1410349  73.88 0.0009295706    2.629    0.620
       122  -8.3371    139.2054    208.1185   9.9174019732e+01   1.1622764028e+01    0.2488381    0.1589519  61.06 0.0008369425    1.904    0.475
       123  -9.2491     99.3761    206.2553   1.0758817510e+02   1.8589645434e+01    0.3452426    0.2190168  77.13  0.001276797    1.969    0.492
       124  -8.3049    109.1390    205.4627   1.0534429565e+02   1.7201201745e+01    0.2153989    0.1682697  76.10 0.0007103466    1.357    0.263
       125  -8.6129     56.3461    205.6397   1.1675728423e+02   2.4806401908e+01    0.2728932    0.1557011  67.85 0.0008713947    1.726    0.421
       126  -8.6926     11.5287    206.5089   1.2578819615e+02   2.9527377005e+01    0.1149143   0.08375929  75.94 0.0002176825    1.028    0.027
       127  -7.8667     92.3512    205.6534   1.0904446052e+02   1.9794917759e+01    0.1443644    0.0884487  67.29 0.0007039315    1.819    0.450
       128  -8.3758     24.5202    205.0154   1.2318170910e+02   2.8567071279e+01    0.1747018   0.07361715  76.86 0.0006447269    2.573    0.611
       129  -7.7334    241.6027    192.2561   7.5698783360e+01  -3.4066571729e+00    0.1124071    0.1038846  63.71 0.0006959913    1.702    0.412
       130  -9.5424    249.9337    201.6438   7.6048157510e+01  -6.0040754838e+00    0.4520873    0.1911843 -38.47  0.002120329    2.440    0.590
       131  -9.3354    245.3938    193.4137   7.5258089872e+01  -4.1652108879e+00    0.2971715     0.259994 -89.14  0.001393451    2.204    0.546
       132  -9.3208    194.9195    203.5396   8.6699355233e+01   2.6333324721e+00    0.3134285    0.2888606 -35.16  0.001237775    1.284    0.221
       133  -9.2632    192.5723    197.7313   8.6099404230e+01   4.0142433443e+00    0.4017177    0.3015423  70.87  0.001716153    2.236    0.553
       134  -8.9518    183.7016    203.8679   8.9037295289e+01   4.5435098311e+00    0.2787486    0.2211008  57.55  0.001224148    1.567    0.362
       135  -9.6532    163.8437    203.1156   9.3060433826e+01   8.2095149301e+00    0.4362452    0.2599516  55.12 0.0008334121    2.039    0.510
       136  -9.2635     17.6087    203.0286   1.2440410917e+02   2.9670488454e+01    0.4447083    0.1533103  74.36  0.001749188    3.857    0.741
       137  -8.7176    211.0131    202.2237   8.3283551243e+01   8.7584109986e-02    0.2068601    0.1899991 -63.66 0.0006164917    1.585    0.369
       138  -8.7634    140.5197    201.3891   9.7820704537e+01   1.2689271827e+01    0.3691952    0.2570798 -87.34  0.001386726    2.228    0.551
       139  -8.3730     48.6681    202.5681   1.1807844639e+02   2.6404505145e+01    0.2223926    0.1247702  80.08  0.001016035    1.815    0.449
       140  -9.1798    242.9823    200.9009   7.7119555879e+01  -4.8580490384e+00    0.2885454     0.164357 -37.07 0.0008424291    1.815    0.449
       141  -8.6285     80.2819    201.7110   1.1120437299e+02   2.2411966869e+01    0.3221145    0.1427586  66.81  0.001131234    3.873    0.742
       142  -7.9022     40.7119    202.3599   1.1971292215e+02   2.7379450634e+01    0.1305625   0.07310787  69.69 0.0007024521    1.686    0.407
       143  -8.8593    131.3844    204.0699   1.0025127359e+02   1.3757404118e+01    0.3161558    0.2176517  85.31 0.0009222695    2.147    0.534
       144  -9.2697    237.0957    198.9349   7.7792475135e+01  -3.6682982062e+00     0.300948    0.1948543 -46.08  0.001602681    2.048    0.512
       145  -7.9807    221.9785    201.2555   8.1011591992e+01  -1.5863184610e+00    0.1658423    0.1449508 -50.36 0.0005130103    1.603    0.376
       146  -9.4569    149.6751    198.7315   9.5370323854e+01   1.1572854369e+01    0.4081165    0.2892688  85.38  0.001440612    2.297    0.565
       147  -9.0008    123.9058    199.2110   1.0115975207e+02   1.6016746310e+01    0.3379133    0.2388038  78.80   0.00133909    1.851    0.460
       148  -9.4747    112.7981    198.5269   1.0354640802e+02   1.8032270140e+01    0.4549028    0.2674599  68.97    0.0016946    2.392    0.582
       149  -9.2314     88.7263    198.6993   1.0896670830e+02   2.1812875600e+01    0.3912993    0.2325239  80.61  0.001369974    2.203    0.546
       150  -8.4105    177.0572    199.0417   8.9545853729e+01   6.5670774325e+00    0.2017936    0.1697299  77.40 0.0005253501    1.670    0.401
       151  -8.7817    133.1713    196.8809   9.8719036162e+01   1.4878999600e+01    0.3852331     0.189952 -59.41  0.001312818    2.466    0.595
       152  -8.4202    202.4323    197.9634   8.4163017950e+01   2.2394219049e+00    0.2249379    0.1973017 -51.25 0.0008027722    1.475    0.322
       153  -9.0490     61.5990    197.2183   1.1478910132e+02   2.5944217922e+01     0.379193    0.1894898  68.97  0.001613311    2.401    0.583
       154  -9.0065    216.0040    195.8662   8.1116753407e+01   2.4008789719e-01     0.343338    0.2013624 -53.07  0.001148191    2.693    0.629
       155  -8.1212     54.2118    197.1893   1.1638947998e+02   2.6888892502e+01    0.2220342    0.1105335  65.98  0.001044562    2.196    0.545
       156  -8.0247     29.3245    197.6523   1.2167629718e+02   2.9631073906e+01    0.1311557   0.06957754  67.43 0.0007049581    1.747    0.427
       157  -8.7740    224.4196    193.8096   7.9126708838e+01  -8.5474268417e-01    0.2825895    0.1467426 -40.38  0.001234619    2.041    0.510
       158  -7.6385    209.2990    195.6516   8.2371662995e+01   1.4226568819e+00    0.1225324    0.1112614 -87.44  0.000703648    1.685    0.406
       159  -8.7413    185.1273    194.8813   8.7094291098e+01   5.8419852036e+00    0.2272202     0.222063 -75.17 0.0007171419    1.282    0.220
       160  -9.0592    160.8548    194.3075   9.2154425562e+01   1.0386438200e+01    0.3272905    0.2450311  73.00 0.0009727742    1.911    0.477
       161  -8.3364    230.9636    194.2968   7.8010827148e+01  -2.0058541029e+00    0.1836387    0.1515984   9.40 0.0004055139    1.053    0.051
       162  -8.9678    173.4432    192.8556   8.9174690379e+01   8.3415999656e+00     0.461349    0.2857432  68.03  0.001775654    3.270    0.694
       163  -8.8051     77.0355    193.9493   1.1099335608e+02   2.4557803133e+01    0.2424351    0.1852393  76.60 0.0007599145    1.244    0.196
       164  -8.9702     43.8864    193.4951   1.1826040543e+02   2.8934059728e+01    0.3847621    0.1888477  66.26   0.00187167    2.156    0.536
       165  -7.8547    205.2381    192.0321   8.2471088261e+01   2.7234774069e+00    0.1699281    0.1106972 -33.75 0.0004194512    1.555    0.357
       166  -8.2460    198.6886    191.5927   8.3693350390e+01   3.9627952700e+00    0.2278205    0.1234897 -39.54  0.000558052    1.921    0.479
       167  -8.4178    179.1214    191.6783   8.7748759142e+01   7.5103333037e+00    0.2321324    0.1940226 -53.90 0.0007779247    1.435    0.303
       168  -9.2164    139.5931    190.8605   9.6268402074e+01   1.4950227118e+01    0.3744825    0.2626214  75.75  0.001210422    2.047    0.512
       169 -10.5244     92.2949    188.8257   1.0683434338e+02   2.3418092394e+01    0.9573514    0.2740328  48.44  0.003105226    3.764    0.734
       170  -7.9668     20.9865    190.9865   1.2289160811e+02   3.1910697231e+01    0.2610264     0.084181  64.00 0.0009576736    4.122    0.757
       171  -8.4182    148.4643    189.2993   9.3996554353e+01   1.3642659631e+01    0.2374829    0.2028032 -89.50  0.000615394    1.436    0.304
       172  -8.3259    237.2662    188.6128   7.5755104322e+01  -2.1755153270e+00    0.2212429    0.1416326 -39.13 0.0005499325    1.658    0.397
       173  -8.8226    216.6273    188.2025   7.9501214872e+01   1.3543077411e+00     0.273294    0.2204591 -41.53 0.0007637656    1.433    0.302
       174  -9.2538    156.0692    187.6354   9.1995649676e+01   1.2561222960e+01    0.3592699    0.2472108 -67.09   0.00096509    2.002    0.500
       175  -9.0892    129.1432    188.6917   9.8281034549e+01   1.7275552185e+01    0.2893426    0.2276974  74.23 0.0009193968    1.478    0.323
       176  -9.7697    120.9112    186.6913   9.9850846582e+01   1.9151828356e+01    0.5481416    0.3032033 -75.13  0.002130281    2.928    0.658
       177  -8.9535     34.1901    187.8435   1.1984223008e+02   3.1259188557e+01    0.3739642     0.163433  80.00  0.001612638    2.825    0.646
       178  -9.3484    249.1414    185.6649   7.3088258724e+01  -3.6273320355e+00    0.3459953    0.2197764  -3.40  0.001234898    1.676    0.403
       179  -8.1691    230.4840    187.5213   7.6767998486e+01  -8.9591523175e-01    0.2157689    0.1178981 -44.42 0.0007653344    2.152    0.535
       180  -8.8148    191.1017    187.3252   8.4409588469e+01   6.0809869901e+00    0.2317473    0.2011577 -70.89  0.001279387    1.597    0.374
       181  -9.1945     54.6757    187.0796   1.1524189014e+02   2.9069221969e+01    0.3726816    0.1897164  69.16  0.001373875    2.296    0.564
       182  -8.8252    164.7973    186.7330   8.9899142530e+01   1.1101660948e+01    0.2640699    0.2033362 -62.64 0.0009255002    1.630    0.386
       183  -9.2413    109.7220    186.2313   1.0238722802e+02   2.1170571033e+01    0.4148342    0.2517576  67.22  0.001197488    2.156    0.536
       184  -8.7288    202.7867    184.9302   8.1561306211e+01   4.3586035064e+00    0.2808648    0.1854327 -45.82 0.0008694655    1.723    0.420
       185  -9.0762     66.6726    184.7031   1.1223267852e+02   2.8056852559e+01    0.3577064    0.2063148  68.96  0.001150099    1.942    0.485
       186  -9.0253    210.1795    184.2572   7.9963506232e+01   3.1391525721e+00     0.273392    0.1895423 -30.60 0.0004727383    1.419    0.295
       187  -8.6455    182.9013    184.9001   8.5646419775e+01   8.0416663898e+00    0.2443438    0.1944898 -45.93 0.0006707141    1.396    0.284
       188  -8.4734    224.0907    183.6943   7.7186812604e+01   7.8711203897e-01    0.2213074    0.1715142 -35.80 0.0005946774    1.355    0.262
       189  -8.9322    174.3529    183.5519   8.7208733130e+01   9.9043975439e+00    0.2725331    0.2388855 -83.25  0.001029364    1.509    0.337
       190  -8.6080    196.8350    183.3827   8.2453903494e+01   5.7175271381e+00    0.1867161    0.1775576 -16.35 0.0007906954    1.158    0.137
       191  -8.8503     44.4604    182.6674   1.1708352517e+02   3.1284199459e+01    0.3085765     0.163012  62.67  0.001031295    1.931    0.482
       192  -7.9692      1.8062    183.6165   1.2633244082e+02   3.5205786479e+01    0.1546419   0.08293141  48.92 0.0009417714    1.724    0.420
       193  -8.6738    240.6434    181.2087   7.3675607756e+01  -1.6071734980e+00    0.2481874    0.1553364 -46.14  0.001258657    1.980    0.495
       194  -9.3136    147.5130    180.6176   9.2625342144e+01   1.5580398030e+01    0.3503252    0.2675892  83.07  0.001146522    1.819    0.450
       195  -9.5734     25.7639    179.1785   1.2093041880e+02   3.4058788850e+01    0.6195836    0.2361864  78.89   0.00228931    3.927    0.745
       196  -7.7332    235.3030    181.6982   7.4725984495e+01  -8.0008841153e-01    0.1166496    0.1080445 -63.07 0.0006728402    1.591    0.371
       197  -8.6428    137.5824    179.3951   9.4694719767e+01   1.7696709678e+01    0.2988173    0.2194701  84.57 0.0009685669    1.913    0.477
       198  -9.3635    191.6339    178.5384   8.2546427102e+01   7.5548280255e+00    0.3155002    0.2525775  63.93  0.000773375    1.668    0.400
       199  -8.2012    169.3256    178.4764   8.7307134531e+01   1.1838853435e+01    0.2376825    0.1821633 -68.37  0.001046631    1.769    0.435
       200  -9.0217     35.9993    176.9031   1.1842784860e+02   3.3531089130e+01    0.4958134    0.1999071  81.01  0.001769937    4.008    0.750
       201  -8.7021    250.4906    172.8805   7.0282118896e+01  -1.9473117809e+00    0.2429394    0.1792053 -23.44 0.0005282827    1.176    0.150
       202  -9.1259    248.9913    177.4913   7.1475516800e+01  -2.3982006861e+00    0.2673627    0.2046113 -33.13 0.0004950777    1.316    0.240
       203  -8.6039    247.3087    174.2861   7.1110206760e+01  -1.6440789526e+00    0.2020864    0.1434858 -25.33 0.0003935989    1.241    0.194
       204  -8.4787    217.6576    177.3554   7.7112964284e+01   2.9511358986e+00    0.2267678    0.1606808 -42.98 0.0005765784    1.550    0.355
       205  -8.7683    205.0021    177.5311   7.9620184744e+01   5.2286867947e+00    0.2507734    0.1952574 -49.93 0.0007072169    1.547    0.354
       206  -8.6809    129.3130    177.6009   9.6312245292e+01   1.9606721388e+01    0.3108482    0.2259257  77.80   0.00109429    1.820    0.451
       207  -8.4985    231.1709    176.9895   7.4515144429e+01   6.3747066681e-01    0.1939197    0.1729346 -35.85 0.0005815697    1.314    0.239
       208  -9.0688    183.0433    176.2019   8.3877006187e+01   9.6275137759e+00    0.2829217    0.2072292 -45.52 0.0004665696    1.473    0.321
       209  -7.9389     97.5219    177.4958   1.0391968790e+02   2.5131979028e+01     0.139565    0.1297339  73.66 0.0003453546    1.018    0.017
       210  -8.9759     88.9509    176.8736   1.0589676232e+02   2.6629001685e+01    0.2864761    0.2019988  82.52 0.0009528273    1.599    0.375
       211  -9.4439     58.7396    175.5035   1.1297495779e+02   3.1204476259e+01    0.4823897     0.224073  68.02  0.001868165    3.136    0.681
       212  -9.5780     55.8227    170.9948   1.1312151095e+02   3.2621918492e+01    0.4312714    0.2367502  81.89  0.001320454    2.221    0.550
       213  -8.9537     12.9858    176.9939   1.2354355721e+02   3.5727232826e+01    0.2572531    0.1355523  67.83  0.001219059    1.771    0.435
       214  -7.8770    211.5465    176.4700   7.8110627880e+01   4.2068867369e+00     0.140642     0.124762   0.84 0.0003271985    1.011    0.011
       215  -9.3091    158.8961    175.2061   8.8988148655e+01   1.4506580441e+01    0.3957475    0.2814023  77.06  0.001364171    2.246    0.555
       216  -9.6471    104.3458    174.6866   1.0181245284e+02   2.4647013928e+01    0.5460526    0.3257003  69.25  0.001710205    2.355    0.575
       217 -10.5889     76.0532    171.1349   1.0820248913e+02   2.9883735219e+01     1.129613     0.487993 -74.42  0.004224515    2.979    0.664
       218  -9.4427     74.3427    160.3445   1.0702519723e+02   3.2685591606e+01    0.5542164    0.3196568   4.96  0.001919012    4.368    0.771
       219  -8.2185    224.3210    174.4238   7.5248311294e+01   2.2474698581e+00    0.2151458    0.1582683 -49.48  0.000842953    1.697    0.411
       220  -7.7800    241.3150    174.3033   7.2150891628e+01  -6.5890927977e-01    0.1375717   0.09253328   1.41  0.000307144    1.619    0.382
       221  -9.3096    175.7337    172.5428   8.4703171519e+01   1.1747057683e+01    0.2877677    0.2481943 -45.27 0.0008296212    1.247    0.198
       222  -8.2625    142.9967    172.7589   9.2177640094e+01   1.8082824398e+01    0.2494899    0.1935642 -72.43 0.0005805856    1.581    0.368
       223  -8.9625    134.8611    171.6821   9.3897066224e+01   1.9859747935e+01     0.320662    0.2291421  76.09  0.001271564    1.938    0.484
       224  -9.5745    121.4736    170.4396   9.6894308749e+01   2.2612437608e+01    0.4107786    0.2878232 -85.27  0.001174971    1.934    0.483
       225  -9.2863     45.0408    171.0176   1.1570817535e+02   3.3896910120e+01    0.3858061    0.1989001  83.16   0.00130314    2.298    0.565
       226  -8.4225    205.8412    170.5156   7.7991429227e+01   6.3011489367e+00    0.2584304    0.1842109 -54.09 0.0007102417    1.805    0.446
       227  -8.3747    237.1259    169.8986   7.1976107801e+01   7.4128536756e-01    0.1943547    0.1743239 -34.36 0.0005592659    1.284    0.221
       228  -8.6614    230.2468    170.1053   7.3254939350e+01   1.9053878136e+00     0.216637      0.16568  -8.65 0.0009410295    1.245    0.197
       229  -8.4812    198.3605    170.0384   7.9398289238e+01   7.8131576685e+00    0.2051609    0.1741946 -31.12 0.0006262683    1.178    0.151
       230  -8.5156    149.8187    169.5301   8.9944602230e+01   1.7447150035e+01    0.2762176    0.1993245 -70.11 0.0007427829    1.827    0.453
       231  -8.0737    244.4076    169.2072   7.0560571734e+01  -3.8558273844e-01    0.1809683    0.1140117 -40.70 0.0005125264    1.632    0.387
       232  -9.1005    166.9813    168.5272   8.5809590012e+01   1.4268168048e+01    0.3230008    0.2466229  73.33 0.0009324847    1.837    0.456
       233  -8.2954     88.4946    168.9906   1.0479695248e+02   2.8526347562e+01    0.2095905    0.1342337 -66.30   0.00101348    1.556    0.358
       234  -8.4496    218.8669    168.2236   7.4973418515e+01   4.2676917373e+00    0.1963578       0.1889  -4.46 0.0005397354    1.189    0.159
       235  -8.7303    111.6468    167.4243   9.8764125812e+01   2.5050488870e+01    0.3774768    0.2402912  78.62  0.001103553    2.412    0.585
       236  -8.8723    191.9109    166.5604   7.9990050369e+01   9.7076938791e+00     0.304212    0.2023259 -42.90 0.0005617464    1.554    0.357
       237  -8.7832    185.0090    166.5827   8.1451402645e+01   1.1066181214e+01    0.2648126     0.205913 -57.67 0.0007538671    1.577    0.366
       238 -10.0535     95.0224    162.8002   1.0213259264e+02   2.8941824016e+01    0.8913854    0.4906036  78.04  0.003028433    3.672    0.728
       239  -9.1413     20.6839    166.5291   1.2096830459e+02   3.7417854048e+01    0.3005028    0.1391606  58.54  0.001225902    2.218    0.549
       240  -9.8269    136.8585    164.5831   9.2033272976e+01   2.1029626804e+01    0.6758227    0.2990967  54.85  0.002230733    3.168    0.684
       241  -8.3479    233.9318    165.0972   7.1534053950e+01   2.0695492904e+00    0.1986414    0.1793039 -41.97 0.0006874176    1.324    0.245
       242  -8.6760    159.3813    164.5986   8.6717161717e+01   1.6586772421e+01    0.2970776    0.2379076  80.24 0.0007279991    1.680    0.405
       243  -8.5769     56.4953    164.2409   1.1209888476e+02   3.4132743119e+01    0.3384739    0.2152216  -2.87  0.001471652    3.165    0.684
       244  -9.6097     33.5601    163.6236   1.1764818812e+02   3.6861439260e+01    0.5131094    0.2204994  56.03  0.002294519    2.559    0.609
       245  -8.3987    239.9890    164.0399   7.0242003840e+01   1.1804551063e+00    0.1943573    0.1639283 -58.28 0.0007128508    1.645    0.392
       246  -8.6171    212.8624    163.7451   7.5166314555e+01   6.1623648536e+00    0.2648315    0.1853899 -46.17 0.0006427328    1.578    0.366
       247  -8.9307    246.0426    162.9624   6.8974703777e+01   3.1355577888e-01    0.2026668     0.173851 -14.03 0.0004732508    1.046    0.044
       248  -8.4905    204.8933    162.9036   7.6550977701e+01   7.8416023645e+00    0.2074537    0.1804689 -77.95 0.0005077749    1.612    0.380
       249  -9.5084      3.4608    162.4558   1.2456049053e+02   3.9763125353e+01    0.3801441    0.1617496  54.01  0.001735932    2.314    0.568
       250  -9.1832    177.5518    160.8372   8.1827022351e+01   1.3680340062e+01    0.3322318     0.252836 -65.62 0.0008858303    1.746    0.427
       251  -8.8546    151.6459    161.1960   8.7804279904e+01   1.8852174613e+01     0.321237    0.2488808 -80.80 0.0009014641    1.752    0.429
       252  -8.7563     60.5086    160.1751   1.1053871043e+02   3.4597409429e+01    0.3198486    0.1913096  82.44 0.0009846893    2.005    0.501
       253  -8.7554    242.2245    160.0197   6.9002411722e+01   1.4348342523e+00     0.376431    0.2002171  20.24  0.001549338    2.775    0.640
       254  -9.9461    250.1697    157.8445   6.7202734648e+01   4.1580950896e-01    0.3830098    0.2196621 -33.20 0.0008092084    1.537    0.349
       255  -8.9397    246.5535    155.5293   6.7310549207e+01   1.3997824344e+00    0.3436872    0.1831767 -23.27  0.001265704    1.937    0.484
       256  -8.5767    227.2343    158.9104   7.1415644843e+01   4.3025386584e+00    0.2764465    0.1744861 -45.61  0.001112045    1.734    0.423
       257  -9.7027    105.8537    158.2258   9.8541787060e+01   2.8195440928e+01    0.4930102     0.329736  74.51  0.001188269    2.022    0.505
       258  -8.2873    237.1304    159.2018   6.9710195815e+01   2.4621332937e+00    0.1768397    0.1627044 -49.92 0.0007167094    1.363    0.266
       259  -8.4940    128.2852    159.0136   9.3017761009e+01   2.3915442544e+01    0.2722435    0.2024796  67.57 0.0007613461    1.613    0.380
       260  -8.3420    196.4983    158.0466   7.7187078303e+01   1.0390007522e+01    0.2206494    0.2098692 -81.15 0.0007146013    1.294    0.227
       261  -8.1895    188.1540    157.9304   7.8903007910e+01   1.2095006301e+01    0.2178446    0.1991447 -60.39 0.0005861055    1.282    0.220
       262  -9.1506    167.5673    157.3822   8.3298582217e+01   1.6416171501e+01    0.3356449    0.2776004 -86.93  0.001052298    1.624    0.384
       263  -8.5609    217.8896    156.5926   7.2644181636e+01   6.4558594002e+00    0.2827017    0.1750292 -50.43 0.0009259644    1.960    0.490
       264  -8.7578    157.8030    156.3650   8.5323720944e+01   1.8630625597e+01    0.2558732    0.2097278 -60.61 0.0007618547    1.376    0.273
       265  -9.4114    119.5015    155.2739   9.4475936757e+01   2.6425289529e+01    0.4250495    0.2937784 -80.78  0.001611876    1.959    0.490
       266  -9.4296     81.6909    155.1570   1.0427926132e+02   3.2854961497e+01    0.4848983    0.2640601  62.12   0.00197188    2.436    0.590
       267  -9.2846     49.3846    155.1830   1.1270335170e+02   3.7153816306e+01    0.3855517    0.2214591  80.78  0.001524168    2.071    0.517
       268  -9.3277    242.6513    149.8520   6.6739570236e+01   2.9993323575e+00    0.3093398    0.2914079   7.32  0.001728829    1.167    0.143
       269  -8.3484    237.4393    150.4967   6.7768497436e+01   3.8350032239e+00    0.1953056    0.1276271  31.05 5.210787e-05    1.652    0.395
       270  -8.4737    242.8121    154.8660   6.7798227836e+01   2.1591934723e+00    0.2058745    0.1710856 -41.11 0.0004338672    1.306    0.234
       271  -8.1548    239.7636    153.0558   6.7926826768e+01   2.9945062463e+00    0.2013265     0.179578 -41.15  0.000666982    1.270    0.212
       272  -7.9753    204.6496    155.2641   7.4919391943e+01   9.2777071650e+00    0.1991571     0.130671 -29.08 0.0005639513    1.520    0.342
       273  -8.8508    144.5032    154.6874   8.8126821137e+01   2.1695231064e+01    0.3220295    0.2658315 -64.67  0.001082344    1.350    0.259
       274  -9.7050    132.8278    153.0122   9.0644109911e+01   2.4391499855e+01    0.4679519    0.3627077  85.60  0.001229021    1.682    0.406
       275  -9.0133    133.4975    148.5092   8.9508409594e+01   2.5276654837e+01    0.2942781    0.2430428 -24.25 0.0008894172    1.377    0.274
       276  -9.7823     67.9311    153.7580   1.0767021359e+02   3.5165000730e+01    0.4410866    0.2522977  74.87  0.001319175    2.443    0.591
       277 -10.3703    148.9981    145.1355   8.4915830995e+01   2.2866981189e+01    0.5971172    0.4113612 -77.76  0.001724122    2.295    0.564
       278  -8.8783    150.4351    136.4364   8.2531726110e+01   2.4465523730e+01    0.4912349    0.3042739  11.78  0.001683276    3.059    0.673
       279  -9.6420     29.4459    150.8139   1.1726060772e+02   4.0295676407e+01     0.446729    0.2077966  70.52  0.001888923    2.851    0.649
       280  -9.0067      2.9066    149.6816   1.2369439332e+02   4.2721751842e+01    0.4685034    0.1233542 -75.57  0.001896187    2.961    0.662
       281  -9.6530    248.7699    149.5324   6.5654932118e+01   1.9692447532e+00    0.3509872    0.1891833 -35.88 0.0008817567    1.642    0.391
       282  -8.9057    189.4496    150.3165   7.6919249826e+01   1.3299302128e+01    0.3264629    0.2295445 -57.09 0.0008317905    1.767    0.434
       283  -8.1356    182.2313    151.2246   7.8668738466e+01   1.4621736385e+01    0.2011895    0.1810108 -80.72 0.0005103496    1.376    0.273
       284  -8.2219    162.5784    150.7806   8.2974536011e+01   1.8819977886e+01    0.2136126    0.1466347 -55.65   0.00069589    1.656    0.396
       285  -8.5371     98.4960    151.0009   9.9097942604e+01   3.1167550546e+01    0.2818717    0.1950416  59.43 0.0009975856    1.604    0.376
       286  -8.1383    212.8927    149.8606   7.2095867753e+01   8.6207948117e+00    0.2172837     0.182257  -2.75 0.0003734663    1.186    0.157
       287  -8.4531    198.8198    149.0778   7.4696903537e+01   1.1603162884e+01    0.2164264     0.198937 -54.27 0.0004612054    1.239    0.193
       288 -10.0309    139.6573    145.6855   8.7339911035e+01   2.4671596206e+01    0.5852323    0.3861334  88.69  0.002061239    2.900    0.655
       289 -10.2017     89.0674    145.7003   1.0061958077e+02   3.3994336705e+01    0.8519178    0.4361483 -76.30  0.003015951    3.052    0.672
       290  -9.7722     57.2227    135.6007   1.0765960618e+02   4.0990739015e+01    0.4321398    0.2112582  14.52  0.001607519    3.662    0.727
       291 -10.3193     54.6112    144.6548   1.0982790636e+02   3.9090213158e+01    0.8439261    0.4070573  71.20  0.002685255    3.828    0.739
       292  -8.6347     51.3160    138.3378   1.0976097790e+02   4.1025894550e+01    0.2601892    0.1862932 -29.57  0.001162724    1.818    0.450
       293  -8.1952     52.3220    149.3116   1.1112779787e+02   3.8229533562e+01    0.1337637   0.09705712 -39.37 0.0007038187    1.652    0.395
       294  -9.8839     39.6928    147.5885   1.1422417715e+02   4.0053115548e+01    0.5568603    0.3082095  76.27  0.002279683    2.192    0.544
       295  -8.8750    233.4861    147.5304   6.7801104847e+01   5.0586552744e+00    0.2817398    0.1266705 -35.46 0.0007547931    2.031    0.508
       296  -9.1784     78.2248    147.2828   1.0384886639e+02   3.5278914558e+01    0.3482346     0.220113  77.86  0.001094204    2.145    0.534
       297  -8.2735    223.1686    146.8397   6.9490572549e+01   7.1403360589e+00    0.2042684    0.1889148 -44.07 0.0003723763    1.216    0.178
       298  -7.9162    206.7827    146.7265   7.2569302029e+01   1.0415327365e+01    0.1903382    0.1730381 -64.49 0.0005759942    1.334    0.250
       299  -9.3567     13.2982    146.2148   1.2084427910e+02   4.2769069205e+01    0.3544607    0.1883577  79.84  0.001189869    1.919    0.479
       300  -9.4440    240.1784    145.2335   6.6143956332e+01   4.2033496966e+00    0.2640741    0.1830942 -38.23 0.0005734189    1.349    0.259
       301  -9.9894    243.1232    142.2526   6.4994045173e+01   4.1548712204e+00    0.4369244    0.1862583 -28.65  0.001723517    2.423    0.587
       302  -9.0208    165.4723    144.1507   8.0786398313e+01   1.9599965150e+01    0.3132719    0.2643241 -76.05 0.0006830372    1.471    0.320
       303  -9.8750    125.1139    142.8237   9.0404222745e+01   2.8231474849e+01    0.5230039    0.3567378 -87.59  0.001438878    2.328    0.570
       304 -10.9724     69.4095    140.8738   1.0514382142e+02   3.8104517268e+01    0.6354735    0.4170318 -55.48   0.00221129    1.417    0.294
       305  -9.9472     69.1473    134.6728   1.0410584620e+02   3.9662610012e+01    0.4317305    0.2777485  -3.60  0.001813635    2.767    0.639
       306  -9.0507    246.9930    143.8893   6.4718655466e+01   3.1891155280e+00    0.2624074    0.1750543 -27.27 0.0007025031    1.337    0.252
       307  -8.2337    250.4884    140.9715   6.3517645578e+01   3.0356210248e+00    0.1960765    0.1559717 -28.27 0.0005651749    1.089    0.082
       308  -7.6399    194.3811    144.1805   7.4477186294e+01   1.3453691275e+01    0.2039677    0.1364451 -49.76 0.0004174416    1.641    0.391
       309 -10.3627    106.7639    143.9715   9.5498159091e+01   3.1406042191e+01    0.8818204    0.5880303 -85.62  0.002506655    2.169    0.539
       310  -9.5503      2.6535    141.7761   1.2308543852e+02   4.4568800569e+01    0.3653301    0.1733546  76.13  0.001768638    2.238    0.553
       311  -9.8307     23.4738    138.3352   1.1736668120e+02   4.3817329373e+01      0.49717    0.2445095  67.58  0.002054473    2.567    0.610
       312  -8.5985    172.0474    138.2697   7.7898032095e+01   1.9406816033e+01    0.2669469    0.2152264 -69.06 0.0005349776    1.550    0.355
       313  -8.1557    175.4487    146.2648   7.9019396451e+01   1.7042051025e+01    0.2079285    0.1459568 -52.86 0.0007753674    1.586    0.370
       314  -7.8226    218.5264    138.5118   6.8443330585e+01   9.5246508419e+00    0.1463725    0.1330965 -17.09 4.955532e-05    1.004    0.004
       315  -8.2752    207.3200    138.0055   7.0443494739e+01   1.1911782769e+01    0.2136695     0.180318 -35.77 0.0006034529    1.142    0.125
       316  -8.6274    197.7314    137.6407   7.2256325264e+01   1.3996267789e+01    0.2919188    0.1944768 -49.24 0.0007351012    1.622    0.383
       317  -9.4289    139.7986    137.1293   8.5337231779e+01   2.6558564936e+01    0.3138973    0.2123393  13.94  0.001248905    2.188    0.543
       318  -9.2817     39.0971    136.2149   1.1283911030e+02   4.2875368555e+01    0.2724402    0.1748334  74.47 0.0007035569    1.762    0.432
       319  -8.4098    246.8406    130.1798   6.1708608617e+01   5.4468430391e+00    0.2335984    0.1657769 -40.74 0.0006546958    1.310    0.237
       320  -9.1543    248.4192    135.3436   6.2608429077e+01   4.3155308439e+00    0.3071141    0.2036218 -39.43 0.0007172207    1.379    0.275
       321  -8.9831    250.7096    130.2531   6.1121726846e+01   4.7213497593e+00    0.4363695    0.1226938 -33.92  0.001457433    3.287    0.696
       322  -7.8196    187.9900    135.9796   7.3871341726e+01   1.6407002796e+01    0.1853873    0.1719799 -23.48 0.0004100919    1.039    0.038
       323  -8.0525    162.4045    136.2943   7.9636899320e+01   2.1913962715e+01    0.2167543    0.1476306 -53.25 0.0006738988    1.602    0.376
       324 -10.3722     83.5116    132.9807   9.9676649356e+01   3.7967193257e+01    0.5737098    0.3577514 -75.23  0.001416363    1.925    0.481
       325 -10.2141    132.7614    131.7528   8.5860634042e+01   2.9231803802e+01    0.6868758    0.4799038 -86.75  0.001859704    2.297    0.565
       326  -7.9436    231.5364    133.8099   6.5046973063e+01   7.7610040943e+00    0.1950071    0.1241193 -44.48  0.000396678    1.564    0.361
       327  -8.6694    179.3618    133.8634   7.5211224690e+01   1.8708126571e+01     0.291464    0.2279934 -64.43 0.0009355468    1.576    0.366
       328  -9.2292    112.8532    133.2809   9.1527302058e+01   3.2821136684e+01    0.3691306    0.2866988 -86.41 0.0009652798    1.609    0.378
       329  -8.0179    237.3655    133.3083   6.3947716977e+01   6.7175923856e+00    0.1978877    0.1178358 -41.80 0.0004405853    1.585    0.369
       330  -9.0964    143.1118    131.8383   8.3235946377e+01   2.7040776291e+01    0.3321194    0.2521545 -71.61 0.0008524545    1.666    0.400
       331 -10.4728     98.2367    130.2401   9.4906903429e+01   3.6201223114e+01    0.7274724    0.3451413 -56.10  0.001657955    2.082    0.520
       332 -10.2132     73.1710    128.7076   1.0180534584e+02   4.0561063370e+01    0.5894361    0.3243247 -65.96  0.001557093    1.834    0.455
       333 -10.1674     12.8322    128.6445   1.1911150063e+02   4.6963989195e+01       0.6425    0.2813773 -88.36  0.002651053    2.482    0.597
       334  -7.8569    220.6166    130.1919   6.6124175564e+01   1.0578421068e+01    0.2024283     0.130412 -27.19 0.0004401072    1.537    0.349
       335  -8.0359    204.4327    130.2481   6.9160817810e+01   1.3960475204e+01    0.2056194    0.1365282 -46.97 0.0006808103    1.554    0.356
       336  -7.9313    192.6442    129.9015   7.1430794869e+01   1.6578072699e+01    0.2152303    0.1357171 -48.24 0.0005093447    1.670    0.401
       337  -9.2869    168.2747    129.3141   7.6569872261e+01   2.2086996200e+01     0.336818    0.2527652 -59.81 0.0006526107    1.558    0.358
       338  -9.4094    152.9996    129.2914   8.0165528312e+01   2.5463731856e+01    0.3738401    0.2506141 -54.98 0.0008503096    1.648    0.393
       339  -8.1218    211.6440    129.3295   6.7565231450e+01   1.2598494369e+01    0.2201522    0.1741941 -70.65 0.0007020981    1.696    0.410
       340 -10.4679     59.9313    125.0073   1.0499347101e+02   4.3256617828e+01    0.7502334    0.4312678  79.77  0.002436521    2.891    0.654
       341  -8.7679     58.7979    115.6988   1.0352264475e+02   4.5678011517e+01    0.3958625    0.2313091 -19.99  0.001594525    2.926    0.658
       342 -10.7135     44.9941    123.7360   1.0920773565e+02   4.5311768806e+01     1.068024     0.541849  77.24  0.003828368    3.790    0.736
       343  -8.0031     25.9605    130.0000   1.1564438457e+02   4.5612542334e+01    0.1816954   0.07447438  24.29 0.0007020433    2.942    0.660
       344 -10.1056    118.3735    125.5287   8.8195110380e+01   3.3571998409e+01    0.6808274    0.4147153  69.54  0.001767135    2.858    0.650
       345  -8.4625    228.4818    125.5071   6.3649121080e+01   9.7976001543e+00    0.1444121    0.1304327 -29.73 0.0008100933    1.037    0.035
       346  -8.3793    199.8798    124.5507   6.8665535546e+01   1.6014869881e+01    0.2264071    0.1952137 -35.30 0.0006393979    1.109    0.098
       347  -8.9227    179.2684    124.7231   7.2971269864e+01   2.0565942601e+01    0.2953473    0.2440893 -78.42 0.0006568323    1.546    0.353
       348 -10.1861     28.7259    122.7536   1.1384834310e+02   4.7127732176e+01    0.6703933    0.3222214  70.78  0.002639815    3.402    0.706
       349  -7.9534    243.8384    124.3539   6.0868031009e+01   6.9701754578e+00    0.1983542    0.1509476 -37.36 0.0004450988    1.179    0.152
       350  -7.7040    188.6820    124.3175   7.0870867900e+01   1.8537582029e+01     0.154493    0.1236931 -76.63 0.0003958341    1.656    0.396
       351  -9.4005    158.6912    121.8419   7.6915354729e+01   2.5794614615e+01    0.4550097    0.3030513 -72.23  0.001479303    2.412    0.585
       352  -8.2039    181.9957    141.9582   7.6575868636e+01   1.6513996425e+01    0.2308486    0.1905627 -81.06 0.0005221287    1.630    0.387
       353  -8.5365     84.5920    122.9466   9.7240281105e+01   4.0239564194e+01    0.3284926    0.2256561   6.80  0.001444434    2.147    0.534
       354  -7.9244    194.9763    122.1842   6.9054290037e+01   1.7546645092e+01    0.2231372     0.162034 -56.37 0.0005858742    1.588    0.370
       355  -8.8700    171.9782    121.5286   7.3768780344e+01   2.2857361113e+01    0.2884755    0.2120129 -55.57 0.0005118814    1.517    0.341
       356  -9.5861     70.9618    119.8227   1.0064636487e+02   4.3049591628e+01    0.3997643    0.2645597 -87.68  0.001140438    2.042    0.510
       357  -9.8275    141.5894    118.6872   8.0312787222e+01   3.0274138865e+01    0.4787741    0.3352206 -69.81  0.001036442    1.957    0.489
       358  -9.8049    130.6730    118.5231   8.3115336486e+01   3.2659942773e+01    0.3792852    0.2908623 -78.00  0.000990042    1.717    0.418
       359  -9.6063      2.7931    117.3065   1.2062637256e+02   5.0290596228e+01     0.445504    0.2057282  76.92  0.002034169    2.746    0.636
       360  -7.7947    231.4838    117.5193   6.1272871816e+01   1.0560930563e+01    0.1439236    0.1292721 -34.95  0.000809753    1.044    0.042
       361  -9.9688    109.3785    114.2196   8.7898863705e+01   3.7953390922e+01    0.6191592     0.416001 -83.61   0.00169114    2.495    0.599
       362  -9.2013    108.7920    107.9770   8.6438609242e+01   3.9504179607e+01    0.4123107       0.2689  -1.30  0.001517458    2.790    0.642
       363  -8.1514    193.0330    115.4740   6.7755444935e+01   1.9262814042e+01    0.2436632    0.1920988 -37.47 0.0004611929    1.219    0.180
       364  -8.1767    185.5592    116.0500   6.9428545628e+01   2.0853677666e+01    0.2337742    0.1479233 -40.58 0.0005299208    1.533    0.348
       365  -8.0002    249.9909    115.2124   5.7859771465e+01   7.2890336550e+00     0.169242    0.1130481  51.45 0.0008747139    1.726    0.421
       366 -10.1641     78.9729    112.4989   9.6565155172e+01   4.3641670369e+01     0.712944    0.4392483 -85.04   0.00179627    2.770    0.639
       367  -8.7407     78.3451    105.3160   9.5034456024e+01   4.5451602159e+01     0.361674    0.2045761  15.44  0.001401505    2.762    0.638
       368  -7.7858    167.4442    114.5250   7.2975221906e+01   2.5321768979e+01    0.1570837    0.1523595 -58.98 0.0001958802    1.072    0.067
       369 -10.0645    121.8622    112.6431   8.3968820214e+01   3.5824692912e+01    0.4022869    0.3043167 -71.23 0.0007702518    1.650    0.394
       370 -10.4249     92.8664    111.4084   9.2053971731e+01   4.1631512759e+01    0.9414235    0.3922375 -52.28  0.002772609    2.287    0.563
       371  -8.7252     26.9331    113.8052   1.1303307230e+02   4.9443842143e+01    0.1990986    0.1526251 -47.45  0.000766233    1.265    0.209
       372 -10.2473    133.5021    109.6654   8.0019411786e+01   3.4017876663e+01     0.668482    0.3474011 -51.08  0.001878743    2.054    0.513
       373 -10.0692     14.1960    111.4104   1.1655218062e+02   5.0976097930e+01     0.451525    0.2291545  72.38  0.001723977    2.760    0.638
       374  -7.6717    200.2105    112.0027   6.5469702356e+01   1.8290457011e+01    0.2012074     0.117936 -37.10 0.0003265186    1.626    0.385
       375  -8.4390    174.7584    111.9069   7.0654910784e+01   2.4157607794e+01    0.2936381    0.2064662 -55.79 0.0007022229    1.611    0.379
       376  -8.5061    159.1638    111.7487   7.4156287024e+01   2.7799594533e+01    0.2701344    0.2104012 -53.25 0.0005689113    1.359    0.264
       377 -10.3384     66.3461    109.8819   9.9916917502e+01   4.6103244170e+01    0.6099941    0.3279242 -62.81  0.002123292    1.835    0.455
       378 -10.5928    248.2566    108.6759   5.6628833096e+01   8.6806781694e+00    0.5175827      0.27894 -29.77  0.002387062    1.755    0.430
       379 -10.2966    248.9797    102.2245   5.5051596840e+01   9.5772538058e+00    0.3891684    0.3107896  55.92  0.002239945    1.442    0.306
       380  -7.8324    182.7259    109.3786   6.8287329426e+01   2.2802116727e+01    0.1612458    0.1205134 -67.08 0.0005845742    1.698    0.411
       381  -8.8161     43.0754    109.4593   1.0723704191e+02   4.8992558841e+01    0.2820367    0.1412806  14.33  0.001208201    2.867    0.651
       382  -8.2613    189.3935    108.1820   6.6608595754e+01   2.1483236440e+01    0.2211868    0.1382069 -47.98 0.0004952363    1.648    0.393
       383  -9.2516    139.8635    104.7673   7.7011216509e+01   3.3667150577e+01     0.387175    0.2956881 -84.09 0.0008543261    1.849    0.459
       384 -10.1430    119.7281    105.7313   8.2702494046e+01   3.7815813792e+01    0.3427305    0.2259329  35.94  0.001209631    1.604    0.376
       385 -10.5751     45.5364    102.2853   1.0500886355e+02   5.0461448879e+01    0.7768461    0.4509043  73.98  0.002984943    3.084    0.676
       386  -9.4519     45.6175     92.6443   1.0287136477e+02   5.2738139336e+01    0.4309768    0.2410182   1.05  0.001858225    2.835    0.647
       387 -10.6359     22.7370    102.5642   1.1253144282e+02   5.2471474394e+01    0.7082562    0.3794941  77.68  0.002726307    2.889    0.654
       388  -8.4725    166.7601    104.3039   7.0390535565e+01   2.7541712110e+01    0.2733485    0.2027054 -50.26 0.0007064287    1.402    0.287
       389  -9.5994    150.5510    103.1966   7.3890209374e+01   3.1557271120e+01    0.4911431    0.3083161 -63.20  0.001257086    2.254    0.556
       390  -9.9407    128.4211    102.2275   7.9327195934e+01   3.6740575216e+01    0.3335494    0.2752337 -68.29 0.0007818319    1.416    0.294
       391  -8.9212      6.5012    102.7347   1.1771921214e+02   5.3504356038e+01    0.2566374    0.1588223  77.92 0.0009386227    1.846    0.458
       392  -7.9567    175.5432    102.0681   6.7854334046e+01   2.5904181557e+01    0.2375658     0.151263 -39.58 0.0004520347    1.534    0.348
       393 -10.3946    108.9050     98.8575   8.3904105762e+01   4.1537616507e+01    0.6414845    0.4462241  79.70  0.001225687    2.447    0.591
       394  -9.1469    108.6209     92.3094   8.2101805955e+01   4.3029183627e+01    0.5582408    0.2689904  29.31  0.001907839    2.904    0.656
       395  -8.3055    159.7238    100.8106   7.1037518360e+01   2.9898002049e+01    0.3128605    0.1770039 -57.45  0.000948694    2.358    0.576
       396  -9.3192     82.1655    100.0512   9.2476595992e+01   4.6083612863e+01    0.3779066    0.2509647 -70.63 0.0009839844    1.924    0.480
       397  -9.3706     94.9182     97.0927   8.7648627393e+01   4.4581616489e+01    0.3172871     0.264739 -61.50 0.0005347304    1.278    0.218
       398 -10.3697     63.8011     95.8295   9.7422609919e+01   4.9789643753e+01    0.5768785    0.3831023  87.22  0.001804578    2.533    0.605
       399  -8.8261    151.2589     95.6659   7.1590182383e+01   3.2923565944e+01    0.3196746    0.1849743  28.80  0.001045115    2.402    0.584
       400  -7.9786    249.6850     95.6980   5.3460993370e+01   1.0476714526e+01     0.131856    0.1038505   3.93 0.0003112491    1.616    0.381
       401  -8.3737    176.3871     93.2502   6.5259212872e+01   2.7380575235e+01    0.2728552    0.1857529 -46.12 0.0005281267    1.478    0.323
       402  -8.0980    164.8267     94.0305   6.7971648772e+01   3.0015753769e+01    0.2561673    0.1725531 -62.74 0.0004849742    1.931    0.482
       403 -10.8791    123.7479     90.7367   7.7281551899e+01   4.0196809729e+01    0.7032642    0.5550769 -28.71  0.002438513    1.305    0.234
       404  -9.2785    138.9827     92.4408   7.3713649833e+01   3.6431798095e+01    0.3559992    0.2695048  85.86  0.000888248    1.884    0.469
       405  -9.4378      5.2350     92.3047   1.1662390148e+02   5.6005379086e+01    0.2800988    0.1669276  72.16 0.0009750851    2.161    0.537
       406  -7.9918    157.8091     91.8276   6.8938643916e+01   3.2125056455e+01    0.2122882    0.1840358 -69.12 0.0004256485    1.301    0.231
       407  -9.7843     34.9852     89.2373   1.0582521991e+02   5.4594079466e+01    0.7294692    0.2857601 -66.82  0.002910093    2.623    0.619
       408  -9.1963     22.8344     90.2487   1.1028831954e+02   5.5368418737e+01    0.3026242    0.2595147 -25.97  0.001427168    1.262    0.208
       409  -8.0864    151.1678     89.1671   6.9728199511e+01   3.4228499451e+01    0.2191288    0.1852447 -65.48 0.0005020348    1.343    0.255
       410 -10.4587     86.7787     85.4905   8.6909412126e+01   4.8598423961e+01    0.8461616    0.4904996 -42.71   0.00152758    1.623    0.384
       411  -9.9515    246.6995     88.1977   5.2138074258e+01   1.2261583665e+01    0.2709501    0.1934716  46.42   0.00145874    1.624    0.384
       412  -8.7976     64.5912     87.7731   9.5058788073e+01   5.1541143197e+01    0.3271787    0.1968417   4.00  0.001369648    2.598    0.615
       413  -9.9266     48.4104     83.8721   9.9756265595e+01   5.4459417831e+01    0.5706491    0.3751668 -75.34  0.002176344    1.938    0.484
       414  -9.9301    104.7794     83.3042   8.0543315739e+01   4.5709459373e+01    0.4973597    0.3487507 -67.96 0.0009901526    2.032    0.508
       415  -9.1801    105.5080     77.0092   7.8336549357e+01   4.6850447390e+01    0.2979114    0.1987137  16.86  0.000889785    1.985    0.496
       416  -8.3381    158.0054     84.0205   6.6621196989e+01   3.3564956373e+01    0.2360637    0.2252073 -48.14 0.0004570044    1.060    0.056
       417  -9.1597    140.8704     83.0982   7.0439858612e+01   3.7842816497e+01    0.3888517    0.2142565 -51.10  0.000990211    2.096    0.523
       418  -9.6008      9.7113     80.9438   1.1318130557e+02   5.8373371535e+01    0.3770682     0.212998  68.78  0.001698779    2.787    0.641
       419  -7.9991    184.9761     82.7412   6.0629564521e+01   2.7201611502e+01     0.195345    0.1321613  55.02 0.0008732156    1.502    0.334
       420  -8.4285    150.4530     80.8132   6.7413606125e+01   3.5992078579e+01    0.3037212     0.204035 -56.51 0.0009243718    1.773    0.436
       421  -9.3657    119.0560     79.6891   7.5208580216e+01   4.3464312158e+01    0.4484327    0.3035865 -52.78  0.001665958    1.661    0.398
       422  -8.8995     74.4925     80.1654   8.9456530246e+01   5.1779730936e+01     0.376532      0.21658 -59.69  0.001403908    2.064    0.516
       423  -8.2968    248.8918     80.6582   5.0116539730e+01   1.2982062914e+01    0.2548133    0.1136772  50.96  0.001097858    2.553    0.608
       424  -8.1767    166.7112     79.9408   6.3512261122e+01   3.2182740908e+01    0.2213895    0.1909433 -36.02 0.0004587038    1.157    0.136
       425  -7.5845    179.3044     85.6780   6.2555520392e+01   2.8063224403e+01      0.15875     0.119844 -70.52 0.0004234457    1.636    0.389
       426  -9.7117     24.5894     80.4455   1.0765311220e+02   5.7498292331e+01    0.4363618    0.2591223 -88.87  0.001331023    2.487    0.598
       427 -10.0241     63.6061     74.1603   9.1508290704e+01   5.4689621803e+01    0.6244517    0.3062874 -61.52  0.002232861    2.789    0.641
       428  -8.5927     63.8919     64.2290   8.8248146128e+01   5.6719525078e+01    0.3553203    0.1603155 -32.71  0.001387408    2.547    0.607
       429  -8.3058    202.1462     76.8205   5.5956194400e+01   2.4051366577e+01    0.2066979    0.1772204  -5.01 0.0006838088    1.359    0.264
       430  -9.4098    128.0760     75.4864   7.1387910490e+01   4.2264938090e+01    0.3645748    0.2647884 -58.91 0.0006999191    1.684    0.406
       431  -8.6807    140.6407     75.5075   6.8157359804e+01   3.9328319642e+01    0.2977121    0.2230325 -64.44 0.0007157575    1.682    0.405
       432  -9.7025     82.3291     72.6042   8.4399057639e+01   5.2093711432e+01    0.4287441    0.3059407 -66.90  0.001195363    1.975    0.494
       433  -8.9239     83.8720     65.0367   8.1349266518e+01   5.3335819162e+01    0.5119098    0.2859558  -9.15  0.001691731    3.881    0.742
       434  -8.2811    163.4817     73.4321   6.2278445345e+01   3.4130344544e+01    0.2965808     0.150533 -36.24 0.0009077119    1.965    0.491
       435  -8.1211    175.4182     72.7690   5.9654387714e+01   3.1278544322e+01    0.2032688    0.1486845 -20.76 0.0003568397    1.547    0.354
       436  -7.8905    151.5232     73.5014   6.4939045826e+01   3.7064356099e+01    0.1539501    0.1498385 -78.27 0.0002522258    1.073    0.068
       437  -8.6100    115.5067     72.7188   7.3982487048e+01   4.5590627515e+01     0.304398    0.1475278 -39.42 0.0009563969    2.043    0.511
       438  -9.2112    105.9351     71.8134   7.6513819573e+01   4.7787343787e+01    0.3151315    0.2169458 -51.16 0.0006356653    1.615    0.381
       439  -9.3389     95.2445     71.3563   7.9704790592e+01   5.0000304701e+01    0.3967831    0.2418815 -55.60 0.0009686656    2.044    0.511
       440  -8.6729     95.2293     65.3238   7.7674640899e+01   5.1170795136e+01     0.388683    0.2316569 -12.65  0.001498806    2.622    0.619
       441  -9.4495     97.5887     60.6414   7.5290747026e+01   5.1574256801e+01    0.3854305     0.312685 -34.27  0.001503315    1.212    0.175
       442  -8.4364     42.5075     72.5345   9.8936749426e+01   5.7641476214e+01    0.2387523    0.1231575 -66.67  0.001027154    2.423    0.587
       443  -9.2547     29.5479     70.6171   1.0344496584e+02   5.9302150196e+01    0.5727751    0.2495725 -13.76  0.001864131    5.435    0.816
       444  -9.7368     51.3847     69.5202   9.4666913832e+01   5.7284652964e+01    0.4401615     0.235119 -64.09  0.001440256    2.457    0.593
       445  -7.7995    156.8611     76.5900   6.4667552709e+01   3.5205424558e+01    0.2096511    0.1499526  67.71 0.0006466956    1.595    0.373
       446  -7.7457    157.2759     69.6823   6.2481584251e+01   3.6315651838e+01    0.1538283    0.1191776 -68.74 0.0003101126    1.570    0.363
       447  -8.7008    147.0797     68.3660   6.4370560466e+01   3.9051262139e+01    0.2930081    0.2163738 -43.50 0.0006120859    1.392    0.282
       448  -9.0757    138.8377     66.3047   6.5679899077e+01   4.1404505843e+01    0.3319085    0.2057092 -50.36 0.0008406362    1.850    0.459
       449  -8.8075    121.8245     66.1784   7.0044670883e+01   4.5400763376e+01    0.3302877    0.2021352 -50.81  0.001008703    1.921    0.480
       450  -8.7957     37.3154     64.6009   9.8723955856e+01   5.9889278992e+01    0.2456302    0.2041861  87.27 0.0009233528    1.698    0.411
       451  -8.9719    110.1042     63.7618   7.2553558003e+01   4.8418238686e+01    0.2865994    0.2356736 -59.00 0.0006733344    1.472    0.321
       452  -7.9702    158.1243     61.8599   5.9896279478e+01   3.7408282560e+01    0.2029565     0.176854  17.28 0.0003150333    1.268    0.211
       453  -8.9152     16.7418     70.3242   1.0837622129e+02   6.0334085325e+01    0.2311109    0.1800858  79.51  0.001103118    1.690    0.408
       454  -9.6880     73.4686     59.5865   8.3122827882e+01   5.6157901882e+01    0.4006598    0.2681156 -54.33  0.001046299    1.781    0.439
       455  -9.9248     23.4948     56.5149   1.0209510566e+02   6.2825655499e+01    0.4215207    0.2756429 -89.01  0.002018755    2.803    0.643
       456  -8.4726    130.8202     57.8022   6.4866082332e+01   4.4752142836e+01    0.2794578    0.1844921 -57.87 0.0006300974    2.006    0.502
       457  -9.4792      7.4037     57.1958   1.0909478025e+02   6.3740643648e+01    0.2619585    0.1907746 -83.09 0.0009041098    1.672    0.402
       458  -8.3047    140.0302     56.0896   6.2061006193e+01   4.2811647157e+01     0.236824    0.1791818 -67.32 0.0005556373    1.699    0.412
       459  -8.7778    119.1390     55.7873   6.7231441094e+01   4.7798467593e+01    0.2475571    0.1980252 -47.82 0.0006897369    1.388    0.279
       460  -9.3055     54.0284     55.0444   8.8936267681e+01   5.9909259238e+01    0.3140168    0.2367465 -67.55 0.0009893944    1.912    0.477
       461  -8.7578     44.0182     55.5458   9.3171325255e+01   6.1045025715e+01    0.2375074    0.1749983 -61.02  0.000903044    1.616    0.381
       462  -8.2578    152.0826     53.9054   5.8672202950e+01   4.0171513192e+01     0.232625    0.1716299  25.51  0.000495536    1.597    0.374
       463  -8.5492    105.8998     53.4229   7.0155832496e+01   5.1111591588e+01    0.2639208    0.1981393 -50.76 0.0007173302    1.575    0.365
       464  -7.9477    147.0179     59.0195   6.1413517190e+01   4.0628071471e+01    0.1872794    0.1676339 -29.61 0.0005468809    1.145    0.127
       465  -9.5619     92.3944     50.6991   7.3350388002e+01   5.4341096927e+01    0.3785436    0.2459051 -46.35   0.00109588    1.741    0.426
       466  -7.9972    144.6434     48.8603   5.8634847676e+01   4.2782454288e+01    0.2057307    0.1317334 -42.72  0.000441817    1.656    0.396
       467  -8.2327    129.7603     49.1712   6.2184373505e+01   4.6365162199e+01    0.2317942    0.1818675 -52.00  0.000536711    1.464    0.317
       468  -9.0130    120.9238     47.5096   6.3837027352e+01   4.8697415849e+01     0.262192    0.2129545 -26.01 0.0004737447    1.260    0.206
       469  -8.2753    112.2706     47.0607   6.6008071018e+01   5.0736575936e+01    0.1991679    0.1844517 -25.73 0.0005213837    1.130    0.115
       470  -8.9378     82.1378     46.6706   7.5262275081e+01   5.6967666049e+01    0.2551179    0.2328382 -56.63 0.0007504025    1.408    0.290
       471  -8.3573    156.3348     46.6479   5.5497628684e+01   4.0173459015e+01    0.1573137    0.1115833 -68.78 0.0007045692    1.787    0.440
       472  -8.3546     45.0874     44.8311   8.8939720763e+01   6.2981832581e+01    0.1788502    0.1661127 -30.92 0.0004899436    1.264    0.209
       473  -8.9675     16.5212     44.7845   1.0166543890e+02   6.5737795219e+01    0.1961429    0.1808549 -77.29 0.0006710646    1.455    0.313
       474  -8.9400    132.9698     43.5579   5.9476692233e+01   4.6415227671e+01      0.27089    0.1945527 -49.77 0.0006480497    1.604    0.376
       475  -8.7158     92.8763     42.8259   7.0197427856e+01   5.5515002774e+01    0.2880277    0.1892943 -14.24  0.001293807    1.696    0.410
       476  -9.4186     69.5895     41.4579   7.7743011601e+01   6.0030054368e+01    0.4292065    0.2421682 -47.85  0.001704345    2.140    0.533
       477  -9.1012     58.2710     42.8115   8.2688489253e+01   6.1574436363e+01    0.2778076    0.1985905 -56.56  0.001118653    1.943    0.485
       478  -9.3759      5.3027     42.2979   1.0611432788e+02   6.6928575601e+01      0.27395    0.1870002 -77.22  0.001271842    1.901    0.474
       479  -8.4619    105.9658     41.4187   6.5693249999e+01   5.2975917241e+01    0.2590865    0.1909981 -47.47 0.0007370043    1.609    0.379
       480  -8.6476     36.7784     40.8663   9.1084818310e+01   6.4671329974e+01    0.2102948    0.1638691 -54.96 0.0006387702    1.548    0.354
       481  -8.6367     95.2943     37.8742   6.7501249793e+01   5.5762242156e+01    0.2477353    0.2081035 -56.45 0.0008566015    1.560    0.359
       482  -8.4053     80.5272     36.5350   7.1794230931e+01   5.8869041341e+01    0.2319378    0.1193293 -43.62 0.0006915562    2.263    0.558
       483  -9.2766     26.0839     35.3999   9.3951326378e+01   6.6750265490e+01    0.2698565    0.2109856 -62.09  0.000954184    1.718    0.418
       484  -8.1502    125.9416     35.6855   5.8352821940e+01   4.9183048444e+01    0.1970895    0.1745897  49.20 0.0004005689    1.074    0.069
       485  -8.4967    111.9842     34.9244   6.1571259194e+01   5.2542246660e+01    0.2100915    0.1728669 -68.89 0.0005350266    1.633    0.388
       486  -8.7238    119.1605     33.0809   5.9042755574e+01   5.1126594422e+01    0.2848626    0.1703164 -44.60 0.0006353039    1.966    0.491
       487  -9.0983     48.4962     33.2428   8.2870042237e+01   6.4568112783e+01    0.2769304    0.2004551 -39.48 0.0008079586    1.402    0.287
       488  -8.1215    139.2120     31.9378   5.4105268894e+01   4.6421606931e+01    0.1857996    0.1157295 -28.26 0.0008671703    1.706    0.414
       489  -8.6869     72.2119     31.3237   7.2575797882e+01   6.1149407411e+01    0.2217065    0.2030582 -79.66 0.0006802228    1.673    0.402
       490  -9.1645     12.8562     30.2856   9.8521360218e+01   6.8769587260e+01    0.2810096    0.1512055 -57.43  0.001499755    1.948    0.487
       491  -8.1815    101.4970     29.5472   6.2361728204e+01   5.5577228929e+01    0.2255054    0.1209957 -39.52  0.001010636    2.090    0.522
       492  -8.6625     60.6348     32.5252   7.7518012918e+01   6.2905606861e+01    0.2236079    0.1829065 -25.14 0.0006252607    1.186    0.157
       493  -8.8084     81.4297     27.5174   6.7718630751e+01   5.9971221935e+01     0.254572    0.2160021 -51.60  0.000896528    1.591    0.372
       494  -8.8277      3.7417     27.9033   1.0233268325e+02   6.9789388359e+01    0.1899986    0.1408026 -61.38  0.000604853    1.532    0.347
       495  -8.1081    136.6934     27.3819   5.3053884002e+01   4.7590938988e+01    0.1471671     0.105367 -64.12 0.0007023212    1.791    0.442
       496  -8.8078     91.8876     26.3860   6.3899147602e+01   5.8021280368e+01    0.2746555    0.1794009 -42.39 0.0007749844    1.836    0.455
       497  -8.0421    164.0831     24.3166   4.7145687460e+01   4.1045541029e+01    0.1902125    0.1656309  67.57 0.0002800896    1.053    0.051
       498  -8.5767    104.5124     23.0183   5.8931276370e+01   5.5703165632e+01    0.1966586    0.1319537 -25.28 0.0006549752    1.559    0.359
       499  -8.0612     34.9199     23.4555   8.4773664349e+01   6.7857647371e+01    0.1497597    0.1029268  50.53 0.0008078531    2.577    0.612
       500  -8.9634     63.5537     21.1472   7.1324495229e+01   6.4056722887e+01    0.2765148    0.1993655 -43.66 0.0008640783    1.794    0.443
       501  -8.9186     48.3828     21.8328   7.7872636091e+01   6.6342394001e+01    0.2211409    0.1818116 -16.13 0.0005532462    1.142    0.124
       502  -8.2713     19.6203     21.7973   9.1666772689e+01   6.9713522934e+01    0.1543908   0.09871215 -48.43  0.000568449    1.640    0.390
       503  -8.2341    120.5279     21.0536   5.4245531724e+01   5.2224686746e+01    0.1995112    0.1349477 -25.73  0.001022735    1.583    0.368
       504  -7.8298    131.4560     20.5120   5.1710321854e+01   4.9644394158e+01    0.1384078    0.1265618  51.19 7.623346e-05    1.026    0.025
       505  -8.9044     74.2124     19.6080   6.6719343747e+01   6.2348564789e+01    0.2309682    0.2024252 -52.32 0.0006908609    1.616    0.381
       506  -8.3186     87.8515     17.8007   6.1490353159e+01   5.9873725917e+01    0.1649392    0.1548653 -34.81 0.0004939445    1.318    0.241
       507  -8.9361    175.6370    247.7945   9.7654814859e+01  -9.8381887117e-01    0.2676246    0.2144704  72.13  0.001173727    1.911    0.477
       508  -7.6857    112.9660     16.9688   5.4433964924e+01   5.4432726380e+01    0.1612435    0.1445511  28.80  0.000354498    1.044    0.042
       509  -8.1158     30.0596     16.0735   8.3718372063e+01   6.9550156034e+01    0.1565144    0.1452879 -43.19 0.0007113488    1.666    0.400
       510  -7.6891      1.3821     16.7111   9.9420998113e+01   7.1928584980e+01    0.0929103   0.08647792  49.44  0.000701517    1.743    0.426
       511  -8.1256     97.1625     15.2180   5.7723146367e+01   5.8174987438e+01    0.1689132    0.1553315 -44.96 0.0004933693    1.346    0.257
       512  -7.8926      7.5096     15.5204   9.5478706615e+01   7.1733487206e+01    0.1137218   0.08594179 -26.00 -1.825616e-06    1.058    0.055
       513  -8.1086     17.2091     14.4061   8.9625143693e+01   7.1126769683e+01    0.1390123   0.09978604  25.68 0.0004309038    1.627    0.385
       514  -8.3616    113.1726    248.7552   1.0977162860e+02   8.5441203714e+00    0.1931289    0.1480773 -89.96 0.0008920769    1.534    0.348
       515  -7.4290     76.6339     10.3257   6.1668202566e+01   6.2926086900e+01    0.1188725    0.1027341 -69.53  0.000703746    1.801    0.445
       516  -9.3705    103.8788    246.7984   1.1133989325e+02   1.0254066733e+01    0.4107019    0.2176468 -84.52  0.001967689    3.101    0.678
       517  -8.8051    242.9033    246.6856   8.5183176374e+01  -1.0663719934e+01    0.3495807    0.1537981 -22.45  0.001535752    2.508    0.601
       518  -8.3106    218.5999    247.8650   8.9669957047e+01  -7.4463532237e+00    0.1897515    0.1457212 -44.57  0.001248916    1.923    0.480
       519  -9.0858    211.0058    246.6599   9.0864447847e+01  -6.1960166572e+00    0.2094547    0.1708562 -50.65 0.0008890961    1.918    0.479
       520  -8.3622    156.1877    248.1712   1.0143169862e+02   2.0008098685e+00    0.1599316    0.1288694  56.09 0.0004275251    1.355    0.262
       521  -8.7766    132.2446    247.9600   1.0602120492e+02   5.7689868344e+00    0.2154548    0.1388356  54.80 0.0005626202    1.503    0.335
       522  -8.8924    232.5333    246.5854   8.6978684562e+01  -9.2501103745e+00     0.285212    0.1521914 -29.80  0.001682836    1.975    0.494
       523  -9.8718    223.9944    244.2639   8.8129201585e+01  -7.7757236384e+00    0.4026959    0.2186777 -43.16  0.002222909    2.534    0.605
       524  -9.1967    120.3174    245.6452   1.0805625439e+02   7.9820186518e+00    0.3467629    0.2042232  70.08  0.001769316    2.402    0.584
       525  -8.6671     67.8521    245.6855   1.1799151380e+02   1.5476417452e+01    0.2694527    0.1317699  87.59  0.001373916    2.630    0.620
       526  -8.7064    146.7585    245.8955   1.0295760860e+02   3.8305627253e+00    0.2113565    0.1752635 -81.11  0.001015998    1.611    0.379
       527  -8.6518    147.0550    240.9192   1.0225151824e+02   4.5705292673e+00    0.3666966    0.2100505  67.44  0.001589185    3.340    0.701
       528  -8.9374      9.4601    244.1212   1.2805926980e+02   2.2471694554e+01      0.23864   0.07611655  88.27  0.001138741    3.304    0.697
       529  -8.7486    201.9059    243.5945   9.2073893591e+01  -4.4438862193e+00    0.1993254    0.1647388 -60.08  0.001152774    1.990    0.498
