#   1 NUMBER                 Running object number                                     
#   2 MAG_AUTO               Kron-like elliptical aperture magnitude                    [mag]
#   3 X_IMAGE                Object position along x                                    [pixel]
#   4 Y_IMAGE                Object position along y                                    [pixel]
#   5 X_WORLD                Barycenter position along world x axis                     [deg]
#   6 Y_WORLD                Barycenter position along world y axis                     [deg]
#   7 A_WORLD                Profile RMS along major axis (world units)                 [deg]
#   8 B_WORLD                Profile RMS along minor axis (world units)                 [deg]
#   9 THETA_WORLD            Position angle (CCW/world-x)                               [deg]
#  10 FWHM_WORLD             FWHM assuming a gaussian core                              [deg]
#  11 ELONGATION             A_IMAGE/B_IMAGE                                           
#  12 ELLIPTICITY            1 - B_IMAGE/A_IMAGE                                       
         1 -14.2301     68.9130    144.5095   9.5695817697e+01   3.7189093285e+01      4.36993     2.279688  72.79  0.003266537    4.974    0.799
         2 -13.5669    205.8566     42.7864   3.7197742981e+01   2.9131811226e+01     1.399307     1.245683  19.83  0.007002219    1.608    0.378
         3 -13.4513    218.2419     31.7191   3.3485696733e+01   2.7918462827e+01    0.9505836    0.7882605  40.49  0.006193946    1.727    0.421
         4 -12.7260    244.7764      6.6474   2.6546601091e+01   2.5550385431e+01    0.7578185    0.5421726 -68.88  0.005310431    1.033    0.032
         5 -10.3260     50.6672      3.5522   5.6522766453e+01   6.7764607901e+01    0.4450737    0.2247445  62.14  0.001968291    3.440    0.709
         6  -9.1230    123.1986    200.2616   9.0715742324e+01   1.4544352093e+01    0.1996775      0.17093  71.06 0.0005178655    1.352    0.260
         7 -10.8461    102.1587    249.8721   1.0259898157e+02   7.2837970781e+00    0.4128518    0.2247052  36.30  0.001619826    1.562    0.360
         8 -11.5680    101.3113    243.4935   1.0204299506e+02   8.6530507220e+00    0.4583412    0.2945561 -63.59  0.001988097    1.782    0.439
         9 -14.9442      5.2085    139.8215   1.1458114910e+02   4.4872408813e+01      6.42582     2.189832 -82.40   0.02335253    3.129    0.680
        10  -8.9171     80.9659    183.4461   9.8899517356e+01   2.5323444528e+01     0.214128     0.142377  34.08 0.0002863595    1.513    0.339
        11  -9.9309    111.3149    204.0874   9.4288454710e+01   1.5610568917e+01     0.241091     0.197223  20.16 0.0005626333    1.273    0.215
        12  -9.5048     99.3782    180.8978   9.3539602128e+01   2.3105384628e+01    0.2730365    0.2227678  20.78 0.0006628572    1.323    0.244
        13 -10.2769     86.3809    173.4332   9.5798310441e+01   2.7051722809e+01    0.4708788    0.3536699  -0.19  0.002194564    1.752    0.429
        14 -10.0098    243.1911    174.6274   6.0184778008e+01  -7.1054530101e-02    0.1727643    0.1158921  20.04 0.0009548344    1.744    0.427
        15 -11.4244     63.4482    171.9220   1.0194296088e+02   3.0740085634e+01    0.4912426     0.302266 -34.63  0.002129626    2.101    0.524
        16 -11.2726     68.2074    167.2214   9.9875064440e+01   3.1320114722e+01     0.390763    0.3183886 -17.25 0.0008230779    1.504    0.335
        17  -9.1221    186.1763    173.1452   7.0672073757e+01   9.4173495797e+00    0.2012376    0.1837221 -72.21  0.001097473    1.376    0.273
        18 -10.2899    114.2662    173.4136   8.8185116112e+01   2.2450171443e+01    0.3001387    0.1525582  30.54  0.001138207    2.105    0.525
        19 -12.7444     65.0454    154.2031   9.8632606455e+01   3.5170359193e+01    0.5462349    0.4072056 -26.57 0.0009841551    1.613    0.380
        20 -11.5575     84.9781    152.1003   9.2298401463e+01   3.2790248954e+01    0.6811112     0.461201 -26.57  0.002430893    1.892    0.471
        21 -10.3557    133.4113    142.6344   7.6470298882e+01   2.6382526107e+01    0.9194052    0.2566312 -55.20  0.002066441    5.705    0.825
        22  -8.8602    175.1046    149.1673   6.7858868641e+01   1.6543277217e+01     0.203788    0.1850749 -83.80 0.0004813144    1.318    0.241
        23 -12.5872     77.4104    158.2532   9.5689584432e+01   3.2346099114e+01     1.575441    0.6803229  56.67 0.0008095579    4.243    0.764
        24  -9.1853     34.6697    144.2982   1.0626112524e+02   4.1346943453e+01    0.2718659    0.1843473 -57.21 0.0006175946    1.307    0.235
        25  -9.7711     31.6573    143.6885   1.0709549824e+02   4.1797282842e+01    0.3782915    0.2409295 -35.11   0.00183679    1.796    0.443
        26 -10.1340     99.8667    138.6517   8.5011919848e+01   3.3747264471e+01    0.5511497    0.3652687 -19.14  0.002181007    2.158    0.537
        27 -11.6352     87.0539    137.8084   8.8709858803e+01   3.6158992346e+01    0.3150668    0.2799179 -43.38 0.0003855867    1.088    0.081
        28 -10.3447     47.7038    171.2925   1.0623055528e+02   3.2864824072e+01    0.4326289    0.3148358 -18.41  0.001868869    1.868    0.465
        29  -9.7308    105.9602    130.7207   8.1342191043e+01   3.4620761890e+01    0.3681791    0.3570299  22.41  0.001391612    1.057    0.054
        30  -9.4365    109.9821    129.4884   7.9855980197e+01   3.4163484707e+01    0.3109951    0.2390855 -19.91  0.001001813    1.536    0.349
        31 -13.9877     36.7552    196.0632   1.1192675005e+02   2.7825255675e+01      1.85181     1.020081  64.04  0.007408573    1.920    0.479
        32  -9.9872    135.6575    129.1623   7.2619384674e+01   2.9097758379e+01    0.4691828    0.1457498 -45.88  0.001314874    3.124    0.680
        33  -9.8265     97.0976    124.9584   8.2625682690e+01   3.7676318688e+01    0.3358676    0.2585551   1.82  0.001520132    1.605    0.377
        34  -9.6221     45.2486    166.2645   1.0624348728e+02   3.4456141427e+01    0.2895364    0.2058916  77.22 0.0006397861    1.504    0.335
        35  -8.7132    116.2060    123.6045   7.6579811735e+01   3.4371157596e+01    0.2226091    0.1528401  26.10 0.0006678783    1.662    0.398
        36 -10.9180    241.1128    169.2278   5.9468536633e+01   1.1637022237e+00    0.3583093    0.1441878  32.63  0.001473167    3.270    0.694
        37  -8.7504    110.4833    167.0609   8.7975148700e+01   2.4687355116e+01    0.2382068    0.1530966 -57.23  0.001020581    1.573    0.364
        38  -8.2272    101.5661    163.4811   8.9742102443e+01   2.7129002607e+01    0.1555853    0.1474321  84.98 0.0008049384    1.094    0.086
        39  -9.0927    106.8818    118.3126   7.7965147773e+01   3.7464358592e+01    0.2097485    0.1961634  16.16 0.0002995138    1.093    0.085
        40  -9.8831    231.0592    113.7197   4.9588980540e+01   1.2710064854e+01    0.2660819    0.2388253 -44.19 0.0008254634    1.067    0.063
        41  -7.8206     80.2989    115.2919   8.5613854294e+01   4.2962238923e+01    0.1560446    0.1157153 -20.49 0.0002395268    1.563    0.360
        42  -9.0261    205.5325    110.1817   5.2840820213e+01   1.8279712167e+01    0.2380063    0.2039212  57.36 0.0006588357    1.292    0.226
        43  -9.8959     29.0470    107.8755   1.0198471499e+02   5.1286721370e+01    0.3562069    0.1529941  19.70  0.001478221    2.662    0.624
        44  -9.6032    243.6494    105.3123   4.6073241918e+01   1.1896239851e+01    0.1342088   0.08944563 -66.21 0.0003272924    1.722    0.419
        45  -9.3887    240.3394    102.3377   4.5892403896e+01   1.2986794812e+01    0.1263183    0.1000983  -7.57 0.0007050817    1.760    0.432
        46 -10.3281     70.5318    161.1225   9.8200936819e+01   3.2591544019e+01     0.621478    0.3070842  40.23  0.002516863    2.055    0.513
        47  -9.4513    248.6683     98.6762   4.4080420316e+01   1.2116174691e+01    0.1202825   0.09696063 -10.13 0.0006838248    1.704    0.413
        48  -8.9060    120.0000    244.9640   9.8090632245e+01   5.6515637567e+00    0.1950254   0.07625781 -56.02  0.000802307    2.942    0.660
        49  -9.4967     52.8408     91.1682   8.9143393360e+01   5.2792344415e+01    0.2107642    0.1521623 -30.53 0.0006088941    1.339    0.253
        50  -9.8446     18.0252     90.3100   1.0263048078e+02   5.6465071139e+01    0.1789389     0.160209 -27.55 0.0004290417    1.127    0.113
        51  -8.8195     71.9240     82.9503   7.9591556824e+01   5.1842047015e+01    0.2184559    0.1804112  69.03 0.0006791343    1.688    0.408
        52  -9.1421     47.8131     62.1470   8.2393395912e+01   5.9700018705e+01    0.1866479    0.1715878 -15.99 0.0003611955    1.145    0.127
        53 -10.3920     13.4558     59.9840   9.7260913785e+01   6.3617165768e+01    0.2537559    0.1896439 -43.82 0.0004281446    1.124    0.110
        54 -12.5655    196.0601     49.6182   3.9975849830e+01   3.0356082188e+01    0.7864422    0.5474101  49.74 0.0008829479    1.658    0.397
        55 -10.7716    192.7744    194.5542   7.3590548106e+01   4.0384697632e+00    0.8979477    0.4576401 -62.63   0.00256911    5.965    0.832
        56 -15.1092      9.7244    208.8507   1.1923645837e+02   2.7453069572e+01     2.160856      1.26253 -76.31  0.003960299    1.504    0.335
        57 -13.9095     46.0351    186.7493   1.0859164182e+02   2.9099760962e+01     2.508207     1.112339  43.16   0.01076282    2.183    0.542
        58  -8.7772    198.0290     23.9449   3.3767135532e+01   3.3198510691e+01    0.1759354    0.1469032  36.18 0.0007582022    1.661    0.398
        59  -9.7163      2.0000     19.0051   8.9192028108e+01   7.2068739865e+01    0.1775068   0.05502876 -49.18  0.000800216    2.927    0.658
        60  -8.9080    189.5063     15.0609   3.2590008924e+01   3.6075645558e+01    0.1714596    0.1143766 -39.10 0.0006986966    1.561    0.359
        61  -8.0412     69.2470    194.3259   1.0353909273e+02   2.4265837953e+01    0.1374482    0.1046688 -39.53 0.0001749923    1.538    0.350
        62 -16.6558     14.9116    241.8705   1.2015999333e+02   1.9703420115e+01     7.114473      2.78681  20.69   0.02967336    4.132    0.758
