#   1 NUMBER                 Running object number                                     
#   2 MAG_AUTO               Kron-like elliptical aperture magnitude                    [mag]
#   3 X_IMAGE                Object position along x                                    [pixel]
#   4 Y_IMAGE                Object position along y                                    [pixel]
#   5 X_WORLD                Barycenter position along world x axis                     [deg]
#   6 Y_WORLD                Barycenter position along world y axis                     [deg]
#   7 A_WORLD                Profile RMS along major axis (world units)                 [deg]
#   8 B_WORLD                Profile RMS along minor axis (world units)                 [deg]
#   9 THETA_WORLD            Position angle (CCW/world-x)                               [deg]
#  10 FWHM_WORLD             FWHM assuming a gaussian core                              [deg]
#  11 ELONGATION             A_IMAGE/B_IMAGE                                           
#  12 ELLIPTICITY            1 - B_IMAGE/A_IMAGE                                       
         1 -11.6494     43.7553     29.1851   9.7533826405e+01   6.4678521101e+01     0.595979    0.3439437  -7.25  0.003275175    1.994    0.498
         2 -11.2786     78.4810     21.9666   8.2523589657e+01   6.0042707307e+01    0.6078702    0.3231898 -19.44  0.003209349    2.130    0.531
         3 -11.1571     74.9857     21.7448   8.3514057418e+01   6.0697160620e+01    0.3433873    0.2117907 -36.27  0.001742975    1.895    0.472
         4 -11.0201     13.8570     16.0620   1.0535105466e+02   6.9759559140e+01    0.3233091    0.1648103  27.76  0.001478049    1.961    0.490
         5 -10.0591     37.8365      2.9294   8.8938472444e+01   6.8482046381e+01    0.2718269    0.1008814 -26.55   0.00141605    2.736    0.635
         6 -11.7908     30.1595      7.1912   9.4051728110e+01   6.9058527200e+01    0.3007902    0.2342512  16.44  0.001241478    1.197    0.165
         7 -11.7326     34.9328     12.7461   9.4439358918e+01   6.7846758839e+01    0.4066626    0.2335039 -37.54  0.002434742    2.036    0.509
         8 -11.9918     40.3232      8.6344   9.0452246247e+01   6.7572824967e+01    0.4011587    0.2407604  -3.91  0.001554227    1.654    0.395
         9  -9.4132     90.7892      2.7085   7.2101302244e+01   5.9448079547e+01    0.3602586    0.1892945  67.95  0.001434892    2.242    0.554
        10 -11.6261     89.0824     14.0550   7.6611305078e+01   5.8825413722e+01    0.4103369    0.3273526 -57.64  0.001820955    1.806    0.446
        11 -10.7984     92.8845      9.2481   7.3917874481e+01   5.8501861571e+01    0.2749516    0.1964754  19.75  0.001125993    1.428    0.300
        12 -11.3585    190.7960     14.2922   5.8880815735e+01   3.6176587668e+01    0.2902093    0.1847865 -63.40  0.001673436    1.557    0.358
        13 -11.2243    155.9230     13.9312   6.3271648570e+01   4.4257701761e+01    0.4059346    0.2336766  39.19  0.002085331    2.101    0.524
        14 -10.4827    119.0490     12.0769   6.9048963565e+01   5.2770551848e+01    0.1858841    0.1533594  54.08 0.0003435393    1.011    0.011
        15 -10.5463     56.7163     11.0022   8.5313980129e+01   6.4889799168e+01    0.1614537    0.1275233  13.34 0.0005777953    1.050    0.047
        16 -11.3897     12.5967      7.3245   1.0222247321e+02   7.0978855867e+01    0.5233045    0.3121502  39.99  0.003341508    2.539    0.606
        17 -10.3392     10.1707      1.8289   1.0093579614e+02   7.1852495651e+01    0.1994522    0.1206471  10.50  0.001431033    1.368    0.269
        18 -10.4076      2.8076      2.6722   1.0508361743e+02   7.2414390420e+01    0.2019859    0.1244437   8.19 0.0009866538    1.351    0.260
        19 -11.3459      4.3251      9.9210   1.0747647181e+02   7.1383303971e+01     0.323507    0.1599325  20.35  0.001860021    1.904    0.475
        20 -10.9077      2.7039      6.5164   1.0684341761e+02   7.1948980906e+01    0.2198385    0.1438172   5.41 0.0006511764    1.271    0.213
        21 -10.7816     22.2865      9.3348   9.8516119061e+01   6.9742521068e+01    0.2907206    0.1686068   8.82  0.001243764    1.585    0.369
        22 -12.1125    151.8581      7.5830   6.2181726098e+01   4.5786415736e+01    0.5057108     0.320619  79.28  0.002076195    1.457    0.314
        23 -11.1404    210.0615      7.4965   5.5461663240e+01   3.2584366574e+01    0.2244797     0.135841 -58.65  0.001146226    1.532    0.347
        24 -11.1598     71.8242      6.3575   7.8561475913e+01   6.2747166799e+01    0.4982892    0.2045452  42.71  0.002323953    1.956    0.489
        25 -10.3144     64.8276      6.8462   8.0909644427e+01   6.3932857252e+01    0.1804724    0.1264655  21.71  0.000583094    1.228    0.186
        26 -11.8418     56.5509      4.2660   8.2576372286e+01   6.5541675660e+01    0.4778052    0.2775269  16.88  0.002891609    1.711    0.416
        27 -10.5465    145.2799      5.9361   6.2704755821e+01   4.7433087452e+01    0.1614588    0.1477086  67.49 0.0004107261    1.122    0.109
        28 -11.2647    129.8686      4.1064   6.4641170165e+01   5.1056918137e+01    0.2990727      0.17461  55.43  0.001711546    1.387    0.279
        29 -10.1457    235.5851      4.2527   5.2720296594e+01   2.7498891169e+01     0.135754     0.108268 -36.72 0.0009431755    1.636    0.389
        30 -10.7889    161.0070      2.5264   5.9633319146e+01   4.4137792942e+01    0.2826732     0.182324  25.67  0.001561132    2.307    0.566
        31 -10.1041    141.1776      4.1765   6.2841564513e+01   4.8512597453e+01    0.1610522    0.1301072 -80.38 0.0004327177    1.318    0.242
        32  -9.9320    120.8702      4.1334   6.6234453001e+01   5.3040153085e+01    0.1723059    0.1474323  71.81 0.0003749712    1.146    0.127
        33 -10.5164    172.8729      3.1293   5.8335609033e+01   4.1373953112e+01    0.2704996    0.1443133  80.79 0.0008276447    1.686    0.407
        34  -9.5670    176.4872      2.4911   5.7771139481e+01   4.0608616136e+01    0.2442797    0.1780875  86.12  0.001564142    1.150    0.130
        35  -9.8019    112.8799      2.9659   6.7382619765e+01   5.4860580496e+01    0.1795343    0.1357768 -86.00  0.001114091    1.644    0.392
        36 -10.8003     19.4028      2.6612   9.6848522968e+01   7.0806245473e+01     0.290036    0.1527509  19.97  0.001419236    1.669    0.401
        37  -9.9120    100.0843      1.7292   6.9622650043e+01   5.7642572821e+01    0.1715423    0.1469612  69.50 0.0005266652    1.257    0.204
        38 -11.6879     80.3326      1.7788   7.4408282082e+01   6.1547253294e+01    0.3398256    0.1428044  54.26 0.0009288921    1.999    0.500
        39 -11.5086    199.4203      3.2631   5.5571178817e+01   3.5368703796e+01    0.3681608    0.2470341  24.05  0.001971549    2.857    0.650
        40 -11.3741    194.4892      4.5211   5.6322076140e+01   3.6344994486e+01    0.2438214    0.1721337 -79.17  0.000890745    1.244    0.196
        41  -9.4878     67.2053      1.4202   7.7989340536e+01   6.3974252488e+01    0.1418407   0.09695434  52.25  0.000398838    1.445    0.308
        42  -9.4867    247.4739    155.5196   8.1751566285e+01   1.1992378319e+00    0.1364101     0.117213 -36.70 6.716628e-05    1.012    0.012
        43 -11.1301      6.1671    241.4986   1.4610580830e+02   2.2532806070e+01    0.2418633    0.1802834 -65.22  0.001621244    1.607    0.378
        44 -11.0508      2.2474    239.7466   1.4668780229e+02   2.3286417737e+01    0.2705246    0.1606911  57.30  0.001793548    1.391    0.281
        45 -10.7702      1.6975    248.6825   1.4727071471e+02   2.1537107126e+01    0.3371525    0.1341706 -77.54  0.001868351    2.118    0.528
        46 -12.7594      8.7272    246.2883   1.4593969244e+02   2.1294237587e+01    0.5412933    0.4255368   0.65  0.003553316    2.576    0.612
        47  -9.8855    243.0000    154.9678   8.2373476833e+01   2.0728407301e+00    0.2320004    0.0692542 -42.07 0.0005801137    2.917    0.657
        48 -10.6135      2.6956    153.4538   1.3996329428e+02   4.2679951041e+01    0.2013666    0.1125554  32.82   0.00113815    2.090    0.521
        49 -10.3843     23.9914    150.5173   1.3416646297e+02   4.1674025490e+01    0.1671255     0.131607  27.10 0.0004675228    1.542    0.351
        50 -10.4589     22.3992    143.2952   1.3361979497e+02   4.3570831010e+01    0.2607394   0.09714918 -63.67  0.001126474    2.089    0.521
        51 -11.9687      5.4415    141.6158   1.3794825995e+02   4.5293077157e+01    0.3597681    0.1807824 -86.79  0.001071474    2.022    0.505
        52 -11.0444      8.9060    135.3716   1.3624588642e+02   4.6531631967e+01    0.2178085    0.1425361 -78.66 0.0005256624    1.325    0.245
        53  -9.3650    212.4615    133.5852   8.3126059804e+01   1.2022415764e+01    0.1463011    0.1345593 -58.40   0.00015776    1.035    0.034
        54 -11.3760     11.9389    129.6823   1.3463580403e+02   4.7663126851e+01    0.4887029    0.2468855  70.73  0.001861305    3.068    0.674
        55 -10.0657      1.9548    132.5047   1.3778338465e+02   4.7669302856e+01    0.1502291     0.124226  17.54  0.001018354    1.547    0.353
        56  -9.8687     35.1926    130.7706   1.2807398260e+02   4.5423922731e+01    0.2493412    0.1295792 -45.34 0.0005627507    1.859    0.462
        57 -10.0982    248.6686    129.6935   7.6294857297e+01   5.7156454399e+00    0.1301909    0.1041961  -8.69 0.0003735302    1.662    0.398
        58 -11.7741     23.2835    121.0490   1.2998796802e+02   4.8829095999e+01    0.5501631    0.3079227  82.91 0.0007550992    2.720    0.632
        59 -10.6964     65.6467    111.6413   1.1481874938e+02   4.6386232787e+01    0.3598263    0.1545491 -48.93  0.001325121    2.080    0.519
        60  -9.8376     20.2286    112.4066   1.2944877489e+02   5.1093035239e+01    0.1489101    0.1171334  40.74 0.0001206711    1.527    0.345
        61  -9.8595    248.9994    111.7405   7.2564881815e+01   8.8889854577e+00    0.1590857    0.1170579  60.14 0.0008882749    1.548    0.354
        62 -10.9725      3.6391    109.1090   1.3406846151e+02   5.2968999307e+01    0.3193352     0.169631  24.35  0.001787294    2.273    0.560
        63 -10.5582     57.5877    107.9625   1.1653817883e+02   4.8308742244e+01    0.2824801    0.1735013   2.76  0.001251195    2.398    0.583
        64 -10.7986     12.6843    107.9131   1.3104750735e+02   5.2672595326e+01     0.203904    0.1615681 -24.20  0.001325309    1.370    0.270
        65  -9.9339     89.6637    104.6908   1.0557151348e+02   4.4210854213e+01      0.15151    0.1130892 -11.91 0.0007043265    1.680    0.405
        66  -9.9826    113.4968    102.4795   9.7973989896e+01   4.0208522554e+01    0.1490031    0.1467584 -17.95 4.482255e-05    1.002    0.002
        67 -10.8056     57.2003    101.9024   1.1522281718e+02   4.9731348582e+01    0.2917707    0.2031042  21.68  0.001534962    1.601    0.375
        68 -10.8594     24.9944    101.9093   1.2594222833e+02   5.3108209715e+01    0.1876086    0.1792067 -50.68 0.0002938966    1.154    0.134
        69 -11.6638     17.9771     94.5119   1.2681445930e+02   5.5298942179e+01    0.2591826    0.2302266  48.78 0.0008525986    1.413    0.292
        70 -10.3420     62.1836     98.6356   1.1276333299e+02   4.9800007138e+01    0.2485919     0.180027 -59.50  0.001305877    1.420    0.296
        71  -9.3605    196.0282     98.4660   7.8015076351e+01   2.2454475763e+01    0.2040474    0.1237104  33.27 0.0008092244    2.510    0.602
        72  -9.5844    129.4950     97.5173   9.2287923398e+01   3.7880815411e+01    0.1497337    0.1481406  25.04 -1.954144e-05    1.020    0.020
        73 -10.8590     99.9975     95.7480   1.0002398931e+02   4.4265000103e+01    0.5006413    0.3238207  68.40  0.002026757    2.557    0.609
        74 -10.2246     78.8613     94.8007   1.0630428888e+02   4.8159504735e+01    0.2067697    0.1793514 -12.94 0.0002672302    1.168    0.144
        75 -11.2391     27.1722     91.0079   1.2289118291e+02   5.5334260333e+01    0.5158643    0.2719588  45.27  0.002505802    2.633    0.620
        76 -11.1693     58.1948     91.5827   1.1227866527e+02   5.1860079434e+01     0.317612    0.2269333  -6.74  0.001096327    1.650    0.394
        77 -11.0712     18.0630     88.1359   1.2545652546e+02   5.6676076829e+01    0.4443124     0.273053  -8.34   0.00249885    1.940    0.485
        78 -10.9306     10.7352     91.0049   1.2859681000e+02   5.6558714695e+01    0.4042967    0.1547771 -55.36  0.001961534    1.921    0.480
        79 -10.8508     10.6099     85.2204   1.2747475782e+02   5.7806700143e+01    0.2913577    0.1742371 -59.47  0.001711991    1.393    0.282
        80 -11.9333      1.8888     89.9996   1.3143403727e+02   5.7290570233e+01    0.2434215    0.1322803 -59.10 0.0003020691    1.412    0.292
        81 -10.6847     76.3804     89.2567   1.0557211837e+02   4.9717527878e+01    0.2469389    0.2294137 -17.43 0.0004931269    1.014    0.014
        82 -10.1458     44.1261     89.7627   1.1666292986e+02   5.3945053720e+01    0.2633701    0.1708106  40.01  0.001407106    1.824    0.452
        83 -10.0972    107.6887     89.3195   9.5954226671e+01   4.4085260394e+01     0.145432    0.1186153 -89.31 0.0004123129    1.646    0.392
        84  -9.7396      3.0007     95.9967   1.3212642630e+02   5.5928244173e+01    0.2086369    0.1039122 -40.93  0.001132411    1.778    0.438
        85  -9.5150     33.1997     88.0490   1.2008576033e+02   5.5428507498e+01    0.1783102    0.1323693 -46.41 0.0004077017    1.135    0.119
        86  -9.8058    123.9725     86.7368   9.0722204797e+01   4.1208162039e+01    0.2142679    0.1963278  46.15  0.001161355    1.073    0.068
        87 -11.2564     54.7445     85.0108   1.1170802403e+02   5.3685592698e+01    0.2995508    0.2325663 -65.54  0.001681519    1.539    0.350
        88  -9.3918    114.3446     85.4817   9.2967589271e+01   4.3484685023e+01    0.1430617    0.1364735 -23.85 -3.563024e-05    1.052    0.050
        89  -9.5805     25.4460     84.9060   1.2210640218e+02   5.6785637099e+01    0.1848391    0.1067571 -57.10 0.0005910902    1.518    0.341
        90 -10.6521      3.6029     83.2910   1.2956702029e+02   5.8627116888e+01     0.251193    0.2065709 -75.13   0.00110126    1.331    0.249
        91  -9.8358    100.6411     83.3014   9.6265042619e+01   4.6643186590e+01    0.1434762    0.1163405  83.01 0.0007037282    1.716    0.417
        92 -11.3899     64.0309     79.9425   1.0705673078e+02   5.3461383106e+01    0.4453093    0.3235188 -46.14   0.00229015    1.328    0.247
        93  -9.6057    250.2604     80.9983   6.6161175036e+01   1.3909145850e+01    0.1700395   0.09781763 -45.07 0.0005749352    1.512    0.339
        94  -9.8290     89.8077     79.6440   9.8477494530e+01   4.9359855544e+01     0.433593    0.2462537 -25.66  0.001831147    2.251    0.556
        95  -9.6426    132.7641     79.3857   8.6372775846e+01   4.0642987484e+01    0.2146951    0.1318215  40.88 0.0005547815    1.668    0.400
        96  -9.5932    124.2917     78.8917   8.8378859305e+01   4.2603218483e+01    0.2275525     0.178464 -64.46 0.0007218862    1.531    0.347
        97 -10.7925    177.1824     77.1026   7.6193755807e+01   3.0691620762e+01    0.3281475     0.236552  55.12 0.0009957484    1.363    0.266
        98 -11.2178     56.6892     75.3939   1.0830185336e+02   5.5364106957e+01     0.465836    0.2822021  19.33  0.001608928    1.839    0.456
        99 -10.7263     16.2244     75.7370   1.2332272872e+02   5.9402425104e+01    0.3320913    0.1921959   3.05   0.00187602    2.017    0.504
       100 -11.1663      6.9976     74.6762   1.2652546428e+02   6.0219678321e+01    0.2446963    0.1543722 -41.15  0.001147457    1.264    0.209
       101 -10.0457      2.9535     73.5520   1.2778770038e+02   6.0675888140e+01     0.280065    0.1344815   3.18  0.001190933    2.541    0.606
       102  -8.9684     74.7347     75.6616   1.0214799593e+02   5.2675261939e+01    0.1392669   0.09893963 -14.35 0.0002071301    1.592    0.372
       103  -9.4387     70.3029     75.3512   1.0354796391e+02   5.3427318383e+01    0.1428139   0.09811421 -13.35 0.0004107163    1.700    0.412
       104  -9.9740     32.2056     73.1469   1.1665642411e+02   5.8593484565e+01    0.1926346    0.1708351  46.99 0.0002629017    1.490    0.329
       105 -10.9640     36.0937     72.0978   1.1490594370e+02   5.8417778203e+01    0.4281299    0.2693176 -56.13   0.00156593    1.627    0.385
       106  -9.4635    136.5038     74.4588   8.4054346164e+01   4.0671534069e+01    0.1451308    0.1385462  54.86 7.899699e-05    1.003    0.003
       107 -11.7346    105.7405     71.8084   9.1323307664e+01   4.7758531325e+01    0.2551033    0.2282754  26.81 0.0003096567    1.074    0.068
       108  -9.3251     92.4870     72.4758   9.5464439644e+01   5.0200767419e+01    0.1377882    0.1307058   6.16 0.0001782723    1.042    0.041
       109  -9.0388     90.6938     69.3320   9.5040064964e+01   5.1090893267e+01    0.1321463    0.1126079 -86.56 0.0002604483    1.663    0.399
       110  -9.9817     10.6402     67.8689   1.2354782018e+02   6.1358563628e+01     0.324185    0.1090707 -54.87  0.001184752    2.282    0.562
       111 -10.6158     34.5286     64.7626   1.1340545592e+02   5.9985164641e+01    0.2804368    0.1768161 -37.63 0.0007054707    1.350    0.259
       112 -10.8903     38.9229     62.8559   1.1113816373e+02   5.9878949273e+01    0.4206221    0.2343875 -21.03 0.0007434481    2.046    0.511
       113 -10.5609     40.6794     59.3214   1.0936650041e+02   6.0326118109e+01    0.2542894    0.2163051 -23.32 0.0009730086    1.072    0.067
       114 -10.6151    131.7412     64.4886   8.2296250559e+01   4.3415502049e+01    0.3644186    0.2789482  54.65  0.001874556    1.243    0.196
       115 -10.3746     14.0592     63.7472   1.2116015490e+02   6.1929993410e+01    0.2398179    0.1580602 -69.40  0.001123956    1.922    0.480
       116  -9.3055    109.7989     64.5848   8.7956354329e+01   4.8158550089e+01    0.1910107    0.1308228  57.81 0.0006230605    1.601    0.375
       117  -9.6843     72.5368     63.2514   9.9001805038e+01   5.5276789133e+01    0.2298344    0.1251345 -44.91 0.0005853411    1.903    0.474
       118 -10.9155     62.3631     62.7536   1.0238401108e+02   5.6918798043e+01    0.3263805    0.2497847   1.83  0.001272742    1.304    0.233
       119 -10.5353     60.0352     58.2891   1.0176441020e+02   5.8026494612e+01    0.2776662    0.2055565 -27.80 0.0009381543    1.249    0.199
       120 -11.1162     54.9207     57.6255   1.0341654756e+02   5.8853562738e+01    0.4344057    0.3677972 -80.67  0.002586403    1.957    0.489
       121 -11.2368     17.5276     33.6013   1.1039362634e+02   6.6915145752e+01    0.9189733    0.4262008  -4.20   0.00429465    3.182    0.686
       122 -13.0118     20.6962     57.6476   1.1680758038e+02   6.2572470167e+01    0.3629949    0.2976072 -47.23  0.001169159    1.269    0.212
       123  -9.9823     20.1620     51.6812   1.1524525112e+02   6.3692088302e+01    0.2758567    0.1475155 -34.48  0.001253719    1.570    0.363
       124 -12.6184      5.2328     51.4920   1.2145710475e+02   6.4796405750e+01    0.4686268    0.2205269 -29.59  0.002622698    1.919    0.479
       125 -11.6147     15.7747     45.7946   1.1526841407e+02   6.5071079034e+01    0.6822574    0.4280682   1.25  0.004357409    1.591    0.371
       126  -9.5302    100.8751     61.7904   8.9598233245e+01   5.0422380013e+01     0.179286    0.1651954  87.32 0.0005274134    1.347    0.258
       127  -9.0826    127.2616     61.6989   8.2547230141e+01   4.4862864614e+01    0.1338266    0.1096697 -77.68 0.0006915976    1.514    0.340
       128 -12.0102      7.8621     61.1220   1.2294882162e+02   6.2842581341e+01    0.5466896    0.3822046 -22.34  0.001756101    1.286    0.223
       129 -10.5189     83.5058     57.0073   9.3330664710e+01   5.4459637284e+01     0.304421    0.2451342 -63.11  0.001236304    1.753    0.430
       130 -11.9909     88.5672     53.4958   9.0573130890e+01   5.4089575028e+01    0.4441565    0.3049927  44.00 0.0005123227    1.416    0.294
       131  -9.3684     15.3037     58.2812   1.1917961336e+02   6.2874385366e+01    0.1209795   0.07000086 -27.81 0.0001604612    1.552    0.356
       132  -9.0509     71.5615     57.4444   9.7427631289e+01   5.6412918970e+01    0.1307141    0.1148675   0.09 0.0001902368    1.003    0.003
       133 -10.5150    225.1699     54.5994   6.3719023170e+01   2.3267233981e+01    0.3473604    0.2765307 -19.10  0.001995188    1.849    0.459
       134 -11.8814    114.5278     53.8084   8.3323188464e+01   4.8845295189e+01    0.3090053    0.2882733  24.54 0.0006636014    1.041    0.039
       135 -10.9708    106.5740     53.2922   8.5274106399e+01   5.0590185638e+01    0.2553176     0.228925  39.54 0.0001837827    1.056    0.053
       136  -9.8937     33.9845     53.7402   1.1023469507e+02   6.2036730369e+01    0.2394232    0.1342839 -26.49  0.001301043    1.727    0.421
       137 -11.9686     66.6005     52.5222   9.7485215763e+01   5.7993967394e+01    0.4599885    0.2034643  34.08  0.002085419    2.252    0.556
       138  -9.3751    232.0486     51.9701   6.2375267263e+01   2.2170928156e+01    0.1554295    0.1255495 -69.32 0.0003430475    1.040    0.039
       139  -9.5671    175.9868     52.2463   7.0074972213e+01   3.4903819043e+01    0.1950029    0.1606319  71.29  0.000306634    1.105    0.095
       140  -9.7984     75.4425     50.0449   9.3610222401e+01   5.6943161123e+01    0.2491093    0.1778781   5.88 0.0005033701    1.513    0.339
       141 -10.5811     78.7238     46.0254   9.1140507927e+01   5.6974209148e+01    0.2769475    0.1916909  16.74 0.0006846582    1.512    0.339
       142 -10.9702    102.9134     47.5110   8.4400089045e+01   5.2173580101e+01    0.3725667     0.199076  36.45 0.0007749891    1.896    0.473
       143  -9.5540     53.6154     48.2040   1.0071188213e+02   6.0581616291e+01     0.174708    0.1034839 -28.71 0.0009443256    1.621    0.383
       144  -9.2492    154.5708     47.5390   7.2592729680e+01   4.0643529569e+01    0.1367993    0.1240674  69.98 9.069668e-05    1.009    0.009
       145  -9.2083     47.3265     47.2883   1.0279352039e+02   6.1562746320e+01     0.126571   0.08285235  -6.10 0.0004867031    1.612    0.380
       146  -9.3007     64.9642     46.4408   9.5951286866e+01   5.9188816463e+01    0.1775674    0.1142078  34.45 0.0002848497    1.485    0.327
       147  -9.7568     30.5049     45.9930   1.0910454087e+02   6.3709109686e+01    0.1765094    0.1013335 -41.69 0.0005300318    1.565    0.361
       148  -9.0707     91.2787     44.6799   8.6778364649e+01   5.4864293386e+01    0.1188654    0.1051678 -78.15 0.0003418619    1.580    0.367
       149 -10.8862     25.8431     43.4284   1.1019083348e+02   6.4591337573e+01    0.2418173    0.2008248  -7.48 0.0008273604    1.119    0.107
       150 -10.6038     22.8986     38.5257   1.0976566735e+02   6.5659628189e+01    0.2022022    0.1828859  10.79 0.0005067007    1.392    0.282
       151 -10.9156     26.5544     35.0365   1.0693445330e+02   6.5846206864e+01    0.3930037    0.2099325 -27.33  0.002151974    1.695    0.410
       152  -9.2393    110.6902     42.7134   8.0773088740e+01   5.1211984662e+01    0.1356602   0.09467223  25.48  0.000201793    1.574    0.365
       153 -10.2077     95.0068     42.1580   8.4833364695e+01   5.4486121104e+01    0.1929711    0.1728774  24.58  0.000687567    1.022    0.022
       154 -10.0085     69.8232     42.1115   9.2723020179e+01   5.9043794910e+01    0.1805543    0.1707858  28.99 0.0008200204    1.282    0.220
       155 -10.3660     36.2976     41.3462   1.0510103313e+02   6.3831257049e+01    0.2230855    0.1590635   6.41  0.001014406    1.289    0.224
       156  -9.9344      2.7275     42.2196   1.1986026296e+02   6.6586849146e+01    0.2538379    0.1196813  -6.98  0.001380584    2.436    0.589
       157  -9.2691      5.5672     39.4557   1.1774355486e+02   6.6879330647e+01    0.1138924   0.08146869 -27.26            0    1.053    0.051
       158  -9.7344    181.9891     41.0371   6.6338303314e+01   3.5033920609e+01     0.224623    0.1464733 -74.87  0.001135556    1.706    0.414
       159 -10.6313    139.7463     40.6719   7.3532986376e+01   4.5016501526e+01    0.2457268    0.2106736  87.11 0.0006242489    1.233    0.189
       160  -9.5430     42.8198     40.8071   1.0226753342e+02   6.3139195126e+01    0.1436216     0.127336   9.88 0.0003980137    1.243    0.196
       161 -10.0761    132.8276     38.9019   7.4438407559e+01   4.6825869284e+01    0.3514003    0.2237153  89.33  0.001598557    2.380    0.580
       162 -11.1949    134.2934     34.1348   7.2714927145e+01   4.7073958844e+01    0.2307047    0.1789023  45.80 0.0003404203    1.204    0.169
       163 -12.2972    121.9236     36.6725   7.6144319267e+01   4.9547222981e+01    0.5237816    0.4411131  52.95  0.003108531    1.065    0.061
       164 -10.7130    126.7650     30.9068   7.3300476611e+01   4.9151770972e+01    0.4232729    0.1750617  45.63  0.001809415    2.261    0.558
       165  -9.0759    101.6583     39.6646   8.2141936378e+01   5.3484227293e+01    0.1406235   0.09228265  21.81 0.0007050664    1.760    0.432
       166 -11.0441      2.6677     34.4752   1.1746167376e+02   6.7889522821e+01    0.4039405    0.1526729 -40.48  0.002225269    1.986    0.496
       167 -10.1367     91.1822     34.1019   8.3156616159e+01   5.6263178200e+01     0.264549    0.1847317 -22.54  0.001086581    1.534    0.348
       168 -11.9014     18.2194    249.0152   1.4445079234e+02   1.9719384083e+01    0.2648485    0.1984357  22.74  0.001753906    2.084    0.520
       169 -11.4085     38.6192     30.9043   1.0028151479e+02   6.5097526940e+01    0.2656477    0.1698913  -3.16 0.0002850509    1.543    0.352
       170 -10.2599    166.2338     31.2700   6.6249963647e+01   3.9974157290e+01    0.1890105    0.1788967 -19.16 0.0003929222    1.298    0.230
       171 -10.0140    205.1027     30.6766   6.0908616518e+01   3.1018595932e+01    0.2170637    0.1392126 -86.22     0.001191    1.494    0.331
       172  -9.5685    187.2405     29.9995   6.2947793713e+01   3.5205049896e+01     0.183168    0.1597018  88.89  0.001168662    1.053    0.050
       173 -10.9569      7.2667     28.2190   1.1317800747e+02   6.8566425795e+01    0.3224646    0.2116874  42.87  0.002025421    2.630    0.620
       174 -10.0723    148.5753     28.8332   6.8497772273e+01   4.4395042920e+01    0.3991185    0.2212339 -66.41  0.001739912    2.735    0.634
       175 -10.0428     69.9105     28.6895   8.7765860372e+01   6.0788287138e+01     0.212962    0.1625968 -21.33  0.000789987    1.335    0.251
       176  -9.7881    229.6680    248.0450   1.0241379540e+02  -1.1689981323e+01    0.1693924    0.1341165 -16.99 0.0006803042    1.169    0.144
       177  -9.4683    224.9897    246.5097   1.0303195967e+02  -1.0811116189e+01    0.1726767    0.0930608  12.64  0.000807903    2.371    0.578
       178 -10.7169    113.9341     24.2318   7.4006423257e+01   5.2704489167e+01     0.288866    0.2353847  12.78  0.001064332    1.348    0.258
       179 -10.2919    100.7257     25.5052   7.7601238508e+01   5.5347941359e+01    0.2066846      0.19398 -47.69 0.0006679214    1.305    0.234
       180  -9.5331     18.3505     26.3070   1.0732204522e+02   6.7931030662e+01    0.1188114    0.0674819 -12.33 0.0007042881    1.709    0.415
       181 -10.7249    219.0103     24.0164   5.8001163042e+01   2.8743458805e+01    0.2526121    0.1729904 -16.91  0.001386244    2.444    0.591
       182  -9.8357    153.9075     25.5077   6.6682608929e+01   4.3524610358e+01    0.1999038    0.1140132  66.90 0.0007175792    1.544    0.352
       183 -10.1904     59.3691     24.1106   8.9637612849e+01   6.3055927709e+01    0.2102091    0.1494981   4.42  0.001332622    1.324    0.245
       184  -9.7503     38.4764     24.4880   9.7825694703e+01   6.5975947795e+01    0.1599406   0.09397939 -22.23 0.0005183432    1.590    0.371
       185 -11.1100     40.7188     20.2628   9.5197534643e+01   6.6215625795e+01    0.3594519    0.1985334  11.38  0.002000328    2.003    0.501
       186  -9.4430     89.4930     22.9612   7.9697179252e+01   5.7861584208e+01    0.1703432    0.1196645 -20.21  0.001018634    1.550    0.355
       187 -10.6217      1.8549     21.2255   1.1321819285e+02   6.9999906091e+01    0.2406574    0.1334457 -46.34  0.001581496    1.754    0.430
       188 -10.2538     21.7311     22.1412   1.0415077792e+02   6.8187498023e+01    0.1626715     0.128387   9.74 0.0004256511    1.233    0.189
       189 -10.1069     20.1544     16.7977   1.0269500040e+02   6.9054498657e+01    0.1820977    0.1207088  14.32 0.0003890868    1.319    0.242
       190 -11.4755     13.3476     20.6958   1.0746606348e+02   6.9176810921e+01    0.2283078    0.1843711 -34.39 0.0007032547    1.459    0.314
       191  -9.0720    170.7039    246.6836   1.1380491487e+02  -2.4837969142e+00    0.1300009   0.09688538   1.95 0.0003637893    1.607    0.378
       192  -9.5257     84.9771     21.0376   8.0272153870e+01   5.8930823305e+01    0.2028602    0.1208819  28.25 0.0007141441    1.669    0.401
       193 -10.0307     31.0004     20.4806   9.9363367067e+01   6.7397984921e+01    0.2085164    0.1224471 -18.31 0.0005905588    1.574    0.365
       194  -9.5498    132.0325     20.5192   6.9109835037e+01   4.9083188890e+01    0.1977634    0.1090261  60.09 0.0006974699    1.535    0.349
       195 -10.5343    100.4121     19.2466   7.5540877425e+01   5.6058317229e+01    0.2594348     0.218962 -57.29 0.0009711689    1.553    0.356
       196  -9.3574     58.3918     19.1738   8.8034611639e+01   6.3772506478e+01    0.1513386    0.1029622 -35.99 0.0009390771    1.754    0.430
       197  -9.6002    148.5326     18.5549   6.5658768303e+01   4.5507139493e+01    0.1284306    0.1083268  70.03 9.154126e-05    1.017    0.016
       198  -9.6245    136.4907    245.5743   1.2075592601e+02   3.3978536985e+00    0.1349637    0.1147089  49.62 0.0008052036    1.058    0.055
       199  -9.2460     45.2915    244.3176   1.3915222588e+02   1.7453630341e+01    0.1058531   0.09235309 -53.26 0.0002876281    1.600    0.375
       200 -11.0701     36.6839    241.4839   1.4055718008e+02   1.9118770310e+01    0.2989381    0.1306964  50.40  0.001545861    1.926    0.481
       201  -9.7052     60.7812    241.0387   1.3584686871e+02   1.6087806407e+01    0.2138323    0.1492704  32.76   0.00123971    1.674    0.403
       202 -10.2803    199.8441     17.0998   5.8512937294e+01   3.3816525101e+01    0.1930497    0.1399538 -75.69 0.0005833561    1.232    0.188
       203  -9.6282    202.5114    240.0756   1.0629380813e+02  -6.4675995458e+00    0.1823891    0.1230618 -37.06 0.0008343154    1.546    0.353
       204 -12.3364     25.9545    236.0291   1.4216363471e+02   2.1534254569e+01    0.3636752    0.2942392  70.32  0.001904859    1.127    0.113
       205 -11.9199      4.1055    232.5608   1.4594122246e+02   2.4591263149e+01    0.3743021    0.1871315  71.91 0.0003273889    1.700    0.412
       206 -10.4947     49.2040     16.1350   9.0167833121e+01   6.5508526781e+01    0.2047125    0.1662247  36.69 0.0005175454    1.400    0.286
       207 -10.3693     26.5721     16.4720   9.9645562887e+01   6.8409251537e+01    0.2074078    0.1672877  -0.48 0.0007618698    1.157    0.136
       208  -9.0830    210.6889    235.7037   1.0393452444e+02  -7.0187378483e+00    0.1314112   0.09089843   0.57 0.0003255603    1.596    0.373
       209  -8.3142    108.4823     16.4112   7.2683203047e+01   5.4648777451e+01    0.1260013    0.1030557  45.72 0.0001192118    1.027    0.026
       210  -9.9173    249.1935    234.0847   9.6444384900e+01  -1.2283752386e+01    0.1824418    0.1350172  -5.93 0.0004344695    1.178    0.151
       211 -13.5064      9.9085    229.7158   1.4470899215e+02   2.4609531998e+01    0.8449948    0.4757192  72.89  0.005128337    1.478    0.323
       212 -10.3882    240.9986     11.4895   5.3639821093e+01   2.5575302102e+01    0.1740156   0.07521479 -80.02 0.0008104615    2.575    0.612
       213  -8.9912     80.3120    231.7133   1.3086531521e+02   1.5276167370e+01    0.1382403   0.08721519  66.71 0.0004093167    1.579    0.367
       214  -8.8739    209.5016    229.5045   1.0308534474e+02  -5.8076309918e+00    0.1311975    0.1150982   5.33 -0.0001361554    1.012    0.012
       215  -9.6708    140.1727    227.1737   1.1724891280e+02   6.3872887112e+00     0.199185    0.1565871  62.42  0.001071908    1.349    0.259
       216  -9.6799    109.9990    226.9711   1.2385189459e+02   1.1594949342e+01    0.1699172     0.152142  65.02 0.0008220015    1.017    0.017
       217 -10.5172     33.2637    225.4046   1.3991849310e+02   2.2983104767e+01      0.30976    0.1705773  50.88  0.001732604    1.618    0.382
       218 -12.1086      8.0788    217.5536   1.4423549642e+02   2.7420255665e+01    0.3444407    0.2498311  82.07  0.002343197    1.043    0.041
       219 -10.2513     20.4408    209.6161   1.4118614130e+02   2.7942855427e+01    0.2215385    0.1536714  83.42 1.724367e-05    1.176    0.149
       220 -10.8973     15.7908    212.7397   1.4237491320e+02   2.7718571968e+01    0.2881461    0.2219381 -35.20  0.001808087    2.045    0.511
       221  -9.4898    246.7946    207.0102   9.1950297093e+01  -7.7290944891e+00    0.1782038   0.09044887 -38.56 0.0008758379    1.774    0.436
       222 -10.7924      3.2654    205.1627   1.4430246350e+02   3.0620620981e+01    0.1763994    0.1680197  43.64  0.001335751    1.456    0.313
       223  -9.4310    197.2262    204.0323   1.0088973779e+02   8.2899917393e-01    0.1832604    0.1126922 -41.80 0.0005632341    1.619    0.382
       224 -11.2980      9.4518    203.6191   1.4294596668e+02   3.0397276861e+01    0.2257161    0.1812789 -83.37 0.0008480475    1.143    0.125
       225  -9.1920     38.0401    203.0548   1.3686070646e+02   2.7506050912e+01    0.1536035    0.1241933  87.84 0.0003713114    1.019    0.018
       226  -9.7980     23.0250    197.3104   1.3956797410e+02   3.0508580067e+01    0.1726429    0.1442909  78.18  0.000492915    1.098    0.089
       227 -11.7216     13.5097    194.4322   1.4135379539e+02   3.2121228843e+01    0.3523499    0.1730821 -70.39  0.001762546    1.673    0.402
       228 -10.6609     18.5388    194.3927   1.4027093723e+02   3.1643804257e+01    0.3419389    0.1198529 -65.03  0.001531526    2.330    0.571
       229  -9.9459      6.5036    191.5324   1.4259925018e+02   3.3432753413e+01    0.1241626   0.09389566  86.82 0.0008094588    1.040    0.038
       230  -9.8458     15.3508    185.1891   1.4012546538e+02   3.4111477631e+01    0.1842442   0.09625544 -85.58 0.0009399187    1.699    0.411
       231  -9.3488    250.4762    183.4748   8.6809848422e+01  -4.2919457179e+00    0.1316863    0.1121446 -26.78 0.0008096204    1.015    0.015
       232  -9.6101      1.3086    183.1626   1.4302644951e+02   3.5807793605e+01    0.1732279   0.08758683 -85.20 0.0005151153    1.646    0.392
       233  -9.9881    100.9902    175.9968   1.1795830224e+02   2.5009673958e+01    0.2082433    0.1959457 -88.77  0.001139271    1.013    0.013
       234 -10.0706    249.5185    169.4747   8.4215762738e+01  -1.6681369534e+00    0.1343457    0.1146952 -30.93 3.954058e-05    1.009    0.009
       235 -11.4739      5.4428    167.6620   1.4072449159e+02   3.9110109823e+01     0.336035     0.197094  82.25  0.001349146    1.625    0.385
       236 -10.4201     14.2305    164.1792   1.3827569675e+02   3.9221686047e+01    0.2173087   0.09845016 -43.25 0.0009565771    2.837    0.648
       237  -8.9929    111.6805    162.7263   1.1268061246e+02   2.6376424899e+01     0.149084    0.1231811 -12.71 0.0003606855    1.570    0.363
       238  -9.3783     41.5112    158.0120   1.3057063895e+02   3.8062091557e+01    0.2079901    0.1188506 -69.82  0.001010183    1.538    0.350
