#   1 NUMBER                 Running object number                                     
#   2 MAG_AUTO               Kron-like elliptical aperture magnitude                    [mag]
#   3 X_IMAGE                Object position along x                                    [pixel]
#   4 Y_IMAGE                Object position along y                                    [pixel]
#   5 X_WORLD                Barycenter position along world x axis                     [deg]
#   6 Y_WORLD                Barycenter position along world y axis                     [deg]
#   7 A_WORLD                Profile RMS along major axis (world units)                 [deg]
#   8 B_WORLD                Profile RMS along minor axis (world units)                 [deg]
#   9 THETA_WORLD            Position angle (CCW/world-x)                               [deg]
#  10 FWHM_WORLD             FWHM assuming a gaussian core                              [deg]
#  11 ELONGATION             A_IMAGE/B_IMAGE                                           
#  12 ELLIPTICITY            1 - B_IMAGE/A_IMAGE                                       
         1 -11.5855     33.9201     22.5986   5.5430053208e+01   7.0139426004e+01     1.674367    0.9955694  23.16  0.005265929    1.691    0.409
         2 -14.1718     43.7306     74.9959   6.8769170342e+01   5.7593868370e+01      1.45341     1.103612 -33.92   0.00338776    1.336    0.252
         3 -14.4789     10.2032     69.2307   8.3007274143e+01   6.1879105646e+01      2.24325     1.706943 -19.33   0.01343388    1.396    0.284
         4 -13.3405     58.4232     35.0259   4.8150812886e+01   6.4043118892e+01     2.526101     1.312139  39.83   0.01136751    1.875    0.467
         5 -13.4462     56.0050     22.4604   4.3363416057e+01   6.6621260523e+01     1.491791     1.108857  40.14  0.008263126    1.306    0.234
         6 -13.2459     48.5298     51.9305   5.9622970019e+01   6.2251634813e+01     1.482058    0.7032018 -40.14  0.006121985    2.155    0.536
         7 -13.8349     36.6003     54.9381   6.6538059503e+01   6.3106558064e+01     1.220034      1.03731 -31.24   0.00225504    1.094    0.086
         8 -13.3082     72.9492     25.2351   3.7373592240e+01   6.2825248931e+01      1.68679    0.6398517 -42.95   0.00571541    3.097    0.677
         9 -11.8294     79.8150     22.4710   3.3505410339e+01   6.1723809326e+01    0.7136313    0.6675404 -72.96   0.00343448    1.301    0.231
        10 -13.8770     58.0362     66.0985   5.9962389530e+01   5.7736595227e+01     1.713421     1.278383 -42.03  0.008512506    1.307    0.235
        11 -13.3225    178.0421     74.0894   2.7510732299e+01   3.0022482931e+01     3.108887    0.6421673 -41.42  0.008532354    4.617    0.783
        12 -13.9738    219.8564     59.3264   1.7653099099e+01   2.2809224323e+01     2.197709     1.295317 -82.84   0.01021391    2.506    0.601
        13 -12.6391    235.3628     48.1249   1.3395097309e+01   2.1035168426e+01      1.29191    0.5683047 -58.63  0.003365573    2.942    0.660
        14 -12.8362    221.9746     38.9740   1.2549316001e+01   2.4884023250e+01     0.946087    0.6664097 -70.54 0.0009295614    1.470    0.320
        15 -12.1873    221.7120      8.9768   5.4609582873e+00   2.8172971192e+01     0.739221    0.2419046 -41.27  0.003326975    2.397    0.583
        16 -13.4417    226.4147     21.3911   8.0164669903e+00   2.5904856443e+01     1.238348    0.7679926  -2.77  0.005493165    2.484    0.597
        17 -13.9057    244.4591      8.6136   3.9700445644e+00   2.3520011988e+01     1.262382    0.5124149 -75.38  0.005785976    3.043    0.671
        18 -14.4019    115.6907     65.6374   3.9041986356e+01   4.6392049939e+01     2.761274     1.924627  48.25  0.005691816    1.376    0.273
        19 -12.0100    189.4047     23.1122   1.1823272701e+01   3.4107765071e+01    0.8931729    0.3443897  73.39  0.003334586    2.639    0.621
        20 -13.8515    197.8914     40.7219   1.5580409355e+01   3.0040775819e+01     1.943487     1.398106 -37.44   0.01075522    1.316    0.240
        21 -12.0040    148.6034     40.3126   2.2833562241e+01   4.2257274795e+01    0.7868854    0.3643394 -37.23  0.003188821    2.158    0.537
        22 -12.2640    241.8567     22.0040   7.0276560428e+00   2.2679889572e+01    0.4078723    0.3400056 -72.47  0.002872363    1.136    0.120
        23 -11.4406    201.8579     20.6109   9.9110415512e+00   3.1433847230e+01     0.567525    0.3155569 -74.45  0.002740106    2.017    0.504
        24 -10.8561    202.8478     16.4114   8.7425206867e+00   3.1645185686e+01    0.4292037    0.2141483 -82.61   0.00193975    2.351    0.575
        25 -10.7607    171.4766     17.7554   1.2327298172e+01   3.9105974678e+01    0.6263505    0.3319933  11.45  0.002273088    3.928    0.745
        26 -13.0537    173.0263      7.2064   9.0476020954e+00   3.9762103242e+01    0.4354594    0.2943536  -7.88  0.001130536    1.880    0.468
        27 -12.0177    210.9177     21.1108   9.2197253137e+00   2.9313192215e+01    0.4764157    0.4203562  71.44  0.002536051    1.208    0.172
        28 -12.5839     25.2312     39.4141   6.7648472884e+01   6.7742855869e+01      1.17106    0.6604189 -54.41  0.003536265    1.639    0.390
        29 -10.6893    150.1467     13.2520   1.3671024523e+01   4.5043348093e+01    0.2426727    0.1954595 -50.72 0.0006808325    1.274    0.215
        30 -10.2110    131.2898     10.4650   1.5581160010e+01   5.0254847077e+01    0.5451847    0.3503673 -36.56  0.002723432    1.653    0.395
        31 -11.6769    115.9561     10.1956   1.8280829111e+01   5.4285848344e+01    0.4486295    0.3155205   6.88  0.001366473    1.758    0.431
        32  -8.2218    124.4711     10.0388   1.6602969032e+01   5.2082708054e+01    0.3936339    0.2489189  17.31  0.001816429    2.100    0.524
        33 -10.7931     93.9920     11.9100   2.4150832189e+01   5.9677069127e+01    0.2092807    0.1785072  44.26 0.0002872779    1.053    0.051
        34 -10.3252     88.3343     11.4840   2.5547366853e+01   6.1100636156e+01    0.2334942    0.1833725 -19.22  0.001254805    1.384    0.278
        35 -14.3394     11.6253     38.6557   7.5573369936e+01   6.8992705394e+01     1.837391       1.2362 -82.92   0.00551415    1.817    0.450
        36 -10.5251    109.9405     10.1040   1.9493885208e+01   5.5847625175e+01    0.2787482    0.2207785 -20.38  0.001062889    1.404    0.288
        37 -11.5247     48.5089      1.5009   3.5232228641e+01   7.0966675605e+01    0.5089744    0.1259774  48.07  0.001541524    3.512    0.715
        38 -10.3196     78.5418      9.4214   2.7578192287e+01   6.3643552992e+01    0.2571765    0.2352678 -56.32 0.0008247081    1.320    0.242
        39 -13.0472     57.1502      4.1569   3.2827256201e+01   6.8930945420e+01    0.7430685    0.3135752  46.12 0.0009318795    2.069    0.517
        40  -9.3970     76.7023      5.0476   2.5938719632e+01   6.4539091280e+01    0.3216562    0.2103677  71.08 0.0003377273    1.766    0.434
        41 -11.1734     70.5621      4.1693   2.7553255207e+01   6.6035236830e+01    0.4265142    0.2844749  49.05  0.001338957    1.315    0.240
        42  -9.7000     46.1073      9.7425   4.1463053822e+01   7.0335017771e+01    0.2968019    0.1423473  31.67  0.001316157    2.181    0.542
        43 -11.2079     65.1215      7.7496   3.1549725248e+01   6.6834495464e+01    0.3468436    0.2796609  86.67  0.001482767    1.775    0.437
        44 -11.8901    193.4252      7.3952   7.2075124587e+00   3.4751470929e+01    0.2447503    0.2274135  82.05 0.0005923391    1.137    0.120
        45  -9.6323    156.4915      7.5297   1.0984960160e+01   4.3947758434e+01    0.1376376    0.1222228  89.38 0.0008098194    1.017    0.017
        46 -11.0964      2.8157      6.1043   6.9984090145e+01   7.6365126818e+01    0.2567527    0.1743649  -7.08 0.0009130919    1.375    0.273
        47 -10.7501    146.4641      5.7312   1.1662183884e+01   4.6718300288e+01    0.2495534    0.1796124  57.31 0.0008393835    1.306    0.235
        48  -9.8438    142.2692      3.3114   1.1393651078e+01   4.8028836084e+01    0.3352877    0.2068094  48.78  0.001662957    1.618    0.382
        49  -9.2377     90.7117      6.3557   2.2453066287e+01   6.1057304703e+01    0.1369789    0.1039186 -63.57 0.0007025003    1.677    0.404
        50  -9.5876     97.5766      5.1676   2.0160119487e+01   5.9466460995e+01    0.1752838    0.1587774  89.52 0.0006145309    1.202    0.168
        51 -11.1061     26.7170      9.8222   5.3306306277e+01   7.3343552763e+01      0.26204    0.1881899   2.27 0.0009244333    1.350    0.260
        52  -9.0002    183.2333      3.5328   7.0370587087e+00   3.7570434793e+01     0.331292    0.1891576 -57.35  0.001118715    1.703    0.413
        53 -10.9144    187.0425      1.4164   6.1351442060e+00   3.6834193816e+01    0.2338278    0.1088961  70.77 0.0004701956    1.957    0.489
        54 -10.1284    111.7043      3.6739   1.6456325782e+01   5.5994823727e+01    0.2600211    0.2006443 -70.49  0.001398603    1.475    0.322
        55 -11.3429    216.9955      2.4376   4.2320564354e+00   2.9821900106e+01    0.3247451    0.1944858  68.65  0.001431526    1.687    0.407
        56  -9.7197    207.4003      2.6402   4.9197473227e+00   3.1945627685e+01    0.1934005    0.1184619  -5.94 0.0008028852    2.295    0.564
        57  -9.5985    101.6918      3.5616   1.8489414855e+01   5.8573965129e+01    0.1882095    0.1263348  77.18 0.0009343128    1.531    0.347
        58 -12.3705     86.5073      1.3695   2.1174045529e+01   6.2556463953e+01    0.4890072      0.11707  62.05   0.00104224    3.530    0.717
        59 -10.3281    250.0715      1.4368   2.1678890326e+00   2.3114510464e+01     0.146409    0.0985668 -86.81 0.0003605143    1.455    0.313
        60 -13.5009     61.7278     91.5041   6.5441261800e+01   5.1236036256e+01    0.8006912     0.557174 -78.72  0.002680884    1.772    0.436
        61 -12.6912     56.4331     94.7408   6.8236826642e+01   5.1187601735e+01    0.4734212    0.3809232  87.69 0.0007287737    1.435    0.303
        62 -11.5783     11.8464     97.2021   8.6186456416e+01   5.4869734279e+01    0.3065262    0.2131924 -61.46  0.001112816    1.294    0.227
        63 -11.1283     13.5055     93.5701   8.5093610942e+01   5.5674479290e+01    0.2061276    0.1995096  -4.00 0.0001060566    1.146    0.127
        64 -10.3800    232.5898     96.5781   2.4653337558e+01   1.5251191309e+01    0.2288938    0.1817763  -9.18  0.001391555    1.297    0.229
        65 -11.3949    199.7483     96.0145   2.9416546398e+01   2.1789170049e+01    0.2931005    0.2524596 -62.47 0.0005317293    1.320    0.243
        66 -10.7234    170.4649     97.8092   3.5264926236e+01   2.7822128574e+01    0.3389899    0.2753039 -43.09  0.001380588    1.250    0.200
        67 -10.1197    250.1021     94.6555   2.2036730758e+01   1.2406140254e+01    0.2217967    0.1381608 -38.28 0.0007580094    1.385    0.278
        68 -10.1164    222.3114     95.3064   2.5783020524e+01   1.7364798839e+01    0.1302577   0.09746206   8.39 0.0003484293    1.617    0.382
        69  -9.8525    206.9677     95.0037   2.8006829456e+01   2.0454274411e+01    0.2124278    0.1583519 -60.96  0.001116836    1.634    0.388
        70 -10.4872    172.7498     91.5131   3.3165342540e+01   2.8393311168e+01    0.3122462    0.2399258 -89.38  0.001389505    1.771    0.435
        71 -10.6356    168.1715     89.8756   3.3647169567e+01   2.9710056584e+01     0.375077    0.2136869  54.16 0.0009700268    1.796    0.443
        72 -10.2997     79.6216     90.9377   5.8624544351e+01   4.8512606343e+01    0.2465473    0.2033763  10.02 0.0003977061    1.351    0.260
        73 -13.6175    195.4448     85.3177   2.7484206562e+01   2.4359705063e+01     1.037561    0.7126003 -49.35  0.003005458    1.520    0.342
        74 -11.9122     89.4269    115.0954   6.1207876315e+01   4.1140292120e+01    0.4689893    0.2918212  42.12  0.001037157    1.561    0.360
        75 -14.2154    199.3339     68.6109   2.2641152697e+01   2.5983410016e+01     2.081241     0.896898  55.84  0.008737539    2.354    0.575
        76 -11.7434    166.2890     66.2047   2.7444559043e+01   3.4044740436e+01    0.9941123    0.6050319  43.89  0.004466099    1.734    0.423
        77 -10.5490    203.6384    115.9973   3.3461747518e+01   1.7872699590e+01    0.3360833    0.2028296  62.72   0.00153604    2.317    0.568
        78 -12.0025    210.7701     47.4627   1.5802332744e+01   2.6282799749e+01    0.4666182     0.317107 -67.67  0.001243408    1.611    0.379
        79 -12.0781    242.4698     61.5445   1.5706351758e+01   1.8015187732e+01     0.574836    0.4526593 -26.69  0.003713583    1.199    0.166
        80 -12.1081    228.3484     52.1535   1.5019740341e+01   2.1960611819e+01     1.320169     0.532254 -56.23  0.005067286    3.422    0.708
        81 -11.4725    137.8750    112.7639   4.6605509168e+01   3.2137006181e+01    0.5026895    0.2536346  30.40  0.001607996    2.558    0.609
        82 -12.8420    202.7432     60.2866   2.0037142841e+01   2.6386053043e+01    0.8450333    0.5098751 -89.21  0.002124737    2.370    0.578
        83 -12.1742    209.2972     58.4044   1.8709596108e+01   2.5191779105e+01    0.3498311    0.2568483  87.51  0.001919558    1.565    0.361
        84  -9.4107    242.4585    112.4215   2.6751370410e+01   1.1338358284e+01    0.1230347    0.1048842 -20.08 4.900632e-05    1.009    0.009
        85 -11.5360    215.3863     42.0542   1.3958953239e+01   2.5936620315e+01    0.3198706     0.239715 -46.21  0.001418144    1.201    0.167
        86 -11.5754     63.4214    111.1255   6.9131238384e+01   4.6195937665e+01     0.331734    0.2097805  62.51  0.001406414    2.000    0.500
        87 -10.5414     50.4766    109.9461   7.3529754301e+01   4.8177417756e+01    0.2135893    0.1851226  32.21 0.0003549863    1.176    0.149
        88 -10.7406     38.4581    109.9488   7.7901821729e+01   4.9514497450e+01    0.2148934    0.1288138 -69.19  0.001030543    1.594    0.373
        89  -9.7447     87.0865     89.4760   5.5587557258e+01   4.7505313813e+01    0.2299387     0.147264  35.71 0.0006560952    1.549    0.354
        90 -10.9162    195.8550    107.4778   3.2838109227e+01   2.0778708388e+01    0.3848871    0.2918664 -57.27  0.002012695    1.592    0.372
        91 -12.4710     52.2792     86.2888   6.7925539462e+01   5.3801393930e+01    0.5819842    0.3417031 -19.27  0.001666824    2.604    0.616
        92 -11.2336     48.5367     85.4701   6.9262968582e+01   5.4476384214e+01    0.2398748    0.2336743  -3.91 0.0006747286    1.047    0.045
        93 -11.4709     55.0200     81.9750   6.5739636338e+01   5.4475800176e+01    0.3270077    0.2518407 -79.16            0    1.518    0.341
        94 -11.3635    223.4769     88.0131   2.3947928621e+01   1.8174451719e+01     0.326763    0.1838508  52.80  0.001654042    1.940    0.485
        95 -11.6978    161.2711     84.6999   3.3665093852e+01   3.2191265293e+01      1.47583    0.6903285  33.07  0.004814999    3.427    0.708
        96 -11.4336    168.7935     80.5788   3.1005713681e+01   3.1135411366e+01    0.3882809    0.2699791  77.29  0.001185783    1.871    0.466
        97 -11.3503    167.1659     76.8223   3.0284260027e+01   3.2136191923e+01    0.2953802    0.2651515  24.48 0.0006864821    1.186    0.157
        98 -11.9617    236.4184     86.0105   2.1817306351e+01   1.5986112664e+01    0.5175215    0.3036298  76.03  0.001680939    2.643    0.622
        99 -11.5428    147.4617     83.4148   3.6350028557e+01   3.5648457612e+01    0.6465059    0.4531554 -43.95  0.002097187    1.469    0.319
       100 -13.2335      4.9754     54.6374   8.3069664739e+01   6.5644317037e+01    0.9050876    0.5748113 -64.65  0.002741464    1.357    0.263
       101 -12.8255    216.5032     83.5522   2.3867886986e+01   2.0193782408e+01    0.4719492    0.3380851 -54.80  0.002582364    1.518    0.341
       102 -11.8779     83.3545     83.7681   5.5289701679e+01   4.9483763591e+01    0.2850987    0.2566143  32.34  0.000299068    1.092    0.085
       103 -10.4773    250.6418     81.6525   1.9214798361e+01   1.3989778794e+01    0.2162387    0.1013404 -28.06 0.0004891341    1.928    0.481
       104 -12.1995    222.5170     79.7530   2.2160802208e+01   1.9516873768e+01    0.3355716    0.2518353 -85.69  0.001662476    1.735    0.424
       105 -12.5353    201.3046     77.2297   2.4531738477e+01   2.4301415527e+01    0.5094042    0.3421292 -82.27  0.002385278    2.194    0.544
       106 -10.2633     81.9545     79.4653   5.4532380864e+01   5.0703705171e+01    0.2293075    0.1452245  38.50 0.0004628707    1.553    0.356
       107  -9.9866    231.4498     78.4595   2.0731882195e+01   1.7940025905e+01    0.1266421    0.1118721 -32.98 3.364602e-05    1.013    0.013
       108 -12.1443    249.8976     75.2791   1.7931335177e+01   1.4929684150e+01    0.2806263    0.1919181 -28.45 0.0003218577    1.284    0.221
       109 -10.8021    249.8593     67.6467   1.6294398525e+01   1.5890499497e+01    0.4858016    0.1967608 -24.90  0.002140395    2.607    0.616
       110 -10.4170    155.4126     76.6026   3.2620699007e+01   3.4962991017e+01    0.3169477    0.2501615  60.23 0.0008600054    1.290    0.225
       111 -11.9997    218.4249     75.3872   2.1669697196e+01   2.0948660983e+01    0.2887579     0.238343  -0.09   0.00170495    1.389    0.280
       112 -11.2247    223.8005     70.3794   1.9803066481e+01   2.0535823701e+01    0.2127355    0.1613503  47.19 0.0006353576    1.476    0.322
       113 -12.5306    219.9752     69.5074   2.0071650432e+01   2.1434179901e+01    0.3848074    0.2758179  25.65  0.002055737    1.824    0.452
       114 -10.9228    191.4402    102.6943   3.2475105504e+01   2.2465206435e+01    0.4624849    0.1588926 -44.08  0.001592207    3.114    0.679
       115  -9.4665    151.0522     72.6986   3.2421827735e+01   3.6672995177e+01    0.1954449    0.1934597  41.75 0.0005078508    1.012    0.012
       116 -13.6410    188.7138     57.0103   2.1148967778e+01   3.0046745291e+01     1.384511     1.038944  62.50  0.006298024    1.353    0.261
       117 -11.9785    127.3725     58.7123   3.3587683852e+01   4.4815749491e+01    0.5718955    0.3193993  36.01  0.002262287    2.116    0.527
       118  -9.3126    161.9028     47.3293   2.2651616483e+01   3.7918830883e+01    0.4041918    0.3492981  61.97   0.00222115    1.123    0.109
       119 -10.3184    161.6472     58.9668   2.6196503197e+01   3.6290302774e+01    0.3049562    0.1898126 -51.51  0.001263475    1.767    0.434
       120 -11.5119    160.1397     54.3688   2.5099010332e+01   3.7350478575e+01    0.7255897    0.4783595  69.32  0.002736442    1.595    0.373
       121 -10.7305    248.2098     55.7934   1.3890901448e+01   1.7639224075e+01    0.2844999    0.2234918  48.70  0.001874503    1.527    0.345
       122 -10.4640     69.4584     54.7937   5.1239182558e+01   5.8260191806e+01    0.3392536    0.2750205 -88.55  0.001692025    1.774    0.436
       123 -12.3638    246.5246     41.8932   1.1016621663e+01   1.9587327756e+01    0.3426998     0.228426 -59.32  0.000968615    1.446    0.308
       124 -10.8415    245.9572     50.0734   1.2850505543e+01   1.8743642131e+01     0.431911    0.1894348  65.60  0.002156797    2.565    0.610
       125  -9.9424    247.8492     46.6883   1.1947147803e+01   1.8782861945e+01    0.3323998    0.1763983  87.10  0.001412846    2.561    0.610
       126  -9.7655    217.9454    108.2504   2.9368454178e+01   1.6311890187e+01    0.1738753    0.1649312  -8.48 0.0003469909    1.076    0.071
       127 -11.0306    167.6615     32.6937   1.7301569664e+01   3.8377390949e+01    0.5142265    0.3546633 -41.22  0.002630674    1.440    0.306
       128 -12.4234    172.6622     45.3020   2.0287459915e+01   3.5514817433e+01     0.757601     0.571904  38.32   0.00294685    1.499    0.333
       129 -11.3995    177.3757     38.2141   1.7541990032e+01   3.5270461088e+01    0.4924856    0.3140381  27.40  0.002225267    2.245    0.555
       130 -11.8044    160.8049     38.0290   1.9984837566e+01   3.9444877149e+01    0.5254455    0.3386745 -25.64  0.001795122    1.681    0.405
       131 -11.1377     99.6453     47.6494   3.7479736749e+01   5.3313207015e+01     0.427196     0.288448  29.45   0.00193895    1.666    0.400
       132 -11.2003    143.4901     45.7979   2.5622981690e+01   4.2796485240e+01    0.5578005    0.2994595  30.47  0.002033416    2.881    0.653
       133 -11.8523    161.7251    106.8398   3.9432896045e+01   2.8131474120e+01    0.3519699    0.2447899 -54.18  0.001630205    1.681    0.405
       134 -10.9264    126.3004     44.7471   2.9057908350e+01   4.7308076331e+01    0.5106722    0.3189935 -49.72    0.0021539    1.824    0.452
       135 -10.7489    187.1648     44.6115   1.7992297501e+01   3.2077872140e+01    0.2977198    0.2224381  -4.77   0.00110465    1.696    0.410
       136  -9.8664    182.7461     45.5927   1.8876669399e+01   3.3011640766e+01    0.1930652    0.1310349  81.18 0.0009149263    1.605    0.377
       137  -9.6194    121.2509     45.2103   3.0462702613e+01   4.8501856390e+01    0.2388075    0.1674167 -75.68  0.001034321    2.028    0.507
       138  -9.8155    136.9065     43.3947   2.6192309391e+01   4.4818891217e+01    0.4187912    0.2706855  82.06   0.00180703    1.957    0.489
       139 -10.8124    132.3441     40.0240   2.6017311924e+01   4.6462137997e+01    0.4068918    0.2637408  50.90  0.001213913    1.452    0.311
       140 -11.0499     93.7238     42.8371   3.7523215962e+01   5.5476985296e+01    0.4278556    0.2689613 -28.47  0.001938897    1.747    0.428
       141 -10.8191    164.8713     38.8393   1.9582224655e+01   3.8310915257e+01    0.3377613    0.2590027  81.86   0.00039314    1.328    0.247
       142  -9.8953    105.2909     43.1891   3.4057125017e+01   5.2719776628e+01    0.1936573    0.1719407  86.97  0.000569059    1.296    0.228
       143 -10.3963     99.8619     41.5709   3.5063542598e+01   5.4264295735e+01    0.3477077    0.2923648  -0.62   0.00182004    1.317    0.241
       144 -10.7401    241.0847     40.1784   1.1095533300e+01   2.0835827644e+01    0.2860238    0.1850023  46.10  0.001374397    1.955    0.489
       145 -11.4835    233.9615     36.7653   1.0937648677e+01   2.2647058980e+01    0.4007525    0.2044523 -60.58  0.001018926    2.148    0.534
       146  -9.2971    238.9757     35.7684   1.0289789864e+01   2.1753450400e+01    0.2124797    0.1416715  67.49  0.001035722    1.641    0.391
       147  -9.7839    250.6292     36.9848   9.6299415403e+00   1.9363455001e+01    0.2841938    0.1057401 -25.63 0.0001250319    2.742    0.635
       148 -10.7130    122.5690     33.8477   2.5995731197e+01   4.9810081517e+01    0.4021472    0.2272935 -50.97   0.00100592    2.143    0.533
       149  99.0000    112.9976     32.5406   2.7826744471e+01   5.2408220157e+01    0.7655498     0.368783  49.34   0.00216044    1.901    0.474
       150 -11.5213    114.5378     28.0089   2.5677418244e+01   5.2623831308e+01    0.2561349    0.2108394  43.06 0.0001402563    1.162    0.139
       151 -10.3646    131.3413     33.0076   2.3756122649e+01   4.7672593612e+01    0.3234815    0.1957889 -54.41  0.001090908    1.988    0.497
       152 -11.4247     92.6922     32.9986   3.3835109042e+01   5.7266658601e+01    0.4370987    0.3219902  11.34  0.001628314    1.635    0.389
       153 -10.6781     74.7766     33.7101   4.0529302282e+01   6.1114058357e+01    0.3003776    0.2286388  41.96 0.0008411129    1.243    0.196
       154  -9.6671    152.3721     33.5277   1.9963173273e+01   4.2175457260e+01     0.140789    0.1325168 -78.74 0.0001890905    1.051    0.048
       155  -9.8428    239.2993     30.4420   9.0767316525e+00   2.2281865136e+01     0.407543    0.1726637  63.72  0.002028359    2.496    0.599
       156  -9.8263    162.7387     29.1003   1.6925034172e+01   4.0058198941e+01    0.2155888    0.1734319 -67.62 0.0005309985    1.265    0.210
       157 -11.6573     86.0448     28.4788   3.4079471035e+01   5.9464140323e+01    0.3566648    0.2523344  46.37 0.0006724596    1.301    0.231
       158 -10.3773    168.1989     26.5281   1.5368435554e+01   3.8970752190e+01    0.2763834    0.2245768 -62.07  0.001273162    1.220    0.180
       159  -9.5556    104.2522     27.3741   2.8064142756e+01   5.5281749765e+01    0.1880866    0.1331138  67.95 0.0002796226    1.480    0.324
       160 -11.1221    234.1808     24.5984   8.1588230088e+00   2.3948787825e+01    0.3668716    0.2434875  71.25  0.001347912    1.598    0.374
       161 -10.5967    247.0022     22.4894   6.7831804864e+00   2.1622466628e+01    0.2653043    0.2108872 -50.18 0.0008517537    1.028    0.027
       162 -10.9326    158.9397     99.1532   3.8065119553e+01   3.0152753645e+01    0.2536622    0.2129365 -46.26 0.0003039778    1.239    0.193
       163  -9.6177    159.7230     26.4148   1.6533002473e+01   4.1144137857e+01    0.1990959    0.1204943  57.30 0.0009377511    1.560    0.359
       164  -9.7435    145.1548     26.4228   1.8848873677e+01   4.4909437462e+01    0.2079041     0.132351  81.09 0.0009501714    1.681    0.405
       165  -9.7995    148.3582     23.7121   1.7410006496e+01   4.4390977383e+01    0.4077183    0.2460595 -66.25  0.001801847    2.037    0.509
       166 -10.0704    150.8513     20.9007   1.6090346254e+01   4.4057600780e+01    0.2827549     0.202104 -23.69  0.001453564    1.543    0.352
       167 -10.3494    135.4146     25.3737   2.0231455267e+01   4.7568756779e+01    0.3313295    0.2152484  41.05  0.001563022    1.635    0.388
       168  -9.9302    123.2674     25.1853   2.2600572311e+01   5.0743214918e+01    0.2399381    0.1767104 -18.09  0.001025222    1.539    0.350
       169 -10.9457    176.0565     24.2464   1.3677449804e+01   3.7255094551e+01    0.3700238    0.2182752 -21.71  0.001767638    1.903    0.475
       170 -10.8233    181.2466     32.2266   1.5316109934e+01   3.5050959945e+01    0.3963394    0.3088108 -45.96  0.001465893    1.242    0.195
       171 -10.3081     98.2270     21.9652   2.7448951320e+01   5.7461443189e+01    0.4354931    0.2191642  51.33  0.001142562    1.759    0.432
       172 -10.1827    102.6661     23.2995   2.6797927621e+01   5.6200808281e+01    0.2279432    0.1456597 -32.87 0.0008842233    1.676    0.403
       173 -10.3315    103.4409     19.5036   2.4990753845e+01   5.6472336313e+01    0.3802756    0.2559114  80.84    0.0017781    1.811    0.448
       174 -11.2039    153.0397    108.2993   4.1771374974e+01   2.9750675583e+01       0.2293    0.2240419 -20.62 0.0003876884    1.053    0.050
       175 -12.1670    153.5732     97.2855   3.8777646256e+01   3.1700791767e+01    0.6403919    0.6226739 -33.22  0.002176193    1.054    0.051
       176 -10.1681    210.2875    105.7697   3.0005809918e+01   1.8157638521e+01    0.2180751    0.1941372  37.69 0.0008437927    1.187    0.158
       177 -10.8439    182.5842    102.9719   3.4181865868e+01   2.4295360462e+01    0.4439514    0.3267324 -69.73  0.002116423    1.923    0.480
       178 -10.1113    163.2090     21.0421   1.4368845997e+01   4.0854541803e+01     0.193403    0.1750547  47.51 0.0004194069    1.187    0.157
       179 -11.2801    144.5822    103.2424   4.2483846768e+01   3.2575644182e+01    0.3910766    0.2997949  18.69  0.001409156    1.524    0.344
       180 -10.7721    130.1434     19.2831   1.9023531907e+01   4.9640982275e+01    0.2577624    0.2157241  65.17 0.0004149232    1.088    0.081
       181  -9.8067    115.7874     20.2032   2.2312699995e+01   5.3259459036e+01    0.2469172      0.13948 -65.52 0.0009488685    2.781    0.640
       182 -10.0957     19.7905     19.2691   6.3048870132e+01   7.2425571346e+01    0.2010224    0.1846953  22.74  0.001251321    1.282    0.220
       183 -11.5421     90.4652     51.0456   4.1812882626e+01   5.4775153846e+01    0.2515647    0.2199338  39.38 0.0005634836    1.091    0.083
       184 -10.0320    192.3405     16.6238   9.7672598620e+00   3.4093950104e+01    0.2706713    0.1437742 -84.54 0.0009402461    2.125    0.529
       185 -10.3781    153.7313     16.4441   1.4213977662e+01   4.3786301169e+01    0.2488542    0.2153268 -15.49 0.0008219284    1.318    0.241
       186 -10.6502     36.3864    248.8012   9.0358458081e+01   1.9650034300e+01    0.1312381   0.09499227 -68.42 0.0009624751    1.751    0.429
       187  -9.4489    139.3546     16.7804   1.6509669878e+01   4.7501378149e+01    0.1955908    0.1370256  -6.36 0.0009599493    1.771    0.435
       188  -9.8833    121.4970     17.1037   1.9886086138e+01   5.2132028197e+01    0.2363987    0.1781632  75.82 0.0005383361    1.306    0.235
       189 -11.1440     94.1765     16.0680   2.5986878158e+01   5.9164939767e+01      0.28741    0.1873682  51.25   0.00142282    1.361    0.265
       190  -9.6636    195.9944     14.6430   8.8971460754e+00   3.3428531119e+01    0.1808177     0.154808 -78.59 0.0006667471    1.055    0.052
       191  -9.3275    159.9612     13.7616   1.2525941057e+01   4.2450594690e+01    0.1870991    0.1581377  75.62 0.0002193872    1.085    0.078
       192 -13.5674     67.1787     83.2957   6.1218164571e+01   5.2365258878e+01     1.298321    0.8465307 -50.41  0.004155344    1.508    0.337
       193 -13.4003    116.3146     93.6701   4.7434682876e+01   4.0698473035e+01     1.073057    0.7156897 -75.64 0.0006858162    2.529    0.605
       194 -10.1390    187.2408     13.1473   9.3176369605e+00   3.5676054082e+01    0.2440159    0.1380316 -68.53 0.0006456369    1.884    0.469
       195 -11.2812    113.5137    246.3144   7.4523977801e+01   1.1033616232e+01    0.2566079    0.2013794 -15.21  0.001217386    1.642    0.391
       196  -9.1691    141.4984     12.5578   1.4699543951e+01   4.7372090126e+01    0.1414218    0.1259247  87.22  0.000133152    1.060    0.057
       197 -13.0178     85.7755     72.9140   5.1119751763e+01   5.1405923448e+01     1.656318    0.5293232  39.47  0.005253601    3.127    0.680
       198 -10.2620    180.6489    243.3585   6.0909076233e+01   2.6451399320e+00    0.1613129    0.1227372  42.97  0.001106138    1.660    0.398
       199 -15.3436    122.6556     85.5849   4.3303656348e+01   4.0959258860e+01     4.020105     2.130978  44.21   0.01611149    1.831    0.454
       200 -13.0338     91.7550     67.1790   4.7123301146e+01   5.1396348704e+01     1.377238     1.106272 -78.74  0.006654969    1.666    0.400
       201 -12.9875    152.4187     62.9707   2.9215249995e+01   3.7942896927e+01       1.6703    0.8878412  38.60  0.006575927    2.247    0.555
       202 -12.3773    140.5346     55.8995   2.9544402248e+01   4.2016326585e+01     1.116812    0.9572149  43.49   0.00352701    1.157    0.136
       203 -13.3768     80.8575     41.8201   4.1644949775e+01   5.8471327188e+01     1.199579    0.6100444  49.92   0.00500023    1.976    0.494
       204 -11.0517     88.0196    238.9860   7.9141462865e+01   1.5441498643e+01    0.1885898    0.1425375  38.49 0.0004989967    1.009    0.009
       205  -9.0686    236.6780    146.2585   3.4514301319e+01   7.6509763275e+00    0.1052741   0.09679089 -55.77 0.0002382807    1.548    0.354
       206  -9.9687    152.9082    124.1386   4.5677995066e+01   2.6739312423e+01    0.2077206    0.1979879  73.26  0.000261205    1.196    0.164
       207 -10.4565    220.6932    121.5426   3.1880695767e+01   1.3839599545e+01       0.3347    0.1887726  51.76  0.001443589    2.047    0.511
       208 -10.0553     57.5895    120.1660   7.2838705241e+01   4.4745808549e+01    0.2040254    0.1231545 -51.99  0.000662767    1.659    0.397
       209 -10.3199    181.5419    117.3414   3.7863633222e+01   2.2068259927e+01    0.4408647    0.1329441 -39.54  0.001457476    3.236    0.691
       210 -13.0015     79.6099     59.1932   4.8783377464e+01   5.5457271574e+01     1.337839    0.5865953  34.64  0.004898184    2.505    0.601
       211 -13.1736     79.7285     50.4946   4.5519269285e+01   5.7131362872e+01    0.8740963    0.5439002  30.82  0.003922927    1.718    0.418
       212 -12.0517     75.6158    103.2985   6.3141313069e+01   4.6263056114e+01    0.4217596    0.2440317 -68.54   0.00119667    2.122    0.529
       213 -12.1670     73.2818     96.5883   6.2364680672e+01   4.8244724118e+01    0.4547185    0.3413032 -55.49  0.002259062    1.339    0.253
       214 -12.9873    136.3555     82.0752   3.8641106544e+01   3.8494968780e+01     1.105535    0.7068552 -39.09  0.004902866    1.606    0.377
       215 -10.9814    107.2337    115.3341   5.5739571200e+01   3.7823108782e+01    0.3732796    0.2247063  -8.59  0.001157899    4.042    0.753
       216 -10.3463    165.0468    101.9963   3.7476047349e+01   2.8281646505e+01    0.2297253    0.2217397  -5.55 0.0007886536    1.017    0.016
       217 -10.4092    243.3427    100.0663   2.4014092150e+01   1.2854241758e+01     0.402098    0.2093119 -12.39  0.001098748    2.879    0.653
       218 -12.9869     85.6149     98.6710   5.8542194253e+01   4.5659671371e+01    0.7413682    0.4147575  28.03  0.003013749    1.994    0.499
       219 -10.3596     89.2882     93.9356   5.6048815960e+01   4.6082600830e+01    0.2167646    0.2056715  82.35 0.0002637691    1.137    0.121
       220 -11.3431     34.0830    100.3401   7.7996978610e+01   5.2359841030e+01    0.2877655    0.2075492 -69.38 0.0005534098    1.310    0.236
       221 -11.3819    226.3096     97.5516   2.5728715931e+01   1.6283432648e+01    0.2919943    0.2211711  42.55  0.001724718    1.447    0.309
       222  -9.5367    176.0260     98.2347   3.4260357577e+01   2.6520171034e+01    0.1932086    0.1749085  38.91            0    1.108    0.098
       223 -12.1078     48.9534     95.2233   7.1246959685e+01   5.2026434375e+01    0.4620836    0.2692973  22.04 0.0009641766    1.859    0.462
