#   1 NUMBER                 Running object number                                     
#   2 MAG_AUTO               Kron-like elliptical aperture magnitude                    [mag]
#   3 X_IMAGE                Object position along x                                    [pixel]
#   4 Y_IMAGE                Object position along y                                    [pixel]
#   5 X_WORLD                Barycenter position along world x axis                     [deg]
#   6 Y_WORLD                Barycenter position along world y axis                     [deg]
#   7 A_WORLD                Profile RMS along major axis (world units)                 [deg]
#   8 B_WORLD                Profile RMS along minor axis (world units)                 [deg]
#   9 THETA_WORLD            Position angle (CCW/world-x)                               [deg]
#  10 FWHM_WORLD             FWHM assuming a gaussian core                              [deg]
#  11 ELONGATION             A_IMAGE/B_IMAGE                                           
#  12 ELLIPTICITY            1 - B_IMAGE/A_IMAGE                                       
         1 -13.3961     56.6981     76.2065   8.9907361145e+01   5.5788896825e+01     0.983729    0.5499933 -32.07  0.004472026    1.950    0.487
         2 -12.3414     94.8383     51.7915   6.8280975025e+01   5.3902136499e+01    0.6933629     0.406624 -17.37  0.002250223    2.225    0.551
         3 -10.6599     75.2286     17.4719   6.0566278410e+01   6.2495930256e+01     0.250741    0.2351702 -22.31 0.0004463251    1.264    0.209
         4  -9.5611    153.5034    175.0008   8.5962643384e+01   1.5671088994e+01    0.2071711    0.1327579 -73.84 0.0008105334    2.557    0.609
         5 -10.9168    132.0218    172.3111   9.0475265734e+01   2.0338763615e+01    0.4026978    0.2214474 -65.15  0.001568952    2.378    0.580
         6 -10.3183    145.1657    169.0354   8.6699307911e+01   1.8565021894e+01    0.2514543    0.1727486 -21.65  0.001082483    1.997    0.499
         7  -9.3532    163.3381    159.3287   8.0463165550e+01   1.7072318104e+01    0.1576175    0.1193792  -2.41 0.0007051861    1.732    0.423
         8  -9.8126    142.4773    158.4890   8.5152004010e+01   2.1435514014e+01    0.1504999    0.1483839  -8.92 0.0001189268    1.035    0.033
         9  -8.8196    158.6712    151.3172   7.9757783101e+01   1.9743029752e+01    0.1555446    0.1233947  88.05 0.0004849925    1.681    0.405
        10  -8.9737    170.6852    136.6810   7.3643061590e+01   2.0342550194e+01    0.1570862     0.122435  -1.19 0.0004533709    1.652    0.395
        11 -10.7608    117.0282    135.5241   8.6526067033e+01   3.1800233175e+01    0.2980411    0.2241738  83.26  0.001325523    1.745    0.427
        12  -9.7377    147.7691    134.6140   7.8442143695e+01   2.5707578443e+01     0.224621    0.1479596  54.80 0.0009508007    1.671    0.402
        13 -10.1870    111.0295    132.4903   8.7451878905e+01   3.3679515444e+01    0.2402653    0.1539262  40.44  0.001041215    1.615    0.381
        14  -9.3997    153.5039    131.4890   7.6307499244e+01   2.5166494780e+01     0.155865    0.1519816 -34.35 0.0003465272    1.018    0.018
        15  -9.8255    140.4996    125.5109   7.7986690391e+01   2.9298023159e+01    0.1566672    0.1530079 -49.22 0.0001818048    1.005    0.005
        16  -9.3927     99.6513    123.6883   8.8579410281e+01   3.7917152004e+01    0.1572046    0.1207201 -15.05 0.0003401954    1.716    0.417
        17 -10.1519     88.9758    123.5073   9.1662816253e+01   3.9837289003e+01    0.2292789    0.1506151  37.95  0.001040764    1.614    0.380
        18  -9.4242    131.6736    122.6551   7.9514327622e+01   3.1823873923e+01    0.1632869    0.1262627  -7.19 -7.409588e-05    1.744    0.427
        19 -10.2722     61.9966    121.5100   9.9435909651e+01   4.4436793590e+01    0.2068759    0.1435678  33.47   0.00103259    1.591    0.372
        20  -9.1273    125.6834    117.6473   7.9804248802e+01   3.4222812278e+01    0.1629452    0.1254639  -9.35 2.459595e-05    1.739    0.425
        21 -10.5122     60.7163    117.1309   9.8919090706e+01   4.5692622594e+01    0.2803676    0.1542633  46.82  0.001232353    2.089    0.521
        22  -9.5047     72.9932    116.3230   9.4874702162e+01   4.4152447960e+01     0.239631   0.09643085  53.00 0.0007049574    4.298    0.767
        23 -12.2482    101.5954    106.3762   8.3600328703e+01   4.1640548706e+01    0.5331924    0.3834014 -42.48  0.002508972    1.350    0.259
        24 -11.8721     94.9894     98.4487   8.3414461328e+01   4.4687211424e+01    0.3887843    0.3500994  45.01  0.002081838    1.176    0.149
        25 -12.7883     86.0781     94.1801   8.5011365896e+01   4.7252402969e+01    0.7800708    0.3629045 -42.50  0.003042739    2.098    0.523
        26 -11.1676     55.1613     96.0882   9.5915698099e+01   5.1501129653e+01    0.2864674    0.2158304 -40.11  0.001543671    1.245    0.197
        27  -9.3629     69.3158    106.3261   9.3681906028e+01   4.7121829549e+01    0.1509544    0.1066128 -27.04  0.000484033    1.671    0.402
        28  -9.0741    137.3172     95.3243   7.0638782836e+01   3.6523639061e+01    0.1589919    0.1249628   4.00 0.0007044075    1.670    0.401
        29 -11.2684     63.0671     96.6546   9.3336167696e+01   5.0309646731e+01    0.3953961     0.238209 -27.78  0.001727486    2.113    0.527
        30  -9.3065    102.3076     92.6461   7.9511996162e+01   4.4573695150e+01    0.1543621    0.1216106 -84.61 0.0007042591    1.719    0.418
        31 -11.1914     76.7423     96.7161   8.8759388336e+01   4.8240625208e+01     0.359234    0.1916883  25.15  0.001447752    2.396    0.583
        32  -9.5974     95.3000     91.3395   8.1270290632e+01   4.6206864412e+01    0.1547488     0.116062 -13.17 0.0005562031    1.666    0.400
        33 -10.9096     73.5142     91.1468   8.8294117929e+01   5.0023739389e+01    0.2447719    0.2102761  63.68  0.001322159    1.402    0.287
        34 -11.0418    110.0182     85.0944   7.4956343515e+01   4.4604783917e+01    0.4155473    0.1924658  33.90  0.001446688    2.773    0.639
        35  -9.8274     97.1947    228.6061   1.0696704718e+02   1.4146548835e+01    0.1785341    0.1144105  29.64 0.0007431422    1.705    0.414
        36 -11.8818    104.3685     70.8375   7.2056969033e+01   4.8589695601e+01    0.3875212    0.3534681 -13.14  0.002135778    1.087    0.080
        37 -11.2753     78.2480     78.6432   8.2960116088e+01   5.1979351616e+01    0.4871373    0.1548326 -42.05  0.001606857    3.099    0.677
        38 -10.5009     87.5061     74.9700   7.8687541406e+01   5.1097687065e+01    0.2262702    0.1379053 -43.54  0.001028764    1.579    0.367
        39 -11.1299     91.5093     80.6824   7.9219631990e+01   4.9186917399e+01    0.3087572    0.2283091   4.54  0.001453663    1.733    0.423
        40 -10.4569    100.9932    176.0031   9.8750545889e+01   2.5006496354e+01    0.2059601    0.1922437  79.86  0.001170377    1.003    0.003
        41  -9.8785     91.5861     36.2103   6.3330621211e+01   5.6905563453e+01    0.1872413    0.1256824 -13.69 0.0009425397    1.654    0.396
        42 -10.0726     84.8546     21.5526   5.9359389837e+01   6.0122237922e+01    0.2292788    0.1651117 -63.19 0.0009358333    2.237    0.553
