#   1 NUMBER                 Running object number                                     
#   2 MAG_AUTO               Kron-like elliptical aperture magnitude                    [mag]
#   3 X_IMAGE                Object position along x                                    [pixel]
#   4 Y_IMAGE                Object position along y                                    [pixel]
#   5 X_WORLD                Barycenter position along world x axis                     [deg]
#   6 Y_WORLD                Barycenter position along world y axis                     [deg]
#   7 A_WORLD                Profile RMS along major axis (world units)                 [deg]
#   8 B_WORLD                Profile RMS along minor axis (world units)                 [deg]
#   9 THETA_WORLD            Position angle (CCW/world-x)                               [deg]
#  10 FWHM_WORLD             FWHM assuming a gaussian core                              [deg]
#  11 ELONGATION             A_IMAGE/B_IMAGE                                           
#  12 ELLIPTICITY            1 - B_IMAGE/A_IMAGE                                       
         1 -14.3090    237.3774     76.8458   2.6622271026e+01   1.4487392746e+01     2.441535      1.11338 -18.38  0.007513701    4.367    0.771
         2 -13.9169    226.2228     53.9841   2.2513824402e+01   2.0591290402e+01     1.090374    0.7075337 -48.30  0.005349177    1.472    0.321
         3 -14.8253    142.0109     53.9841   3.7542201376e+01   4.2065314440e+01     0.906599    0.8192956 -74.15  0.004813899    1.256    0.204
         4 -14.8786     54.1372     55.6784   6.5060024952e+01   5.8784686735e+01     1.313566    0.4459527 -49.72  0.005201862    2.734    0.634
         5 -15.2024     75.3376     13.6682   4.0920670478e+01   6.2132850277e+01     1.051564     0.596864  19.84  0.004497088    1.962    0.490
         6 -13.2891     89.8225     12.8291   3.6002871459e+01   5.9432902720e+01    0.5789459    0.4163318 -46.20  0.003195144    1.855    0.461
         7 -12.1541    115.3012     12.4152   2.9137900194e+01   5.3921641614e+01     0.227907    0.1595737 -45.67  0.001178698    1.766    0.434
         8 -12.3765    123.6087     10.7435   2.6652218698e+01   5.2130747459e+01    0.2857871    0.1822663  37.43 0.0009587216    1.486    0.327
         9 -11.6991    151.7191      9.9782   2.1072400449e+01   4.5221791479e+01    0.2686408    0.1913849  78.79 0.0007866846    1.414    0.293
        10 -12.7370     72.9647      3.6461   3.7199678920e+01   6.3652482941e+01    0.5077705    0.2151369 -18.42  0.002318307    2.542    0.607
        11 -11.6664    138.3367      5.4280   2.1867224905e+01   4.9024087014e+01    0.2612329    0.1116365  59.83 0.0008517337    1.940    0.484
        12 -12.0073    111.8429      4.4674   2.6874874853e+01   5.5471671814e+01    0.2725323    0.1368864  28.43  0.001195585    2.269    0.559
        13 -12.1086    105.1221      4.2048   2.8347206052e+01   5.7016420785e+01    0.3799633    0.0833318  46.18   0.00109454    3.541    0.718
        14 -14.5234     82.1180     13.3789   3.8587748060e+01   6.0894965502e+01    0.8167172     0.449468  -2.38  0.003594805    2.297    0.565
        15 -13.9337    244.3751    112.6129   3.4105220998e+01   7.1864039265e+00     0.655421    0.5137825  19.36  0.003478383    1.488    0.328
        16 -11.9806    249.8932    113.1915   3.3382919718e+01   5.9508892936e+00    0.4668957    0.2692985 -22.03  0.002090622    1.938    0.484
        17 -12.4264    249.8145    106.7252   3.1901859521e+01   7.0037364371e+00     0.443462     0.274182 -38.25  0.001823529    1.465    0.317
        18 -13.0287    185.8642    114.6280   4.5298867612e+01   2.0145901429e+01    0.4093675    0.2656364 -37.16  0.001770986    1.557    0.358
        19 -13.4076    199.8100    108.5290   4.0917722044e+01   1.7959848594e+01    0.4430678    0.3561926  22.01  0.002133761    1.428    0.300
        20 -12.6632    241.8722    101.5748   3.1899153054e+01   9.5189250306e+00    0.4887977    0.2907283 -56.69  0.002137195    2.079    0.519
        21 -11.7821    134.4994    102.5080   5.4106693883e+01   3.4706799412e+01    0.1545326    0.1538996  26.61 0.0008106437    1.002    0.002
        22 -12.9465    247.7098     94.9174   2.9458617615e+01   9.3342085329e+00    0.9868993    0.2586139 -39.64  0.003220469    3.275    0.695
        23 -13.4406    238.3052     55.9193   2.1433946527e+01   1.7436226788e+01    0.9270831    0.8230321  -4.90  0.005372677    1.374    0.272
        24 -13.9650    239.9525     91.5936   2.9809044948e+01   1.1558571673e+01    0.8025811    0.4918309 -40.50   0.00353805    1.502    0.334
        25 -11.5163    246.4648    183.5206   4.9219836526e+01  -4.2558895300e+00    0.1332951      0.10958   4.96 3.972529e-05    1.039    0.037
        26 -12.2515    114.1565     96.9181   5.8061927876e+01   4.0257186933e+01    0.2397501    0.2163029 -82.70  0.001246566    1.243    0.195
        27 -13.9364    223.6515     64.9892   2.5641976481e+01   1.9567494455e+01     1.306472    0.8822399  78.86  0.006216099    1.670    0.401
        28 -14.2409     33.0562     89.0500   8.1179749608e+01   5.3985227857e+01    0.7794128    0.4149044  31.76  0.004140955    2.177    0.541
        29 -13.0036    212.2383     86.3431   3.2920975339e+01   1.8888123088e+01    0.5545946    0.4247091  41.64  0.002721494    1.404    0.288
        30 -13.4507    213.0101     80.9188   3.1385194533e+01   1.9611189266e+01     0.674324    0.5240236  16.30  0.003234332    1.668    0.400
        31 -11.1256    187.9732     83.0156   3.6449677234e+01   2.5495894350e+01    0.2384878    0.2333816  70.70 0.0006778505    1.011    0.011
        32 -12.6293     40.0837     81.4107   7.7196780605e+01   5.5012498845e+01    0.2761534    0.2334255  -3.31  0.001544814    1.351    0.260
        33 -13.2414    201.9152     71.9878   3.0893965824e+01   2.3844931969e+01     0.807628     0.774425 -15.50  0.004438526    1.118    0.106
        34 -11.9877    176.2495     79.6641   3.7852189532e+01   2.9061870728e+01    0.3796358    0.2699072 -79.41  0.001443547    1.949    0.487
        35 -13.4527     20.8595     77.9501   8.2955402092e+01   5.7428921628e+01    0.3801335    0.2144643  19.45  0.002165438    2.179    0.541
        36 -13.1436    163.8695     72.0362   3.8243003562e+01   3.3554213658e+01    0.5092191    0.4332351  53.02  0.002544028    1.143    0.125
        37 -11.9304    250.3849     68.9059   2.3000734624e+01   1.2779233970e+01     0.769012    0.1706303 -31.90  0.002163472    4.774    0.791
        38 -11.1947    138.3408    152.6750   6.5141846847e+01   2.2960043041e+01    0.1580038    0.1172191  79.55 0.0007051163    1.730    0.422
        39 -13.9858    204.6873     80.8274   3.2779366708e+01   2.1678727375e+01     1.101294    0.5688586  38.32  0.004093492    2.503    0.601
        40 -14.7438    138.7527     64.4514   4.1704776711e+01   4.1120177489e+01     1.157125    0.8512844  47.91  0.005509872    1.314    0.239
        41 -11.8513    250.0300    151.3338   4.1902080755e+01  -1.1672190615e-01    0.1885254    0.1709655  10.62  0.001150801    1.093    0.085
        42 -12.2207     42.9950     99.0321   8.0050201069e+01   5.0765590277e+01    0.2084843    0.1771084 -58.51  0.001097722    1.009    0.009
        43 -12.1382     43.9009     62.6732   7.0993012928e+01   5.8594950829e+01    0.1725976    0.1556677 -23.73 0.0007139264    1.101    0.092
        44 -11.0239      9.5037     61.9882   8.3598662279e+01   6.1568912996e+01    0.1859679   0.09142571 -61.01  0.000922339    1.596    0.373
        45 -14.0999    152.4788     52.8663   3.4820586250e+01   3.9619051525e+01    0.9336029    0.5475901  -6.58  0.003431037    2.829    0.646
        46 -14.3144     33.9082     53.9446   7.2225027052e+01   6.1361388044e+01    0.6620431    0.1929221 -46.56  0.002736779    2.652    0.623
        47 -14.3685     39.3033     50.3365   6.9008068088e+01   6.1529215128e+01    0.8883324    0.4940488 -67.40  0.003996475    3.000    0.667
        48 -15.0661     65.6819     43.0420   5.6382404915e+01   5.9489575006e+01    0.7148489    0.6339177 -14.22  0.004553358    1.070    0.065
        49 -13.6142     41.7033     44.9111   6.6271780526e+01   6.2295739481e+01    0.3588077    0.3159835 -75.40  0.002055153    1.623    0.384
        50 -10.7807      1.6046     45.7821   8.2907341796e+01   6.5270414602e+01     0.155835   0.09111429 -68.03 0.0009501203    1.654    0.395
        51 -11.8776    163.3238     43.5408   2.9665867175e+01   3.8214257885e+01    0.4303411    0.2393409 -49.78  0.001765206    2.094    0.522
        52 -14.7849    150.9354     65.1316   3.9022839801e+01   3.8008352091e+01       1.4352    0.8653301  46.01  0.006114073    1.620    0.383
        53 -11.5616    200.8790     97.1493   3.7773113131e+01   1.9770197574e+01    0.4749504    0.1554985 -41.63  0.001494308    2.977    0.664
        54 -10.8215    212.6622    148.6884   4.8062035708e+01   7.7604614607e+00    0.1539605    0.1108078  10.53 0.0007045434    1.689    0.408
        55 -11.6570    218.2119     38.1034   1.9541947057e+01   2.4782700397e+01    0.2554461    0.1933795  79.90 0.0003487933    1.279    0.218
        56 -12.2581    200.7282     32.8536   2.0456512487e+01   2.9901532332e+01    0.2970399    0.1756194 -79.10  0.001258135    2.139    0.532
        57 -11.1472    159.9812     30.3372   2.6153341037e+01   4.0838695040e+01    0.4256206    0.1915472  44.86  0.001638206    2.282    0.562
        58 -13.6887     77.6143     29.3767   4.6798020856e+01   5.9678153922e+01    0.4649927    0.2585436 -36.12  0.002321657    1.803    0.445
        59 -12.2192    179.5882     25.7907   2.1512594888e+01   3.6274626737e+01    0.3571837    0.3152842  57.63  0.002018325    1.099    0.090
        60 -11.0788    130.6810     24.6572   3.0138621380e+01   4.8925610680e+01    0.1536828   0.09903718  28.37 0.0007049498    1.720    0.419
        61 -12.4960    247.9614    145.3508   4.0944711605e+01   1.2023220295e+00    0.4782165    0.3475972  80.97  0.002262454    2.513    0.602
        62 -12.0853     51.6404    140.6004   8.4735576017e+01   4.0141010243e+01     0.334846    0.1168911 -70.01  0.001260973    2.934    0.659
        63 -12.3319     47.4539    141.7215   8.5959065119e+01   4.0370215998e+01    0.3019841    0.1263637  23.90  0.001215854    3.584    0.721
        64 -12.0372      3.3706    139.7588   9.6449822384e+01   4.4866119523e+01    0.2729727      0.18397 -84.67  0.001836942    1.149    0.130
        65 -13.6079    223.0865    130.5864   4.1934786237e+01   8.6974194699e+00    0.6139237    0.3394439  62.61  0.002434902    2.518    0.603
        66 -13.5559    238.6304    128.4866   3.8722379188e+01   5.7722355245e+00    0.6303398    0.3577648 -50.12  0.002743158    2.081    0.519
        67 -11.8749    122.2816    127.0039   6.3498503273e+01   3.1932043752e+01     0.221191    0.2071949 -62.35  0.001176782    1.061    0.058
        68 -11.2760     27.9912    126.2612   8.8846838278e+01   4.5941259958e+01    0.1393474    0.1079876  33.47  0.000888336    1.541    0.351
        69 -12.1988    246.0225    122.1461   3.6048253584e+01   5.2961046911e+00    0.7211345    0.2272869 -38.18  0.002536309    2.854    0.650
        70 -13.1290     62.3926     16.7306   4.6875597239e+01   6.3980649027e+01    0.2786372    0.2317938  29.22  0.001299803    1.257    0.204
