#   1 NUMBER                 Running object number                                     
#   2 MAG_AUTO               Kron-like elliptical aperture magnitude                    [mag]
#   3 X_IMAGE                Object position along x                                    [pixel]
#   4 Y_IMAGE                Object position along y                                    [pixel]
#   5 X_WORLD                Barycenter position along world x axis                     [deg]
#   6 Y_WORLD                Barycenter position along world y axis                     [deg]
#   7 A_WORLD                Profile RMS along major axis (world units)                 [deg]
#   8 B_WORLD                Profile RMS along minor axis (world units)                 [deg]
#   9 THETA_WORLD            Position angle (CCW/world-x)                               [deg]
#  10 FWHM_WORLD             FWHM assuming a gaussian core                              [deg]
#  11 ELONGATION             A_IMAGE/B_IMAGE                                           
#  12 ELLIPTICITY            1 - B_IMAGE/A_IMAGE                                       
         1 -17.2479     14.9843    134.5770   1.0569131694e+02   4.5758779057e+01     4.012579     2.927458  78.26   0.02349485    1.266    0.210
         2 -13.6692    114.0797     10.8314   3.7528010310e+01   5.4848358738e+01    0.5061908    0.3081525   6.14  0.002024643    2.339    0.572
         3 -12.2637     32.2362     10.9474   6.5109064202e+01   7.1554643863e+01    0.2123333    0.1626523 -26.29 0.0007339004    1.242    0.195
         4 -11.5941     45.0366     12.0448   5.9295282985e+01   6.9398654542e+01    0.1935776    0.1667476   7.48 0.0008847535    1.010    0.010
         5 -12.9860     56.3559      9.2128   5.2934827088e+01   6.7725047305e+01    0.3771212    0.2564543  21.99  0.001528278    1.493    0.330
         6 -12.9028     98.6115      8.5883   3.9874129126e+01   5.8748573072e+01    0.2240925    0.2058058  13.32 0.0008785203    1.151    0.131
         7 -11.2981     69.3140      9.6816   4.8466664230e+01   6.5113883933e+01     0.120612    0.1002434 -70.02 0.0004174075    1.649    0.394
         8 -11.4410      3.0219      8.6908   8.2373597804e+01   7.5226349054e+01    0.1601843    0.1275849  -8.08 0.0008168265    1.121    0.108
         9 -13.1907    124.3231      7.2636   3.4366366355e+01   5.2689128002e+01    0.3373138    0.2134892 -87.07  0.001406165    1.780    0.438
        10 -13.3282     85.9834      7.3124   4.2403297395e+01   6.1764181715e+01    0.3595174     0.219396  51.91  0.001156525    1.439    0.305
        11 -11.9086    174.6702      3.3413   2.6803856539e+01   4.0687080502e+01    0.1423364   0.08022293 -62.77  0.000665958    1.744    0.427
        12 -13.1105    113.8812      2.0972   3.4219604296e+01   5.5691760492e+01    0.4058992    0.2197386  73.17  0.001283347    1.750    0.429
        13 -12.3021     38.7633      2.6023   5.6951151695e+01   7.1612878655e+01     0.282074    0.1947203  48.18  0.001518588    1.570    0.363
        14 -12.6070    131.5030      3.1094   3.1784624956e+01   5.1294419546e+01    0.2629146    0.1830587  45.61  0.001374367    1.480    0.324
        15 -11.0994     51.1510    226.0308   1.0462030570e+02   2.0793198721e+01    0.2415718   0.08418435 -78.19  0.001004446    3.429    0.708
        16 -15.5428    241.7852    245.1831   6.9778571525e+01  -7.7722951217e+00      1.50522    0.6771386  24.84  0.008929297    2.004    0.501
        17 -13.4433     75.2873    228.6046   9.9716652491e+01   1.7251545466e+01    0.6379629    0.2273909 -54.24  0.002774484    3.322    0.699
        18  99.0000      5.1604    198.3986   1.1279991901e+02   3.1433789118e+01    0.8557381    0.4121306  62.39  0.004694893    1.749    0.428
        19 -12.1749      7.1174    188.2937   1.1183385937e+02   3.3507746003e+01    0.4528161    0.2488997 -61.69   0.00248625    1.930    0.482
        20 -15.0925     92.5981    225.7961   9.5734666011e+01   1.5448189379e+01     1.455235     0.995528 -58.94  0.008647045    1.673    0.402
        21  99.0000     18.2030    213.3181   1.1076827230e+02   2.7019456491e+01     1.484757    0.3658467  46.54  0.006413171    2.849    0.649
        22 -12.7561     75.3259    240.1548   1.0073217782e+02   1.5059869899e+01    0.6169207    0.3751599  66.07  0.003600873    1.695    0.410
        23 -12.6756     67.3997    239.4391   1.0229160297e+02   1.6201250451e+01    0.3710608    0.2420678  84.00  0.001902672    1.664    0.399
        24 -11.1015     61.9287    233.0588   1.0290780473e+02   1.8096365627e+01    0.7447448    0.2821273  39.74  0.003611078    2.055    0.513
        25 -16.7789    114.2417    243.3076   9.3101701521e+01   9.2602952720e+00      4.30963     2.241514  34.68   0.02343834    1.600    0.375
        26  99.0000     32.2514    220.5446   1.0822763014e+02   2.4061906992e+01    0.9236084    0.7679148  21.33  0.006340041    1.534    0.348
        27  99.0000     26.8302    198.8476   1.0798274956e+02   2.9274455785e+01     1.586894    0.8893557  73.83  0.008689336    1.656    0.396
        28 -13.1379     32.6111    189.8867   1.0597016671e+02   3.0685419866e+01    0.6735942    0.5192813 -87.50  0.003581229    1.182    0.154
        29 -13.5015     83.1391    238.5092   9.8982766748e+01   1.4343095469e+01    0.4213907    0.2964518 -69.40  0.002303312    1.630    0.387
        30 -12.8603     65.7072    250.3360   1.0346745898e+02   1.4425963269e+01    0.4061431    0.1381463  38.50  0.001970715    2.188    0.543
        31 -11.0089     63.6094    247.1327   1.0364531853e+02   1.5257859230e+01     0.238768    0.1939917  14.02  0.001627806    1.629    0.386
        32 -10.6676     40.4160    249.6946   1.0833596221e+02   1.7514220484e+01    0.4615062    0.1226719  48.11  0.002117765    2.657    0.624
        33 -12.3403     79.9563    214.6236   9.7323822262e+01   1.9416714222e+01    0.3887518    0.3075565  52.28  0.001667376    1.080    0.074
        34 -10.3768     79.9624    222.9977   9.8176668624e+01   1.7728545134e+01    0.3630414    0.1997326  65.75  0.001266097    2.107    0.525
        35 -11.3954     81.7170    219.5675   9.7447421832e+01   1.8173520545e+01     0.321386    0.1768517 -72.12 0.0005756193    2.070    0.517
        36  99.0000     13.5735    220.4030   1.1209477918e+02   2.6002889699e+01    0.4324703    0.2371802  59.25  0.002634975    1.446    0.308
        37 -11.5607     64.5524    222.0373   1.0142820192e+02   1.9943314386e+01    0.1934634    0.1105196 -63.00 0.0005694645    1.916    0.478
        38  -9.4197     65.6767    218.6623   1.0088124742e+02   2.0485616993e+01    0.1344734    0.1066285  58.69 0.0008470009    1.060    0.056
        39 -10.3931     61.7327    218.5141   1.0173200320e+02   2.1018616830e+01    0.1203192   0.08837384 -37.34 0.0006783163    1.985    0.496
        40 -11.3907     67.3747    213.3454   1.0000856433e+02   2.1364895906e+01    0.3233508    0.1876614 -34.19  0.001443584    3.233    0.691
        41 -10.8217     58.7218    214.2610   1.0202101746e+02   2.2279140951e+01    0.1824354    0.1356853  48.37 0.0003670346    1.149    0.129
        42 -10.9757     56.7215    210.2445   1.0211200267e+02   2.3376498746e+01    0.3425847    0.1702311 -78.47 0.0008792338    2.164    0.538
        43 -11.2944     74.1825    210.1271   9.8154023219e+01   2.1135739347e+01    0.2481836    0.1194767  52.06 0.0007594441    1.954    0.488
        44 -12.3908     48.5134    232.9383   1.0567043463e+02   1.9740620227e+01    0.7108352    0.2116838  48.47  0.003124446    2.642    0.621
        45 -11.9521     62.0270    208.4806   1.0075042619e+02   2.3083532568e+01    0.2939145    0.1655615  44.36  0.001561295    1.517    0.341
        46 -12.4911    123.9722    207.0060   8.6525645470e+01   1.4449015606e+01    0.2064253    0.1866263  37.74 0.0006193569    1.019    0.018
        47 -14.6722    109.5980    202.8329   8.9182277542e+01   1.7516147926e+01    0.8397625    0.4334196  53.60  0.003755249    2.133    0.531
        48 -12.2463     96.2602    203.6515   9.2352792306e+01   1.9365143117e+01    0.2723573    0.2065155  30.13   0.00154599    1.326    0.246
        49 -10.7835     65.6654    203.1472   9.9391201296e+01   2.3762010584e+01    0.1820264    0.1268632  49.25  0.001034766    1.249    0.199
        50 -12.0716     87.9350    201.7823   9.4051697623e+01   2.0980603071e+01    0.2011664    0.1810868  86.94 0.0003710504    1.128    0.113
        51 -10.8336     56.6864    202.3274   1.0139418606e+02   2.5091334391e+01     0.194211   0.09622888  76.50  0.000836038    2.571    0.611
        52 -11.8626     55.8826    197.4351   1.0111379698e+02   2.6273806385e+01    0.2593618    0.2404544 -32.72  0.001681185    1.409    0.290
        53 -10.8848     17.3636    198.0686   1.1007359751e+02   3.0389761272e+01      0.25954    0.1803313 -35.17  0.001495756    2.254    0.556
        54 -11.4980     99.3267    197.9950   9.0906295453e+01   2.0097669335e+01    0.1773065    0.1670605 -88.98 0.0004588098    1.115    0.103
        55 -10.9495     41.6727    198.7538   1.0456188865e+02   2.7680552256e+01    0.1090551   0.09820511 -23.83  0.000469965    1.539    0.350
        56 -11.8928     94.3555    194.8907   9.1666371545e+01   2.1515242504e+01    0.2195676    0.1605001  32.16 0.0008040619    1.358    0.263
        57 -12.1670     93.9216    185.9332   9.0548060237e+01   2.3552251058e+01    0.2451585    0.2062394 -47.81 0.0006600852    1.337    0.252
        58 -12.8388     71.9771    182.0207   9.5476328388e+01   2.7662844628e+01    0.5263912    0.2737634  43.14  0.002460357    1.752    0.429
        59 -13.5635     80.2336    182.5748   9.3476880852e+01   2.6359783866e+01    0.7816804    0.3262292  48.80  0.003140779    2.379    0.580
        60 -13.5890     89.6195    188.4827   9.1949532372e+01   2.3635376299e+01    0.7807086    0.3131198 -60.58  0.003176604    2.577    0.612
        61 -13.8720     87.1462    181.2993   9.1574181111e+01   2.5629658709e+01    0.7330247    0.5914862 -31.29  0.004007145    1.582    0.368
        62 -11.9678     14.5034    193.9360   1.1047125573e+02   3.1578624294e+01    0.3569677    0.2039169 -18.17  0.001525758    4.311    0.768
        63 -11.0556     11.1544    191.9153   1.1111499474e+02   3.2337594010e+01    0.1780911    0.1340529  68.83 0.0009379282    1.064    0.060
        64 -10.9251     41.5609    193.5870   1.0415074991e+02   2.8853463941e+01    0.2759078    0.1446182  79.02  0.001131709    2.056    0.514
        65 -11.8333     40.7950    189.1667   1.0394739371e+02   2.9948616369e+01    0.2180544    0.1479525  82.05 0.0005253027    1.373    0.272
        66 -11.5125     51.0854    192.7612   1.0180380525e+02   2.7917292284e+01    0.1709781    0.1615543  32.34 0.0005860915    1.271    0.213
        67 -12.7620    105.0551    191.5243   8.8658619458e+01   2.0596920332e+01    0.3628891    0.2367349  18.83  0.001023776    1.948    0.487
        68 -11.8959     18.0434    188.5338   1.0931436282e+02   3.2464052142e+01    0.5133419    0.2748196 -86.49  0.002769671    1.688    0.408
        69 -10.8919    122.4900    190.5225   8.4411591250e+01   1.8006438754e+01    0.1374307    0.1271869  42.34 0.0008101689    1.007    0.007
        70 -12.2945    111.1680    188.3074   8.6731420333e+01   2.0316086351e+01    0.2745526    0.2087579 -76.59 0.0009277575    1.503    0.335
        71 -11.0091     78.8934    188.9698   9.4631602575e+01   2.5096173950e+01    0.1654437    0.1397766  48.86 0.0006031708    1.094    0.086
        72 -11.2216     74.4435    188.5793   9.5673259266e+01   2.5813191136e+01    0.3045263    0.1284445  30.25 0.0008353254    2.492    0.599
        73 -11.2615     69.4718    187.9844   9.6823120075e+01   2.6634760901e+01    0.2591367    0.1532406  49.04  0.001297032    1.548    0.354
        74 -10.5520     60.3354    187.3138   9.8995770313e+01   2.8002033826e+01      0.12704    0.1028446 -30.20 0.0007046285    1.688    0.408
        75 -13.0262     53.1668    185.5563   1.0057735479e+02   2.9315257965e+01    0.2936478     0.236022 -66.00 0.0009118809    1.304    0.233
        76 -10.7935     51.2281    181.5193   1.0063866224e+02   3.0495905445e+01    0.1870436    0.1747369  85.83  0.001076233    1.138    0.121
        77 -11.1974    128.5223    184.9627   8.2118245244e+01   1.8160736068e+01    0.2318183    0.1773594  38.01    0.0012429    1.225    0.184
        78 -13.0028     24.6159    177.5187   1.0692858406e+02   3.4380515427e+01    0.5133805    0.3287719  17.74  0.002804094    1.996    0.499
        79 -13.3105     36.1583    174.8833   1.0379203829e+02   3.3810047441e+01    0.5243576    0.3459053  65.72  0.001896485    1.406    0.289
        80 -13.4801     27.3634    169.2432   1.0553654694e+02   3.6079705209e+01    0.5235476    0.3208189  80.14  0.002601618    1.539    0.350
        81 -10.9736     33.6166    248.5033   1.0956940195e+02   1.8481536365e+01    0.2560659    0.1549603  43.44  0.001688744    1.309    0.236
        82 -11.7675      1.6885    170.0659   1.1208971868e+02   3.8145508127e+01    0.2072387    0.1300579  83.30 0.0003277911    1.327    0.246
        83 -11.3759      2.0092    176.5719   1.1238131015e+02   3.6606703858e+01    0.2025118    0.1334891  78.43  0.000360299    1.245    0.197
        84 -11.6221      2.9910    173.4951   1.1197052018e+02   3.7242925616e+01    0.2516314    0.1620739  29.77  0.001511922    1.694    0.410
        85 -11.6616     69.2442    175.0081   9.5279129341e+01   2.9687653512e+01    0.2102625    0.1823629  49.88 0.0003935433    1.112    0.101
        86 -11.1666     61.5033    174.8875   9.7266047232e+01   3.0761453186e+01    0.2003532    0.1280081 -73.84  0.001012525    1.539    0.350
        87 -11.5799     57.9389    173.5203   9.8025839786e+01   3.1551975910e+01    0.2479481    0.1691486 -54.80 0.0006128492    1.571    0.364
        88 -12.9262     85.5428    171.0171   9.0496737371e+01   2.8260743659e+01     0.375419    0.2416796 -57.75  0.001842827    1.577    0.366
        89 -11.8499     65.8195    169.1679   9.5410230417e+01   3.1554563984e+01     0.284757    0.1653836  48.31  0.000884247    1.641    0.391
        90 -13.3255     10.9021    161.9366   1.0922086470e+02   3.9343963926e+01    0.5161481    0.3284535  67.00  0.002439425    1.411    0.291
        91 -14.5580     62.6039    154.3699   9.4234713841e+01   3.5617190253e+01    0.5072259    0.4823287 -57.97  0.002739836    1.167    0.143
        92 -13.9627     55.9251    158.6620   9.6695411504e+01   3.5430402838e+01    0.6916585    0.1817109 -66.80  0.002237728    3.623    0.724
        93 -12.6471     74.4185    159.1258   9.1665348861e+01   3.2781219456e+01    0.4111744    0.1645306  35.95  0.001594079    2.405    0.584
        94 -12.5938     47.8266    159.1954   9.9000936594e+01   3.6299233252e+01    0.2132005    0.1692086  69.50 0.0005780554    1.176    0.150
        95 -14.9420     69.9195    144.4297   9.0588212264e+01   3.7075755344e+01    0.7728488    0.4317951  48.22  0.003434927    1.823    0.452
        96 -10.7206    210.0005    135.9538   5.5407629357e+01   1.2857474278e+01    0.1601229    0.1443359 -27.59            0    1.003    0.003
        97 -11.4340    105.1479    138.7843   7.9494681605e+01   3.2702948903e+01    0.2205548    0.1975538  73.35 0.0004718654    1.141    0.124
        98 -14.4023     58.7346    132.5108   9.1926188782e+01   4.1641582718e+01    0.6678547    0.2648143 -71.20  0.002345741    2.890    0.654
        99 -11.5073    108.3939    131.6843   7.7082861646e+01   3.3796493519e+01    0.2920943    0.1918524 -44.19  0.001302736    1.578    0.366
       100 -11.7646     81.2810    131.9967   8.4963996259e+01   3.8450089570e+01    0.2130591    0.1887519 -69.22 0.0005254459    1.083    0.077
       101 -11.3853    249.6688    127.3332   4.7536226170e+01   7.3961924466e+00    0.1252508   0.08921567 -58.92 0.0007052157    1.726    0.421
       102 -14.6833     25.5601    159.7680   1.0514835442e+02   3.8559798563e+01      1.12607      0.58217  25.31  0.005514457    2.172    0.540
       103 -11.5036    104.1680    182.8106   8.7585763651e+01   2.2640348874e+01    0.1796497    0.1640219 -10.29  0.001033634    1.300    0.231
       104 -12.7051     15.6115    173.8660   1.0889103077e+02   3.6091037247e+01     0.365533    0.2698161 -11.27  0.002018021    2.067    0.516
       105 -10.7416     91.5680    116.2367   7.8450340283e+01   4.0581986863e+01     0.217068    0.1372333 -44.34 0.0009445985    1.625    0.385
       106 -11.8786     14.3220    181.6851   1.0974410097e+02   3.4380555050e+01    0.2326352    0.1650655 -82.44  0.001039866    1.258    0.205
       107 -10.9831    103.5342     97.4947   7.0054645907e+01   4.2707204063e+01    0.1517123    0.1473022 -68.88 0.0001675568    1.011    0.011
       108 -11.9238    131.9982     92.7760   6.0910584892e+01   3.7656724486e+01    0.2671588    0.2472727 -23.18 0.0004146029    1.161    0.139
       109 -11.2877    107.7632     89.4345   6.6527094131e+01   4.3620740543e+01    0.2598979    0.2279275  60.78  0.001208435    1.188    0.158
       110 -10.1467     90.3194     90.3159   7.2134206654e+01   4.6899741988e+01     0.152288    0.1190971 -11.33 0.0004994248    1.656    0.396
       111 -12.2015    248.7518     87.9828   3.9432639020e+01   1.3511972657e+01    0.1768315   0.09097751 -36.75 0.0008925278    1.609    0.379
       112 -12.0293     52.4618     77.6229   8.2060488908e+01   5.6031682301e+01    0.5325391    0.1609959  37.49  0.001845848    3.362    0.703
       113 -12.9064     11.3729    180.2397   1.1035755606e+02   3.4977735833e+01    0.3394412    0.1998604 -89.69  0.001237797    1.473    0.321
       114 -10.7501     91.1985     75.4155   6.7367416325e+01   4.9974930626e+01    0.1990988    0.1403978  55.52 0.0005460156    1.571    0.363
       115 -12.6748      8.5109    177.4577   1.1087156937e+02   3.5869454658e+01    0.2698159    0.2168812 -79.65  0.001791443    1.205    0.170
       116 -12.9539      7.6747     67.8978   9.8822879787e+01   6.2717372281e+01    0.2851431    0.1822436 -69.23 0.0008265111    1.387    0.279
       117 -10.8561    204.5797     65.7920   3.9800151279e+01   2.5760527042e+01    0.1961396    0.1124458 -46.86 0.0005877377    1.574    0.365
       118 -11.9377    192.0404     66.0060   4.1623594636e+01   2.8549550311e+01    0.2091043    0.1894574 -62.12 0.0003424194    1.005    0.005
       119 -12.7212      3.4875     59.3523   9.8999710558e+01   6.4926344188e+01    0.3213605    0.2126159 -72.08  0.001475012    1.406    0.289
       120 -10.9393     43.6176     62.7267   8.1299428317e+01   6.0546923403e+01    0.1842323    0.1239818 -61.54 0.0009311811    1.562    0.360
       121 -11.2153     98.9794     61.6403   6.0348118834e+01   5.1100589364e+01    0.2797772    0.2072973 -68.53  0.001320294    1.747    0.427
       122 -11.4258     63.9031     56.1585   7.0612186868e+01   5.8911133529e+01    0.2038874    0.1947079 -77.48  0.000867037    1.213    0.176
       123 -12.7882    249.8658     56.7331   3.2653713377e+01   1.7756315110e+01    0.4028944   0.08263177 -32.25  0.001212506    5.146    0.806
       124 -10.9767     54.4546    178.1512   9.9457611139e+01   3.0891076148e+01    0.2595273    0.1172749 -64.78  0.001150919    2.115    0.527
       125 -10.8923     39.3144     44.3178   7.6888014384e+01   6.4917077003e+01    0.1362146   0.09225339 -18.27 0.0005953923    1.649    0.394
       126 -10.7848    118.5563     42.4935   4.8267538424e+01   4.9856187556e+01    0.1411062    0.1360921  75.09 0.0002836804    1.022    0.022
       127 -11.0676    151.5384     40.5343   4.0878872441e+01   4.2073452687e+01    0.1418816    0.1312201 -85.38 4.699363e-05    1.012    0.012
       128 -11.2912     40.4999     35.9796   7.2974465458e+01   6.6331119114e+01    0.1963861    0.1664413  14.63 0.0006694901    1.158    0.136
       129 -10.8576    139.9894     33.3275   4.0628303028e+01   4.5903103847e+01    0.2421355   0.07368481  45.83 0.0007045551    4.266    0.766
       130 -11.5642     17.5853     31.8111   8.3369106909e+01   6.9778236737e+01    0.1919523    0.1580961   2.61 0.0002990313    1.206    0.171
       131 -11.2583    153.4536     28.0089   3.6667990744e+01   4.3232323053e+01    0.1911618    0.1348982 -32.27 7.993397e-06    1.488    0.328
       132 -11.4566    160.3393     27.0077   3.5343569617e+01   4.1648703905e+01    0.1886096    0.1677036 -50.90 0.0004373617    1.133    0.117
       133 -10.5156     46.7176     26.6921   6.5873469531e+01   6.6993009055e+01    0.1287653   0.09154196  -2.81 0.0002174484    1.563    0.360
       134 -11.8207     98.4685     22.8741   4.5816750415e+01   5.7227596734e+01    0.2288027    0.1786907  54.72 8.599093e-05    1.191    0.160
       135 -10.8778     72.5667     22.4823   5.3432957352e+01   6.2908246124e+01    0.1301629    0.1201175  20.37 0.0001092252    1.024    0.023
       136 -10.7851     84.5368     20.5150   4.8692936681e+01   6.0638781373e+01    0.1314549    0.1228407  37.01 7.791566e-05    1.034    0.033
       137 -11.9622     20.3580     17.3248   7.5301915508e+01   7.2103357219e+01    0.2157337    0.1937302 -18.59 0.0009854793    1.174    0.148
       138 -12.4865    128.0036     14.5049   3.6332672347e+01   5.1074036460e+01    0.3727322    0.1232938  66.75  0.001373661    2.770    0.639
       139  99.0000     45.1799    214.5441   1.0503110953e+02   2.3856685954e+01      1.24548    0.8237345 -56.58  0.007372889    1.805    0.446
       140 -11.7066     49.8374     13.9196   5.8122076491e+01   6.8330448120e+01    0.2021073    0.1526977  10.66  0.001219963    1.302    0.232
       141 -12.2632     35.0055     13.2326   6.4885001308e+01   7.0823789767e+01    0.2694663    0.1728496  26.57  0.001570033    1.506    0.336
       142 -11.2217    180.0605    243.8649   8.0292363606e+01   2.5492250442e-02    0.1827052    0.1179635  49.22  0.001070738    1.959    0.490
       143 -11.9021     55.4446    241.6076   1.0487363765e+02   1.7263823220e+01    0.2308698    0.1917103  29.56  0.001620383    1.373    0.272
       144 -11.9237    161.8012     11.5984   3.0537277833e+01   4.3004662486e+01    0.1903531    0.1149661  87.63 0.0008227329    1.634    0.388
       145  99.0000     55.7126    237.3723   1.0451530494e+02   1.8030141893e+01    0.2226898     0.115982  76.50  0.001003832    2.190    0.543
       146 -10.7873     61.7510    241.5208   1.0359907730e+02   1.6514983913e+01    0.1859224    0.1010318   8.29 0.0005866587    5.540    0.819
       147 -13.2071    147.8297    232.0983   8.4937922295e+01   6.3388652370e+00    0.3113014    0.2069922  53.93  0.001298221    1.762    0.432
       148 -15.1906     39.2163    238.4459   1.0790885509e+02   1.9744137223e+01     2.139879    0.6091419  53.09  0.009216983    2.996    0.666
       149 -11.1789     78.8090    231.9174   9.9277597105e+01   1.6149772943e+01    0.1612421    0.1193125  72.72 0.0005679031    1.359    0.264
       150 -11.0667     65.5302    227.2672   1.0167239103e+02   1.8774662972e+01    0.2326052    0.1057104 -61.54  0.000836387    2.407    0.585
       151  99.0000     19.7034    226.5132   1.1115384829e+02   2.4161949167e+01    0.3556101    0.2112931  68.11  0.002238951    1.391    0.281
       152 -10.8567     60.8646    226.0291   1.0256066680e+02   1.9607467385e+01    0.3871684    0.1853431  73.17  0.001775704    2.697    0.629
       153  -9.9954     56.6231    224.7283   1.0335812980e+02   2.0392289586e+01    0.1733235    0.1595728  16.38 0.0009910185    1.404    0.288
