#   1 NUMBER                 Running object number                                     
#   2 MAG_AUTO               Kron-like elliptical aperture magnitude                    [mag]
#   3 X_IMAGE                Object position along x                                    [pixel]
#   4 Y_IMAGE                Object position along y                                    [pixel]
#   5 X_WORLD                Barycenter position along world x axis                     [deg]
#   6 Y_WORLD                Barycenter position along world y axis                     [deg]
#   7 A_WORLD                Profile RMS along major axis (world units)                 [deg]
#   8 B_WORLD                Profile RMS along minor axis (world units)                 [deg]
#   9 THETA_WORLD            Position angle (CCW/world-x)                               [deg]
#  10 FWHM_WORLD             FWHM assuming a gaussian core                              [deg]
#  11 ELONGATION             A_IMAGE/B_IMAGE                                           
#  12 ELLIPTICITY            1 - B_IMAGE/A_IMAGE                                       
         1 -14.5363     68.7448    144.0722   1.0016698990e+02   3.7406071592e+01     4.839288     2.367697  66.40  0.003002153    4.580    0.782
         2 -13.1768    198.0009     42.2762   4.2791734428e+01   3.0544967696e+01     1.051816    0.9046214 -57.09  0.003162584    1.105    0.095
         3 -13.8014    207.3264     33.2009   3.9472078023e+01   2.9571515712e+01     1.320049    0.9596998 -11.23  0.001402897    1.959    0.489
         4 -13.0792    232.2978      6.8423   3.1405429443e+01   2.7153064197e+01    0.8250645    0.6599323 -82.36   0.00441804    1.078    0.073
         5 -10.2226     61.1326      7.8576   6.0334246752e+01   6.5395558899e+01    0.1739896    0.1568721  22.68 0.0005108229    1.208    0.172
         6  -9.5575     43.3119      7.0310   6.6918218975e+01   6.8472997803e+01    0.1914211   0.08365887  -8.70 0.0007046209    4.287    0.767
         7 -10.4087     49.8674      3.1383   6.2289838705e+01   6.7819785819e+01    0.2497852    0.1796215 -57.88  0.001361376    2.923    0.658
         8 -10.5370    104.0621    209.6282   1.0143631519e+02   1.6599939856e+01    0.3000426    0.2569197 -46.33  0.001765847    1.318    0.241
         9 -11.5624    140.5808    249.8939   9.8981404142e+01   3.2941606792e+00    0.5079753    0.3698968 -62.41  0.003090834    1.776    0.437
        10 -17.5866     11.5531    243.4422   1.2364165577e+02   2.1408117950e+01     10.76113     5.546263 -81.63   0.02313329    1.762    0.433
        11 -10.5117    106.5931    250.0763   1.0588148907e+02   8.3100099353e+00    0.2916057    0.2024541  42.75  0.001783753    1.190    0.160
        12 -10.3021    142.4039    208.1597   9.2510253445e+01   1.0611937663e+01    0.2832062    0.1655777  50.85  0.001093321    1.860    0.462
        13  -8.0663    224.2548    206.6752   7.5350155615e+01  -2.5427064250e+00    0.1105854    0.1014135 -50.98 0.0002027396    1.548    0.354
        14 -12.0985    197.7196    203.7223   7.9919882358e+01   2.0958132292e+00    0.7989749     0.326493  27.79  0.003000093    3.030    0.670
        15 -11.5777    110.9880    203.4343   9.8949120870e+01   1.6822634105e+01    0.3943987     0.323282  31.68 0.0008411062    1.213    0.176
        16 -10.5047    107.5213    203.9912   9.9837283657e+01   1.7260372566e+01    0.3106484    0.1949107 -67.78 0.0009510963    1.818    0.450
        17  -9.4499     31.6937    203.1199   1.1703619843e+02   2.7700547991e+01    0.3045627    0.1845006  87.36  0.001511555    1.535    0.349
        18 -10.8428    192.2121    193.3157   7.9081271035e+01   4.8531917841e+00    0.7856335    0.4477875 -66.21  0.002524366    5.167    0.806
        19 -11.3271    121.6356    197.4267   9.5525896636e+01   1.6355832029e+01    0.4929927     0.294703 -71.59  0.001782963    2.293    0.564
        20 -10.5777     60.7075    198.1740   1.1001621490e+02   2.5393495929e+01    0.2551331    0.2194482  34.14 0.0009003478    1.286    0.222
        21 -16.1946      5.9005    208.9193   1.2282810802e+02   2.8956009234e+01     5.752267     0.725988 -68.38   0.02010552    4.875    0.795
        22  -8.6450     82.5171    194.5373   1.0441144812e+02   2.3213865178e+01    0.1375272    0.1240652  69.41 0.0008092129    1.014    0.014
        23  -9.0894     69.5226    183.5289   1.0609438578e+02   2.7627962971e+01     0.237367    0.1892938  73.65 7.308747e-05    1.228    0.186
        24 -12.9383     56.3991    185.3256   1.0954562700e+02   2.8929053292e+01    0.9260162    0.7070076  45.56  0.005362983    1.286    0.223
        25 -10.6165     65.6771    179.3530   1.0649277946e+02   2.9145200508e+01    0.3484517    0.2839861  87.40 0.0006240794    1.176    0.150
        26 -10.4538    147.6151    187.6623   8.7756638082e+01   1.3884168772e+01    0.4457994    0.3094209 -74.68  0.002004216    2.140    0.533
        27  -8.6666     72.0934    188.6537   1.0614371811e+02   2.6065794945e+01    0.1834631    0.1611807  56.61 0.0006128025    1.087    0.080
        28  -9.5687    210.2671    187.9850   7.4446948099e+01   2.7451402439e+00    0.1790691    0.1111157 -37.04 0.0008953924    1.543    0.352
        29 -12.2439    110.3129    198.1531   9.8309065698e+01   1.8078918296e+01    0.8264725    0.5056635  18.45  0.003614275    2.249    0.555
        30 -10.3935    120.1151    185.9518   9.3974265216e+01   1.9133105100e+01    0.2229748    0.1920851  71.52 0.0004540692    1.256    0.204
        31  -8.5498     77.3547    186.0920   1.0450857755e+02   2.5921780539e+01    0.2049655    0.1318308 -69.85 0.0008906698    1.562    0.360
        32  -8.9630     79.8881    183.1934   1.0347087110e+02   2.6237041839e+01    0.2152948    0.1748512  72.09 0.0006359617    1.228    0.186
        33  -8.5814     23.6578    185.7587   1.1734906480e+02   3.2471942944e+01    0.1110336   0.09149289 -41.17 0.0002727167    1.560    0.359
        34 -10.2323     99.4270    180.9919   9.8244755395e+01   2.3739117940e+01    0.2825994    0.2547082 -64.84 0.0006392905    1.121    0.108
        35  -8.8620     38.6309    181.8156   1.1345026652e+02   3.1850415481e+01    0.1810682    0.1431137  87.86 0.0005448014    1.112    0.101
        36  -8.6178     89.8715    180.8677   1.0062303975e+02   2.5282675910e+01    0.1924106    0.1820947  79.05 0.0003842416    1.015    0.015
        37  -9.8646     42.8755    179.9058   1.1221552945e+02   3.1831543500e+01    0.2086181    0.2065201 -47.63 0.0003521717    1.246    0.197
        38  -9.7473     45.9917    176.7059   1.1108303026e+02   3.2240566835e+01    0.2366093     0.224092 -36.70 0.0008436173    1.288    0.223
        39 -12.9840     71.5259    153.6734   1.0105701697e+02   3.4624178943e+01     0.659232    0.5370929 -60.13 0.0009870613    1.162    0.139
        40 -13.8909     43.9886    196.0682   1.1364975271e+02   2.7926113190e+01     3.079994     1.175153  61.17  0.009376429    3.620    0.724
        41 -11.3413     74.9591    167.0152   1.0230429192e+02   3.0844169629e+01    0.3545881    0.3409753  86.36  0.001290071    1.056    0.053
        42  -9.1938    147.9730    174.3005   8.5115282174e+01   1.6659534850e+01     0.204387    0.1889658  30.07 0.0003698769    1.051    0.048
        43 -10.4790    119.5289    173.4977   9.1894158449e+01   2.2059328938e+01    0.3188941    0.1432591  37.62   0.00121611    2.182    0.542
        44  -8.3234     84.2847    173.6652   1.0091745345e+02   2.7853648686e+01    0.1477017     0.105294  74.22 0.0003119038    1.622    0.384
        45 -10.4220    186.9525    175.5389   7.6655823591e+01   9.1096952737e+00    0.3718705    0.3036194 -41.42  0.001170208    1.247    0.198
        46  -8.3254    193.4564    170.4669   7.4258998464e+01   8.8854773027e+00    0.1434544    0.1321705  -9.31 9.035537e-05    1.015    0.014
        47 -10.7439    240.6500    169.2129   6.5181991963e+01   9.6992917042e-01    0.2179238    0.1833362  13.62 0.0006462847    1.210    0.174
        48 -11.8355     82.9304    158.8388   9.8812979128e+01   3.1667328493e+01    0.9015564    0.6369488  89.11 0.0005785002    1.710    0.415
        49  -9.2996    110.7866    167.8647   9.3067948364e+01   2.4909656872e+01    0.2708396     0.204474 -82.42 0.0007819965    1.597    0.374
        50 -10.3515     33.7682    165.7940   1.1290446305e+02   3.6210891016e+01    0.4519854    0.2051421  50.48  0.001886591    2.328    0.570
        51  -8.2147     46.6092    159.2745   1.0873031157e+02   3.6419697009e+01    0.1442412   0.09180241  63.37 0.0003969269    1.729    0.422
        52  -9.9600     32.1852    156.4251   1.1221845569e+02   3.8658834799e+01    0.3176664    0.1918332  37.96  0.001679072    1.747    0.428
        53 -11.5117     90.0914    151.8950   9.5584059988e+01   3.2248681741e+01    0.7042866    0.5079778 -21.14  0.003230254    1.895    0.472
        54 -10.8030    133.6112    144.4788   8.2342216999e+01   2.6108864912e+01     1.243715    0.3594222 -55.30  0.002995167    5.371    0.814
        55 -10.9894     55.2144    147.4466   1.0461458942e+02   3.8338527786e+01    0.7308969    0.4958622 -53.31  0.003761458    1.396    0.283
        56  -9.1065    174.9645    149.0103   7.3532349601e+01   1.6733304261e+01    0.2294738    0.1884571 -82.40 0.0005867038    1.633    0.387
        57  -8.8137    110.9730    148.9245   8.9276072142e+01   2.9381516424e+01    0.3295412    0.1844318  61.57  0.001181539    2.731    0.634
        58  -9.6699     39.2118    146.6078   1.0901436683e+02   4.0371395783e+01    0.3178958     0.207658  47.41   0.00111151    1.631    0.387
        59  -9.5476    143.8703    145.7570   8.0050117365e+01   2.3762689881e+01    0.3059034    0.2121678 -76.17  0.001246781    2.165    0.538
        60 -10.1835    103.3028    138.2031   8.9089386117e+01   3.3342304179e+01    0.5764565    0.3526924 -24.67  0.002194881    2.526    0.604
        61 -10.1856    105.9301    130.8997   8.6701432378e+01   3.4619707195e+01    0.3746244    0.3277196 -63.45  0.001379918    1.166    0.142
        62 -11.6220     90.8782    137.6831   9.2516804061e+01   3.5610919916e+01    0.2946494    0.2528575 -41.00 0.0004172475    1.177    0.151
        63 -11.2118     44.2601    130.2090   1.0500163199e+02   4.3918017076e+01    0.5817277    0.2995496 -77.67  0.002459134    2.234    0.552
        64 -10.1452    135.8305    129.2190   7.8186726050e+01   2.9127811638e+01     0.467158    0.1286377 -48.84  0.001285444    3.773    0.735
        65 -10.0358     32.5139    130.7763   1.0864753343e+02   4.4972733953e+01     0.275169     0.193978 -51.94  0.001025566    1.308    0.235
        66 -10.0775    112.3595    129.0538   8.4456855165e+01   3.3853363750e+01     0.374812    0.2926272   8.59  0.001003876    1.598    0.374
        67 -10.2776     99.4307    124.9914   8.7192498765e+01   3.7211027860e+01    0.3107211    0.2511279 -16.70 0.0007036871    1.459    0.315
        68  -8.9320     92.6324    125.1126   8.9225930886e+01   3.8374458161e+01    0.2407864    0.2051084  57.41  0.000628005    1.282    0.220
        69 -10.5225     39.5032    124.2143   1.0544551032e+02   4.5910265697e+01    0.2609097    0.2035198  66.84  0.000748741    1.457    0.314
        70 -10.8895    118.7423    122.8587   8.1176825793e+01   3.4053539533e+01    0.6146089      0.39248  -5.03    0.0021379    3.097    0.677
        71 -12.2804     42.6503    109.8609   1.0175892602e+02   4.9104161456e+01     0.746385    0.4170059 -49.64  0.002823912    1.572    0.364
        72 -11.5880     50.8293    108.5223   9.8740405991e+01   4.8507692715e+01    0.6356546    0.3997316  47.67   0.00224726    1.895    0.472
        73 -10.7963     52.1655    104.1284   9.7317387072e+01   4.9402546213e+01    0.3638616    0.2436371 -41.19  0.001216128    1.415    0.293
        74  -9.5405    120.4903    111.4886   7.7778416899e+01   3.6276663075e+01    0.2826201    0.1455228  52.94  0.001036739    2.304    0.566
        75 -11.0050    115.5253    109.0480   7.8519847326e+01   3.7831210963e+01    0.4720187    0.3940849 -45.12  0.001798761    1.177    0.150
        76  -9.1959    205.3826    110.1456   5.8342428145e+01   1.7975259591e+01    0.2287725    0.2016464  34.65 0.0006722742    1.252    0.202
        77  -9.1713    108.1868    118.1938   8.2989484945e+01   3.7191185563e+01    0.2196354    0.2014692 -17.89 0.0003630857    1.133    0.117
        78 -11.5045     70.6993    171.5366   1.0410828567e+02   3.0345052753e+01    0.4582296    0.3082044 -32.06  0.002169047    2.034    0.508
        79 -10.5688    119.3441    104.0485   7.6094149075e+01   3.8149573741e+01    0.3025354     0.236136  50.87 0.0007291216    1.347    0.258
        80 -10.0063    231.3255    113.7033   5.4900890083e+01   1.2085429191e+01     0.261592    0.2360668 -51.06 0.0007892786    1.084    0.077
        81  -9.2888    128.2925     95.6334   7.1304932785e+01   3.8022918065e+01    0.2619818     0.231193  70.70 0.0008456417    1.273    0.215
        82 -10.3916     51.7904     92.3294   9.4636068933e+01   5.2215118856e+01     0.359975    0.1795461 -36.68  0.001429632    2.147    0.534
        83  -9.4681    156.1561     88.2256   6.2419495220e+01   3.3152978100e+01     0.353187     0.237661 -71.01  0.001050952    2.148    0.535
        84  -8.5490    116.8250     85.6705   7.1534512505e+01   4.2515402412e+01    0.2222387     0.138369  54.44 0.0009422705    1.785    0.440
        85  -9.2866     74.9839     84.9246   8.4426768541e+01   5.0579347267e+01    0.2103413    0.1989658 -21.95 0.0003845686    1.046    0.044
        86  -9.0440    158.0056     82.7312   6.0481461446e+01   3.3730568290e+01    0.2130025    0.1973652  52.50 0.0005473213    1.079    0.073
        87  -8.1836     70.7469     82.3190   8.5135660383e+01   5.1809258977e+01    0.1319314    0.1131682 -82.58 0.0002272139    1.534    0.348
        88  -8.5097    184.6177     77.1230   5.3761689518e+01   2.8444352217e+01    0.1976848    0.1380005 -24.22 0.0007040824    1.662    0.398
        89  -9.0398     58.9654     67.6952   8.4951797201e+01   5.6599758534e+01    0.1881028    0.1668861  -0.36 0.0004869527    1.084    0.078
        90 -12.8796    186.8536     50.9754   4.6554071119e+01   3.1967362818e+01    0.8992113     0.816507  12.58 0.0009803226    1.359    0.264
        91  -8.2436    168.7623    233.9810   9.0969989893e+01   1.6060842613e+00    0.1479749    0.1080363 -39.78 0.0003445041    1.529    0.346
        92 -11.3589     25.4955     35.0913   8.7819762285e+01   6.6755416178e+01    0.3475133    0.2225436  36.21  0.001345198    1.927    0.481
        93 -10.2887    157.4579    221.1739   9.1324114334e+01   5.6331937774e+00    0.2975324    0.1346977 -58.38  0.001152065    3.403    0.706
        94  -8.5276     71.1959     53.4059   7.5491507753e+01   5.7373119097e+01     0.182178    0.1262089  47.37 0.0008240077    1.662    0.398
        95  -9.1968    189.6666     14.9469   3.6999098117e+01   3.5746071095e+01    0.1760641    0.1523706 -62.90 0.0005870071    1.127    0.113
        96  -9.7243    147.7857    215.3893   9.2488720373e+01   8.3033961230e+00     0.203968    0.1202058  27.22 0.0009564456    1.737    0.424
        97  -9.5266     89.2406    211.2026   1.0502066178e+02   1.8520228220e+01    0.2213971    0.1918123  83.62 0.0004329423    1.139    0.122
        98  -9.4063    163.7983    211.5968   8.8389686169e+01   6.3364059359e+00    0.1960021    0.1189345  44.03 0.0009472496    1.627    0.385
