#   1 NUMBER                 Running object number                                     
#   2 MAG_AUTO               Kron-like elliptical aperture magnitude                    [mag]
#   3 X_IMAGE                Object position along x                                    [pixel]
#   4 Y_IMAGE                Object position along y                                    [pixel]
#   5 X_WORLD                Barycenter position along world x axis                     [deg]
#   6 Y_WORLD                Barycenter position along world y axis                     [deg]
#   7 A_WORLD                Profile RMS along major axis (world units)                 [deg]
#   8 B_WORLD                Profile RMS along minor axis (world units)                 [deg]
#   9 THETA_WORLD            Position angle (CCW/world-x)                               [deg]
#  10 FWHM_WORLD             FWHM assuming a gaussian core                              [deg]
#  11 ELONGATION             A_IMAGE/B_IMAGE                                           
#  12 ELLIPTICITY            1 - B_IMAGE/A_IMAGE                                       
         1 -10.5770     40.1914     10.0232   4.8394707206e+01   7.4047874113e+01    0.2204713    0.1526546 -61.36  0.001085621    2.012    0.503
         2 -10.9806     84.5316      8.0920   2.9976039241e+01   6.3731469134e+01    0.2593762     0.219428  79.97 0.0004252369    1.124    0.110
         3 -10.6954     92.9935      8.5174   2.8312212999e+01   6.1455599344e+01    0.2236785    0.1330499  72.07  0.001028363    1.580    0.367
         4 -12.1400     21.7095      5.1689   5.8018761304e+01   7.8187019595e+01       0.4755    0.3553072  52.64  0.002734545    1.584    0.369
         5 -11.1195     12.9848      5.9732   6.7385492661e+01   7.9298303300e+01     0.277858    0.1862171 -16.98  0.001500155    1.729    0.422
         6 -11.5002    201.7337      4.2426   1.5445086736e+01   3.4043492102e+01    0.3043761    0.1251466 -55.13  0.001424773    1.983    0.496
         7 -10.6807     88.6572      4.1577   2.6923435977e+01   6.3031350639e+01    0.2534424    0.1838208  88.73 0.0009021988    1.369    0.269
         8  -9.5765     83.5279    241.5161   8.8217196826e+01   1.4443218371e+01    0.1179303     0.089948  36.61 0.0001331427    1.001    0.001
         9 -10.7404    238.0238    248.7809   6.1038240183e+01  -3.4799576593e+00    0.1993288      0.11253 -25.38  0.001549932    1.612    0.379
        10 -13.3437     54.6140    248.7329   9.4775997179e+01   1.6443671555e+01     1.304183    0.4170426  30.81  0.001666272    2.242    0.554
        11 -14.3199     10.2156    188.6301   1.0232071885e+02   3.2815564275e+01      1.93619     1.118158 -75.70    0.0107155    1.816    0.449
        12 -14.0126     39.4503    190.8864   9.4803911020e+01   2.9444885405e+01     1.731394    0.7928794  13.31  0.006917849    3.218    0.689
        13 -13.1521     63.9601    219.9029   9.0874568107e+01   2.0590269038e+01       0.6315     0.488739 -38.18  0.001639162    1.757    0.431
        14 -14.1829     64.0677    232.5660   9.1759371447e+01   1.8223642729e+01     1.439646    0.8369387  16.93  0.007756195    1.922    0.480
        15 -15.3432     91.9760    200.5426   8.2452706960e+01   2.0851399893e+01     2.206865     1.142443 -49.77  0.008938282    2.281    0.562
        16 -16.7695     68.4397    194.8762   8.7659646990e+01   2.5124787181e+01     3.857044       3.6222   5.00    0.0251332    1.273    0.214
        17 -10.7271    212.0518    223.6540   6.1568349192e+01   1.7483789138e+00    0.1983865    0.1282857 -18.24 0.0006789948    1.370    0.270
        18  -9.9751    191.6024    225.2749   6.5194012144e+01   3.8400522207e+00    0.1458551   0.08880337 -23.15 0.0009508968    1.623    0.384
        19 -14.0215     35.5979    247.0338   9.8665636307e+01   1.8684508783e+01    0.7905663    0.3357188  25.82  0.003508352    2.033    0.508
        20 -16.8946     17.8510    237.9381   1.0209192525e+02   2.2009177635e+01     2.079945     1.399348  28.29   0.01047583    1.365    0.268
        21  -9.8632    160.0203    221.9295   7.0476129156e+01   8.0979010084e+00    0.1849383     0.119607   2.92 0.0005804799    1.682    0.405
        22 -11.1506    223.4216    220.3682   5.9310096120e+01   9.0856462092e-01    0.1827398    0.1447809   1.16 0.0005587002    1.167    0.143
        23 -11.0818    173.7125    219.8246   6.7621368355e+01   6.6921557335e+00    0.2194169    0.1800469 -38.79  0.001349457    1.484    0.326
        24 -14.9336      8.0410    227.4372   1.0393830077e+02   2.4864056144e+01     1.032971     0.381866  30.09   0.00536834    2.049    0.512
        25 -11.0866    125.2335    221.9146   7.7462078809e+01   1.2551425704e+01    0.2253498     0.205094  73.30 0.0004315609    1.398    0.285
        26  -9.6858    110.7723    214.1349   7.9674093914e+01   1.5771178605e+01    0.1580805    0.1319632   0.27 0.0002310056    1.326    0.246
        27  -9.7082    184.2968    213.6872   6.4831140239e+01   6.2296988922e+00   0.09805794   0.08796523  45.79 0.0002216653    1.601    0.375
        28 -10.8674    135.9547    211.9020   7.3970491965e+01   1.2781791177e+01    0.3377365    0.1831642 -46.96   0.00183858    2.099    0.524
        29 -10.2212    125.0716    212.6524   7.6375893090e+01   1.4119383859e+01    0.2360756    0.1489615 -32.19 0.0008716927    1.975    0.494
        30  -9.2743    246.7130    212.3793   5.4705992108e+01  -6.0276826334e-01   0.08655904   0.07332905 -29.47 0.0007015585    1.731    0.422
        31 -11.0451    141.5827    211.1369   7.2699326816e+01   1.2150097718e+01    0.2269757    0.1738527  36.50 0.0002880791    1.217    0.179
        32 -10.7010    228.6137    207.8864   5.6658673608e+01   1.7907077254e+00    0.2355971      0.13687 -13.22  0.001559664    1.571    0.363
        33 -10.4061    209.8295    211.5973   6.0165086864e+01   3.4521845183e+00    0.1432118   0.09102965  36.11 0.0009446643    1.731    0.422
        34 -11.5774    153.5480    210.2508   7.0150583182e+01   1.0688308662e+01    0.3479763    0.1862793  16.51  0.001746454    2.159    0.537
        35 -10.0778    160.3971    206.7464   6.8298136995e+01   1.0316499906e+01    0.1545318    0.1058836 -28.81 0.0006629867    1.543    0.352
        36  -9.9674    123.9957    205.6739   7.5721675975e+01   1.5479053397e+01    0.1772371    0.1402837  28.18 0.0004259474    1.084    0.078
        37 -10.4458    224.0062    205.4883   5.6991991290e+01   2.5854821897e+00    0.1541281    0.0918389  27.32  0.001032599    1.591    0.371
        38  -9.4150     94.4434    240.5388   8.5839884432e+01   1.3326834731e+01    0.1166805   0.09115715  31.86  9.65528e-05    1.036    0.035
        39 -10.8532    165.6116    203.7230   6.6838956907e+01   1.0080920400e+01    0.2109344    0.1353344  45.69  0.001210606    1.819    0.450
        40 -10.6630    145.8046    204.4271   7.0903160200e+01   1.2672522716e+01    0.2154416    0.1581596   2.57  0.001045721    1.454    0.312
        41 -11.4695    148.7065    202.2764   6.9997817338e+01   1.2624732870e+01     0.355176    0.2281365  60.17  0.001788129    2.584    0.613
        42 -10.3628    212.1268    199.9199   5.7994642822e+01   4.6588366954e+00    0.1569659    0.1391524  -8.88 0.0007040692    1.305    0.234
        43  -9.9739    225.5045    199.5207   5.5830139813e+01   3.1387032364e+00    0.1092494   0.08355842  -5.18 0.0003679524    1.014    0.013
        44 -10.2137    173.0494    238.6590   7.0220697041e+01   4.2708544368e+00    0.1552399    0.1089564  18.97 0.0005004026    1.112    0.101
        45 -11.2240    124.2460    195.4167   7.4285953283e+01   1.7299643676e+01    0.3383435     0.262864 -22.10  0.001644652    1.504    0.335
        46 -10.7302    189.4915    194.9955   6.1049227165e+01   8.1862118242e+00    0.2481395    0.1738568 -33.61  0.001536546    1.421    0.296
        47 -10.7173    192.9697    194.2300   6.0311791668e+01   7.8375355254e+00    0.3133878    0.2178366 -14.24  0.002007388    1.370    0.270
        48  -9.9255    172.8437    195.8356   6.4245460394e+01   1.0306900460e+01    0.1789218    0.1416087   0.97 0.0003287303    1.160    0.138
        49 -10.4210    130.0752    201.0911   7.3778628734e+01   1.5440342711e+01    0.1971428    0.1607035   7.94  0.001230022    1.239    0.193
        50 -10.7478      5.9446    194.8691   1.0360397362e+02   3.1779580984e+01    0.2397474    0.1548184  25.59 0.0003498315    1.527    0.345
        51 -10.0551    212.4676    192.9755   5.6826118323e+01   5.5216967345e+00    0.1378307   0.09553537 -54.06 0.0008087314    2.461    0.594
        52 -10.0867    163.9746    193.0130   6.5519401431e+01   1.1988477299e+01    0.1831011    0.1497667  59.61  0.001127979    1.710    0.415
        53 -10.1905    166.9856    237.5272   7.1175541550e+01   5.1136916948e+00    0.1549294     0.127846  -4.08 0.0004656173    1.176    0.150
        54 -10.6075    123.2862    187.7658   7.3412186935e+01   1.8880749588e+01    0.2756601    0.1994793  37.69  0.000984235    1.241    0.194
        55 -10.4804    248.4345    185.9401   5.0322473535e+01   2.1811253969e+00    0.1863803    0.1384337  15.71 0.0005985294    1.325    0.245
        56  -9.1609    156.4724    238.5077   7.3238752268e+01   6.2113014770e+00    0.1118458   0.08700924  19.06 3.702599e-06    1.028    0.028
        57 -10.7147      2.0600    182.5276   1.0426825271e+02   3.4885434701e+01     0.243769    0.1685648  63.27 0.0007396743    1.150    0.131
        58  -9.6813     84.6661    237.9670   8.7692887888e+01   1.4903138670e+01    0.1496141    0.1246958  45.76 0.0003228632    1.126    0.112
        59 -10.1690    118.8180    178.2400   7.3031707324e+01   2.1433906797e+01     0.247432    0.1553637 -41.37 0.0007905761    1.805    0.446
        60 -10.5450    190.5048    177.5153   5.7944539501e+01   1.0634936633e+01    0.2488368    0.1687342  62.02  0.001257383    2.862    0.651
        61 -10.0696     81.4170    234.1277   8.8081007631e+01   1.5940200626e+01    0.2155155    0.1466665  69.66 0.0009290688    1.723    0.420
        62 -12.7004     48.4042    168.6615   9.0546738095e+01   3.3634436073e+01    0.5186216    0.4358381 -20.42  0.001357218    1.583    0.368
        63 -10.8976     45.3680    164.1840   9.1004160168e+01   3.5096886209e+01    0.2716627    0.1964021  28.74 0.0008208548    1.389    0.280
        64 -10.7683    154.8130    176.8443   6.4731734237e+01   1.6078539248e+01    0.1692664    0.1556837  60.40 0.0004858245    1.326    0.246
        65 -11.6762    137.4791    176.2880   6.8394159636e+01   1.8892809373e+01    0.2623378    0.2037243 -55.31  0.001492736    1.455    0.313
        66 -11.7155    128.4764    176.8041   7.0531952447e+01   2.0210435392e+01    0.3698485    0.2213732  48.54  0.001207583    1.758    0.431
        67 -10.1409    113.6599    175.2584   7.3821115862e+01   2.2846979689e+01    0.2138485    0.1722706 -41.18 0.0003820523    1.374    0.272
        68 -10.3530     91.1521    236.8154   8.6214077430e+01   1.4329649235e+01    0.1885692    0.1318294  45.24 0.0006629209    1.237    0.191
        69 -10.8477      6.9674    175.2193   1.0272384806e+02   3.6207776417e+01    0.2059668    0.1665012  89.60  0.001293431    1.240    0.193
        70 -12.3957    220.0234    230.6056   6.1288946941e+01   1.1542143099e-01    0.2044091    0.1578493  -4.95   0.00049621    1.156    0.135
        71 -10.7662      3.0093    170.5718   1.0366998677e+02   3.7633602000e+01    0.2594852    0.1671132 -88.67 0.0006172593    1.455    0.313
        72 -11.8203    105.7775    170.1769   7.5007415130e+01   2.5160299160e+01    0.3746809    0.2665944  35.05  0.001429451    1.300    0.231
        73 -10.7538    152.5563    169.2164   6.3880416879e+01   1.7808822460e+01    0.2445754     0.129661 -50.52   0.00111504    2.080    0.519
        74 -11.7287    131.8194    168.8057   6.8429031658e+01   2.1255123732e+01    0.3176201    0.2424635  64.18  0.001614523    1.627    0.385
        75 -12.2219    127.6881    167.0076   6.9091896540e+01   2.2292765846e+01      0.52409    0.2661595  23.60  0.002066201    2.559    0.609
        76 -14.9917     20.2149    213.0756   1.0073653782e+02   2.6616364761e+01     1.721958    0.8988515  74.12  0.009381312    1.820    0.450
        77 -11.9957     27.0134    166.4675   9.6586189502e+01   3.6527375742e+01    0.8876239          nan  30.77  0.002452373    5.180    0.807
        78 -10.3617     21.1251    165.1839   9.8229665176e+01   3.7414184275e+01    0.4583975    0.2738055 -30.85   0.00209431    2.675    0.626
        79 -11.4170     20.4444    160.3942   9.8143002619e+01   3.8675257198e+01    0.4455195    0.2217074  24.56  0.001814326    2.000    0.500
        80 -12.0409     28.1828    160.3413   9.5808866287e+01   3.7941626678e+01    0.3302464    0.2485557  76.71 0.0004774254    1.192    0.161
        81 -13.5508     21.7489    153.7094   9.7312790802e+01   4.0255658663e+01    0.9897231    0.6237376  19.95  0.004620688    1.739    0.425
        82 -10.7383     10.7314    167.4108   1.0136299025e+02   3.7784046509e+01    0.3125245    0.2245762  35.86 0.0009929808    1.296    0.228
        83 -11.3131     22.4354    149.0141   9.6766752982e+01   4.1406622640e+01     0.379677      0.17263  30.72 0.0008664588    2.004    0.501
        84 -11.3443    159.2916    159.9854   6.0769213832e+01   1.8395438190e+01    0.2476995     0.167866  21.35  0.001272595    1.634    0.388
        85 -11.9302     44.7839    159.2341   9.0696753386e+01   3.6403772195e+01    0.6239174    0.2806178  15.15  0.002283087    3.201    0.688
        86 -11.4731     59.3454    158.8364   8.6284287478e+01   3.4674286346e+01    0.3191119    0.1813931  54.25 0.0009059109    1.689    0.408
        87  -9.6807    194.3000    231.6257   6.5601345600e+01   2.7501293632e+00   0.09134912   0.08269837  42.23 0.0007028354    1.752    0.429
        88  -9.4967    141.6335    155.3205   6.3726761705e+01   2.2289547387e+01    0.1421928    0.1096702  74.08 0.0003904119    1.787    0.440
        89 -10.6799     50.9082    154.0148   8.8273538412e+01   3.6980439442e+01    0.2372184    0.1871918  46.26 0.0003601872    1.150    0.130
        90 -10.6422    205.8176    164.8452   5.3044513838e+01   1.0341846890e+01    0.1911888    0.1442741  -5.88 0.0008090537    1.254    0.203
        91 -10.5515    126.0608    151.7385   6.6730864487e+01   2.5749612821e+01    0.2086904    0.1919247  65.72    0.0003815    1.146    0.127
        92 -11.2526    129.8559    150.8710   6.5638608963e+01   2.5264060684e+01    0.2629677    0.2055102  38.93 0.0006741419    1.240    0.193
        93 -11.5167    171.4984    151.0182   5.6561274182e+01   1.7957500044e+01    0.2404023    0.2133608 -59.74   0.00139956    1.338    0.252
        94 -12.4004    108.9409    148.4573   7.0506206331e+01   2.9472735836e+01    0.4267036     0.335064 -48.42  0.001365683    1.340    0.254
        95 -10.2334     38.4148    154.2057   9.2160334282e+01   3.8417250590e+01    0.2285953    0.1513638  40.15 0.0005227054    1.361    0.265
        96 -11.0607    147.0230    150.0187   6.1481089300e+01   2.2394981435e+01    0.2179868    0.2098547   2.76  0.001307778    1.003    0.003
        97 -11.2203     84.8779    149.1377   7.7354793795e+01   3.3337073467e+01    0.3014901    0.1945397 -68.58 0.0008545374    1.645    0.392
        98  -9.3126    206.7012    149.2877   4.9949313716e+01   1.2544515504e+01    0.1114102   0.09615468 -60.17 0.0003126958    1.555    0.357
        99  -9.7386    224.4245    148.4918   4.7077148048e+01   1.0035046639e+01    0.1195461   0.09726633 -22.74 0.0001028784    1.048    0.046
       100 -14.4515     12.0876    218.5922   1.0280440462e+02   2.6243850809e+01     1.082908     0.506677  20.05  0.004959057    2.243    0.554
       101 -10.0981      4.9230    147.1655   1.0224929450e+02   4.3339902558e+01     0.206744    0.1449463  55.93 0.0003410157    1.202    0.168
       102 -12.7334    102.4692    142.3015   7.1118288375e+01   3.2030677818e+01    0.6748962    0.4071154  47.85  0.001752507    1.632    0.387
       103 -10.0758    112.9079    228.3957   8.0783332372e+01   1.3060894725e+01     0.220286    0.1466992 -32.52  0.001326282    1.933    0.483
       104 -10.7393     25.4865    144.6644   9.5444286471e+01   4.2256010250e+01    0.4151982    0.2014634  38.79  0.001547213    1.806    0.446
       105 -10.8165     36.2943    138.3633   9.1246931340e+01   4.2809178838e+01    0.2375143    0.2141534 -57.06 0.0006935655    1.259    0.206
       106 -10.1560    176.7920    137.6218   5.2787712706e+01   1.9410155949e+01    0.1799673    0.1281881  54.36 0.0009404156    1.669    0.401
       107 -12.2735    136.1299    130.7678   5.9956603291e+01   2.8356358376e+01    0.6919987    0.2677465  42.38  0.002325733    2.606    0.616
       108 -13.3988    142.7183    133.2631   5.8960154034e+01   2.6565273505e+01    0.7845845    0.5276292  -8.09   0.00328338    2.466    0.594
       109 -14.0394    153.9510    130.0706   5.5748647053e+01   2.5050833556e+01      1.04511    0.6135582  43.94   0.00480644    1.755    0.430
       110  -9.5246    196.6895    135.3129   4.8763594393e+01   1.6352568694e+01    0.1237079    0.1003817 -65.05 0.0005436298    1.630    0.386
       111 -10.6379     61.8582    134.7120   8.2179629183e+01   4.0518764536e+01     0.462837    0.1506746  35.54  0.001574166    2.728    0.633
       112 -10.5512     11.8576    133.2995   9.9209269061e+01   4.6473227871e+01    0.3026881    0.1777561  25.62  0.001140643    1.739    0.425
       113 -10.2336    204.9941    131.8375   4.6686497822e+01   1.5517829394e+01    0.1885844    0.1529536  -8.56 0.0003238299    1.236    0.191
       114 -11.4172    127.0515    131.4961   6.2349056123e+01   2.9955172995e+01    0.4236692    0.2831461   9.54   0.00153287    2.505    0.601
       115 -10.8561     31.1133    128.7196   9.1998888236e+01   4.5970699981e+01    0.3214056    0.2830419 -38.91  0.001052147    1.362    0.266
       116 -10.1868     14.5274    126.8693   9.7811808868e+01   4.7999558241e+01    0.2797596    0.1824985  24.98  0.000759828    1.609    0.379
       117 -10.2323    245.2115    123.0283   3.9326894022e+01   1.0550700746e+01    0.1700168    0.1491566 -15.15 0.0003022098    1.156    0.135
       118 -10.4270    105.0154    122.6857   6.6333695920e+01   3.6233288355e+01     0.273289    0.2119372 -69.82 0.0004481983    1.366    0.268
       119 -11.0994    100.0359    119.1550   6.6994320817e+01   3.8040450622e+01    0.5258445    0.2441042  54.10  0.001661092    2.623    0.619
       120  -9.5072     67.5173    122.4825   7.8171855658e+01   4.2900512478e+01    0.1563325    0.1402263  74.02 0.0008098444    1.040    0.039
       121 -11.0746     42.9415    120.8519   8.6679888341e+01   4.6785734777e+01    0.3311735    0.2422251  21.79 0.0009475541    1.535    0.348
       122 -10.4730     36.0750    120.3215   8.9162282109e+01   4.7736987880e+01     0.241616    0.2281769  75.77 0.0007734482    1.088    0.081
       123 -12.9349    154.8260    118.4292   5.2872410958e+01   2.7169579456e+01     0.607266    0.3073038  48.82  0.002536154    2.088    0.521
       124 -10.0861    232.4898    118.5363   3.9992394360e+01   1.3070936880e+01     0.122853   0.09866346 -29.86 2.991224e-05    1.021    0.021
       125 -11.0476    189.0671    121.0886   4.6964924563e+01   2.0055235991e+01    0.2120051    0.1777507 -40.97  0.001248078    1.114    0.102
       126 -10.6787     23.9271    115.8826   9.3261032009e+01   5.0208793165e+01    0.2654744    0.1851963 -82.50 0.0005321042    1.310    0.237
       127 -10.2665     66.3902    115.9339   7.7298972152e+01   4.4817759279e+01      0.33144    0.2114562  63.96  0.001311205    1.766    0.434
       128 -10.7083     48.7129    115.3433   8.3657456898e+01   4.7559163145e+01     0.275981    0.2132639  64.65  0.000725702    1.258    0.205
       129 -11.0911    188.4812    115.0052   4.5681207143e+01   2.1195699502e+01    0.2007974    0.1909267  32.70 0.0009631979    1.162    0.140
       130 -13.8115    140.6494    110.5613   5.4094155430e+01   3.1693097564e+01     1.443459    0.8902326   8.22  0.004433346    4.552    0.780
       131 -10.3817    108.3018    112.7199   6.3039408429e+01   3.7956859933e+01    0.3180512    0.1845899 -32.38  0.001180051    2.466    0.595
       132 -12.1163     53.4033    110.8624   8.1083767668e+01   4.8140175203e+01    0.3913032    0.3574776  32.09  0.001307065    1.194    0.162
       133 -11.0482     51.2724    106.7639   8.1124993776e+01   4.9560070053e+01    0.3325463    0.1909598 -37.94  0.001099761    2.342    0.573
       134  -9.3309    210.6918    110.3208   4.1171538323e+01   1.7897400932e+01    0.1293475   0.09258228 -58.24 0.0007033971    1.642    0.391
       135 -10.7684    160.7092    108.3098   4.9186503163e+01   2.7922751179e+01    0.2777742    0.1632213 -48.91  0.001232136    1.673    0.402
       136 -10.6027     92.0030    108.1906   6.6877142687e+01   4.2289343464e+01    0.2511695    0.2212149 -64.34 0.0003236762    1.114    0.103
       137 -10.1590    116.9032    103.3267   5.8211376983e+01   3.8340714084e+01     0.224047     0.206104  49.36  0.001156676    1.119    0.107
       138 -12.2299     10.1564    100.6922   9.7333740316e+01   5.5532304062e+01    0.2633779    0.2217966  67.36 0.0004403353    1.100    0.091
       139 -10.0751     79.1685    101.1831   6.9443334130e+01   4.6493763964e+01     0.224794    0.1815679  84.20 0.0007136854    1.323    0.244
       140 -11.9631     57.7645     98.4667   7.6820078661e+01   5.0858485832e+01    0.7043571    0.3448162 -48.94  0.002690508    2.156    0.536
       141 -11.5107     54.3089     92.5234   7.6844843644e+01   5.2988545983e+01    0.3214787    0.2542163  67.81 0.0007939081    1.306    0.234
       142 -10.6089     21.6513     97.2882   9.1917789934e+01   5.5591975666e+01    0.2339576    0.1872617  65.27 0.0006387912    1.194    0.162
       143  -9.6053    237.8452     98.8469   3.5206754862e+01   1.4965522328e+01    0.1617051    0.1204653 -48.85 0.0003726156    1.308    0.236
       144 -13.0335    137.8695     93.3518   5.0166780382e+01   3.5854749165e+01    0.5651487    0.3710722 -45.81  0.002547824    1.458    0.314
       145  -9.4524     75.6330     97.6952   6.9821190564e+01   4.8040434524e+01    0.1587419     0.126025 -16.35 0.0004514862    1.745    0.427
       146  -9.6960    240.1497     95.1370   3.4159103004e+01   1.5098892780e+01    0.1641222    0.1156637 -47.17 0.0002916914    1.312    0.238
       147  -9.9642    117.6853     95.3539   5.5811298935e+01   3.9960623288e+01    0.1659208     0.121806 -84.57 0.0007045668    1.737    0.424
       148 -12.3155    130.7373     89.8602   5.0870629159e+01   3.8197950108e+01    0.4543405    0.2741171 -47.62  0.001933402    1.600    0.375
       149 -12.0311    124.9196     86.8323   5.1434204196e+01   4.0169701343e+01    0.6300533    0.3264655  40.03  0.002358708    2.318    0.569
       150 -10.2699    232.3232     89.3353   3.3759139251e+01   1.7203039591e+01    0.1866518    0.1570727  71.22 0.0005255729    1.502    0.334
       151 -10.5890     59.1853     91.9530   7.4698218454e+01   5.2378980066e+01    0.2702941    0.2254265  43.36 0.0005263192    1.217    0.179
       152 -12.2554    115.8263     85.6592   5.3486494802e+01   4.2512780312e+01    0.3073158    0.2844348 -85.50 0.0003352411    1.049    0.046
       153 -12.9956     46.4993     86.5630   7.8786637444e+01   5.5737430489e+01    0.6748609    0.4668379  73.23  0.003063064    1.651    0.394
       154 -12.3785     53.1912     84.9509   7.5439972249e+01   5.5186318558e+01    0.9055798    0.5070758  85.58  0.003155399    2.924    0.658
       155 -12.3962     50.9944     79.6789   7.5008985868e+01   5.6920065039e+01    0.9050129    0.3862688  46.95  0.003239181    2.543    0.607
       156 -13.2772    152.8188    107.4795   5.0608669376e+01   2.9740625096e+01    0.5749429    0.5036321 -61.00   0.00164266    1.150    0.130
       157 -10.2145     21.5042     91.4920   9.1161133922e+01   5.7220911248e+01    0.1457456    0.1312797 -84.04 -9.19783e-05    1.027    0.026
       158  -9.6886    182.2760     81.3089   3.8375930041e+01   2.8136271146e+01    0.1334997    0.1099074   0.23 0.0001853374    1.553    0.356
       159 -11.3766     21.9875     80.4712   8.9138907741e+01   6.0233994394e+01    0.3148982    0.1953049 -74.00 0.0003523203    1.473    0.321
       160  -9.6888    153.3125     80.3283   4.3150471459e+01   3.4829173050e+01    0.1477634    0.1206905   8.17 0.0002852327    1.669    0.401
       161 -10.0367    214.1183     78.7820   3.3423774738e+01   2.2016871033e+01    0.1940193    0.1519783 -54.31 0.0003934811    1.208    0.172
       162 -10.4065    112.0056     76.3183   5.1618130206e+01   4.5407492441e+01    0.2872742    0.2610282   1.20 0.0008374652    1.366    0.268
       163 -10.3284    116.3266     74.2712   4.9768225653e+01   4.4812566536e+01    0.3555586    0.2476545  40.22  0.001567001    1.644    0.392
       164 -10.6091     74.8436     75.7566   6.3769906659e+01   5.3706149020e+01    0.2547791    0.2517125  81.08 0.0006633597    1.082    0.076
       165 -13.1858     32.0171     74.2593   8.2759122798e+01   6.0911733641e+01    0.5756556    0.3921192 -69.44  0.002471689    1.371    0.270
       166 -12.5382     26.1658     63.3666   8.3207440439e+01   6.4464210205e+01    0.7989641    0.2948566  31.12  0.003021837    2.641    0.621
       167  -9.7180     11.5642     87.0089   9.5233764488e+01   5.9238079523e+01    0.2158857    0.1262159 -79.89 0.0004302736    1.532    0.347
       168 -11.6809    100.0183     69.0315   5.2694040327e+01   4.9770427351e+01    0.6734903    0.3286397 -37.31  0.002435166    2.325    0.570
       169  -9.5889     57.8344     69.2105   6.8753285859e+01   5.8494852708e+01    0.1997646    0.1785606 -24.41 0.0003715743    1.283    0.220
       170 -10.9528     65.9355     74.0428   6.6804724429e+01   5.5836577799e+01    0.2239401    0.2130031 -79.48 0.0002873192    1.011    0.011
       171 -10.5508    198.4589     65.6929   3.2055581206e+01   2.7104767444e+01    0.3175738    0.2091944   3.85  0.001187335    2.716    0.632
       172 -11.7867    178.4083     64.3343   3.4345043620e+01   3.1731478552e+01    0.2617752    0.2504604 -88.95 0.0003494027    1.142    0.124
       173 -10.6316    140.0224     61.4822   4.0017619488e+01   4.1437814084e+01    0.2345126    0.1493598  61.87  0.000928141    1.608    0.378
       174 -11.9536    166.0020     58.4720   3.4494769742e+01   3.5560548219e+01    0.2589683    0.2231802 -52.07 0.0003170876    1.039    0.038
       175 -11.2291     55.3044     58.2538   6.6066142717e+01   6.1611634922e+01    0.4202057    0.2808584  45.64  0.001594243    1.534    0.348
       176 -11.9076     50.9841     56.4759   6.7516787480e+01   6.2787969518e+01    0.8135269    0.5097345 -89.55  0.003098519    2.739    0.635
       177 -10.5510      4.6271     59.0833   9.5161199619e+01   6.7264562953e+01    0.3060735    0.2014639   1.32  0.001114289    1.748    0.428
       178 -11.0207    194.1549     57.5168   3.0423988870e+01   2.9226481475e+01    0.2472745    0.2030897 -45.74 0.0002651608    1.042    0.040
       179 -10.1153     88.3011     78.8118   5.9828385572e+01   5.0199224108e+01     0.279656    0.2161884  62.98  0.001079059    1.356    0.263
       180  -9.7717     18.3952     49.2318   8.4078764379e+01   6.8900860590e+01    0.1931598    0.1273369 -81.51 0.0003767064    1.599    0.374
       181 -10.6424      9.5250     43.9794   8.8779644816e+01   7.0938029074e+01    0.2182861    0.1214644 -69.10  0.001040394    1.620    0.383
       182 -11.1206     51.3317     43.1062   6.1732497255e+01   6.5778226642e+01    0.2548368    0.2070574  27.20  0.001001074    1.343    0.255
       183  -9.4493     44.9759     42.0132   6.4675123717e+01   6.7146234827e+01    0.1662727    0.1546649 -49.96 0.0009324604    1.048    0.046
       184 -11.0206    215.4821    226.4958   6.1425032206e+01   1.0511611123e+00      0.15571    0.1416954  25.93  0.001107942    1.706    0.414
       185  -9.8234    104.3809     39.6307   4.0096069630e+01   5.4284379831e+01    0.2815627    0.1451141  67.26 0.0005557041    2.072    0.517
       186 -10.1344     36.1703     39.1770   6.8610256857e+01   6.9197924583e+01    0.2185974    0.1923414 -21.51  0.001226884    1.196    0.164
       187 -10.8674     56.9348     36.9370   5.5916573675e+01   6.5970448463e+01    0.2180881    0.2107554 -83.87 0.0003884663    1.062    0.058
       188 -10.0673    247.9674     31.9909   1.9643302504e+01   2.1721025172e+01    0.1612804    0.1339218  -2.32 0.0004300108    1.637    0.389
       189  -9.9193    213.4931     32.0814   2.1927173147e+01   2.8418420862e+01    0.1942975    0.1072289 -33.24 0.0004741397    1.524    0.344
       190 -10.8396    106.4006     31.3885   3.6085141103e+01   5.5037417245e+01    0.2806102    0.2719297  82.25 0.0007134686    1.079    0.073
       191 -11.4815     78.0548     31.0648   4.4107248012e+01   6.2296135593e+01    0.3411697     0.259365 -73.74 0.0006828899    1.563    0.360
       192 -10.7913     32.0039     30.9731   6.7330894139e+01   7.1633932770e+01    0.4175534    0.1353367 -43.35  0.001409431    3.307    0.698
       193  -9.5241    162.5740     31.4751   2.6611889699e+01   4.0309712147e+01    0.1456211    0.1239698 -60.78 0.0001024221    1.018    0.018
       194  -9.8063     45.3585     25.1444   5.5564959601e+01   7.0510345276e+01     0.196977     0.126753 -52.76 0.0005026128    1.714    0.416
       195 -10.3262    172.1069     21.1433   2.2351764712e+01   3.9203622217e+01     0.240485    0.1893485 -43.94  0.001359656    1.147    0.128
       196 -10.8018     84.3676     24.0929   3.8515056418e+01   6.1799245089e+01    0.2923166    0.2141657  74.40  0.001156371    1.402    0.287
       197  -9.5753    134.5688     22.4702   2.7202005419e+01   4.8725656461e+01    0.1466187    0.1312427 -71.85 8.362255e-05    1.011    0.011
       198  -9.4330     50.0516     22.2589   5.1224021253e+01   7.0084680057e+01    0.1756867    0.1178432  46.65 0.0003617329    1.469    0.319
       199 -10.9610     30.9573     15.5010   5.8637813378e+01   7.4872729551e+01    0.2617193    0.1805304 -26.03  0.001224168    1.593    0.372
       200 -10.1860    214.2108     10.4246   1.6409618210e+01   3.0699606236e+01    0.1764512   0.09813506 -73.93 0.0009517333    1.718    0.418
       201  -9.9392     54.7936     10.6196   4.1290498233e+01   7.0805382471e+01    0.1966491    0.1296152  68.25 0.0009558849    1.666    0.400
       202  -9.8852     93.2820    248.9427   8.6781493004e+01   1.2125844926e+01    0.1418332    0.1234708  36.19 0.0003188066    1.153    0.133
       203  -9.0611    139.6878    248.2891   7.7519994557e+01   6.8395552550e+00    0.1052667   0.07182449  44.62 0.0006997776    1.584    0.369
       204 -10.3275    125.0813    248.0712   8.0322619480e+01   8.5658442079e+00    0.1611052    0.1246086  28.71            0    1.050    0.048
       205 -10.3914     83.8772    246.4185   8.8522033768e+01   1.3601746844e+01    0.3827905   0.09750241  34.53  0.001684642    2.585    0.613
       206 -10.0703    179.7809    244.3771   6.9742810789e+01   2.8103059217e+00    0.1537932     0.104087  30.27  0.000488045    1.358    0.264
       207 -11.0635    116.2008    240.2388   8.1315626556e+01   1.0777402442e+01    0.1904681    0.1482306  35.47 0.0002515171    1.108    0.097
