#   1 NUMBER                 Running object number                                     
#   2 MAG_AUTO               Kron-like elliptical aperture magnitude                    [mag]
#   3 X_IMAGE                Object position along x                                    [pixel]
#   4 Y_IMAGE                Object position along y                                    [pixel]
#   5 X_WORLD                Barycenter position along world x axis                     [deg]
#   6 Y_WORLD                Barycenter position along world y axis                     [deg]
#   7 A_WORLD                Profile RMS along major axis (world units)                 [deg]
#   8 B_WORLD                Profile RMS along minor axis (world units)                 [deg]
#   9 THETA_WORLD            Position angle (CCW/world-x)                               [deg]
#  10 FWHM_WORLD             FWHM assuming a gaussian core                              [deg]
#  11 ELONGATION             A_IMAGE/B_IMAGE                                           
#  12 ELLIPTICITY            1 - B_IMAGE/A_IMAGE                                       
         1 -13.7488     55.5575    146.4415   1.0861013900e+02   3.8505819627e+01     4.956639     0.944916 -67.17   0.01490745    4.720    0.788
         2 -14.4569    200.5124     37.7272   4.6081677476e+01   3.0399233262e+01     2.105608     1.512743  23.43    0.0077484    1.852    0.460
         3 -14.4150    212.4847     25.6297   4.1477212068e+01   2.9017095690e+01     1.355373    0.9799957  10.21  0.007141612    1.866    0.464
         4 -11.7596      2.3574      3.3674   1.0150054883e+02   7.7837045531e+01    0.4167706    0.2445786 -54.22   0.00241165    1.415    0.293
         5 -12.5769    237.1957      2.7707   3.3837288670e+01   2.5882851503e+01    0.7065342    0.3181567  80.88  0.003506021    2.372    0.578
         6  -9.6485     67.5273      3.4962   5.9081099720e+01   6.8005220847e+01    0.1348237    0.1235698  18.45 8.535155e-05    1.017    0.017
         7 -10.2030    113.7121    207.8589   1.0167771366e+02   1.7826004602e+01    0.2094904    0.1612023  75.50 0.0009649156    1.592    0.372
         8 -11.3111    139.9126    249.6858   1.0105589056e+02   8.0003789053e+00    0.2384085    0.1974919  47.74  0.001665213    1.322    0.243
         9 -11.4940    125.0789    244.8481   1.0333131259e+02   1.0546251465e+01    0.2999938     0.221217 -85.22  0.002090729    2.076    0.518
        10 -10.7647    116.6442    248.5567   1.0526469942e+02   1.1098050591e+01     0.302588    0.1768354 -80.62  0.001769889    3.092    0.677
        11 -13.4733     49.6922    220.4378   1.1633454593e+02   2.3667446816e+01     2.074895     1.520335  26.30   0.01437174    1.474    0.321
        12 -12.8117     28.0744    215.4362   1.2051821422e+02   2.6814368683e+01     1.020681    0.3410697  89.12   0.00471316    3.500    0.714
        13 -14.0826     86.2658    226.9496   1.0930813481e+02   1.8235135364e+01     1.121287    0.9365023  50.63  0.008332259    1.091    0.083
        14 -16.3997      8.0177    195.7862   1.2397260106e+02   3.2405718310e+01     7.553495      1.37045 -79.75   0.01297014    4.936    0.797
        15 -10.6106     66.9485    195.4982   1.1076166699e+02   2.6380900396e+01    0.3190974      0.21255  67.24  0.001201428    1.460    0.315
        16 -10.2521     63.0983    201.5045   1.1213927451e+02   2.5671958987e+01    0.1967727    0.1494573  74.17 0.0003279074    1.264    0.209
        17 -10.1465     64.3907    198.2385   1.1157947739e+02   2.6153036047e+01    0.3430619    0.1907865  66.01  0.000836353    1.872    0.466
        18  -9.8065    152.2968    197.5207   9.2204640128e+01   1.3842423268e+01     0.258424    0.1796471 -59.81  0.001483144    1.977    0.494
        19 -10.5672    111.7417    197.8360   1.0090488791e+02   1.9878086392e+01    0.2712173    0.1453141  44.17   0.00134509    1.610    0.379
        20 -12.7250     12.5361    189.2092   1.2274438650e+02   3.3351338238e+01    0.2355735    0.1738196  49.23  0.000408118    1.147    0.128
        21 -14.1856     42.8494    202.5420   1.1669885271e+02   2.7761746522e+01     1.660583    0.7398698  72.67  0.002655654    2.492    0.599
        22  -9.0067     82.2334    194.9574   1.0721520898e+02   2.4532516101e+01    0.1493997    0.1028644 -72.72 0.0008782832    1.630    0.386
        23  -9.1840    114.6425    194.6898   9.9867508699e+01   2.0024831535e+01    0.1258072   0.09541028   1.46 0.0007042717    1.735    0.423
        24  -9.0812     24.1026    193.7147   1.2035958982e+02   3.1399807568e+01    0.1562279    0.1175052  53.90 0.0008259601    1.068    0.064
        25  -8.9444    100.4467    186.4908   1.0205123214e+02   2.3653810286e+01    0.1286357    0.1121163  45.35 0.0001283962    1.018    0.018
        26 -16.2691     50.4424    246.9367   1.1763145478e+02   1.9106716829e+01     9.259356     2.553161  24.26   0.01472434   11.490    0.913
        27 -14.2152     52.7466    192.0689   1.1374097693e+02   2.8755214154e+01     1.436832    0.9499222  83.56  0.008755147    1.516    0.340
        28  -8.9588     92.5364    184.5125   1.0365989170e+02   2.5180534653e+01    0.1291741    0.1118771  48.86 0.0001174025    1.011    0.010
        29 -11.0079    145.1632    181.1594   9.1194373561e+01   1.7709235343e+01    0.2930456    0.2334691  57.94  0.001064965    1.447    0.309
        30 -10.3694     99.1099    180.7822   1.0163799976e+02   2.4977101046e+01    0.3047056    0.2107114  23.37  0.001231908    1.576    0.365
        31 -12.1440     67.8090    176.3346   1.0871556447e+02   3.0218341279e+01    0.3909652    0.2850171 -39.93  0.001231138    1.835    0.455
        32 -12.1431     72.4062    171.3103   1.0701986727e+02   3.0701887819e+01    0.3154794    0.2920735 -14.90 0.0008328523    1.372    0.271
        33 -10.3408     42.8973    179.8743   1.1513783989e+02   3.2390683113e+01    0.2233624    0.1823842  25.04 0.0003021161    1.400    0.286
        34 -10.2307     46.1276    176.8740   1.1411658433e+02   3.2683239291e+01      0.25805    0.1905278 -86.46    0.0010203    1.317    0.241
        35  -9.7792    204.2882    176.6507   7.8667183422e+01   8.8823338471e+00    0.2192686    0.1467602 -42.39  0.001259583    1.771    0.435
        36 -11.2742    140.1118    172.5056   9.0893084426e+01   2.0095360382e+01    0.5449663    0.3638757  70.58  0.002542119    2.448    0.591
        37 -11.4564    203.9983    199.6813   8.2656361605e+01   5.8145877252e+00    0.2850869    0.2060622  33.20  0.001873154    1.314    0.239
        38 -13.2120     88.0857    155.0965   1.0084020374e+02   3.2064556475e+01     1.963795      1.11305 -77.03  0.003646928    2.204    0.546
        39 -10.0532    228.0000    169.9913   7.3385909018e+01   6.1643117263e+00    0.1916175   0.06176601 -33.63 0.0008018559    2.938    0.660
        40 -12.3891     81.1411    162.0267   1.0363825385e+02   3.1537377184e+01    0.5578263    0.3403239  59.50  0.000369651    1.718    0.418
        41 -10.5742    158.3268    161.2017   8.4873977034e+01   1.9022150997e+01    0.2940508    0.2485747 -76.20  0.001130609    1.610    0.379
        42 -13.7118     69.1618    157.5233   1.0622009266e+02   3.4195469358e+01    0.6093138    0.5296637  -1.79  0.001553714    1.483    0.326
        43 -11.1781    133.5489    144.1181   8.7254898490e+01   2.6767256761e+01     1.062706    0.2729144 -54.30   0.00272238    5.980    0.833
        44  -8.4282    112.6888    150.6916   9.3704490348e+01   2.9086897397e+01    0.1382455    0.1109962  -8.09  0.000402945    1.621    0.383
        45  -9.7501    172.4173    238.8866   9.3920558557e+01   5.1708725868e+00    0.2228784    0.1325942 -46.08  0.001439279    2.263    0.558
        46 -10.5545    174.6645    148.9300   7.9018808760e+01   1.8241209632e+01    0.2569243     0.231256  27.52  0.000816424    1.081    0.075
        47 -10.6105     39.0509    146.2699   1.1327435227e+02   4.0403805377e+01    0.2995943    0.2273089  78.96 0.0007527042    1.186    0.157
        48 -10.8551    102.1365    140.1634   9.4590810735e+01   3.3186313786e+01    0.5062551    0.3249944 -27.82  0.002186811    2.347    0.574
        49 -12.4535     89.3231    140.1363   9.8121267552e+01   3.5280146886e+01    0.2816582    0.2588458 -48.57 0.0005097341    1.190    0.160
        50 -10.5177     79.6137    139.9808   1.0084070545e+02   3.6798759554e+01    0.2681254    0.1750907  53.92  0.001023999    1.528    0.346
        51 -10.5090    105.8895    130.5913   9.1720869574e+01   3.4704425808e+01    0.3880735    0.3009147  53.54  0.001180368    1.291    0.225
        52 -10.2626    111.3063    130.5229   9.0220946220e+01   3.3751248102e+01    0.2926583    0.2474525  -1.93  0.000750856    1.454    0.312
        53 -12.1249     44.5839    129.7438   1.0981306711e+02   4.3826558697e+01    0.3667189    0.2935497  29.13  0.001747017    1.364    0.267
        54 -11.8842    194.4130    196.5249   8.3867342561e+01   7.6234038450e+00    0.9944203    0.6669022 -69.83  0.004129632    5.140    0.805
        55 -11.2231    135.7858    128.0151   8.3306862186e+01   2.9659233957e+01    0.5058404    0.1868569 -49.06  0.001754918    2.857    0.650
        56 -10.2887    160.4335    127.7243   7.7459507693e+01   2.4808528672e+01    0.3343298    0.2566192 -61.44   0.00166897    1.606    0.377
        57 -11.0402     98.5138    126.6014   9.2993609511e+01   3.6908831298e+01    0.2843308     0.244435   0.17 0.0005737299    1.428    0.300
        58  -9.0404     93.4290    125.5528   9.4255964995e+01   3.8020166059e+01    0.1452252    0.1361511  75.01 0.0001113646    1.031    0.030
        59 -10.8002    120.4872    121.5595   8.5797229597e+01   3.4021095894e+01    0.3145373    0.1864757 -36.08  0.001208521    1.992    0.498
        60 -11.1796    134.7493    113.0230   8.0041629217e+01   3.2995630837e+01    0.6486618     0.125583 -46.35  0.001586894    5.300    0.811
        61 -10.0064    107.7925    119.1957   8.8767377935e+01   3.6954946977e+01    0.2073275    0.1927178  73.10 0.0003341747    1.086    0.079
        62 -11.9889     33.8781    118.4273   1.1183458936e+02   4.7753109045e+01    0.3436297    0.2927504 -17.93  0.001717199    1.488    0.328
        63 -12.2403     39.4622    113.4651   1.0932445939e+02   4.8449282065e+01    0.4692395    0.2525319 -81.44  0.002159204    1.849    0.459
        64 -11.3636     45.2439    117.7284   1.0799482406e+02   4.6752470423e+01     0.260123    0.2130281 -73.32 0.0006659095    1.133    0.118
        65 -12.1263     18.1605    110.9847   1.1627390996e+02   5.0963468714e+01    0.5684027     0.251946 -70.16  0.001885596    1.916    0.478
        66 -11.7978     21.7739    108.5934   1.1478412292e+02   5.1291280893e+01    0.3792297    0.2243074  38.65  0.001529819    1.710    0.415
        67  -9.7455    168.2387    113.1332   7.2293720585e+01   2.5920936645e+01    0.2693749    0.1996914  83.12  0.001219203    2.067    0.516
        68 -10.2223    205.3195    110.3465   6.4593417561e+01   1.8747359285e+01    0.3022052    0.2366004  28.77  0.001052412    1.350    0.259
        69  -9.8934    114.8407    110.0138   8.4622160264e+01   3.7682670643e+01    0.3092795    0.2133816  14.57  0.001301004    2.117    0.528
        70 -11.1378    246.7180    107.0132   5.7675338543e+01   1.1524209127e+01    0.2238237    0.1536478  29.87  0.001296388    1.659    0.397
        71 -11.9051     41.8410    103.9508   1.0706839714e+02   5.0616772522e+01    0.4718766    0.2881311  53.84  0.001579264    1.730    0.422
        72 -11.2815    119.9945    104.1672   8.1709480198e+01   3.7939446610e+01    0.2824408    0.2280597 -47.94  0.001273962    1.240    0.194
        73 -14.7662     68.6550    144.2912   1.0460968916e+02   3.7334049963e+01     5.271502     1.610925  53.73  0.003177393    5.680    0.824
        74 -11.6678    241.3074    100.0570   5.6825997130e+01   1.3405768924e+01    0.3343214    0.1242954 -36.02  0.001434492    2.247    0.555
        75 -10.2150     33.0620     99.7775   1.0960615212e+02   5.2565003810e+01    0.3388602    0.1838495  44.50  0.001336731    1.893    0.472
        76  -8.6460    128.6958     95.6669   7.7068774889e+01   3.7923826286e+01    0.1560745    0.1231466  -1.22 0.0007037651    1.661    0.398
        77 -10.4647     41.7632     91.9535   1.0501203922e+02   5.3685483430e+01    0.2141538    0.2034188  37.91 0.0004420601    1.160    0.138
        78 -10.3345     53.2321     90.4034   1.0030787891e+02   5.2725637394e+01    0.2820083    0.1527862 -52.29  0.001142018    1.736    0.424
        79  -9.4106    158.5069     81.5202   6.5865790781e+01   3.3888391185e+01    0.1505397    0.1470155 -28.43 0.0001081105    1.009    0.009
        80 -10.1538    243.2178     77.5940   5.1404122962e+01   1.6037999480e+01    0.1623597    0.1184257  42.30 0.0006822634    1.603    0.376
        81  -9.7029     54.9227     65.7747   9.3315168849e+01   5.8578926883e+01    0.2562392    0.1869053  55.17 0.0009178215    1.601    0.375
        82 -10.7839     13.5110     59.9167   1.1125431140e+02   6.4188236599e+01    0.2581661    0.2000225 -72.91 0.0004275737    1.125    0.111
        83 -13.3396    191.4002     44.5014   4.9170553950e+01   3.1719026277e+01    0.9128947    0.6708277  34.69  0.000986965    1.643    0.391
        84 -16.2959      8.4026    242.0517   1.2518443634e+02   2.3976405902e+01     1.528602     1.296335  59.78    0.0135202    1.276    0.216
        85 -10.4770    145.5163     42.3549   5.5956405507e+01   4.3630557847e+01    0.2913715    0.2406845 -68.09 0.0002662653    1.301    0.232
        86  -9.4199     72.7879    227.2552   1.1206923159e+02   1.9829504867e+01    0.1913598    0.1442979 -11.59 0.0009412609    2.165    0.538
        87 -11.1847      1.8854     29.0200   1.1121352171e+02   7.2211558301e+01    0.3114383    0.1415974 -66.34 0.0007546131    1.770    0.435
        88  -9.3822     32.2702    203.0581   1.1903675579e+02   2.8752869507e+01     0.159324     0.122263  65.60 0.0005341669    1.080    0.074
        89 -11.3661      2.8786     21.7538   1.0846131603e+02   7.3836125402e+01    0.3161335    0.1161525 -53.30  0.001489315    2.007    0.502
        90 -10.9664    142.8184     47.9263   5.8466388668e+01   4.3474077963e+01    0.4854132      0.30526 -75.33  0.001436103    2.393    0.582
        91 -10.7560     33.9551    227.3354   1.1986551179e+02   2.4088468868e+01    0.1597338    0.1376409  80.03  0.000326818    1.286    0.222
        92  -9.5219    189.6771     15.0067   4.0609479338e+01   3.5663679962e+01    0.1965072    0.1687018 -42.36 0.0006039742    1.099    0.090
        93 -10.4517    106.1688    210.6853   1.0360205486e+02   1.8390532666e+01    0.3582064    0.2099946  22.53  0.001922464    1.893    0.472
