#   1 NUMBER                 Running object number                                     
#   2 MAG_AUTO               Kron-like elliptical aperture magnitude                    [mag]
#   3 X_IMAGE                Object position along x                                    [pixel]
#   4 Y_IMAGE                Object position along y                                    [pixel]
#   5 X_WORLD                Barycenter position along world x axis                     [deg]
#   6 Y_WORLD                Barycenter position along world y axis                     [deg]
#   7 A_WORLD                Profile RMS along major axis (world units)                 [deg]
#   8 B_WORLD                Profile RMS along minor axis (world units)                 [deg]
#   9 THETA_WORLD            Position angle (CCW/world-x)                               [deg]
#  10 FWHM_WORLD             FWHM assuming a gaussian core                              [deg]
#  11 ELONGATION             A_IMAGE/B_IMAGE                                           
#  12 ELLIPTICITY            1 - B_IMAGE/A_IMAGE                                       
         1 -16.5191    220.7826     10.4146   2.4301070882e+01   3.0224076694e+01     4.176965     1.381801  77.74   0.01924121    2.931    0.659
         2 -11.7157      2.1632     10.7337   7.9605247398e+01   7.2690771390e+01     0.237752     0.125047 -37.22  0.001430345    1.687    0.407
         3 -12.2683    167.6803      9.7566   2.9145133335e+01   4.1633108652e+01    0.2111798    0.1491451  80.22 0.0006589395    1.188    0.158
         4 -10.6592    186.2551    242.0133   7.7399643362e+01  -3.4931089189e+00    0.2340991    0.1517611  38.74  0.001272195    1.649    0.394
         5 -11.1408    192.7086    249.9905   7.7352684611e+01  -5.6847087824e+00    0.2456883     0.143505  48.58  0.001177114    2.668    0.625
         6 -10.8791    161.3057    240.9013   8.2553322208e+01   2.6605370958e-01    0.2428017    0.1679162  37.46  0.001324837    1.404    0.288
         7 -11.3142    194.1780    238.4199   7.5171322109e+01  -3.9742662472e+00    0.4090606    0.1886921  43.64   0.00177266    2.794    0.642
         8 -11.0378    209.2308    238.1333   7.2095421387e+01  -5.9339996764e+00    0.2943525    0.1486629  43.29  0.001375157    2.663    0.624
         9 -11.1733    220.4727    235.4804   6.9464924741e+01  -6.9428411295e+00    0.3812674    0.1124065  31.93  0.001513306    3.356    0.702
        10 -10.3224    164.3378    228.6929   7.9924531314e+01   2.0934271074e+00    0.1318983    0.1069364  59.57 0.0004023122    1.678    0.404
        11 -10.3499    201.0278    228.0000   7.2004202596e+01  -3.1377830931e+00    0.2082331   0.06908084  33.07 0.0008018693    2.939    0.660
        12 -10.1058    192.4871    227.4854   7.3667617379e+01  -1.8455628641e+00    0.1349279    0.1133968  -2.65 0.0008103669    1.005    0.005
        13 -10.4485    208.0139    226.7664   7.0387846717e+01  -3.8851715544e+00    0.1681138   0.09972718  28.35 0.0008821693    1.640    0.390
        14 -10.4919    219.9959    225.2915   6.7794542958e+01  -5.2320914455e+00    0.1823394    0.1462592   2.06 0.0009064447    1.097    0.088
        15 -10.4462    149.0370    224.9968   8.2768799185e+01   5.1796002476e+00    0.2181441    0.1698532  63.13  0.001019735    1.727    0.421
        16 -10.3963    181.5009    224.4946   7.5468764711e+01   2.9875041626e-01    0.1367844    0.1190717   0.70 0.0008105964    1.019    0.019
        17 -10.4486    232.5193    222.4896   6.4959521516e+01  -6.3704543551e+00    0.1266762    0.1002827 -13.52 0.0003081869    1.016    0.016
        18 -10.8370    204.2814    220.6150   7.0050341935e+01  -2.3052398598e+00    0.2398907    0.1555384  17.21  0.001279534    1.536    0.349
        19 -10.0138    159.3258    220.6513   7.9699820409e+01   4.4370654128e+00    0.1373695    0.1114922  68.00  0.000704925    1.753    0.429
        20 -11.2206    196.1894    220.8679   7.1743656361e+01  -1.1956183839e+00     0.291262    0.1890044  29.77  0.001457457    1.504    0.335
        21 -10.9088    171.9841    218.5002   7.6496450573e+01   2.8825154584e+00    0.2144091    0.1288235  31.98  0.001031847    1.588    0.370
        22 -11.3907    221.5142    215.0111   6.5676167295e+01  -3.7074235143e+00    0.2555484    0.1854042  19.94  0.001316578    1.363    0.266
        23 -11.0197    178.3958    212.1002   7.3950533811e+01   3.1290178226e+00    0.2761551    0.1973059  36.45  0.001286965    1.431    0.301
        24 -10.9098    161.8692    212.0919   7.7637371635e+01   5.7597522144e+00    0.2130492    0.1977112  48.42 0.0008575768    1.259    0.206
        25 -10.6733    194.9976    211.2855   7.0265612137e+01   7.3520615453e-01    0.1959605    0.1645259  11.22 0.0008120401    1.118    0.106
        26 -10.6218    230.5287    208.3137   6.2782614283e+01  -3.7720314630e+00    0.2130033     0.112191  31.26   0.00108351    2.025    0.506
        27 -10.5659    208.1937    208.6165   6.7094571586e+01  -7.2372944317e-01    0.1893959    0.1174444  18.57 0.0009507572    1.721    0.419
        28  -9.8093    150.3302    207.6630   7.9525966038e+01   8.5683906234e+00    0.1448782    0.1154385  69.77 0.0005387378    1.733    0.423
        29 -12.0971    200.3271    204.9815   6.8003505474e+01   1.1096563570e+00    0.4048669    0.2007655  30.83  0.001823819    2.085    0.520
        30 -11.2186    188.7348    204.6329   7.0351401115e+01   2.9608344948e+00    0.2392785    0.1765871  39.29  0.001229614    1.479    0.324
        31 -10.8128    180.0017    204.5309   7.2212370393e+01   4.3652350282e+00    0.2149166    0.1338873  32.92  0.001030888    1.591    0.372
        32 -11.5120    165.4979    203.6116   7.5277823769e+01   6.9135820247e+00    0.2716682    0.2222274  32.54  0.001305514    1.219    0.180
        33 -10.6029    213.7867    202.7926   6.4914773305e+01  -4.8189343919e-01    0.1683792    0.1613375 -40.07   0.00085496    1.349    0.259
        34 -10.0473    131.6685    203.3367   8.3259694035e+01   1.2620325694e+01    0.1515067    0.1151742  68.68 0.0007052096    1.736    0.424
        35 -12.2066    177.3425    198.4938   7.1661551018e+01   6.0116496896e+00    0.2683358    0.2077882  28.02 0.0009570189    1.279    0.218
        36 -12.7060    185.9269    197.3521   6.9575432203e+01   4.8388609448e+00    0.3657859    0.2486738  35.38  0.001415987    1.510    0.338
        37 -11.0202    171.0240    198.4788   7.3067298779e+01   7.0614256651e+00    0.2194723    0.1380896  35.14  0.001026068    1.583    0.368
        38 -12.5032    162.6050    193.2953   7.4003695661e+01   9.5793006275e+00    0.2880904    0.2382106 -57.83  0.001409658    1.378    0.274
        39 -10.3439    146.5107    193.4921   7.7857212229e+01   1.2312573934e+01    0.1490256    0.1415384   1.44 0.0008105322    1.009    0.009
        40 -10.1738    227.6725    192.7004   6.0401895525e+01  -6.6701378294e-01    0.1359699   0.09064913 -10.88 0.0005566031    1.638    0.389
        41 -11.2195    217.7105    191.4167   6.2006868199e+01   1.0157740292e+00    0.2520859    0.1451613 -25.34  0.001197919    1.802    0.445
        42 -13.5936    179.0130    190.1682   6.9688412110e+01   7.4408292426e+00    0.6288205    0.3215179 -54.54  0.002520439    2.368    0.578
        43 -12.7617    177.3953    181.7003   6.8364824668e+01   9.4861200203e+00    0.3154415     0.251261 -43.77   0.00164024    1.234    0.189
        44 -12.4743    172.6638    191.6278   7.1385177920e+01   8.2136696631e+00     0.293997    0.2573259  77.79  0.001223265    1.557    0.358
        45 -12.5981    185.8640    190.8833   6.8339087144e+01   6.1475850997e+00    0.3300409    0.1856459  28.58  0.001466058    1.905    0.475
        46 -14.0646    205.5797    185.2960   6.3168933734e+01   4.0395706456e+00    0.6070061    0.3443385  26.48  0.002806873    2.014    0.503
        47 -12.2296    156.6443    188.4336   7.4462178409e+01   1.1671169599e+01    0.2978407    0.1864796 -44.01 0.0009428517    1.573    0.364
        48 -12.9740    166.4895    186.7777   7.1839570585e+01   1.0308946322e+01    0.3178633    0.2652599 -32.07  0.001227505    1.151    0.131
        49 -12.0751    173.4469    185.3186   6.9969411322e+01   9.4089607617e+00    0.2485602    0.1835681  56.24  0.001186139    1.752    0.429
        50 -11.3362    139.8379    184.8593   7.7855121219e+01   1.5445477512e+01    0.2121498    0.1879335  75.65  0.001084956    1.354    0.262
        51 -13.8383    183.9360    183.2570   6.7246623273e+01   8.0306347889e+00    0.4856682    0.3355677  31.15  0.002401002    1.495    0.331
        52 -13.8569    182.8572    176.7800   6.6170262488e+01   9.5626830092e+00    0.6121888    0.2968333 -51.51  0.002418314    2.235    0.553
        53 -11.4092    154.5979    183.7544   7.4032154062e+01   1.3071477109e+01    0.2114723    0.1447931 -58.09 0.0009504731    1.657    0.397
        54 -14.4749    198.2219    185.1773   6.4626455881e+01   5.2509976878e+00    0.5812578    0.4844196 -53.71   0.00311105    1.378    0.274
        55 -10.2936    145.3069    180.3380   7.5613296172e+01   1.5511411373e+01    0.1598797    0.1171141 -14.16 0.0005309018    1.678    0.404
        56 -12.5512    169.0300    177.7003   6.9435844714e+01   1.1822648337e+01    0.2738823    0.2218589 -72.23  0.001346911    1.612    0.380
        57 -11.8697    150.3635    177.5004   7.3804248084e+01   1.5245936907e+01     0.304749     0.191876 -51.12  0.001331582    1.614    0.381
        58 -13.2808    203.6306    173.5856   6.1215469963e+01   6.6441711523e+00    0.4721965    0.1833171 -39.34  0.001791262    2.404    0.584
        59 -12.3083    161.9979    175.4748   7.0608267892e+01   1.3582405060e+01    0.3020068    0.2047511 -30.63  0.001102023    1.564    0.361
        60 -12.7138    207.8996    169.3476   5.9520544431e+01   6.7624941494e+00    0.2972856    0.1922736 -34.64  0.001474511    1.411    0.291
        61 -13.7612    193.2136    165.4852   6.1645946292e+01   1.0071439146e+01     0.622876    0.2503384 -35.76  0.002205823    2.706    0.630
        62 -12.9792    179.1873    168.2007   6.5192414793e+01   1.2029144068e+01    0.3366781    0.2550698 -54.16  0.001663614    1.411    0.291
        63 -11.6882    170.4852    167.9821   6.7087482562e+01   1.3673298515e+01    0.2374999    0.1432329 -44.83  0.001031635    1.587    0.370
        64 -10.6816    223.4961    167.4824   5.6250149977e+01   4.5754326879e+00    0.1378686    0.1171707 -29.52 0.0002356312    1.001    0.001
        65 -13.1471    185.2468    164.7894   6.3165332375e+01   1.1647640152e+01    0.3481803    0.2310832 -34.20  0.001634715    1.464    0.317
        66 -12.2994    216.8177    161.5880   5.6265501607e+01   6.7770056718e+00    0.3471302    0.1865105 -34.46  0.001580434    1.756    0.431
        67 -12.9885    208.0751    160.6557   5.7701128057e+01   8.4383001487e+00    0.3407908     0.218308 -23.88  0.001600276    1.758    0.431
        68 -12.9800    177.2480    158.1414   6.3471768676e+01   1.4541115876e+01    0.4135974    0.2559634 -35.20  0.001823916    1.619    0.382
        69 -13.0520    199.2665    155.3643   5.8294424379e+01   1.1046518131e+01    0.3225221    0.2552927 -25.53  0.001707095    1.247    0.198
        70 -13.2390    188.7018    152.7787   5.9869079163e+01   1.3519448217e+01    0.3123428     0.285261 -37.17  0.001737562    1.030    0.029
        71 -10.6975    218.3394    147.3152   5.3055080903e+01   9.2504855567e+00     0.140556    0.1038022  -9.69 0.0005668089    1.702    0.412
        72 -12.2156    201.8987    143.1402   5.5166230114e+01   1.3017450725e+01    0.2235727    0.1964487 -63.73  0.001088117    1.237    0.192
        73 -10.1468    182.3500    140.3179   5.8436230564e+01   1.7342548498e+01    0.1543275    0.1169869  -4.36 0.0007047835    1.735    0.424
        74 -10.7077     82.5023    100.0062   7.4999446678e+01   4.6249128500e+01    0.2029056    0.1365032 -76.41 0.0008095951    2.458    0.593
        75 -12.1102    114.1619     98.9769   6.4799860130e+01   4.0464210254e+01    0.3905344    0.2334964  46.49  0.001663005    1.694    0.410
        76 -11.3382     95.0470     98.0079   7.0328847260e+01   4.4442000082e+01    0.2372441    0.1931738  80.65  0.001069236    1.695    0.410
        77 -10.8423     98.8291     89.8396   6.6796692653e+01   4.5448715138e+01    0.2030812    0.1843126  78.56 0.0007877366    1.334    0.250
        78 -10.3755    132.3367     89.3127   5.7177450535e+01   3.8527116421e+01    0.1540526    0.1188178  10.56 0.0006122317    1.689    0.408
        79 -10.7057    126.5237     89.5109   5.8733715550e+01   3.9763629063e+01    0.1482792    0.1458841  46.92 0.0001135764    1.022    0.021
        80 -11.0173     89.7875     89.5657   6.9613504548e+01   4.7221583679e+01    0.2098513    0.1384442  48.70 0.0009470911    1.676    0.403
        81 -11.9239    112.1550     83.1595   6.0842758847e+01   4.4072478126e+01    0.2059198    0.1827152  78.39  0.001023059    1.332    0.249
        82 -10.7783     88.9926     81.9853   6.7616753996e+01   4.8916052370e+01    0.2263156    0.1882361  83.93  0.001134211    1.713    0.416
        83 -12.6611    121.5956     80.1194   5.7343198628e+01   4.2620914680e+01    0.3122448    0.2129979  39.77  0.001471976    1.457    0.313
        84 -12.7082    104.9959     79.0341   6.1697342634e+01   4.6345346584e+01     0.355038    0.2164337  51.68  0.001574102    1.739    0.425
        85 -12.2480    114.0027     78.0075   5.8790122921e+01   4.4649024972e+01    0.2329648      0.18752  88.90  0.001141071    1.681    0.405
        86 -10.2684     76.6693     78.3259   7.0703869264e+01   5.1851865072e+01    0.1387591    0.1172637  78.19 0.0007050867    1.707    0.414
        87 -11.0012    142.3322     75.3336   5.0880023381e+01   3.8835909726e+01    0.1491986    0.1140206  17.21 0.0007052221    1.730    0.422
        88 -13.5478    116.3586     72.7792   5.6571453698e+01   4.5082817560e+01    0.5778675    0.2649067  56.50  0.002152205    2.548    0.608
        89 -11.9555    122.9553     69.5063   5.3852270337e+01   4.4199882768e+01     0.231558    0.1364522  49.96  0.001039844    1.611    0.379
        90 -13.7667    101.1632     67.7144   5.9333208505e+01   4.9182324274e+01    0.5273462    0.3833997  80.34  0.002402211    2.239    0.553
        91 -10.7638    148.4855     68.4829   4.7646752631e+01   3.8575318322e+01    0.1412511     0.134252  60.93 0.0002647637    1.041    0.039
        92 -13.4001    112.3559     65.5082   5.5436825212e+01   4.7194093116e+01    0.4817721    0.2777734 -50.85   0.00211188    2.107    0.525
        93 -13.0034    104.1238     63.4803   5.7114924518e+01   4.9285017473e+01    0.3402146    0.2406252  71.75  0.001590432    2.004    0.501
        94 -11.8295    123.2124     63.6259   5.2023312191e+01   4.5113990340e+01    0.2155379    0.1218118  42.87 0.0009522656    1.731    0.422
        95 -11.1991      4.7449     37.0011   8.8476814361e+01   6.8291465904e+01    0.1536024   0.08523925 -47.56 0.0008954056    1.589    0.371
        96 -13.1232    157.2833     27.8581   3.5079530788e+01   4.2116386874e+01    0.2959399    0.1869641 -87.71  0.001542075    1.766    0.434
        97 -12.5526    161.0338     22.4903   3.3152070951e+01   4.1847687397e+01    0.2108046    0.1632476 -71.62 0.0009087402    1.287    0.223
        98 -11.2367    178.9931    249.0020   8.0030257287e+01  -3.6710987591e+00    0.2830768    0.1577987  29.30  0.001472126    1.596    0.374
        99 -10.2866    170.9804    244.0000   8.0944287813e+01  -1.6887620837e+00    0.2196236   0.06706284  32.84 0.0008046505    2.958    0.662
