#   1 NUMBER                 Running object number                                     
#   2 MAG_AUTO               Kron-like elliptical aperture magnitude                    [mag]
#   3 X_IMAGE                Object position along x                                    [pixel]
#   4 Y_IMAGE                Object position along y                                    [pixel]
#   5 X_WORLD                Barycenter position along world x axis                     [deg]
#   6 Y_WORLD                Barycenter position along world y axis                     [deg]
#   7 A_WORLD                Profile RMS along major axis (world units)                 [deg]
#   8 B_WORLD                Profile RMS along minor axis (world units)                 [deg]
#   9 THETA_WORLD            Position angle (CCW/world-x)                               [deg]
#  10 FWHM_WORLD             FWHM assuming a gaussian core                              [deg]
#  11 ELONGATION             A_IMAGE/B_IMAGE                                           
#  12 ELLIPTICITY            1 - B_IMAGE/A_IMAGE                                       
         1 -12.4570    248.7753     34.7547   1.0901468342e+01   2.3786449217e+01     1.757094     0.651701 -31.66  0.008677957    3.158    0.683
         2 -14.2716    242.8750     83.8383   2.0180000453e+01   1.8408573564e+01     1.697904    0.7400287 -52.90   0.00163171    2.041    0.510
         3 -12.8547    247.9422     66.0095   1.6536972666e+01   2.0034988495e+01     1.024628    0.4108744 -34.82  0.004876806    2.409    0.585
         4 -14.3073    249.3250    132.8291   2.8036614696e+01   1.0568714655e+01     3.456174     1.948405 -24.69   0.01105657    2.096    0.523
         5 -14.2709    230.2705    101.5037   2.4714094358e+01   1.7791768092e+01     3.773496     2.236623 -84.68   0.01939468    3.041    0.671
         6 -14.1644    228.4456     52.9014   1.5714662924e+01   2.4910024777e+01     3.444428     2.399661  39.24   0.01424422    2.499    0.600
         7  -8.2459    249.2371     16.7716   7.6955490068e+00   2.5747190061e+01    0.1251861     0.104047 -50.37 0.0005225749    1.345    0.256
         8  -7.7270    237.6696    196.2800   3.9722708821e+01   2.8276255856e+00   0.08879084    0.0814314 -52.72 0.0006307056    1.604    0.376
         9  -8.3764     13.6564    195.3196   9.1359712416e+01   3.0501286673e+01     0.151924   0.07755838  51.67 0.0007049618    1.723    0.420
        10  -9.0963    245.2700    192.4698   3.8081899991e+01   2.5939428103e+00    0.2950575    0.1740904 -42.33   0.00202183    1.538    0.350
        11  -7.8238    224.8055    193.6257   4.1218831589e+01   4.5498724803e+00    0.1372643   0.09891053  38.93 0.0009478714    1.761    0.432
        12  -8.5583    199.1014    192.1066   4.5156928108e+01   7.7305605769e+00    0.1824717     0.166768  25.15 0.0007170243    1.299    0.230
        13  -9.3881    249.4251    185.7215   3.6499194021e+01   3.1025579157e+00    0.2982726    0.1874218 -43.56  0.001621487    1.496    0.332
        14  -9.9085    243.2835    181.5247   3.6680265038e+01   4.3135984431e+00    0.3677875    0.3023253 -60.39  0.002637468    1.771    0.435
        15  -8.1140    237.4204    188.2421   3.8532999341e+01   3.9814555187e+00    0.1452938   0.08626104 -45.12 0.0009398398    1.635    0.388
        16  -8.3825    224.0333    183.9461   3.9821367543e+01   6.0665484386e+00    0.1676984    0.1593563  -4.48 0.0004433806    1.302    0.232
        17  -8.3123    232.8775    187.1180   3.9010569236e+01   4.6239877916e+00    0.1750131    0.1466711   4.54 0.0009441096    1.233    0.189
        18  -8.2723    228.1969    185.7954   3.9490109215e+01   5.3264047631e+00    0.2142751    0.1397992  27.56  0.001118547    1.706    0.414
        19  -7.8202    211.6046    183.7923   4.1736464618e+01   7.5402047210e+00    0.1569947   0.09758183 -47.46 0.0008882821    1.630    0.386
        20  -8.1336    201.6981    183.8019   4.3376482483e+01   8.7501577881e+00    0.1885954    0.1525764  65.12  0.001066716    1.980    0.495
        21  -8.5529    235.7066    181.4347   3.7717618932e+01   5.1368818659e+00    0.2348302    0.1821736  62.52  0.001603118    2.319    0.569
        22  -8.9170      6.4866    181.9436   9.2757428804e+01   3.4361953730e+01    0.1999722    0.1256741 -85.78 0.0008974863    1.573    0.364
        23  -8.1350    193.5550    180.0605   4.4170592600e+01   1.0407393547e+01    0.2333339    0.1469571 -57.27  0.001267714    2.041    0.510
        24  -7.9047    226.1880    179.2158   3.8744972440e+01   6.5275296871e+00    0.1376678    0.1246689 -45.50 0.0009294102    1.354    0.262
        25  -9.2274      2.1523    232.8200   9.5835598259e+01   2.2916610769e+01    0.2336828    0.1603484  13.41  0.001007243    1.547    0.354
        26 -13.0775    228.4490    111.5981   2.6781555488e+01   1.6555495281e+01     1.583494    0.8069904  72.53  0.004989234    4.113    0.757
        27 -13.2825    243.9398    100.2543   2.3007058357e+01   1.5951179130e+01     1.685989    0.5420387  54.50  0.001720321    3.880    0.742
        28  -9.8261      5.3831    206.9156   9.4149015870e+01   2.8416387742e+01    0.3588334    0.1269573  54.92   0.00149656    2.475    0.596
        29 -12.7435    237.5427     89.0465   2.1646311690e+01   1.8488115881e+01    0.4007074     0.293587 -59.07 0.0003461644    1.201    0.167
        30  -9.1193    250.0621    200.5873   3.8635728734e+01   1.0416333316e+00    0.3048463    0.1362326 -46.46  0.001777677    2.357    0.576
        31 -12.7531    244.6443     60.2294   1.5762103086e+01   2.1297423455e+01    0.6149495    0.4607669 -32.16  0.003393752    1.518    0.341
        32 -12.7493    241.1491    112.7057   2.5506049602e+01   1.4557513477e+01    0.5495359    0.3702337 -52.94   0.00206867    1.316    0.240
        33 -12.0441    241.6249    107.5526   2.4544081494e+01   1.5236765955e+01     0.275492    0.2219975 -57.05 0.0005013323    1.159    0.137
        34 -12.7340    232.5038    128.9728   2.9399315945e+01   1.3345046619e+01     0.781138    0.5713439  -8.41 0.0003318489    1.855    0.461
        35 -14.0417    237.6534    126.3451   2.8303712080e+01   1.3034860998e+01     3.896219     1.708533  59.72   0.00433376    3.857    0.741
        36  -7.5838      1.3128    174.6378   9.3964508959e+01   3.6568622992e+01     0.153448   0.07881602  54.53 0.0007041191    1.754    0.430
        37  -8.1109      1.4774    181.4843   9.4213238996e+01   3.4839014058e+01    0.1351563    0.1152852  56.47 3.501591e-06    1.014    0.014
        38  -7.7492    207.3790    171.1403   4.0337490478e+01   1.0078624223e+01    0.1643915   0.09922639 -50.33 0.0004815939    1.728    0.421
        39  -8.8571    225.0450    168.8372   3.7228468192e+01   8.2293304325e+00    0.2634561    0.1611661 -52.62  0.001321553    1.854    0.461
        40  -9.0781    192.0004    167.4631   4.2307553409e+01   1.2758576859e+01    0.2587124    0.1635589 -47.48 0.0004602992    1.527    0.345
        41  -8.2476     18.3367    166.9999   8.8208430694e+01   3.7232308759e+01    0.2408262   0.05730151 -54.52 0.0004030533    4.435    0.775
        42 -10.1379    214.1208    162.9340   3.7882296607e+01   1.0522144652e+01    0.4442459    0.2132239 -54.54  0.002106274    2.738    0.635
        43  -7.8056    180.1531    159.1670   4.2984613361e+01   1.5942787650e+01    0.1637433    0.1503845 -76.78 0.0004779148    1.314    0.239
        44  -7.5791    168.2812    159.6431   4.5361397796e+01   1.7675097004e+01    0.1270387    0.1038209 -82.81 0.0007015361    1.664    0.399
        45  -7.6737    192.2355    157.4424   4.0501934346e+01   1.4456861684e+01    0.1551477    0.1187871  52.70  0.000934483    1.606    0.377
        46  -8.6246    203.3461    156.0296   3.8388258501e+01   1.3107078683e+01    0.2468424    0.1687793  48.89  0.001481552    1.787    0.441
        47  -7.7284    204.4623    160.5489   3.8999352290e+01   1.2201128477e+01      0.11866    0.1032806 -32.61 0.0008070775    1.041    0.040
        48  -8.0541    163.4683    150.0644   4.4550383823e+01   2.0280249713e+01    0.2056314    0.1254636 -46.43 0.0009693806    1.567    0.362
        49  -8.1960    198.6819    149.6187   3.8003536382e+01   1.4858179951e+01    0.1531468    0.1168933  52.63 0.0009394725    1.593    0.372
        50  -9.3798    191.3317    148.4606   3.9028049188e+01   1.6157015102e+01    0.3639264    0.2092892  38.37  0.001936163    1.941    0.485
        51  -8.3792    186.6521    145.9805   3.9381718887e+01   1.7315683856e+01    0.1847102    0.1581357 -59.41 0.0003980773    1.247    0.198
        52  -7.9801    169.4840    148.9777   4.3140695548e+01   1.9504335964e+01    0.1828192    0.1138751 -68.52 0.0008096643    2.481    0.597
        53  -7.5879    133.4844    148.5045   5.0931145146e+01   2.5683649694e+01    0.1403577    0.1371075  -3.99 8.608507e-05    1.032    0.031
        54  -9.0511     11.8064    148.3892   8.9011230634e+01   4.2653227268e+01     0.194405    0.1323672  -1.42 0.0008685691    1.708    0.415
        55  -8.1077    182.9963    142.0635   3.9291540693e+01   1.8597212106e+01    0.1980324    0.1530123 -75.48 0.0005934573    1.703    0.413
        56  -8.6042      5.5034    142.4782   9.0805841301e+01   4.4664546038e+01    0.1366201    0.1289883  77.95 5.547391e-05    1.034    0.032
        57  -8.3273    203.5244    140.5363   3.5567208348e+01   1.5674114488e+01    0.1217205    0.1056096 -37.20  0.000602935    1.010    0.010
        58  -8.9020    174.7107    139.8099   4.0376370564e+01   2.0365940154e+01    0.2310465    0.2108621 -63.01 0.0005780866    1.143    0.125
        59  -9.3816    192.3471    135.1959   3.6369391868e+01   1.8316696104e+01    0.3902365    0.2674068 -48.55  0.002200785    1.340    0.254
        60 -10.8344    192.1451    129.4236   3.5292324595e+01   1.9354227303e+01    0.3173685    0.2217657 -48.94 0.0006687092    1.305    0.234
        61  -8.8223    178.6826    131.1481   3.7944307583e+01   2.1294192611e+01    0.2128207    0.1538689 -59.39  0.001173182    1.462    0.316
        62  -7.4640    153.2685    130.3557   4.2764494192e+01   2.5935609250e+01    0.1383417    0.1074926 -16.97 0.0006771637    1.635    0.388
        63 -10.0062      5.3125    129.2483   8.9913068149e+01   4.8208659077e+01    0.2485308    0.2203997  37.72 0.0006077157    1.123    0.109
        64  -7.8393    174.4788    125.0779   3.7485933858e+01   2.3137107262e+01    0.1916422    0.1214655 -43.97 0.0002912638    1.464    0.317
        65  -9.3581    231.7885    175.7711   3.7377506431e+01   6.3985838007e+00    0.2424566    0.1852277 -31.81  0.000836882    1.067    0.062
        66  -8.1965    165.5685    125.9043   3.9336085642e+01   2.4572476333e+01    0.2790374    0.1784119  64.31  0.001334196    2.039    0.510
        67  -7.9446    152.1958    121.3773   4.1095186965e+01   2.7923958636e+01    0.1927136    0.1288658  58.37 0.0005819331    1.669    0.401
        68  -8.4298    170.1889    116.9425   3.6586968602e+01   2.5414006977e+01    0.2697708     0.168053  76.77  0.001176426    2.644    0.622
        69  -7.7701    140.4013    115.8427   4.2472742071e+01   3.1310999009e+01     0.204147    0.1321036 -37.50 0.0009101976    1.703    0.413
        70  -8.1629    152.7044    114.5116   3.9492446034e+01   2.9180398401e+01    0.2938953    0.1604016 -58.43  0.001260483    2.091    0.522
        71  -9.1567      2.8485    112.4913   8.9515296345e+01   5.2822933986e+01    0.2833543    0.1193165 -53.78  0.001154697    2.260    0.558
        72  -7.9814    210.7424    177.5618   4.0861481002e+01   8.6251240118e+00    0.2003846    0.1091776  28.22  0.001123737    2.095    0.523
        73  -8.9944    154.6262    107.1574   3.7457718297e+01   3.0228192187e+01    0.3291611    0.2447589 -54.12  0.001073525    1.295    0.228
        74  -8.3996    169.5166    106.0963   3.4382623297e+01   2.7529861142e+01    0.2073667    0.1235355 -45.74 0.0008028739    1.562    0.360
        75  -8.5402    174.0988    101.8364   3.2649283189e+01   2.7417884850e+01    0.2482659    0.1764577 -48.64  0.001035659    1.290    0.225
        76  -8.2077    156.5777    101.2200   3.5720810657e+01   3.0963078792e+01    0.2715665    0.1258451 -48.00   0.00114175    2.070    0.517
        77  -8.4468    149.5103    101.5112   3.7210705071e+01   3.2333657847e+01    0.2682244    0.1225175 -55.08  0.001038952    2.459    0.593
        78  -8.3587    167.5382    100.3543   3.3472126709e+01   2.8950788486e+01    0.2817366    0.1738126 -70.70  0.001090645    2.185    0.542
        79  -8.9136    159.9526     95.4610   3.3751342263e+01   3.1345452897e+01    0.2730658    0.1779653 -61.33  0.001133313    1.623    0.384
        80  -9.3362    164.6193     94.1615   3.2598261880e+01   3.0639209362e+01    0.2899819    0.2265733 -53.09 0.0007122672    1.190    0.160
        81  -8.0386    154.8106     95.3493   3.4707002974e+01   3.2412204119e+01    0.1983373    0.1666797 -64.29  0.001122393    1.134    0.118
        82  -9.0268    176.5127     92.4116   3.0176779764e+01   2.8592456214e+01    0.3276931    0.2013741 -48.78  0.001709825    1.482    0.325
        83  -9.0600    172.8323     87.6773   2.9716352363e+01   3.0125565854e+01    0.3986077    0.2346877  81.14 0.0007935588    2.461    0.594
        84  -9.7371    169.9922     92.0026   3.1168477146e+01   2.9946359250e+01    0.6576682    0.2359573 -56.84  0.001989806    4.701    0.787
        85  -8.1300    142.4872     90.9909   3.6169769686e+01   3.5792244005e+01    0.2179111    0.1341811 -48.85   0.00102613    1.589    0.371
        86  -9.1263    151.0679     88.2095   3.3739348307e+01   3.4497936126e+01    0.4657306    0.2740701 -75.00  0.001895111    2.651    0.623
        87  -9.1725    169.9893     82.9238   2.9095114518e+01   3.1503609291e+01    0.2741317    0.1878152 -39.48  0.001474739    1.478    0.323
        88 -10.0535    170.5036     70.3617   2.6080318519e+01   3.3459483186e+01    0.4353784     0.222636 -39.18  0.001698447    1.940    0.484
        89  -8.9507    175.7850     80.8213   2.7692479521e+01   3.0682042553e+01    0.2438589    0.1590607 -51.03 0.0007596528    1.391    0.281
        90  -9.7153    175.6634     76.1842   2.6652664246e+01   3.1462623476e+01    0.3431916    0.2896026  52.02  0.001235074    1.381    0.276
        91 -10.9820    174.9879     68.5153   2.4980679117e+01   3.2820179692e+01    0.7491519    0.3043356 -36.26  0.003137075    2.627    0.619
        92  -8.3796    157.4807     81.0151   3.0792360561e+01   3.4424339787e+01    0.2079284    0.1291438 -42.41  0.001027853    1.590    0.371
        93  -9.8714    157.9991     75.1196   2.9265867690e+01   3.5321831841e+01    0.3879204    0.2212916 -41.32  0.001833498    1.741    0.426
        94 -11.6563    250.4076    142.0027   2.9435577907e+01   9.1261017877e+00    0.4147533    0.1469002 -38.16  0.002125999    2.267    0.559
        95  -7.7104    133.3360     75.6833   3.4230810071e+01   4.0610698070e+01    0.1500127    0.1057042 -83.31 0.0007048122    1.697    0.411
        96 -10.5041    146.3312     68.0932   2.9601325244e+01   3.9044791261e+01    0.5371909    0.2588552 -56.64  0.002223908    2.355    0.575
        97  -9.8274    164.3839     69.0448   2.6719905727e+01   3.4960109405e+01    0.3259403    0.1526239 -38.82   0.00120481    2.155    0.536
        98  -8.7971    182.8730     67.3412   2.3609525751e+01   3.1392390195e+01    0.2394395    0.1752941 -38.60    0.0011006    1.412    0.292
        99  -8.3434    192.3298     62.8615   2.1406011989e+01   3.0180072458e+01    0.3182549    0.2232008   6.96  0.001479067    3.483    0.713
       100  -9.5822    171.8352     62.6595   2.4057956352e+01   3.4383834697e+01     0.264184    0.1808351 -30.32  0.001392948    1.770    0.435
       101  -9.3442    163.9016     58.8085   2.4290407050e+01   3.6667719152e+01    0.1880075    0.1783418  76.80 0.0005409777    1.228    0.186
       102 -10.5691    191.6474     54.5442   1.9653031887e+01   3.1510263055e+01    0.5283161    0.3512538 -17.10  0.002733807    2.557    0.609
       103  -8.7668    178.6829     59.1706   2.2294564030e+01   3.3478037102e+01    0.2288809     0.139259 -46.92  0.001243308    1.478    0.323
       104  -9.3141    132.3462     58.8801   2.9841546451e+01   4.3730002228e+01    0.2332512    0.2142996 -70.10 0.0009213741    1.107    0.097
       105 -10.1231    183.8698     53.5696   2.0346968646e+01   3.3221366006e+01    0.4694603    0.1791542 -46.61  0.002112001    2.265    0.558
       106  -8.3058    131.3094     63.6503   3.1391317352e+01   4.3173577336e+01    0.1495976    0.1021246 -77.37 0.0007044415    1.713    0.416
       107  -8.5965    158.4986     54.4743   2.4024763527e+01   3.8506445804e+01    0.1356073    0.1139132 -77.91 6.346706e-05    1.038    0.036
       108  -9.7815    153.0478     52.2680   2.4307749118e+01   4.0051707196e+01    0.3280933    0.1909337 -37.68 0.0009761677    1.813    0.448
       109  -7.4688    143.3190     53.3044   2.6214921994e+01   4.2098787198e+01    0.1283496    0.1063058  34.06 0.0007028242    1.630    0.386
       110  -9.4053    148.5420     51.6848   2.4885403627e+01   4.1155943710e+01    0.2840515    0.1372687 -31.81  0.001209633    2.569    0.611
       111  -9.0788    179.3608     49.0377   1.9844628548e+01   3.4795977225e+01    0.3321819    0.2114783 -32.16  0.001821845    1.810    0.447
       112  -8.6476    161.6066     51.1785   2.2725618365e+01   3.8308651843e+01    0.1731601    0.1248206 -29.34 0.0009443525    1.716    0.417
       113  -7.7118    125.3337     56.6831   3.0685296322e+01   4.5705368022e+01    0.1484671    0.1020342 -80.76 0.0007047749    1.692    0.409
       114  -8.8230    188.3042     48.7789   1.8742575741e+01   3.2986231901e+01    0.2177678    0.1559679 -11.26  0.001165131    2.459    0.593
       115  -9.0318    150.4368     45.2697   2.2868311759e+01   4.1666150176e+01    0.2302577    0.1304091 -33.56 0.0008351092    2.013    0.503
       116  -8.5732    163.8529     44.2366   2.0661785236e+01   3.8803487522e+01    0.2229556    0.1766878   2.27   0.00123141    2.146    0.534
       117  -8.3616    244.2765    200.9797   3.9489936444e+01   1.5354607575e+00    0.1496147    0.1483998  14.69  0.001300197    1.635    0.388
       118  -8.3232    157.9863     61.4781   2.5878525234e+01   3.7544453040e+01    0.1965861    0.1247671  65.15  0.001016219    1.543    0.352
       119  -8.8671    113.4799     43.0065   2.9142504470e+01   5.0627145563e+01    0.2004602    0.1376951 -40.02  0.001032185    1.594    0.373
       120 -12.8397    226.3137     92.6828   2.3516010460e+01   1.9712952894e+01    0.7470563    0.3856561 -37.95 0.0003026564    1.712    0.416
       121  -8.3666    173.2805     40.3952   1.8519086212e+01   3.7271693394e+01     0.247185    0.1595754 -22.86  0.001292686    2.222    0.550
       122  -8.5280    118.4341     41.5003   2.7579479274e+01   4.9679519235e+01    0.1391349    0.1211293  85.54 9.051085e-05    1.019    0.019
       123  -8.7191    209.1941     34.6329   1.3667895741e+01   3.0721235529e+01    0.2730537    0.2141864 -13.03   0.00176714    2.043    0.511
       124 -13.0085    249.3029    109.8721   2.4131440205e+01   1.3840927142e+01    0.9621642    0.2797216 -37.61  0.001470676    2.987    0.665
       125  -7.9138    173.5165     33.5108   1.6823813317e+01   3.8121012950e+01    0.1256604    0.1041487 -76.08 2.463717e-05    1.035    0.034
       126  -8.6494    149.9427     31.8476   1.9318972516e+01   4.3604191019e+01    0.1896379    0.1640011  67.04 0.0004884339    1.258    0.205
       127  -9.9124    236.2280     27.5866   1.0363053964e+01   2.6694791867e+01     0.329562    0.1752579 -54.60  0.002170425    1.393    0.282
       128  -9.9863    218.6146    198.7811   4.2971973047e+01   4.4629139082e+00    0.1971869    0.1708613 -17.58 0.0002482985    1.153    0.133
       129  -8.4881    197.7357    203.8667   4.7225853147e+01   6.0251876128e+00     0.215772    0.1755928 -78.46  0.001351519    2.236    0.553
       130 -12.2339    230.1970    119.0748   2.7924819708e+01   1.5168013352e+01    0.6360843     0.424326  53.87 0.0003942931    1.860    0.462
