#   1 NUMBER                 Running object number                                     
#   2 MAG_AUTO               Kron-like elliptical aperture magnitude                    [mag]
#   3 X_IMAGE                Object position along x                                    [pixel]
#   4 Y_IMAGE                Object position along y                                    [pixel]
#   5 X_WORLD                Barycenter position along world x axis                     [deg]
#   6 Y_WORLD                Barycenter position along world y axis                     [deg]
#   7 A_WORLD                Profile RMS along major axis (world units)                 [deg]
#   8 B_WORLD                Profile RMS along minor axis (world units)                 [deg]
#   9 THETA_WORLD            Position angle (CCW/world-x)                               [deg]
#  10 FWHM_WORLD             FWHM assuming a gaussian core                              [deg]
#  11 ELONGATION             A_IMAGE/B_IMAGE                                           
#  12 ELLIPTICITY            1 - B_IMAGE/A_IMAGE                                       
         1 -14.3441     68.8595    144.3763   9.6526178644e+01   3.7469142289e+01     4.354512     2.264591  73.52  0.003204653    4.727    0.788
         2 -13.4790    203.2990     42.6131   3.9673129272e+01   2.9238972142e+01     1.269642     1.139351  -8.75  0.004718518    1.523    0.344
         3 -13.4361    214.9187     32.0021   3.6061229936e+01   2.8061806777e+01    0.8415439    0.7632954  42.82  0.002857724    1.504    0.335
         4 -10.9887      2.1700     24.0664   9.1877157516e+01   7.0811746503e+01    0.4553605    0.1341308 -48.31  0.001674358    2.741    0.635
         5 -11.0211      2.0000     11.9681   8.6933582262e+01   7.2729304261e+01     0.436702    0.1391528 -49.09   0.00202053    3.338    0.700
         6 -11.8606    244.1510      8.6895   2.9059578477e+01   2.4804448148e+01    0.5893131    0.3688504  52.54  0.003665264    2.273    0.560
         7 -12.4268    240.7083      3.3728   2.8296038279e+01   2.6048683325e+01    0.6952054    0.5280222  57.65  0.004948469    1.753    0.430
         8  -9.7134     55.2358      5.4060   5.7925589468e+01   6.6405425040e+01    0.1645824    0.1047491  55.58 0.0009549138    1.734    0.423
         9  -9.2197    149.5486    191.4366   8.4054983767e+01   1.2459549704e+01     0.410671    0.2682162  76.42    0.0015847    3.015    0.668
        10 -10.5064    139.7952    249.0595   9.5314524798e+01   2.9034254809e+00    0.3165599    0.2890249 -29.17  0.002118708    1.254    0.202
        11  -8.5753    129.3107    250.3215   9.7677334937e+01   4.2557722880e+00    0.1246076   0.09453744   0.40 0.0003553825    1.649    0.394
        12 -15.5135     41.8789    192.2310   1.1069101458e+02   2.9044743742e+01     6.246316     2.658096  59.83   0.01611273    2.862    0.651
        13 -10.1781     80.9901    182.0617   9.9466373653e+01   2.6265906828e+01     0.345542    0.3146155 -82.49  0.001117093    1.068    0.063
        14  -9.6099     99.3503    180.6792   9.4479226680e+01   2.3684496358e+01    0.2571312    0.2503048   6.02 0.0006386038    1.119    0.107
        15  -9.2241     86.5346    176.5257   9.7143004385e+01   2.6759311976e+01    0.2225467    0.2151236  72.07 0.0001253922    1.038    0.036
        16  -9.8713     89.7869    174.1873   9.5895497647e+01   2.6814290776e+01    0.2836294    0.2246134  27.33 0.0008513079    1.358    0.264
        17 -12.3304     79.1104    158.7203   9.6153869872e+01   3.2326559295e+01     1.136702    0.5756028  57.10 0.0004745755    2.653    0.623
        18 -12.7700     66.8839    154.1634   9.8843519133e+01   3.5278976478e+01    0.6087675      0.44197 -49.16 0.0008946963    1.383    0.277
        19 -10.7645    194.2715    197.2130   7.5435173563e+01   3.5789421542e+00     1.164907    0.5943797 -62.92  0.003411043    6.130    0.837
        20 -11.4846     65.4512    172.0360   1.0207938214e+02   3.0989598823e+01    0.5045605     0.316504 -36.61   0.00227608    2.078    0.519
        21 -11.5119     70.2246    167.2047   1.0004277387e+02   3.1522313581e+01    0.5918613    0.3207377 -53.28 0.0008348428    1.807    0.447
        22 -15.1584      5.0761    157.4607   1.1657338784e+02   4.1041303549e+01     7.597534    0.9441015 -73.19    0.0204904    5.952    0.832
        23  -9.8528    186.1874    174.3764   7.2645966384e+01   9.3124515916e+00    0.3583329     0.304289 -67.88   0.00170781    1.472    0.320
        24 -14.7707      9.4013    207.6111   1.1945751082e+02   2.8866246163e+01     1.298416      1.00915 -40.92  0.006200944    1.779    0.438
        25 -10.0857    111.0050    172.5181   9.0017567490e+01   2.3639556209e+01    0.2365031     0.145644  37.30  0.001035226    1.599    0.374
        26 -11.0583    240.7707    169.4353   6.1539899337e+01   1.0326198570e+00    0.2526268    0.2191859 -50.06  0.001003921    1.327    0.246
        27  -9.0999     84.4604    173.4668   9.7195244158e+01   2.7833488851e+01    0.1442057    0.1390123  87.32 0.0008081959    1.032    0.031
        28  -8.5584    110.6525    167.3520   8.9141759207e+01   2.4935923809e+01     0.230653    0.1744726  75.19 0.0009492848    1.632    0.387
        29  -8.5442    102.8355    164.8501   9.0745764032e+01   2.6914215779e+01    0.2032367    0.1711651  73.35  0.001023785    1.292    0.226
        30 -10.4872     35.2814    161.3165   1.0883877461e+02   3.7374142807e+01     0.366318    0.2143459  50.00  0.001413908    1.775    0.437
        31 -10.9063     31.9603    155.3470   1.0900432910e+02   3.9215781314e+01    0.4261577    0.3171192 -56.48  0.002399933    1.287    0.223
        32 -10.4750    133.6528    144.3878   7.8347874509e+01   2.5991012497e+01      1.11482    0.2934294 -54.56  0.002583595    5.701    0.825
        33  -8.3609    112.1870    150.3750   8.5328776315e+01   2.8741741354e+01    0.2200241    0.1393912  48.65 0.0007397491    1.645    0.392
        34  -8.9635    174.9720    149.1801   6.9691419455e+01   1.6564615712e+01    0.2401467    0.1778194  78.47  0.001070529    1.992    0.498
        35 -10.9548     53.9940    147.5181   1.0149179116e+02   3.8688938401e+01    0.6270566    0.3152182 -56.04  0.002732399    1.810    0.448
        36 -11.6682     86.5036    152.2499   9.2870239667e+01   3.2774577237e+01    0.6602514    0.4592612 -20.23  0.002097058    2.062    0.515
        37  -9.2823     48.1931    145.0026   1.0280553251e+02   4.0039630777e+01    0.2456621    0.2077716  27.59  0.001383116    1.308    0.235
        38 -10.3016    100.9318    138.4896   8.5907142605e+01   3.3689306247e+01    0.5496272     0.365075 -19.67  0.002204091    2.284    0.562
        39 -11.6364     88.1756    137.7502   8.9460677663e+01   3.6101931691e+01    0.3057523    0.2708689 -40.40 0.0003867074    1.148    0.129
        40  -9.9064     23.7412    136.6151   1.0890990906e+02   4.4695474990e+01    0.2301843    0.1488425  84.15 0.0005325748    1.700    0.412
        41  -9.9576    105.8373    130.9894   8.2804621355e+01   3.4590071433e+01    0.3991952    0.3320793 -56.67  0.001225139    1.202    0.168
        42  -9.5742    110.6856    129.1933   8.1005234962e+01   3.4089914332e+01    0.3295568    0.2593262  -0.11  0.001465249    1.644    0.392
        43 -10.6566     43.6871    130.3057   1.0172431816e+02   4.4273051785e+01    0.4462425    0.2499335 -74.41  0.001990571    1.897    0.473
        44 -10.5305    134.8924    128.4067   7.4294964910e+01   2.9375152317e+01    0.4608676    0.2989933 -53.02  0.001991999    1.589    0.371
        45  -9.5786     67.4021    124.7710   9.3075687864e+01   4.2586280850e+01    0.3272316    0.1596033 -48.57  0.001122628    1.944    0.486
        46  -9.6381     22.7412    129.3958   1.0819186248e+02   4.6582711773e+01    0.1621103    0.1280664  -5.68 0.0004630653    1.541    0.351
        47 -10.2175     97.8643    124.9227   8.3701406078e+01   3.7520285748e+01    0.3291176    0.2639092  13.48  0.001586471    1.464    0.317
        48 -10.2931     46.2503    124.7092   9.9886287294e+01   4.5378152038e+01    0.2748135    0.2136358 -55.82  0.000726973    1.165    0.141
        49  -8.6510    116.5161    123.9708   7.8113438342e+01   3.4159736128e+01    0.2187868    0.1322105 -26.55 0.0007972571    2.386    0.581
        50 -10.3295     24.3071    119.9740   1.0623996494e+02   4.8781095710e+01     0.353939     0.158366  38.54  0.001571288    2.459    0.593
        51  -9.0465    107.1379    118.2561   7.9354565035e+01   3.7334136239e+01    0.2164858     0.201477   2.36 0.0003729874    1.142    0.124
        52  -8.5708     81.9850    116.5203   8.6559453406e+01   4.2311840243e+01    0.2180815    0.1485809  34.88 0.0003907112    1.518    0.341
        53 -10.0416    231.3167    113.6515   5.1662523355e+01   1.2251836357e+01    0.2543821    0.2489236 -47.67 0.0007959099    1.137    0.120
        54 -10.0130     39.7293    113.1503   9.9833213503e+01   4.8962257692e+01    0.2106254    0.1870247  49.64 0.0003605015    1.260    0.206
        55  -9.2296    120.6768    111.3248   7.3761399039e+01   3.6161191321e+01    0.1584832    0.1242709  87.67  0.000704786    1.686    0.407
        56 -10.6666     33.2336    109.3596   1.0133051480e+02   5.0553643687e+01     0.410005    0.2241446 -73.01  0.001268284    1.978    0.494
        57  -9.0140    114.7369    109.2603   7.4868152591e+01   3.7847314772e+01    0.2556315    0.1241559 -36.17 0.0009038812    2.442    0.591
        58  -9.5085    248.9872    106.4890   4.7769432065e+01   1.0244276204e+01    0.1688625    0.1065188 -86.97 0.0008103972    2.548    0.608
        59  -9.4254    205.3287    110.2518   5.4993950979e+01   1.7969677203e+01    0.2817961    0.2003208  47.83  0.001086308    1.542    0.351
        60  -8.8511     44.8455    104.9466   9.6339688045e+01   5.0371144903e+01    0.2552087    0.1652955  54.82  0.000871842    2.006    0.501
        61 -10.2929     38.7913    102.0098   9.7852978088e+01   5.1745679469e+01    0.4651082    0.2118181  48.79  0.001245576    3.154    0.683
        62  -9.9383    240.8088    102.4072   4.7996043132e+01   1.2383112594e+01    0.1663788    0.1217187  43.26 0.0009496102    1.705    0.414
        63  -9.5675    120.8662     98.1130   7.0157393252e+01   3.8951570292e+01    0.2418164    0.2137867  89.27  0.001232404    1.296    0.228
        64  -9.4896     33.1127     96.8960   9.8806246687e+01   5.3536069453e+01    0.2008263    0.1782211  89.39  0.000628939    1.301    0.231
        65  -9.4024     52.5222     91.4812   9.0343683295e+01   5.2556105336e+01    0.1409152    0.1257151 -30.61 -1.72214e-05    1.033    0.032
        66 -13.5535     15.9737    216.1969   1.1863263275e+02   2.6326190028e+01    0.8706293    0.5069214  26.68  0.002729295    1.996    0.499
        67  -8.8701    152.0184     84.0012   5.8637126905e+01   3.4677697597e+01    0.2362833    0.1764981 -76.44 0.0005542258    1.660    0.398
        68  -9.8430     72.5121     83.3173   8.0878602261e+01   5.1377728044e+01    0.4482276    0.2635115  57.75  0.001819365    2.649    0.622
        69  -8.6358    159.7776     83.4183   5.6844861482e+01   3.2976705080e+01    0.2062306    0.1353924  44.76 0.0006304289    1.599    0.374
        70  -9.0091     93.3549     67.8761   6.9132254358e+01   5.0582316541e+01    0.2371778    0.1932196  55.44 0.0008553772    1.340    0.254
        71  -8.7068     50.9923     63.7958   8.2885203290e+01   5.8584903438e+01    0.1778964    0.1584813  -0.38            0    1.058    0.055
        72 -10.7337      1.8768     62.5835   1.0365545870e+02   6.3538415893e+01    0.3759352    0.1278709 -62.63  0.001377951    2.544    0.607
        73 -12.8111    193.5201     49.6355   4.2541899337e+01   3.0483939492e+01    0.9206641    0.7641614  36.68 0.0008404923    1.565    0.361
        74  -9.9642    111.1344    203.6866   9.5238296771e+01   1.6428766522e+01    0.2172325    0.1917377  85.37 0.0004327656    1.214    0.177
        75 -10.4080    149.3471    228.9156   9.0393899213e+01   5.0412540765e+00    0.2758095    0.1841747  27.81  0.001044104    1.394    0.283
        76 -10.3574     13.3024     60.0875   9.7915459329e+01   6.3328026527e+01    0.2533651    0.1927412 -44.81 0.0004937759    1.123    0.110
        77  -8.7879     74.0095     55.9892   7.1546277564e+01   5.6336726219e+01    0.1656029    0.1484492  13.26  0.000311909    1.021    0.021
        78  -8.8281     59.9590     48.4551   7.4028179677e+01   5.9996222951e+01    0.1758752    0.1131202  58.61  0.000808731    2.539    0.606
        79  -8.4026     45.4513     40.9795   7.7112450127e+01   6.3417915021e+01     0.151278    0.1134439 -65.71 0.0004456204    2.305    0.566
        80  -9.3311    187.7458     31.4099   3.8895280918e+01   3.4196776995e+01    0.1768137    0.1081064  61.17 0.0005343259    1.563    0.360
        81 -16.8941     13.4204    242.4288   1.2074183254e+02   2.1058543147e+01     6.182109     2.159223  25.40   0.02629504    3.979    0.749
        82 -10.6924    119.8500    213.1347   9.4617091590e+01   1.2956431430e+01    0.3858111    0.2364911 -62.88  0.001419107    1.892    0.471
        83  -8.6463    198.3665     23.7047   3.5899023806e+01   3.2700834109e+01    0.1532288    0.1190439 -27.80 0.0007088035    1.584    0.369
        84  -8.6585    189.5269     14.9889   3.4801978684e+01   3.5666773518e+01    0.1696094    0.1176088 -38.25 0.0005304894    1.542    0.351
        85  -9.9007    122.5673    199.1953   9.1781100462e+01   1.5507434515e+01    0.3341983     0.241719 -74.55  0.001486463    1.708    0.415
        86  -8.4819     88.2506    209.6018   1.0155705202e+02   1.8718531195e+01    0.1430628   0.09807767  74.14 0.0005109857    1.692    0.409
        87  -9.5895    203.9833    199.7606   7.3981444260e+01   1.5554685256e+00    0.1745623    0.1072536  33.96 0.0008843464    1.620    0.383
