#   1 NUMBER                 Running object number                                     
#   2 MAG_AUTO               Kron-like elliptical aperture magnitude                    [mag]
#   3 X_IMAGE                Object position along x                                    [pixel]
#   4 Y_IMAGE                Object position along y                                    [pixel]
#   5 X_WORLD                Barycenter position along world x axis                     [deg]
#   6 Y_WORLD                Barycenter position along world y axis                     [deg]
#   7 A_WORLD                Profile RMS along major axis (world units)                 [deg]
#   8 B_WORLD                Profile RMS along minor axis (world units)                 [deg]
#   9 THETA_WORLD            Position angle (CCW/world-x)                               [deg]
#  10 FWHM_WORLD             FWHM assuming a gaussian core                              [deg]
#  11 ELONGATION             A_IMAGE/B_IMAGE                                           
#  12 ELLIPTICITY            1 - B_IMAGE/A_IMAGE                                       
         1  -8.9129    133.2635     15.7913   5.1973664463e+01   4.9831963788e+01    0.2945744    0.2243234 -38.14 0.0005521867    1.453    0.312
         2  -8.5273    212.0534      7.9316   3.8755992150e+01   3.0828585824e+01    0.2053201    0.1480868  41.29  0.001132445    1.727    0.421
         3  -7.3376    125.1292      1.7766   4.8405063321e+01   5.3092867148e+01    0.1829829    0.1335456  34.72 0.0003215071    1.312    0.238
         4  -8.1349    238.8943      1.3615   3.5019985771e+01   2.5282015814e+01    0.1707048    0.1044767  79.82 0.0003221862    1.521    0.342
         5  -8.4003    114.8955    233.4731   1.0982990474e+02   1.0954163950e+01    0.2126539    0.1574507  84.16 0.0007220675    1.560    0.359
         6  -8.1353     71.9609    249.9959   1.1943134020e+02   1.4249944621e+01    0.1829316    0.1016234  64.12 0.0006864019    1.607    0.378
         7 -16.0935     16.9694    246.1421   1.2849042360e+02   2.1407929494e+01     1.959271     1.504511  63.47  0.006704479    1.196    0.164
         8 -11.3254     56.9810    238.8625   1.2125366903e+02   1.8152123373e+01    0.3865317    0.2590651 -89.69 0.0005022637    1.406    0.289
         9  -8.6558    212.8781    192.5870   8.3615640730e+01   1.1299333352e+00     0.241762    0.1838203 -32.35 0.0004149026    1.362    0.266
        10  -9.0149    211.0405    201.9697   8.5749464689e+01  -1.5208434375e-02    0.2684091    0.2306946   9.10 0.0003451157    1.032    0.031
        11  -9.1175    212.1415    197.1629   8.4634688136e+01   5.3911999649e-01    0.2327725     0.201125  13.52 0.0002693902    1.042    0.040
        12  -7.4226    135.3736    200.9040   1.0120395221e+02   1.3616296597e+01    0.1727663    0.1160908 -87.38 0.0003078725    2.291    0.564
        13  -8.9564     59.1784    198.5708   1.1737748674e+02   2.5846337871e+01    0.2341884    0.1646626 -75.98 0.0007379518    1.339    0.253
        14 -10.2816    242.5436    200.1191   7.9576648563e+01  -4.8979441326e+00    0.2334528    0.1957188  15.50 0.0003508217    1.157    0.135
        15  -9.0910    223.0601    207.3032   8.4460586777e+01  -2.8088787829e+00    0.2808666    0.2522653  80.82  0.001589152    1.891    0.471
        16  -7.6683     67.7761    207.1632   1.1644800807e+02   2.2915227081e+01    0.1474703    0.1398468 -86.62 0.0003706174    1.285    0.222
        17  -7.7318    238.9945    188.2138   7.7897914502e+01  -2.6352781179e+00    0.2246062    0.1665448 -20.34 0.0005582192    1.227    0.185
        18 -10.1035    180.3538    188.1740   8.9323997420e+01   7.7925121869e+00    0.2532257    0.2398328  16.72 0.0003189913    1.077    0.071
        19  -8.3800     70.5180    189.0047   1.1389535373e+02   2.6420501903e+01    0.3393784    0.1751366  77.14  0.001456433    2.637    0.621
        20  -9.4170     65.5655    183.1242   1.1431419150e+02   2.8395559049e+01    0.2893929    0.2062967  87.45 0.0004270183    1.329    0.248
        21  -8.5345    132.6837    187.9511   9.9705721664e+01   1.6684775623e+01    0.2432818    0.1841661  47.30 0.0002245719    1.223    0.182
        22  -7.0567     28.4723    185.4010   1.2263580584e+02   3.2231143722e+01    0.1194654    0.0936501  79.65 4.958929e-05    1.020    0.019
        23  -8.8860    201.4185    172.2661   8.1793165847e+01   6.6358399667e+00    0.2416334    0.2226498  10.19 0.0002467732    1.050    0.048
        24  -6.9426    130.2772    173.3481   9.7711987903e+01   2.0203976785e+01     0.142738    0.1146863 -14.10 0.0004675719    1.636    0.389
        25 -10.0435     58.0195    203.7842   1.1812388713e+02   2.4891698529e+01    0.5335148    0.3773127   1.85  0.002786397    2.872    0.652
        26  -8.0218    187.1698    170.4609   8.4356241975e+01   9.7323057795e+00    0.2657044    0.2301362 -81.66 0.0007245529    1.576    0.366
        27  -7.4238     92.7393    169.8070   1.0610949470e+02   2.7479396739e+01    0.1942901     0.149955  76.14 0.0006010167    1.341    0.254
        28  -8.1780     84.0867    167.7276   1.0789543706e+02   2.9296971415e+01    0.2540893    0.1632535 -39.26 0.0007886337    2.048    0.512
        29  -8.6487     66.0729    167.2957   1.1221145498e+02   3.1955154662e+01    0.2273448    0.1710607 -80.90 0.0003027619    1.221    0.181
        30  -7.2187    110.7639    167.4291   1.0132838983e+02   2.5026418126e+01    0.1770872    0.1381842  28.03 0.0002792772    1.437    0.304
        31  -7.9816    129.0501    164.9300   9.6434527577e+01   2.2274171092e+01    0.2111576    0.2067691  66.47 0.0003183306    1.027    0.026
        32  -7.6597    134.1338    160.9235   9.4425210566e+01   2.2192833059e+01    0.2180926    0.1947111  87.30 0.0003479068    1.216    0.178
        33  -8.3399      5.4423    160.8575   1.2567423650e+02   3.9743710061e+01    0.1579483    0.1366667  32.92 0.0008630963    1.498    0.333
        34  -7.1436     90.9630    159.0182   1.0479828262e+02   3.0275255314e+01    0.1681972    0.1552133  78.29 0.0003728296    1.025    0.025
        35  -8.2659     11.1784    159.1687   1.2426042208e+02   3.9677049952e+01     0.174676    0.1336426 -74.45 0.0005245917    1.176    0.149
        36  -8.1637     48.5329    156.0280   1.1504201568e+02   3.6791895928e+01    0.2353098    0.1592167  57.25 0.0005457421    1.482    0.325
        37  -8.9499     79.6225    153.9724   1.0685434531e+02   3.3210983136e+01    0.3251881    0.2271746 -51.11  0.001247287    1.461    0.316
        38  -7.7322    160.8296    152.8886   8.6400154038e+01   1.8564269035e+01    0.2202625    0.2017886  -3.71 0.0003758369    1.137    0.121
        39  -6.8202    223.2686    152.3274   7.3223447801e+01   5.8986542254e+00     0.145169    0.1041684  -2.22 0.0002642046    1.576    0.366
        40  -7.4989     99.0434    150.2885   1.0117586010e+02   3.1022339695e+01    0.3083791    0.1822496 -85.42   0.00117396    2.698    0.629
        41  -7.4855    220.9634    147.9887   7.2678067124e+01   7.0982555548e+00    0.1789583    0.1560643 -18.55 0.0004929669    1.050    0.048
        42  -7.7453    159.0262    144.4800   8.4926273651e+01   2.0718641566e+01    0.2337941    0.1993733 -40.67 0.0002456273    1.182    0.154
        43  -8.7117     69.0700    143.9317   1.0797412422e+02   3.7133321414e+01     0.365844    0.2475619  66.44  0.001828828    1.665    0.399
        44  -7.8015     96.1292    138.1664   9.9591403125e+01   3.4412435542e+01    0.2105806    0.1929406 -33.07 0.0003793251    1.200    0.167
        45  -7.2195     24.9993    126.7138   1.1743281727e+02   4.6164031424e+01    0.1362169    0.1150935  31.96 0.0005407642    1.437    0.304
        46  -8.7868    147.5530    120.7047   8.1921680167e+01   2.8348330482e+01    0.2754076    0.2651815   6.45 0.0005486732    1.056    0.053
        47  -6.7325    234.3021    120.6824   6.3978780605e+01   9.1335905329e+00    0.1418093    0.1090922 -61.64 0.0001943422    1.622    0.383
        48  -9.6984    204.0629    118.1786   6.8787691740e+01   1.6052271225e+01    0.2663634     0.252256  -3.46 0.0002577967    1.044    0.042
        49  -7.4626    248.2880    118.6523   6.1268619348e+01   6.6921995916e+00    0.1402363    0.1012113 -56.64  0.000702362    1.658    0.397
        50  -8.3080    208.9701    114.9318   6.7043709931e+01   1.5556164056e+01    0.2261103    0.2138545 -23.13 0.0003946482    1.010    0.010
        51  -7.3932    110.0967    115.5449   9.0581033644e+01   3.7296195702e+01    0.2150214    0.1526837  40.52 0.0003114982    1.462    0.316
        52  -7.1687    207.0684    108.4409   6.5758069361e+01   1.7167039607e+01    0.2191172    0.1233978  29.47 0.0008075038    2.556    0.609
        53  -7.2814    110.3970    106.7774   8.8230997316e+01   3.9267059595e+01    0.2239655    0.1388945 -37.58 0.0005893723    1.678    0.404
        54  -6.7665    231.7850    103.0066   6.0148168073e+01   1.2654693559e+01     0.191495    0.1083095 -35.27            0    1.601    0.375
        55  -8.6745     92.7578     95.6341   9.0490849240e+01   4.5085645835e+01    0.3358975    0.2553011 -86.45 0.0001315854    1.856    0.461
        56  -7.2043    150.5061     94.5147   7.4029443511e+01   3.3209606348e+01     0.159152     0.154185  -3.68 6.016139e-05    1.032    0.031
        57  -6.9388      2.5249     83.5204   1.1813971100e+02   5.7806355200e+01    0.1206982   0.09354933 -67.56 3.500762e-05    1.053    0.050
        58  -7.8387    125.1940     81.4249   7.6665525408e+01   4.1668663749e+01    0.2120335    0.1506618  59.40 0.0006603768    1.634    0.388
        59 -10.1951    109.0572     75.2404   7.9339580261e+01   4.6366287653e+01    0.2684922     0.237325 -24.78 0.0002765995    1.092    0.084
        60  -7.4783    120.5354     73.4962   7.5438571811e+01   4.4262994833e+01    0.1529809    0.1471325  -9.35 7.655896e-05    1.015    0.014
        61  -9.1326    205.2355     70.5630   5.6107219706e+01   2.4164579829e+01     0.402796    0.2599569 -31.73 0.0009080585    1.536    0.349
        62  -7.3059    179.8495     61.0684   5.7809028537e+01   3.2014419722e+01    0.1972708     0.173149  23.07 0.0002477445    1.275    0.215
        63  -7.5178    154.8573     48.5179   5.8791389878e+01   4.0302404078e+01    0.2141223    0.1438991  57.58  0.000434377    1.438    0.305
        64  -8.6558    195.4042     32.1128   4.7019357537e+01   3.2177908530e+01     0.293256    0.1958205  41.89  0.001097677    1.732    0.423
        65  -7.4593    135.0400     27.7592   5.5898389485e+01   4.8064970580e+01    0.1964345    0.1657255  51.44 0.0002800911    1.097    0.089
        66  -7.1142    215.2419     26.6464   4.3145884597e+01   2.7949305104e+01    0.1420573    0.0885722 -57.44 0.0006924123    1.583    0.368
        67  -7.4048    173.5714     19.5274   4.6417579837e+01   3.9222126154e+01    0.1389512    0.1273584  62.50 0.0001103681    1.064    0.060
        68  -8.3671    165.9802     18.7266   4.7291372662e+01   4.1254251246e+01    0.2038264    0.1968731 -22.60 0.0003089247    1.139    0.122
        69 -10.1361    111.9335    247.9819   1.1198147721e+02   8.9421910882e+00    0.2024683    0.1811038  67.08 0.0003670924    1.168    0.144
        70  -8.4674    224.4913    224.9563   8.7329038701e+01  -5.4627332913e+00    0.2196489    0.1516099  27.56 0.0003510761    1.219    0.179
        71  -7.4292    237.0000    236.9211   8.7104783141e+01  -8.8007412971e+00    0.1677959   0.06210179 -33.44 0.0006453399    2.870    0.652
