#   1 NUMBER                 Running object number                                     
#   2 MAG_AUTO               Kron-like elliptical aperture magnitude                    [mag]
#   3 X_IMAGE                Object position along x                                    [pixel]
#   4 Y_IMAGE                Object position along y                                    [pixel]
#   5 X_WORLD                Barycenter position along world x axis                     [deg]
#   6 Y_WORLD                Barycenter position along world y axis                     [deg]
#   7 A_WORLD                Profile RMS along major axis (world units)                 [deg]
#   8 B_WORLD                Profile RMS along minor axis (world units)                 [deg]
#   9 THETA_WORLD            Position angle (CCW/world-x)                               [deg]
#  10 FWHM_WORLD             FWHM assuming a gaussian core                              [deg]
#  11 ELONGATION             A_IMAGE/B_IMAGE                                           
#  12 ELLIPTICITY            1 - B_IMAGE/A_IMAGE                                       
         1 -15.1040    249.2403     54.7247   5.9783423153e+01   1.6147210224e+01     1.637953    0.2616618 -26.20  0.004222127    5.408    0.815
         2 -13.7657    249.8720     13.7157   4.8990286454e+01   2.0534262348e+01    0.6914591    0.1876046 -19.67  0.002202281    4.022    0.751
         3 -14.3521    240.5113      9.7147   4.8737343449e+01   2.3163119978e+01    0.5936325    0.3072392 -52.20  0.002683947    1.990    0.498
         4 -13.7005    149.7340      3.5737   5.7654295567e+01   4.7483110930e+01    0.6635683    0.2730785  43.78  0.002496057    2.415    0.586
         5 -12.3245     17.9851     10.4741   1.0423524583e+02   7.1240847829e+01    0.2359663    0.1190711 -40.06 0.0009884343    1.571    0.364
         6 -13.1375    164.9760      2.0000   5.4723254412e+01   4.3591003413e+01    0.3201324    0.1933005  72.98  0.001449534    1.668    0.400
         7 -11.5388     21.4533    238.2442   1.3316791349e+02   2.6390339609e+01    0.1561469   0.06428751 -68.95  0.001082584    2.701    0.630
         8 -16.9825    244.3007    220.8667   9.5784160825e+01  -2.2370736969e+00     3.925147     1.023652 -27.69   0.01714252    4.696    0.787
         9 -14.8701    166.7819    215.4781   1.0758675300e+02   1.0561818237e+01    0.9343243    0.6349491  -5.53  0.005484528    2.532    0.605
        10 -20.8618     97.6899    198.2608   1.1785405610e+02   2.3737319672e+01     7.394068     4.897373  51.59   0.04954022    1.224    0.183
        11 -12.6054    165.9796    155.9450   9.8468388833e+01   1.9449715916e+01    0.3984222    0.3105347  13.85  0.002033987    1.539    0.350
        12 -11.2340    145.5000    250.5569   1.1498911034e+02   9.4753512544e+00    0.1049549   0.07392479  46.93 0.0007387403    1.011    0.010
        13 -11.0217    202.2272    228.2393   1.0341341379e+02   3.4677824713e+00   0.09877791   0.06637023  24.26            0    1.370    0.270
        14 -11.6287    181.9270    148.3608   9.3874157965e+01   1.7558442721e+01    0.1982335    0.1876584 -57.98 0.0003666852    1.236    0.191
        15 -11.6287    159.0753    147.4095   9.8241619652e+01   2.2217184733e+01    0.3247051     0.183527  36.71  0.001158402    1.796    0.443
        16 -10.9622    171.7722    226.4677   1.0813609530e+02   8.4084068217e+00    0.1269317   0.08431834  36.76 0.0008534975    1.216    0.178
        17 -10.8634    182.2540    225.6462   1.0630774703e+02   6.8668887683e+00     0.135582   0.08098537  38.33 0.0002078125    1.289    0.224
        18 -12.0641    176.0755    223.5457   1.0705825858e+02   8.0841984211e+00      0.32464    0.1889574  62.50   0.00179982    2.451    0.592
        19 -11.7376     13.2548    220.8730   1.3373378283e+02   2.9806227578e+01    0.2721078    0.1260573  37.40  0.001930266    2.144    0.534
        20 -11.7589    191.6207    218.1944   1.0377386004e+02   6.2422690368e+00    0.2615261    0.1139613  39.31   0.00125831    1.804    0.446
        21 -13.2153    138.3937    140.4420   1.0126499627e+02   2.7423572920e+01    0.3317848    0.2560771 -74.75  0.001128692    1.545    0.353
        22 -13.3122    183.9114    214.8494   1.0460025678e+02   7.8785844394e+00    0.2333597    0.1838369  11.47  0.001644633    1.426    0.299
        23 -15.8857    161.9689    178.2512   1.0309768221e+02   1.6635667071e+01     1.134744     1.009376 -46.61  0.007604663    1.319    0.242
        24 -11.8801    205.4983    212.4710   1.0066962050e+02   4.6553522127e+00    0.1944873    0.1640988  50.55 0.0006958944    1.369    0.270
        25 -12.1130     36.2670    250.0490   1.3149857160e+02   2.3211404744e+01    0.1531987    0.1099318  37.30   0.00132786    1.769    0.435
        26 -11.7904    188.4645    210.4015   1.0321080522e+02   7.6747151664e+00    0.2736102    0.1314918  30.41  0.001382477    2.225    0.551
        27 -13.9041     27.0630    131.1837   1.2564423235e+02   4.5021030525e+01    0.4747743    0.1762617 -54.30  0.002293585    2.933    0.659
        28 -12.6672     18.4996    130.8160   1.2758648771e+02   4.5828805995e+01      0.17805    0.1430054  57.25 0.0006256359    1.281    0.219
        29 -10.6228     10.7999    209.7674   1.3368631626e+02   3.1806749766e+01    0.1217254   0.09019394  74.03 0.0004062865    1.142    0.125
        30 -10.8686      3.9562    208.8170   1.3473279539e+02   3.2563238189e+01    0.1260264    0.0675418  61.74 0.0004961447    1.303    0.233
        31 -11.1746     18.5609    207.2893   1.3233368996e+02   3.1501442534e+01    0.1059384   0.07435305  89.77 0.0002744343    1.283    0.221
        32 -12.7817      4.2073    126.6090   1.3052336941e+02   4.7772283684e+01    0.2014335    0.1442239 -87.96 0.0003901302    1.057    0.054
        33 -11.8866    205.0477    201.2695   9.9049534139e+01   6.0129596181e+00    0.1698517    0.1420861  26.59  0.000364277    1.075    0.070
        34 -13.6928     47.8198    122.3867   1.1965684392e+02   4.4847850013e+01     0.322095    0.2561762 -46.70 0.0006056649    1.511    0.338
        35 -12.6314     10.0887    124.6674   1.2902016706e+02   4.7754955911e+01    0.2154996    0.1257623 -71.46  0.001396338    1.418    0.295
        36 -10.9424    195.2009    198.8318   1.0034472021e+02   7.9695145947e+00    0.1519553     0.110941  28.51  0.000294176    1.205    0.170
        37 -12.7120    231.2962    196.3053   9.3920965386e+01   2.2013512674e+00    0.2095692    0.1464411  19.79 0.0006665577    1.241    0.194
        38 -12.8504    117.1714    122.1396   1.0247284510e+02   3.4902637303e+01    0.2554642    0.2180255 -75.82 0.0003912512    1.203    0.169
        39 -13.0837    114.0727    116.7598   1.0210291226e+02   3.6555317882e+01    0.4117604    0.2241674 -64.62  0.001521439    2.279    0.561
        40 -12.9968     22.0194    120.9671   1.2584714260e+02   4.7602171696e+01    0.2512594    0.2080218  88.12  0.001119817    1.080    0.074
        41 -13.3083     80.0459    120.3738   1.1126500112e+02   4.1261088621e+01    0.3642666    0.2391872  57.73  0.001668518    1.585    0.369
        42 -13.7980     91.7001    115.1516   1.0735845718e+02   4.0640647017e+01    0.5331099    0.2498894 -50.24  0.001202595    2.105    0.525
        43 -12.0625     43.1551    119.1324   1.2040019030e+02   4.6039192080e+01    0.1739862    0.1449298 -63.12 0.0005296213    1.238    0.192
        44 -13.7615    249.3027    116.0315   7.4982102069e+01   8.4268132711e+00    0.4195969    0.1854077 -27.22  0.001827026    2.130    0.531
        45 -12.6034    125.4455    117.7908   9.9585216338e+01   3.4255432788e+01     0.266127    0.2224891  66.73 0.0003697961    1.239    0.193
        46 -11.7898     14.3792    191.9713   1.3232240915e+02   3.4484725187e+01    0.1363296    0.1085752  71.09  0.000425554    1.199    0.166
        47 -11.5517    195.6707    193.9758   9.9502498641e+01   8.4980586287e+00    0.1507263    0.1317447  25.45 0.0002370012    1.098    0.090
        48 -12.4978    145.2253    115.6205   9.4503513630e+01   3.0776700847e+01    0.5554551    0.2927527  56.92  0.002285467    2.179    0.541
        49 -13.4578     66.7055    114.0098   1.1359605419e+02   4.4437274949e+01    0.3748799    0.1959983 -65.03  0.001705074    1.748    0.428
        50 -12.7814     59.4464    115.0477   1.1564987084e+02   4.5111866309e+01    0.3239956    0.1835821  64.85  0.001097485    2.098    0.523
        51 -11.2357     10.2527    187.8580   1.3284072363e+02   3.5568448847e+01    0.2937963    0.1306964  74.35  0.001705267    1.851    0.460
        52 -11.8518    221.1592    231.5550   1.0088483922e+02   2.4775838969e-01    0.1545108    0.1269978  15.52 0.0003109507    1.205    0.170
        53 -11.6185    159.2519    112.4477   9.0636711598e+01   2.8417523542e+01    0.2322478    0.1960447 -39.37 0.0003544752    1.221    0.181
        54 -10.9672    217.5168    185.7660   9.4403291513e+01   5.7199004790e+00    0.1342529    0.1172638 -34.42 0.0003356945    1.453    0.312
        55 -11.6217    196.5780    185.1481   9.7904717336e+01   9.4763775638e+00    0.1842808    0.1426795  46.04  0.000440795    1.215    0.177
        56 -10.7433    187.9337    185.5484   9.9503814395e+01   1.0955173242e+01     0.165541    0.1039622  42.69  0.000130242    1.333    0.250
        57 -11.2314    140.0729    106.7467   9.3581503202e+01   3.3540755516e+01    0.2016708    0.1810647  41.71 0.0004237767    1.110    0.099
        58 -12.2739     19.8467    115.9817   1.2588163957e+02   4.8836936382e+01    0.1724501     0.145672  74.97  0.000385999    1.161    0.138
        59 -12.1121    194.8166    232.0012   1.0509113842e+02   4.2130150324e+00    0.3058919    0.1105051  39.55  0.001578428    2.110    0.526
        60 -14.1891    248.7960    100.5583   7.1406413654e+01   1.0495192127e+01    0.4497702    0.3493401   1.41  0.002516508    1.246    0.197
        61 -11.3514    129.0071    101.0074   9.4816928563e+01   3.6920248607e+01    0.2146371    0.2089731  83.27 0.0003700156    1.023    0.022
        62 -11.4195    187.3422    169.3196   9.6827310205e+01   1.3337891648e+01    0.2975208    0.2074281  16.58  0.001622089    1.687    0.407
        63 -11.2708    177.6156    169.0569   9.8594215219e+01   1.5188725788e+01    0.1611345    0.1515799   4.99 0.0003676752    1.144    0.126
        64  -9.0253     28.1281    231.6443   1.3190977517e+02   2.6718367943e+01    0.1723548    0.1365093 -27.07  0.001294289    3.198    0.687
        65 -12.3217    179.3042    163.3955   9.7258348425e+01   1.5730063698e+01    0.2726965    0.2173004  42.72 0.0007871251    1.111    0.100
        66 -12.5758    118.5935     89.2477   9.4419268867e+01   4.1344844929e+01    0.2580502    0.2433363 -83.60 0.0003840064    1.096    0.088
        67 -12.2291    111.0410     89.1557   9.6382360146e+01   4.2809357711e+01    0.2357523    0.1962267 -47.99 0.0002918052    1.159    0.137
        68 -12.5167    109.8626     84.4896   9.5456381497e+01   4.3987343824e+01    0.4529129    0.2954812  82.46  0.001830099    2.782    0.641
        69 -12.4162     27.5851    226.2883   1.3175777171e+02   2.7590348552e+01    0.2135543    0.1073566  58.98  0.001427552    1.399    0.285
        70 -12.0485     88.7368     84.9780   1.0148474227e+02   4.7574381320e+01    0.4871142    0.1692142  49.72  0.001669804    3.730    0.732
        71 -12.2179     73.2789     87.9182   1.0667752787e+02   4.9263456471e+01    0.2873155    0.2192479  24.83 0.0009144127    1.609    0.378
        72 -12.0823     41.0231    245.4621   1.3060683003e+02   2.3362394274e+01    0.3481649    0.2200336  50.61   0.00296932    1.257    0.205
        73 -12.8204    176.0253    151.4407   9.5631727888e+01   1.8233965263e+01    0.5323887    0.3116446  48.96  0.001417167    1.594    0.372
        74 -14.3719    249.1082     84.7116   6.7471455127e+01   1.2451138614e+01    0.7256925    0.2521331 -25.93  0.002668645    2.716    0.632
        75 -10.7513     25.9951     66.0168   1.1696390707e+02   5.9244064382e+01    0.1391967    0.1146098 -65.02            0    1.032    0.031
        76 -12.4055     28.7300    244.4496   1.3235316235e+02   2.4772073384e+01    0.2582588    0.1319086  48.90  0.002057571    1.427    0.299
        77 -12.3691    181.0123    156.7009   9.5681876803e+01   1.6432298543e+01    0.3091685      0.19694  32.73  0.001164644    1.560    0.359
        78 -12.2867    177.4754    156.5588   9.6334742611e+01   1.7138885044e+01     0.387309    0.3243559  19.51  0.002313836    1.226    0.184
        79 -11.3848     46.7100     42.6139   1.0334941540e+02   6.2250623899e+01     0.197319    0.1616495  42.88  0.001265048    1.489    0.329
        80 -11.0579     97.5011     40.4434   8.4826736081e+01   5.4821604458e+01    0.1408834    0.1288539 -14.98 7.174943e-05    1.018    0.018
        81 -12.0991    129.4859     33.3008   7.3336375561e+01   4.9028392839e+01    0.2898308    0.2642068  38.50 0.0009714806    1.091    0.083
        82 -11.4672    172.7113    231.3400   1.0857525486e+02   7.6873791158e+00     0.111365   0.08398218  43.75 0.0005025422    1.058    0.055
        83 -11.3731    169.3475    229.6353   1.0892011661e+02   8.4058839796e+00    0.1949236    0.1353212  59.87  0.001191872    1.577    0.366
        84 -11.9929     29.5264    239.9489   1.3205351131e+02   2.5344043801e+01     0.179322    0.1153777 -76.16  0.000870421    1.737    0.424
        85 -12.1971    167.7279    243.4441   1.1076772006e+02   7.0572679150e+00    0.2545303    0.1508356  50.32   0.00174662    1.401    0.286
        86  99.0000    165.2814    240.6082   1.1084292601e+02   7.7414846688e+00    0.2064134    0.1502378 -73.49  0.001474848    2.205    0.547
        87 -11.4770    186.9264    242.9315   1.0768792646e+02   4.2577463415e+00    0.1167207   0.08706842  36.51 0.0003919075    1.047    0.045
