#   1 NUMBER                 Running object number                                     
#   2 MAG_AUTO               Kron-like elliptical aperture magnitude                    [mag]
#   3 X_IMAGE                Object position along x                                    [pixel]
#   4 Y_IMAGE                Object position along y                                    [pixel]
#   5 X_WORLD                Barycenter position along world x axis                     [deg]
#   6 Y_WORLD                Barycenter position along world y axis                     [deg]
#   7 A_WORLD                Profile RMS along major axis (world units)                 [deg]
#   8 B_WORLD                Profile RMS along minor axis (world units)                 [deg]
#   9 THETA_WORLD            Position angle (CCW/world-x)                               [deg]
#  10 FWHM_WORLD             FWHM assuming a gaussian core                              [deg]
#  11 ELONGATION             A_IMAGE/B_IMAGE                                           
#  12 ELLIPTICITY            1 - B_IMAGE/A_IMAGE                                       
         1 -12.9886    195.0294     20.9111   4.3977687048e+01   3.3613926440e+01     2.782281     1.673942   4.43   0.01185049    2.825    0.646
         2 -10.3759      2.8821     12.3824   9.9368748389e+01   7.2364200169e+01    0.2962885    0.1134645 -43.08  0.001621236    1.863    0.463
         3 -10.2069      7.1113     12.8896   9.7204467490e+01   7.2004215436e+01    0.2535281    0.1138608 -43.80 0.0009433177    1.698    0.411
         4 -10.1185      9.5966      3.4132   9.1292997820e+01   7.3321681449e+01    0.2505724    0.1646573 -42.47  0.001695069    1.543    0.352
         5  -8.5310    238.9854      1.8985   3.5131738608e+01   2.5205999816e+01    0.1897257     0.150329 -71.60 0.0004442823    1.045    0.043
         6  -9.5928    130.8495    244.0937   1.0798783148e+02   6.6844025918e+00    0.2098967    0.1501428  30.95 0.0007855697    1.375    0.273
         7  -8.2464    249.7566    249.9811   8.7029293483e+01  -1.1999834246e+01    0.1330019   0.08267433 -20.75 0.0008793575    1.585    0.369
         8 -10.5390    230.0523    248.6163   9.0205703670e+01  -9.1786821047e+00    0.3952289    0.2146225  20.18  0.002226453    1.665    0.399
         9  -9.0363    222.6226    249.9444   9.1720489042e+01  -8.2797281925e+00    0.2368524    0.1419447  40.07  0.001299869    1.604    0.376
        10 -11.1193    219.8710    246.1463   9.1623597232e+01  -7.4351248696e+00    0.9838501    0.4393607  12.49  0.003230071    5.903    0.831
        11 -11.2618    205.2818    238.7602   9.3126068000e+01  -4.3229430352e+00    0.9468074    0.5238395   6.92  0.004497073    2.691    0.628
        12 -12.3307    196.5727    235.3272   9.4215564376e+01  -2.5009206271e+00     1.923075    0.7523897  25.59  0.007032173    3.818    0.738
        13  -9.0027    118.1895    249.7911   1.1100752139e+02   7.7097226040e+00    0.2148408    0.2034833  12.94  0.001601329    1.361    0.265
        14  -8.7005    121.8670    248.6368   1.1019763186e+02   7.3382815713e+00    0.1688556    0.1647965  37.74 0.0007300434    1.275    0.216
        15  -9.2591    142.7166    241.6616   1.0542175363e+02   5.2027310273e+00    0.2603894    0.1636688  41.08 0.0009624067    1.284    0.221
        16  -9.4069    127.1539    249.0506   1.0925421150e+02   6.4652703754e+00    0.4928761    0.1824999  33.42  0.002077011    2.917    0.657
        17  -9.9823    120.3149    244.1062   1.0999056135e+02   8.3112646076e+00    0.5287285    0.1750398  32.08    0.0018387    4.331    0.769
        18  -9.2227    106.8304    243.5467   1.1247769548e+02   1.0443007702e+01    0.3693833   0.07567803  43.44  0.001342828    3.575    0.720
        19 -10.2688    112.0660    249.0239   1.1206451583e+02   8.7518263044e+00    0.3908089    0.2959597  68.29  0.001256456    1.304    0.233
        20  -9.5986    157.7552    246.6195   1.0319118915e+02   2.0590002314e+00    0.6459979    0.1763776  36.64  0.002344337    3.299    0.697
        21  -7.3640     66.6433    250.7088   1.2041926515e+02   1.4823201012e+01   0.09490386     0.086403  18.17 0.0005186804    1.686    0.407
        22  -9.8903     29.0114    249.2243   1.2669231841e+02   1.9586830526e+01    0.4726124    0.1762329 -54.76  0.002187543    4.857    0.794
        23  -9.6657    115.9638    240.5683   1.1042580877e+02   9.5678885140e+00      0.23425    0.1456565 -38.00  0.001275417    2.480    0.597
        24 -12.7472    189.4856    247.4163   9.7353074148e+01  -3.0268753265e+00     1.980092    0.8688031  45.78  0.009686069    2.218    0.549
        25  -9.1597    155.9173    237.1108   1.0227427586e+02   3.7957037522e+00    0.2820312     0.154055  29.45 0.0007655076    1.831    0.454
        26  -9.0688    160.6232    234.2286   1.0095820458e+02   3.4782723850e+00    0.2378922    0.1786139 -12.32  0.001411293    1.746    0.427
        27  -8.8146    143.9477    237.0002   1.0458660666e+02   5.7498073087e+00    0.2680883    0.1419702  40.22 0.0009705244    1.545    0.353
        28  -8.1788    122.3542    237.2928   1.0882153141e+02   9.1342351674e+00    0.1173856   0.09180272  14.76   0.00029995    1.684    0.406
        29  -9.4337    222.2152    234.8059   8.9392493558e+01  -6.3869172759e+00    0.2024522    0.1223714   8.96 0.0007673106    1.763    0.433
        30  -8.0584    100.9803    241.5202   1.1337254662e+02   1.1655808344e+01    0.1857584   0.09729332  42.23  0.001023644    1.565    0.361
        31 -11.4943    165.2953    248.9321   1.0207558052e+02   5.3648313004e-01     1.996664    0.4787779  35.78  0.006765738    4.148    0.759
        32  -8.5686     27.3447    238.3083   1.2638542500e+02   2.1715708854e+01   0.08920158   0.08157084 -59.38 0.0004285747    1.698    0.411
        33  -9.5939    178.2524    233.4658   9.7424292413e+01   7.1140179414e-01    0.2349163    0.1546904  24.64  0.001135422    1.435    0.303
        34  -9.8451    150.0787    238.0993   1.0353995786e+02   4.5855431489e+00    0.3300283    0.2335299 -14.29  0.001854508    2.140    0.533
        35  -7.2698    143.3268    233.3040   1.0422241938e+02   6.4525688540e+00    0.1221716   0.09254444  12.76 0.0007033816    1.646    0.392
        36  -9.1273    126.4658    239.0092   1.0822830703e+02   8.2022215830e+00    0.2022108    0.1380262  41.85 0.0008428624    1.207    0.171
        37 -11.2252    157.6106    241.8236   1.0258500207e+02   2.7987654551e+00     1.501313    0.4259686  31.25  0.003693025    8.107    0.877
        38  -8.1595    173.8784    231.3396   9.7953207227e+01   1.7464422181e+00    0.1931013   0.09867145  31.35 0.0009406359    1.813    0.449
        39  -8.5139    147.9442    231.1211   1.0301716026e+02   6.0567135487e+00    0.1927146    0.1444058  11.16 0.0008821085    1.674    0.403
        40  -8.8148    169.2232    234.8152   9.9369613401e+01   1.9821132684e+00    0.1737603    0.1313858  18.13 0.0008090682    1.338    0.252
        41 -11.9863    209.5831    245.9547   9.3448068664e+01  -5.8946913646e+00     1.232382     0.545033  24.32  0.005747783    2.509    0.601
        42  -9.8536    136.8955    246.4115   1.0711462664e+02   5.3730577492e+00    0.5284238    0.2929842  18.89  0.002345487    3.246    0.692
        43  -8.7436    153.5071    228.4815   1.0154568506e+02   5.5711075995e+00    0.1291453    0.1079085  35.48 -8.092846e-06    1.035    0.034
        44  -8.1936    189.3050    227.3205   9.4339403525e+01  -1.8906384559e-01    0.1288933   0.08836437   9.28 0.0007030218    1.634    0.388
        45  -9.8821     13.0886    227.1399   1.2822105324e+02   2.5263435449e+01    0.1528638     0.124846  85.95 0.0008459106    1.270    0.213
        46  -9.4899    164.3997    244.4824   1.0164877702e+02   1.3199921160e+00    0.4275483    0.2273305  32.99  0.001799375    1.635    0.388
        47  -8.6660    184.8108    226.4095   9.5065416346e+01   6.8674042795e-01    0.1898067    0.1029333  29.47 0.0009084145    1.723    0.420
        48  -7.6392    158.3376    229.3000   1.0070463951e+02   4.6361290419e+00     0.127432   0.09213284  12.94 0.0004989554    1.662    0.398
        49  -7.5972    193.4732    224.4964   9.3079771905e+01  -4.5823295164e-01    0.1303202    0.1053748  20.25 0.0002988387    1.053    0.050
        50  -9.8438      3.5161    248.1735   1.3069282222e+02   2.2391553993e+01    0.8159096   0.08428115  47.88  0.003788638    3.609    0.723
        51  -8.2553    139.9835    226.1646   1.0392690062e+02   8.2017523097e+00    0.3128578    0.1596804  22.61  0.001239305    3.281    0.695
        52  -9.3329     16.0000    220.4506   1.2736917875e+02   2.6253303805e+01    0.2262798   0.05111631 -76.96 0.0008773045    3.924    0.745
        53 -11.7489      5.8575    243.1036   1.3012756842e+02   2.3053296613e+01     0.917726     0.401007  59.98  0.006007145    1.666    0.400
        54  -9.4920    143.2187    249.2558   1.0626372124e+02   3.9478103915e+00    0.4492666    0.1978166  30.83  0.002062341    2.480    0.597
        55  -9.4091     12.1165    206.2709   1.2728155815e+02   2.9435639448e+01     0.231086   0.09914822  72.65  0.001235532    2.132    0.531
        56  -9.7703    242.2641    201.1113   7.9814494339e+01  -4.9914163321e+00    0.2150515    0.1740807  12.13 0.0002127154    1.081    0.075
        57  -8.5807    212.1023    198.1824   8.4835310343e+01   3.8727762602e-01    0.1971589    0.1552589   5.73 0.0003177714    1.180    0.153
        58  -8.4080      2.0000    196.9504   1.2864405106e+02   3.2242472143e+01    0.1780667   0.04960537 -79.09 0.0008003907    2.928    0.659
        59  -8.6631    180.0069    189.1779   8.9587067211e+01   7.6768281736e+00    0.2176985    0.1961739 -21.25 0.0003838512    1.154    0.133
        60  -7.5335     65.4507    184.0375   1.1444704956e+02   2.8206309300e+01    0.1770958    0.1159851 -71.01  0.000326439    1.438    0.305
        61  -8.5095    201.1660    173.2422   8.2047565862e+01   6.5119419821e+00    0.2034365    0.1747829   9.82 0.0003206429    1.091    0.083
        62  -9.0485      7.7979    153.8044   1.2459336327e+02   4.1162359956e+01    0.2116052    0.1012319  12.30  0.001027451    3.508    0.715
        63  -9.7741      2.4534    144.8049   1.2510360349e+02   4.3603949841e+01    0.4354968   0.02876455 -63.92   0.00141452    4.857    0.794
        64  -8.8446      8.0000    137.9496   1.2315103379e+02   4.4805474928e+01    0.2080684   0.05474166 -74.41  0.000807185    2.975    0.664
        65 -11.1178      6.3686    123.7530   1.2215085316e+02   4.8233940002e+01    0.3973816     0.346988  86.91  0.002868154    1.163    0.140
        66  -7.6959    147.1917    121.8329   8.2300559392e+01   2.8181596461e+01    0.2104609    0.1826377 -11.86 0.0002761462    1.278    0.218
        67  -8.3769    204.0223    119.1307   6.9033661607e+01   1.5884330105e+01    0.2275044    0.2126329 -23.38  0.000543284    1.010    0.010
        68 -10.4350      4.1594    115.6701   1.2187509647e+02   5.0262613910e+01     0.515667    0.1587735  38.36  0.002305496    3.511    0.715
        69 -10.0382      4.0359     95.3972   1.1939113117e+02   5.4998830059e+01     0.239824    0.1868085 -28.42  0.001628068    1.494    0.331
        70  -9.3494      1.6915     80.8357   1.1800129870e+02   5.8456187743e+01    0.2617815   0.06107796 -62.59  0.001084063    2.620    0.618
        71  -7.3473    109.6622     76.3258   7.9508596647e+01   4.6023349994e+01    0.1524251    0.1237091 -84.29 0.0007051494    1.724    0.420
        72  -8.8454    205.1245     71.7911   5.6456088700e+01   2.3992574782e+01    0.3303393    0.2055283 -29.13 0.0009677989    1.649    0.394
        73  -7.9214     49.9703    246.3301   1.2300558269e+02   1.7676897466e+01    0.1978514   0.03318839  51.32 0.0006164593    4.521    0.779
        74  -7.5139    165.9887     19.7267   4.7600589919e+01   4.1143909734e+01     0.170202    0.1148875  66.13 0.0003017524    1.359    0.264
        75 -11.7438      3.5529    231.3190   1.3000720217e+02   2.5400452346e+01    0.6832151      0.34287 -80.52  0.004598922    1.724    0.420
        76  -8.1877    133.0090     16.5556   5.2299674591e+01   4.9816511573e+01    0.1905958    0.1792752  13.96 0.0001608264    1.104    0.094
        77  -8.8757    135.3882    241.2067   1.0677360224e+02   6.4371419410e+00    0.2290726    0.1345651  52.42 0.0008035712    1.580    0.367
        78 -10.5706    149.3586    245.4649   1.0463400419e+02   3.5595407652e+00    0.6535928    0.4085447  30.19  0.003798704    1.507    0.336
