#   1 NUMBER                 Running object number                                     
#   2 MAG_AUTO               Kron-like elliptical aperture magnitude                    [mag]
#   3 X_IMAGE                Object position along x                                    [pixel]
#   4 Y_IMAGE                Object position along y                                    [pixel]
#   5 X_WORLD                Barycenter position along world x axis                     [deg]
#   6 Y_WORLD                Barycenter position along world y axis                     [deg]
#   7 A_WORLD                Profile RMS along major axis (world units)                 [deg]
#   8 B_WORLD                Profile RMS along minor axis (world units)                 [deg]
#   9 THETA_WORLD            Position angle (CCW/world-x)                               [deg]
#  10 FWHM_WORLD             FWHM assuming a gaussian core                              [deg]
#  11 ELONGATION             A_IMAGE/B_IMAGE                                           
#  12 ELLIPTICITY            1 - B_IMAGE/A_IMAGE                                       
         1 -14.5608     68.3393    144.3841   9.7316423743e+01   3.7540877959e+01     4.934216     2.698137  74.45  0.005749468    3.654    0.726
         2 -14.3206    208.8938     40.3778   3.7702562971e+01   2.8814049280e+01     1.617703     1.387133  -2.08  0.007621962    1.672    0.402
         3 -13.9641    224.9314     26.0659   3.2979889941e+01   2.7174810106e+01    0.9737889    0.8423913  69.68  0.002700674    1.336    0.252
         4 -13.0011    247.2363      5.0166   2.7226298366e+01   2.5102252940e+01    0.6092906     0.381883 -63.99  0.004167615    1.236    0.191
         5 -11.1353    184.8382    214.7258   8.0747870536e+01   1.9669603699e+00    0.2663325    0.1951038 -49.94  0.001443823    1.615    0.381
         6 -10.7341    140.2299    249.7478   9.5752609766e+01   2.5483023404e+00    0.2489839     0.136327  36.60  0.001282707    1.547    0.354
         7 -15.3241      6.0608    185.9676   1.1937695016e+02   3.3659122838e+01     6.880292    0.9865653 -75.49  0.005953556    5.561    0.820
         8 -16.9552     21.1195    243.0312   1.1985964617e+02   1.9594581307e+01     8.403889     5.989006  36.20   0.02546422    1.458    0.314
         9 -15.2731     41.8848    190.5832   1.1118421141e+02   2.9089395108e+01     2.934273      1.64773  72.09   0.01383199    1.982    0.495
        10  -9.7377    110.9617    203.0060   9.5671911769e+01   1.6472098616e+01    0.2239597    0.1645721  67.45 0.0003417853    1.613    0.380
        11 -11.3020    193.5008    195.6721   7.5416657740e+01   4.0791286894e+00    0.9281598    0.4742815 -62.43  0.002686704    6.010    0.834
        12  -9.8392    121.9846    198.6082   9.2274464258e+01   1.5651864067e+01    0.2875907    0.2184072 -70.54  0.001443744    1.531    0.347
        13  -9.8764    146.9865    187.0190   8.4143112372e+01   1.3892647810e+01    0.2281604    0.1858489  80.89 0.0007910666    1.656    0.396
        14  -8.9824     81.2506    183.6361   1.0022845486e+02   2.5682493720e+01    0.1483568    0.1060407  77.07 0.0006953963    1.618    0.382
        15  -9.7567     99.3538    180.8429   9.5028037742e+01   2.3563640101e+01    0.2378509    0.1966763  48.61 0.0005896799    1.195    0.163
        16 -10.2799    187.3299    175.8108   7.2759731853e+01   8.9809731531e+00    0.3158391    0.2621586 -55.04  0.001188923    1.386    0.278
        17 -12.1611     60.4698    174.2122   1.0438857613e+02   3.0922729412e+01    0.4954566    0.3213059 -32.21  0.001735553    2.091    0.522
        18 -12.1346     65.5393    169.1585   1.0227329615e+02   3.1539378061e+01    0.3595521    0.3021621 -38.44  0.001053697    1.329    0.247
        19  -9.7171     85.4986    174.4979   9.7661756366e+01   2.7316554395e+01    0.2784196    0.2088005 -73.93 0.0009162495    1.380    0.275
        20 -10.0650     88.3532    173.2726   9.6685881884e+01   2.7183072595e+01    0.2518336    0.2139624  17.15 0.0005284342    1.323    0.244
        21 -13.5425     62.9175    155.6858   1.0089880004e+02   3.5351995449e+01    0.5462428    0.3704434 -39.94  0.001351211    1.637    0.389
        22 -12.7510     83.1417    153.6776   9.4663877972e+01   3.2963359342e+01     1.276247    0.6296962 -51.93  0.001611165    1.923    0.480
        23 -12.4780     75.8587    159.8731   9.7876614441e+01   3.2470455812e+01    0.6567565    0.4640926  27.55 0.0005240429    1.539    0.350
        24  -9.3269     89.0029    210.3220   1.0203699014e+02   1.8206858640e+01    0.1904758    0.1647425  47.44 0.0003099896    1.074    0.069
        25  -9.5996     42.8831    164.7356   1.0790835396e+02   3.5445429889e+01    0.2602885    0.1623554  30.27  0.001292674    1.736    0.424
        26  -9.3206     51.2919    161.3498   1.0510018831e+02   3.5350017751e+01    0.1471362    0.1000162 -40.27 0.0006109331    1.671    0.402
        27 -11.4877     32.0156    156.6964   1.0991236711e+02   3.8631032128e+01    0.5170826    0.3677972  72.71  0.002129796    1.462    0.316
        28 -10.7680    133.5896    144.1737   7.8537091093e+01   2.6270397710e+01     1.163169    0.2851301 -54.66  0.002371702    7.079    0.859
        29  -9.8731    174.7839    148.9372   6.9670453797e+01   1.6909218498e+01     0.288685    0.2140439 -61.25  0.000934111    1.596    0.373
        30 -10.9645     24.4634    147.6184   1.1093854753e+02   4.1649295309e+01    0.3052962    0.1827985  72.98 0.0009495837    1.918    0.479
        31  -9.0100     38.4126    146.4863   1.0668905826e+02   4.0619667966e+01    0.1404061    0.1221737 -78.12 4.337703e-05    1.041    0.040
        32 -10.8509     29.5591    143.3826   1.0889002709e+02   4.2280812077e+01    0.3949981    0.3241637  -6.64  0.001585005    1.500    0.333
        33 -10.6029     97.5129    140.5131   8.7778638384e+01   3.3947337590e+01    0.3857095    0.2711012 -43.60  0.001022487    1.418    0.295
        34  -9.9121    100.3092    138.0045   8.6401152130e+01   3.4084135445e+01    0.4187017    0.2412613 -30.65  0.001047959    2.364    0.577
        35 -12.4728     85.6408    138.8956   9.0975627469e+01   3.6346801276e+01    0.3243613    0.2867715 -49.02 0.0004739851    1.087    0.080
        36 -11.0348    107.4039    130.4166   8.2562846021e+01   3.4662504286e+01     0.555936    0.3462735  28.85  0.002308496    1.799    0.444
        37 -10.6261    135.6052    128.9286   7.4362034443e+01   2.9413047414e+01    0.5882674    0.1518761 -47.70  0.001576699    3.851    0.740
        38  -9.9573     48.4252    169.8948   1.0706406305e+02   3.3500169758e+01    0.3126169    0.1259336 -67.87  0.001080976    2.286    0.563
        39  -9.7169    160.8494    127.8364   6.7847849877e+01   2.4317140349e+01    0.2211607    0.1923413 -81.43  0.001090289    1.350    0.259
        40  -9.6773     96.6917    125.5194   8.4588619725e+01   3.7821337291e+01    0.2605795    0.2126114  -4.85 0.0005517616    1.450    0.310
        41  -9.6779    115.9357    124.0746   7.8540529426e+01   3.4544334281e+01    0.2589022    0.1949828  -7.52  0.001122417    1.754    0.430
        42  -9.0949    163.2307    120.9783   6.5599208342e+01   2.5267710254e+01    0.2042556    0.1256325 -43.39 0.0002937327    1.568    0.362
        43 -12.6952     83.0541    216.0244   1.0416885215e+02   1.7787147171e+01     0.736434    0.5023682  74.72 0.0006780746    1.669    0.401
        44  -9.8239    135.0000    119.9597   7.2254620489e+01   3.1579850738e+01    0.2644288   0.08894799 -45.72 0.0006514566    2.916    0.657
        45  -9.9346    106.1005    118.8957   8.0104127683e+01   3.7685723122e+01    0.2258459    0.2149832 -23.15 0.0002913102    1.040    0.038
        46  -8.7367     78.4884    113.4495   8.7426544791e+01   4.3862412970e+01    0.1492688    0.1440839 -60.57 0.0001632868    1.078    0.072
        47 -10.2131    205.2903    110.3269   5.4621794525e+01   1.8383198443e+01     0.328689    0.2394642  40.80  0.001200867    1.574    0.365
        48 -12.8325    248.1392    101.2657   4.6247586406e+01   1.1682505651e+01     0.642989    0.2656538 -36.77  0.002833914    2.156    0.536
        49 -11.3265     53.0444     92.0048   9.0925386275e+01   5.2639018154e+01     0.561927    0.1906883 -54.66  0.001828242    2.684    0.627
        50  -9.3598    134.5012    104.5009   6.8274650886e+01   3.5076756324e+01    0.1548944    0.1525397 -23.16 0.0008106966    1.002    0.002
        51  -9.9255    160.9970     83.2908   5.6175888959e+01   3.3218013198e+01    0.2095643    0.1944667  61.72 0.0005379571    1.078    0.072
        52  -8.7041    184.3645     77.2947   5.0153222636e+01   2.8845864938e+01    0.1431395    0.1124381  23.62 0.0007030236    1.713    0.416
        53  -8.8973     26.4606     68.4918   9.5312162981e+01   6.0769802842e+01    0.1294806    0.1118108 -35.64 6.859273e-05    1.070    0.066
        54  -9.0683     20.3121     65.3214   9.7146576387e+01   6.1962255476e+01    0.1390011     0.077753 -31.50 0.0003754775    1.652    0.395
        55 -11.4890     13.2192     59.7908   9.8852486753e+01   6.3652043611e+01    0.2817125    0.2523113  74.83  0.000862044    1.563    0.360
        56 -13.7963    199.9342     46.4229   4.0176813952e+01   2.9996989124e+01     1.090878    0.8463313  41.20  0.002638053    1.646    0.393
        57 -15.4203      9.6975    208.1133   1.2005873948e+02   2.8207105159e+01     4.893631     1.017539 -71.05  0.006475813    3.701    0.730
        58 -12.6690    218.2871     32.1914   3.4898338026e+01   2.7826790299e+01    0.4642267    0.3510216  54.81  0.001108168    1.578    0.366
        59 -13.2666     32.4244    199.9306   1.1435760814e+02   2.7878918165e+01    0.4725295    0.3832355 -40.41  0.001398951    1.577    0.366
        60 -10.6223     42.4523     59.5250   8.5565658949e+01   6.0949373364e+01    0.2830289    0.2124959  41.55 0.0009544304    1.653    0.395
        61  -9.6100     24.4540     57.7741   9.3068987748e+01   6.3192122040e+01    0.2258302    0.1480369  36.59 0.0008573387    1.884    0.469
        62 -10.1406      5.9322     50.4711   9.9722005986e+01   6.6031003767e+01    0.1631372     0.111073   8.31 0.0007740071    1.554    0.357
        63 -10.4148    132.5859     39.4396   4.9182836072e+01   4.6819589205e+01    0.2619355    0.2169526 -80.75  0.000529568    1.372    0.271
        64  -9.8713    187.8078     31.3696   3.8022990771e+01   3.4707898463e+01    0.1824265    0.1066436  60.54 0.0006743817    1.637    0.389
        65 -10.7125    198.0139     23.9819   3.5094163345e+01   3.3257098568e+01    0.2479855    0.2239645 -12.24 0.0009495437    1.477    0.323
        66  -9.5149    189.4987     15.0022   3.3859746724e+01   3.6173651311e+01    0.1708889    0.1186551 -36.43  0.000581566    1.543    0.352
