#   1 NUMBER                 Running object number                                     
#   2 MAG_AUTO               Kron-like elliptical aperture magnitude                    [mag]
#   3 X_IMAGE                Object position along x                                    [pixel]
#   4 Y_IMAGE                Object position along y                                    [pixel]
#   5 X_WORLD                Barycenter position along world x axis                     [deg]
#   6 Y_WORLD                Barycenter position along world y axis                     [deg]
#   7 A_WORLD                Profile RMS along major axis (world units)                 [deg]
#   8 B_WORLD                Profile RMS along minor axis (world units)                 [deg]
#   9 THETA_WORLD            Position angle (CCW/world-x)                               [deg]
#  10 FWHM_WORLD             FWHM assuming a gaussian core                              [deg]
#  11 ELONGATION             A_IMAGE/B_IMAGE                                           
#  12 ELLIPTICITY            1 - B_IMAGE/A_IMAGE                                       
         1 -16.8375    152.9461    123.4954   9.3025979238e+01   2.7069719346e+01     3.173724     2.577543 -55.39   0.01093383    1.314    0.239
         2 -16.2896     59.7062     38.0811   9.4797819944e+01   6.1855752849e+01     3.546261     1.579502 -39.32   0.01619138    2.010    0.503
         3 -13.8449     44.4767     31.8492   9.8549851862e+01   6.4978566616e+01     1.041727    0.5807379 -27.91  0.005444597    1.770    0.435
         4 -15.6251     92.5379     47.6939   8.6866599060e+01   5.4664411488e+01      1.85239     1.336029 -24.74  0.006997938    1.365    0.268
         5 -15.5829    165.7818     47.6178   6.8416108085e+01   3.7785878301e+01     2.080085     1.524998 -49.94  0.009139541    1.468    0.319
         6 -15.0581    177.7416     33.7879   6.1954174294e+01   3.6585634853e+01     1.451254     1.064274 -62.88  0.007127352    1.539    0.350
         7 -12.4089    193.2446     25.4603   5.7174045676e+01   3.3597123787e+01    0.2779257    0.2156472  26.59  0.001052573    1.532    0.347
         8 -15.1900    247.1344    241.9070   9.7518324937e+01  -8.2297593383e+00     1.196996    0.5236624 -24.25  0.006758267    2.539    0.606
         9 -16.1239    113.8402    189.3722   1.1446958095e+02   2.1040669741e+01     3.559965      2.21479  65.04   0.01826147    1.814    0.449
        10 -15.2611     84.9221    219.7580   1.2380518329e+02   1.9725417595e+01    0.9259209    0.5938079  38.44  0.004490749    1.523    0.343
        11 -15.4880    126.7018    242.5198   1.1846364648e+02   9.9025742649e+00    0.8973264     0.639455 -60.63  0.005959327    1.755    0.430
        12 -17.2218     97.5696    217.5825   1.2119178358e+02   1.8312959020e+01     2.947262     1.735234  75.92     0.016166    2.066    0.516
        13 -17.1710    121.8754    223.9198   1.1727832946e+02   1.3562177137e+01      2.34825     1.302848  35.07   0.01001486    1.751    0.429
        14 -11.2920     62.0258    250.6667   1.3027622419e+02   1.7502343557e+01     0.143057    0.0748355  45.36 0.0009418627    1.498    0.332
        15 -19.3189     16.9935    154.2920   1.3178054313e+02   4.0784274773e+01     17.25177     1.275353 -74.22   0.03606985   12.571    0.920
        16 -13.3844     46.4944    229.5693   1.3151199268e+02   2.2867635424e+01    0.3671057    0.2512337  52.18  0.002155442    1.218    0.179
        17 -12.6060     36.1620    223.2394   1.3289762546e+02   2.5147117383e+01     0.194296    0.1278885  68.14 0.0006103138    1.149    0.130
        18 -11.7683     55.0385    222.0752   1.2949245130e+02   2.3185622148e+01    0.2582473    0.1056053  60.39  0.001341066    2.297    0.565
        19 -12.6078     58.8726    212.9927   1.2808670160e+02   2.4377342749e+01    0.3708149    0.1996367  31.28 0.0007795739    2.245    0.555
        20 -12.2216     41.1091    213.8105   1.3141457109e+02   2.6316114764e+01    0.3383242   0.09334919  50.17  0.001594235    2.810    0.644
        21 -11.0861     44.4800    210.5251   1.3056787331e+02   2.6548035803e+01    0.1980553   0.06987737  47.92  0.001019557    2.243    0.554
        22 -11.8198     39.9563    207.9351   1.3121781032e+02   2.7545332700e+01    0.1737419    0.1251687  66.47 0.0005578572    1.076    0.071
        23 -11.4212     60.9666    205.8161   1.2708505834e+02   2.5469729807e+01    0.1569105    0.1452388  76.57 0.0005938716    1.287    0.223
        24 -12.6946     40.7372    201.8421   1.3063115170e+02   2.8624829721e+01    0.2206433    0.1522754  52.47 0.0005593344    1.270    0.213
        25 -12.4329     85.2882    171.8326   1.1828012272e+02   2.9048464970e+01    0.3469324    0.2220953 -45.48  0.001822118    1.940    0.484
        26 -13.5909     80.4929    158.4707   1.1751585339e+02   3.2633978645e+01    0.4492327    0.2678949 -49.26   0.00105097    1.864    0.463
        27 -16.1834     73.8696    151.2449   1.1805040999e+02   3.5173485674e+01     2.248816     1.562688 -73.63  0.009258498    1.366    0.268
        28 -15.2283    111.9444    160.1945   1.1037538041e+02   2.7292796762e+01     1.432774    0.9682359  64.85  0.005415204    1.656    0.396
        29 -14.1607    196.4760    145.3351   8.8744586034e+01   1.3634539074e+01     1.007342    0.7107261  21.03  0.004393752    1.603    0.376
        30 -13.1033    203.5657    136.5657   8.5373572244e+01   1.3667594591e+01    0.6741643    0.4784719 -40.73   0.00316072    1.447    0.309
        31 -13.1641    105.3803    126.9915   1.0568110437e+02   3.5725002762e+01      0.46324    0.4126378 -76.06  0.002507356    1.116    0.104
        32 -13.2692    110.7872    136.3253   1.0622292263e+02   3.2686031549e+01    0.3552656    0.2981665 -26.70  0.001903341    1.433    0.302
        33 -14.4404    114.2925    140.3488   1.0615245678e+02   3.1171984891e+01    0.8410381    0.5214792 -25.88  0.003407209    2.722    0.633
        34 -14.5743    117.2278    130.1066   1.0329211612e+02   3.2886168790e+01    0.9370025    0.6944915  46.92  0.003729007    1.349    0.259
        35 -12.0559     55.6098    245.7326   1.3101244171e+02   1.9070664778e+01    0.2670121    0.1292681  78.01  0.001601381    2.191    0.544
        36 -15.1353    242.1053    130.3222   7.7109985616e+01   6.8193822924e+00     1.359962    0.9586613  54.77  0.006545159    1.672    0.402
        37 -14.0676    234.1906    120.3560   7.6105314692e+01   9.9254916306e+00    0.8933622    0.4159861 -23.77  0.003504243    2.451    0.592
        38 -13.4671     54.7991    128.3574   1.1945489270e+02   4.2846816016e+01    0.5683682    0.3312398  57.91  0.002877211    1.937    0.484
        39 -10.9190     37.9316    129.0000   1.2402304226e+02   4.4525306836e+01    0.1772443   0.07112534  29.11 0.0005932043    2.892    0.654
        40 -11.7602     96.7183    140.8214   1.1064428610e+02   3.4081267593e+01    0.2123688    0.1913953  26.00 0.0006792112    1.276    0.217
        41 -15.8884     66.3315     94.9856   1.0973530452e+02   4.9129254106e+01     1.819058     1.576239 -20.22  0.008668871    1.306    0.234
        42 -15.2861     84.4741     83.5434   1.0112178296e+02   4.8994281741e+01     1.405908     0.982973 -31.73  0.005200335    1.532    0.347
        43 -11.9657     49.0261    243.5084   1.3195793634e+02   2.0211331563e+01    0.1551058   0.07949723  45.27 0.0008238596    1.560    0.359
        44 -16.6107    179.5929    228.7886   1.0716902543e+02   3.5544143566e+00     2.490998     1.851421  47.44  0.009816562    1.282    0.220
        45 -16.1194    211.1465    220.2375   1.0019574670e+02  -4.2513984844e-01     2.106021     1.238673 -19.70  0.009981272    2.055    0.513
        46 -14.1082     46.3529     64.1113   1.0865470194e+02   5.8408949765e+01     1.235466    0.6055829  27.76  0.005996652    2.369    0.578
        47 -14.4304     38.9377     57.0058   1.0943575520e+02   6.0690548426e+01    0.9476351    0.6934195   8.37  0.004885387    1.599    0.374
        48 -16.7778    210.7159    184.7934   9.4100714783e+01   4.5136791666e+00      1.86548     1.518691 -44.59  0.009737968    1.511    0.338
        49 -16.1372    190.7869    170.3036   9.5122707480e+01   1.0506039098e+01     2.547684     1.194736 -41.21   0.01100392    2.285    0.562
        50 -10.9360     65.9091    243.3504   1.2913591049e+02   1.8199415644e+01    0.1297019    0.0851732  39.29 0.0001938292    1.527    0.345
        51 -13.8435    130.3180     40.9246   7.3767287580e+01   4.7575004915e+01    0.7617404    0.5841988 -88.98   0.00366507    1.788    0.441
