#   1 NUMBER                 Running object number                                     
#   2 MAG_AUTO               Kron-like elliptical aperture magnitude                    [mag]
#   3 X_IMAGE                Object position along x                                    [pixel]
#   4 Y_IMAGE                Object position along y                                    [pixel]
#   5 X_WORLD                Barycenter position along world x axis                     [deg]
#   6 Y_WORLD                Barycenter position along world y axis                     [deg]
#   7 A_WORLD                Profile RMS along major axis (world units)                 [deg]
#   8 B_WORLD                Profile RMS along minor axis (world units)                 [deg]
#   9 THETA_WORLD            Position angle (CCW/world-x)                               [deg]
#  10 FWHM_WORLD             FWHM assuming a gaussian core                              [deg]
#  11 ELONGATION             A_IMAGE/B_IMAGE                                           
#  12 ELLIPTICITY            1 - B_IMAGE/A_IMAGE                                       
         1 -11.8208    142.7474     43.5194   1.7276565036e+01   4.4585137195e+01    0.3830599    0.1832425 -58.47   0.00131245    3.062    0.673
         2 -13.8268     30.0051     33.3722   5.2711027532e+01   6.9707772763e+01    0.9513155     0.464648 -22.77  0.003770644    3.001    0.667
         3 -13.3540     46.2071     26.2059   4.0039949103e+01   6.8715872045e+01    0.5966078    0.2743141 -39.63  0.001796794    2.066    0.516
         4 -11.3245    122.9587     11.9170   8.9896849880e+00   5.3432063291e+01    0.1975161    0.1867354  72.28 0.0003321598    1.002    0.002
         5 -12.1391     84.8574      9.6365   1.6044301029e+01   6.2982941932e+01    0.3300596    0.1666104 -53.63  0.001309923    3.075    0.675
         6 -12.0773     92.0717      8.3116   1.3558535668e+01   6.1402396439e+01    0.1899248    0.1678958  56.56 0.0005751542    1.080    0.074
         7 -11.0873     33.1845      7.8456   3.5921116254e+01   7.3607543281e+01    0.1735056    0.1520673 -11.30 0.0003610255    1.159    0.137
         8 -10.9445    215.2631      2.5735   3.5683334744e+02   3.1967697276e+01    0.1500179    0.1076048  72.63 0.0003282798    1.495    0.331
         9 -10.8087    221.4243    242.5047   4.8807452290e+01  -4.5137409807e+00    0.1110931   0.08217011   2.24 0.0001376812    1.019    0.019
        10 -13.6084    245.9114    249.7085   4.5886011134e+01  -7.9545634573e+00    0.2821533    0.1806802  27.38  0.002080565    1.608    0.378
        11 -10.7954    179.4297    250.5524   5.7375358613e+01  -5.4971254964e-01    0.1132732   0.08814151  14.12 9.930306e-05    1.010    0.010
        12 -11.9579    139.7373    248.4849   6.4648828159e+01   4.7744832093e+00    0.2836165    0.1630135 -51.10  0.001577812    2.126    0.530
        13 -11.4915    124.5991    250.2858   6.7817307237e+01   6.4455871263e+00    0.2001717    0.1315988   7.67  0.001171843    1.895    0.472
        14 -11.8493     84.1515    250.6505   7.5848756221e+01   1.1455806978e+01    0.2624889   0.09298275  31.20  0.001218038    2.454    0.593
        15 -14.9665     68.5257    247.2281   7.8677703233e+01   1.3913873050e+01     3.600207    0.1866615  43.34   0.01107222    5.636    0.823
        16 -15.4830     71.6984    231.0263   7.6759549145e+01   1.6530612821e+01      1.57013     1.124011  42.03  0.005894346    1.172    0.147
        17 -16.2753     16.7805    210.2535   8.7099444632e+01   2.6768017274e+01      2.85418     0.300049  44.75   0.01037881    3.990    0.749
        18 -15.6720      7.4639    214.9273   8.9263599315e+01   2.6612518561e+01     1.537609    0.2677268  49.06  0.006201332    3.411    0.707
        19 -16.0714      7.1646    249.3531   9.0494098332e+01   1.9919775382e+01     2.957799    0.7747841  22.70   0.00962513    7.757    0.871
        20 -17.2785     12.2664    238.9714   8.9207693297e+01   2.1377356484e+01     2.141925     1.439585   7.11   0.01352876    2.406    0.584
        21 -16.2842      5.6764    230.5936   9.0181946258e+01   2.3589590336e+01     1.070778    0.6493838  67.95   0.00722897    1.280    0.219
        22 -10.5694    159.0000    241.9232   6.0088423279e+01   3.2558634239e+00    0.1694228   0.06663311 -47.33 0.0008065658    2.971    0.663
        23 -10.9706    247.1842    241.3792   4.4432731634e+01  -7.1781084474e+00    0.1389457   0.08449426  29.78  0.000959498    1.726    0.421
        24 -11.0428    198.0173    240.7930   5.2636799390e+01  -1.5408022623e+00    0.1708412    0.1259178  48.85  0.001081845    2.115    0.527
        25 -10.7085    187.1287    241.3386   5.4694579157e+01  -2.6696640639e-01    0.1496771   0.08905856  34.90 0.0009048028    1.571    0.363
        26 -10.9484    140.6374    241.2927   6.3611265101e+01   5.7698394697e+00    0.1193293   0.08156526  52.00 0.0007028987    1.704    0.413
        27 -11.1426    124.8792    241.1217   6.6748422495e+01   7.8821960127e+00    0.2037105    0.1063654  49.88  0.001049672    2.088    0.521
        28 -11.6746    107.4574    240.4716   7.0217367702e+01   1.0276062023e+01    0.2050026    0.1691023  22.37 0.0008366221    1.195    0.163
        29 -13.1438    103.8332    236.9067   7.0593326406e+01   1.1370221419e+01    0.2874479    0.2704901 -23.74 0.0006125006    1.270    0.212
        30 -11.7307    148.9185    239.0329   6.1686115449e+01   5.0245995562e+00    0.2744777    0.1504402  26.16  0.001160164    1.629    0.386
        31 -11.4184     79.8532    237.1041   7.5576966781e+01   1.4385821329e+01    0.2203446    0.1733107  31.49  0.001182411    1.221    0.181
        32 -11.0072    210.4842    235.5272   4.9640240644e+01  -2.3678766324e+00    0.1157705   0.08769453   3.92 0.0001464497    1.003    0.003
        33 -11.0707    131.2089    232.8390   6.4476100657e+01   8.4157250278e+00    0.1614488    0.1300261   8.53 0.0003859221    1.282    0.220
        34 -11.4553    182.2429    232.0901   5.4268761467e+01   1.6541767142e+00    0.2148829    0.1462066  49.79  0.001248862    2.092    0.522
        35 -11.1944    150.2230    229.6770   6.0188617880e+01   6.3358704085e+00    0.2805509     0.166014  64.34  0.001161715    4.030    0.752
        36 -11.0496    139.2326    229.7854   6.2440446907e+01   7.8311948433e+00    0.1598315    0.1275231   5.97 0.0003159245    1.285    0.222
        37 -11.3310    194.1772    228.8246   5.1550488690e+01   5.6930027947e-01    0.1740031     0.147353  15.97 0.0007873838    1.197    0.165
        38 -12.8095     95.7996    228.6946   7.1428650635e+01   1.3917974181e+01    0.5069957     0.177184  25.90    0.0018059    3.615    0.723
        39 -12.7896    238.0127    220.5264   4.2589780581e+01  -3.7117913781e+00    0.2586411    0.2035128 -39.29  0.001809491    1.812    0.448
        40 -12.4585    232.2545    226.7322   4.4547077313e+01  -3.8224923696e+00    0.4143714    0.1789657 -22.98   0.00213972    2.378    0.579
        41 -12.4789    233.1077    220.3147   4.3360959153e+01  -3.1119616345e+00    0.2108865     0.170514  -7.99 0.0003132419    1.200    0.167
        42 -11.6317    129.0150    226.3911   6.4122231544e+01   9.8285114443e+00    0.2108989    0.1635592 -26.21 0.0003821091    1.508    0.337
        43 -12.8340     91.7094    225.1172   7.1935392510e+01   1.5133863731e+01    0.2908597    0.1798043 -71.71  0.001296874    1.892    0.471
        44 -13.3184     81.5463    225.4985   7.4165476962e+01   1.6374181111e+01    0.4043973    0.2867239  -1.38  0.002230875    2.152    0.535
        45 -12.9377     80.0135    222.0181   7.4164272683e+01   1.7254423257e+01    0.3762394    0.2382353 -49.51  0.002116212    1.914    0.477
        46 -13.4863     77.3789    219.7602   7.4524219934e+01   1.8041721394e+01    0.4064938    0.2988255  86.30  0.001678772    1.461    0.315
        47 -11.0501    222.3219    225.8635   4.6079776382e+01  -2.5419743726e+00    0.1596499     0.117358 -11.27 0.0006619305    1.122    0.109
        48 -14.5185      2.3239    218.5630   9.0442777686e+01   2.6298849304e+01    0.4939972    0.2336248  65.77  0.002167311    1.686    0.407
        49 -11.1132    116.4834    225.4898   6.6659384705e+01   1.1724309614e+01    0.1252115     0.107747  38.01 0.0001108311    1.026    0.025
        50 -11.2199    211.5017    222.9920   4.7501091487e+01  -8.3054580903e-01     0.169134    0.1680743 -88.17  0.001248575    1.745    0.427
        51 -12.2003    159.7861    222.4894   5.7242146717e+01   6.1791250447e+00    0.3241207    0.2096611  36.66  0.001129049    1.427    0.299
        52 -12.4149    124.7995    221.8512   6.4433016452e+01   1.1228938572e+01    0.2772038    0.1523993  41.86  0.001437518    1.645    0.392
        53 -11.3669    114.3270    222.2939   6.6734693181e+01   1.2610652076e+01    0.1225411   0.09430738  -2.86 0.0007021162    1.625    0.384
        54 -12.5911    246.4181    220.7079   4.1268961670e+01  -4.6903786475e+00     0.205564    0.1511677  -9.53 0.0006795901    1.076    0.071
        55 -12.7480    173.9240    219.8158   5.4023419715e+01   4.6320207588e+00    0.2780226    0.2328911 -44.17 0.0007201119    1.447    0.309
        56 -11.8491    178.2530    228.5258   5.4500823502e+01   2.7051025076e+00    0.2006584    0.1532802 -28.65 0.0005901455    1.354    0.261
        57 -12.7270    145.2337    216.5233   5.9369950023e+01   9.2646329027e+00    0.3897573    0.3429514 -29.20  0.002547374    1.217    0.178
        58 -13.3256    139.7237    212.4918   5.9954512620e+01   1.0788802307e+01    0.6317838    0.3467551 -43.79  0.002438864    1.987    0.497
        59 -12.0238    142.6802    205.0604   5.8204757770e+01   1.1720854300e+01    0.4164394    0.2158958  39.75  0.001181696    1.803    0.445
        60 -12.5844    145.6367    201.6199   5.7024695668e+01   1.1916742688e+01    0.3152209    0.2528704  86.22  0.001150772    1.837    0.456
        61 -10.3821    218.7013    218.7182   4.5542254207e+01  -1.1522123477e+00     0.119068   0.07435412  -1.42 0.0002568503    1.544    0.352
        62 -11.0292     94.4444    218.4447   7.0626135636e+01   1.6070572945e+01    0.1266758    0.1090876  48.31 5.408791e-07    1.022    0.022
        63 -12.3258    129.9937    216.4962   6.2609858312e+01   1.1469016699e+01     0.180894    0.1736052 -31.62 0.0004298401    1.158    0.137
        64 -13.1731    107.7333    214.7071   6.7247557589e+01   1.4979366766e+01    0.4154461    0.2598094  67.09  0.001520465    2.154    0.536
        65 -10.9889    226.0001    216.4917   4.3918917488e+01  -1.7572855398e+00      0.15834   0.09985153  24.70 0.0003631714    1.473    0.321
        66 -13.2865     83.1375    214.1437   7.2681116040e+01   1.8440749092e+01     0.645402    0.2348655  43.60  0.002761625    2.365    0.577
        67 -10.4047    207.6912    215.6720   4.6986886558e+01   6.7938064794e-01    0.1263651    0.0787119  -3.41  0.000449909    1.659    0.397
        68 -13.2680    123.5137    210.0328   6.3137365067e+01   1.3626280274e+01    0.3192823    0.2652341 -87.49  0.001310922    1.496    0.332
        69 -13.3517    119.1290    213.4384   6.4565669675e+01   1.3606540207e+01     0.458262    0.1891419  46.72  0.001435789    2.531    0.605
        70 -12.1858    247.4030    212.9350   3.9812752094e+01  -3.8400883802e+00    0.1915596    0.1405452  11.87 0.0004435235    1.240    0.193
        71 -11.3227    215.4742    212.9441   4.5144268240e+01   5.3983074643e-02    0.1765683    0.1346957   6.26 0.0004420147    1.089    0.082
        72 -13.4385    159.0625    206.2999   5.4910042946e+01   9.0342375947e+00    0.4633071    0.3195815   7.90  0.001570721    1.612    0.380
        73 -11.1946    156.4139    213.2209   5.6544654509e+01   8.2173450453e+00    0.2365051    0.1675824 -65.01  0.001248874    2.062    0.515
        74 -11.5704     74.4557    212.0273   7.4422600411e+01   2.0004014715e+01    0.3360285    0.2030395  19.93  0.001230968    2.007    0.502
        75 -11.8311    129.4662    211.4989   6.2032755893e+01   1.2476048850e+01     0.129207    0.1160075  29.72 9.464514e-05    1.012    0.011
        76 -11.6718     90.9582    210.1503   7.0475840381e+01   1.8218314209e+01    0.1950638     0.175754  85.45 0.0003179307    1.149    0.130
        77 -10.7192    170.5754    210.2769   5.3187379272e+01   6.6557980901e+00    0.1245415   0.09548219  56.09 0.0003142816    1.825    0.452
        78 -11.0139     97.1996    210.2554   6.9070501077e+01   1.7339814824e+01    0.1870604    0.1029635 -76.25 0.0008629484    2.405    0.584
        79 -13.0603    229.2091    206.2316   4.1626453677e+01  -7.6798012309e-01    0.3522855     0.296782 -13.35  0.001104956    1.243    0.196
        80 -14.4683     24.7762    197.5144   8.4627553253e+01   2.8825953016e+01    0.9059997    0.6408558  19.49  0.003671553    1.745    0.427
        81 -11.9007    180.0260    207.9850   5.0928411269e+01   5.6653480248e+00    0.2607736    0.1725102  20.85  0.000941797    1.423    0.297
        82 -12.5437    103.9392    206.6655   6.7093637378e+01   1.7127404287e+01    0.3246444    0.2463863  69.53  0.001518611    1.487    0.328
        83 -11.8633     71.2150    206.6862   7.4630883488e+01   2.1552372847e+01    0.3671006    0.2825132  24.00  0.001762523    1.427    0.299
        84 -12.8922    116.5786    205.1812   6.4020006996e+01   1.5597583174e+01    0.2797553    0.2122095 -76.91  0.001568135    1.612    0.380
        85 -12.6768    238.9341    204.6968   3.9749678089e+01  -1.7696517837e+00    0.2162052    0.1646511   0.03  0.000319409    1.085    0.078
        86 -15.2303     75.4637    170.1581   6.9247686844e+01   2.9448224608e+01     1.287015    0.7130152  89.36  0.005235437    2.465    0.594
        87 -14.1336     62.8077    170.8292   7.2716571760e+01   3.0969961783e+01    0.6354991    0.4178802  26.36  0.003183807    1.684    0.406
        88 -13.0116     61.7272    177.2773   7.3777456151e+01   2.9520125812e+01    0.3824835    0.2791625  15.44 0.0009634612    1.715    0.417
        89 -13.5022     90.2443    201.0855   6.9572380227e+01   2.0229186001e+01    0.8333079    0.5988271  18.02   0.00390516    1.620    0.383
        90 -13.9445     93.5813    193.4233   6.7808050180e+01   2.1431119153e+01     1.585367    0.5664549  30.22  0.005369737    2.919    0.657
        91 -13.4272     89.7305    182.7297   6.7307088841e+01   2.4409282979e+01    0.5425315    0.3468628 -70.28  0.001444777    1.662    0.398
        92 -13.9349     73.4318    186.6280   7.1900554159e+01   2.5769959101e+01     1.097808    0.8400512  70.79  0.006154206    1.290    0.225
        93 -12.9730     65.1458    182.3616   7.3487783811e+01   2.7859542067e+01      0.56068    0.4204523 -79.20  0.002843819    1.298    0.230
        94 -13.6490     93.9944    184.0601   6.6427056809e+01   2.3479472715e+01    0.6132135    0.2657096 -59.97   0.00199638    2.348    0.574
        95 -12.5580    110.6676    203.4358   6.5128580788e+01   1.6818172303e+01    0.2634822    0.1993334  53.51 0.0007851738    1.330    0.248
        96 -13.3871    120.9730    200.8031   6.2401104261e+01   1.5826043379e+01    0.5816536    0.3203636  69.80  0.002026584    4.316    0.768
        97 -13.0064    122.0636    195.7721   6.1405719447e+01   1.6687438054e+01    0.3287684    0.2804414  75.40  0.001763897    1.364    0.267
        98 -12.3396    136.2929    199.8932   5.8809625826e+01   1.3678127609e+01    0.3572926    0.2253075 -80.03  0.001141781    3.012    0.668
        99 -11.5379    212.0520    199.6938   4.3456719440e+01   2.4350484122e+00    0.1930536    0.1720374 -41.28 0.0008608127    1.526    0.345
       100 -12.4527    219.4263    198.2403   4.1891837808e+01   1.6458294244e+00    0.2138904    0.1721261  -3.72 0.0002674404    1.036    0.035
       101 -11.6231    180.7391    199.0083   4.9261702477e+01   7.0495603201e+00    0.2433386     0.173618  42.45   0.00137231    1.568    0.362
       102 -13.3105    173.4826    196.2195   5.0238950967e+01   8.6260418058e+00    0.4269011    0.3265686  62.38  0.001802612    2.008    0.502
       103 -12.0441    201.9048    195.9023   4.4631404530e+01   4.4475789480e+00    0.2595635    0.1644447 -37.71  0.001310282    1.552    0.356
       104 -11.8786    166.3988    196.5094   5.1751018412e+01   9.6626591461e+00    0.2211905    0.2092458   0.75 0.0002602019    1.130    0.115
       105 -11.1989    163.3457    192.7006   5.1731332007e+01   1.0829273908e+01    0.2178556    0.2031315  64.68  0.001010666    1.365    0.268
       106 -12.0221    159.9386    190.7173   5.2109328631e+01   1.1735413737e+01    0.2979671      0.26367  51.20  0.001055535    1.329    0.247
       107 -11.3293    138.2988    197.3065   5.7955568907e+01   1.3873759782e+01    0.1343547    0.1011224  -7.75 0.0002204795    1.592    0.372
       108 -12.9365    110.6877    196.1094   6.4105216732e+01   1.8340340359e+01    0.3796731    0.2716358  -1.44  0.001113816    1.953    0.488
       109 -12.3203    191.3435    195.9420   4.6640996319e+01   5.9831042572e+00    0.3282712     0.233248 -17.03 0.0003905662    1.357    0.263
       110 -11.7460    189.0774    192.3368   4.6431307315e+01   6.9206302142e+00    0.2534772    0.1978889  -7.59 0.0003681832    1.189    0.159
       111 -12.2068    153.4310    195.3666   5.4310679013e+01   1.1887654148e+01    0.2373139    0.2165334  33.90 0.0004263332    1.139    0.122
       112 -11.3365    212.4880    193.4972   4.2260595973e+01   3.3146301659e+00    0.1265775    0.1045293  -7.67 0.0008102104    1.042    0.040
       113 -13.1763     92.0156    188.2445   6.7497179130e+01   2.2815054566e+01    0.3785494    0.2965185 -21.42 0.0007278836    1.681    0.405
       114 -12.8617    133.7892    190.3638   5.7854091304e+01   1.5967704353e+01     0.338588    0.2336853  22.40   0.00173052    1.520    0.342
       115 -12.7911     50.7435    190.0410   7.7882967419e+01   2.7796767850e+01    0.3709477     0.252912  14.19  0.001146008    1.923    0.480
       116 -13.3725    111.3980    187.8298   6.2717340440e+01   2.0011080652e+01    0.5572089    0.2838033  29.95  0.002424525    2.016    0.504
       117 -11.7732    240.9811    187.9777   3.6408259437e+01   2.6767626880e-01    0.1597429    0.1371756 -37.95 0.0003324944    1.560    0.359
       118 -12.4037    209.1994    185.5266   4.1373465731e+01   5.0351203822e+00    0.4184532    0.1814948 -28.17  0.001011646    2.468    0.595
       119 -15.3772      8.7193    186.0803   8.7712916183e+01   3.2901007913e+01     1.597828    0.7887761  59.29  0.007750219    1.724    0.420
       120 -13.7687    127.3397    185.9563   5.8626309850e+01   1.7909196642e+01    0.4385725    0.3083481 -32.13  0.002219493    1.638    0.389
       121 -13.3829    122.1490    186.0204   5.9862887163e+01   1.8722000224e+01    0.3876687    0.2739707  39.39  0.001219339    1.346    0.257
       122 -11.9314     43.3005    186.7666   7.9415449684e+01   2.9409204231e+01    0.2259233    0.1659819  70.52  0.000676184    1.215    0.177
       123 -11.8880    248.0319    185.6458   3.4865742885e+01  -3.1117250890e-01    0.2444606    0.1761608  11.52  0.001091771    1.330    0.248
       124 -12.2793    163.9524    185.3635   5.0292348539e+01   1.2098865014e+01    0.2758173    0.1951056 -45.43   0.00146564    1.471    0.320
       125 -12.7290     49.0890    182.5318   7.7578515058e+01   2.9768992824e+01    0.3800888    0.2736489  44.85  0.001575724    1.300    0.231
       126 -12.3436    201.8199    182.5202   4.2163051076e+01   6.6275763092e+00    0.2318299    0.1944516 -10.72 0.0003639471    1.012    0.012
       127 -11.3519    198.1639    180.1944   4.2405562446e+01   7.5786142924e+00    0.2039124    0.1740181  16.94 0.0002716381    1.162    0.139
       128 -11.7845    157.0137    185.6445   5.1840463108e+01   1.3169380064e+01    0.2504631    0.1843468 -15.86  0.001175943    1.522    0.343
       129 -12.1822    151.6973    181.7734   5.2312795405e+01   1.4798004754e+01    0.3160215    0.1811374  19.24 0.0009661337    2.235    0.553
       130 -12.5260    142.2659    181.1813   5.4338552021e+01   1.6475837650e+01    0.2455476    0.2172598  35.28 0.0002696625    1.114    0.102
       131 -13.7731    118.1719    179.6283   5.9772751162e+01   2.0747443189e+01    0.5109445     0.332721  56.46  0.001480169    1.789    0.441
       132 -11.4257    246.2388    179.7328   3.4035068277e+01   7.4806287756e-01    0.1659272    0.1132445  -7.68 0.0004305455    1.308    0.235
       133 -14.0133    106.1286    176.6132   6.2261282759e+01   2.3342967006e+01    0.4169722     0.362082 -71.59  0.001139616    1.193    0.161
       134 -11.8224     17.9537    179.6509   8.5128711929e+01   3.3634391224e+01    0.2896137    0.1232325  47.19  0.001381121    2.038    0.509
       135 -12.0975     16.9850    175.4777   8.5100087976e+01   3.4728539680e+01     0.306429    0.1577146 -78.29 0.0004276361    1.699    0.411
       136 -11.7706     24.3434    178.6731   8.3478191619e+01   3.3287656205e+01    0.2726206    0.1573382  63.56  0.000843411    1.566    0.362
       137 -12.6422     22.7428    175.1933   8.3630199476e+01   3.4283233162e+01    0.3666594    0.2206972 -56.62  0.001338148    1.805    0.446
       138 -13.6606    122.4624    167.5434   5.6602105582e+01   2.2748711018e+01    0.5296721    0.3376402  10.51  0.002197061    2.359    0.576
       139 -13.0811    126.8711    166.8627   5.5382309798e+01   2.2151566314e+01    0.3690179    0.2853484 -29.29  0.001274153    1.439    0.305
       140 -14.0469    127.4831    175.9841   5.6891317879e+01   2.0027480670e+01    0.4981493    0.3986119  47.12  0.002224458    1.268    0.212
       141 -13.9317    126.9013    171.4080   5.6213290066e+01   2.1131789897e+01    0.7383498    0.4278449  12.44  0.001887183    2.927    0.658
       142 -11.4927     53.8865    177.7178   7.5859745662e+01   3.0373926785e+01     0.263526    0.1515325  49.84  0.001290666    1.634    0.388
       143 -13.8656    149.1794    175.4767   5.1716072443e+01   1.6489987742e+01    0.7091419    0.3908377  54.11  0.001334897    2.503    0.600
       144 -12.6758    137.5280    177.0301   5.4691128621e+01   1.8128707492e+01    0.2753957     0.207288  35.18 0.0005454916    1.294    0.227
       145 -12.0783    247.8761    175.9026   3.3053577043e+01   1.0772967726e+00    0.2057061    0.1549721 -16.67 0.0002610292    1.008    0.008
       146 -11.8939    225.5083    175.8062   3.6640605109e+01   4.1843934328e+00    0.2679209    0.1658873  39.79  0.001293273    1.868    0.465
       147 -11.9763    101.0340    175.9859   6.3448895270e+01   2.4282080893e+01    0.1647806    0.1579511  87.73            0    1.037    0.035
       148 -11.2064    242.5005    175.4616   3.3802875992e+01   1.8587676271e+00    0.1251291   0.09692995 -16.12 9.576172e-05    1.017    0.017
       149 -12.5513    206.6658    174.3355   3.9673029293e+01   7.2444574953e+00    0.3697316    0.2489371  26.65  0.002038732    1.523    0.343
       150 -11.7304     12.6694    173.9584   8.6084635473e+01   3.5464694391e+01    0.4242955    0.1899696 -46.75  0.001826579    3.151    0.683
       151 -11.5294     13.0865    161.6506   8.5180809886e+01   3.8479074006e+01    0.3484085    0.1772532  70.75  0.001686555    1.842    0.457
       152 -13.7687     18.3774    168.3925   8.4262122416e+01   3.6350489859e+01    0.6065767    0.2963699  28.03  0.001894083    2.163    0.538
       153 -13.4820     13.0054    167.0325   8.5562757457e+01   3.7139899839e+01    0.4970119    0.3646207  41.88  0.003018948    1.378    0.274
       154 -13.2136     88.6419    153.1368   6.2957052485e+01   3.1765695676e+01    0.3877427    0.2871613  62.31  0.001852457    1.467    0.318
       155 -15.7014     78.4912    154.0082   6.5971876129e+01   3.3077051517e+01     1.362905    0.8444163  84.51  0.004358273    2.128    0.530
       156 -13.9432     90.5590    172.0875   6.5543002811e+01   2.6798616737e+01    0.5600164    0.3509718 -58.06  0.001257512    1.588    0.370
       157 -13.7771     91.8739    166.1925   6.4272159965e+01   2.8025106860e+01    0.5059397    0.2571468  46.15  0.000291184    1.984    0.496
       158 -13.2426     30.2879    169.1754   8.1204583159e+01   3.5057147284e+01    0.6590697     0.229457 -56.04  0.002309309    2.947    0.661
       159 -12.4024     41.5120    172.1841   7.8522872088e+01   3.3148668104e+01    0.2280371    0.1796428  43.90 0.0005585714    1.259    0.205
       160 -15.3288      6.9081    197.7122   8.8672904960e+01   3.0392219166e+01     1.020763    0.7092925  71.74  0.006633068    1.134    0.118
       161 -11.6882    235.4165    170.9848   3.4058570717e+01   3.5032447069e+00    0.2290801    0.1502518   4.29  0.001287411    1.659    0.397
       162 -10.7926    166.0393    170.9644   4.7107668764e+01   1.4520789546e+01     0.165921    0.1506219  11.09 0.0009529953    1.061    0.058
       163 -11.7893    160.0060    168.9940   4.8035121687e+01   1.5950773633e+01     0.191116    0.1765445 -89.99 0.0004869152    1.362    0.266
       164 -13.2428    153.0040    170.0838   4.9816078722e+01   1.6941598963e+01    0.3927175    0.2869275 -38.86 0.0008273653    1.351    0.260
       165 -12.8210    156.9441    165.6189   4.8042073397e+01   1.7170643808e+01     0.293557     0.238985 -29.32  0.001570045    1.205    0.170
       166 -13.0541    152.0737    165.3326   4.9087595229e+01   1.8087495801e+01    0.4358943    0.2451555  29.28  0.001199421    1.956    0.489
       167 -12.8465    100.2670    171.0426   6.2855182243e+01   2.5561038384e+01    0.2528184    0.2072927  -3.41 0.0008895083    1.530    0.346
       168 -11.8061    197.8011    169.7199   4.0406562785e+01   9.4378702320e+00    0.2374277    0.1646399 -24.52 0.0007157321    1.341    0.255
       169 -12.3938    110.0923    169.9205   6.0144833044e+01   2.4256499855e+01    0.2156495    0.1894325  72.80 0.0003792778    1.211    0.174
       170 -14.0415     51.2761    166.0283   7.5251993538e+01   3.3591511836e+01    0.7322164     0.322661  58.43  0.002849338    2.663    0.625
       171 -12.9638     47.5537    161.3487   7.5735347076e+01   3.5215919415e+01    0.3486128    0.2318673  58.41  0.001435014    1.468    0.319
       172 -12.8725     84.3338    149.9081   6.3608930529e+01   3.3252019161e+01    0.3429149    0.2922705 -51.03 0.0007522401    1.192    0.161
       173 -12.4756     40.8878    166.8521   7.8158796823e+01   3.4553181602e+01     0.360866    0.1096789 -64.23  0.001345833    2.802    0.643
       174 -12.9577    201.8841    165.8468   3.8848629189e+01   9.4491903255e+00    0.4527046    0.2481256  39.69 0.0006229517    1.967    0.492
       175 -12.9839    212.2958    163.9346   3.6557513816e+01   8.1007893876e+00    0.2917389    0.2320643 -39.02 0.0005305379    1.293    0.226
       176 -13.9585     95.5609    159.9114   6.2232845576e+01   2.8989065636e+01    0.6629004    0.3229326 -63.01 0.0009860046    2.139    0.532
       177 -12.8886    110.6546    165.0891   5.9153317131e+01   2.5294311845e+01    0.2951086    0.2180345  26.27  0.001451603    1.456    0.313
       178 -11.3931     97.1785    188.8572   6.6316259424e+01   2.1924922565e+01    0.2033438    0.1955831  82.96 0.0008035629    1.058    0.054
       179 -11.1886     45.1710    165.1630   7.6819452068e+01   3.4511314308e+01    0.1984307    0.1418331  75.52  0.000962941    1.327    0.246
       180 -14.0250     64.5388    162.2609   7.1129412557e+01   3.2900938942e+01    0.4498898    0.3432052 -60.31   0.00239852    1.294    0.227
       181 -13.4981     38.0694    161.2547   7.8355569359e+01   3.6277132635e+01    0.4947886     0.363382  18.99  0.002321578    1.654    0.395
       182 -12.6191     25.9996    153.5461   8.0976715055e+01   3.9449097033e+01    0.5791199    0.2101283  23.06  0.002286409    3.153    0.683
       183 -11.4961     32.3550    157.6923   7.9585214117e+01   3.7773490072e+01    0.2809135     0.169713  75.92  0.000818524    1.622    0.383
       184 -12.7330     29.2062    156.4122   8.0343110534e+01   3.8408458025e+01    0.4001166    0.3395384  17.41  0.002397658    1.451    0.311
       185 -12.3613     25.4490    161.5388   8.1844949698e+01   3.7444318156e+01    0.3278969      0.25807  53.85  0.001955525    1.219    0.180
       186 -12.2956     19.5104    160.7410   8.3390456187e+01   3.8175700440e+01    0.3298043    0.1814285  14.42  0.001268716    2.407    0.585
       187 -12.9149    169.8554    159.7078   4.3987346866e+01   1.6074620851e+01    0.3205718    0.3032575  54.22  0.001495958    1.246    0.198
       188 -12.9544      4.1510    159.7575   8.7427145114e+01   3.9630452912e+01    0.4036478    0.2758094  79.09  0.002386385    1.199    0.166
       189 -12.1478      2.7986    152.8303   8.7380792088e+01   4.1469880199e+01    0.3236964    0.2091793  69.21  0.001062832    1.343    0.255
       190 -12.1771      5.3182    150.6711   8.6553786571e+01   4.1847300747e+01    0.4539705    0.1761331  85.47  0.001875969    2.444    0.591
       191 -13.1351    117.4966    157.9853   5.6062049373e+01   2.5809081095e+01    0.3015579    0.2284558  25.97   0.00147463    1.427    0.299
       192 -12.0025    105.3537    158.8459   5.9413463193e+01   2.7661539566e+01    0.2347689    0.1864214 -82.76 0.0007837842    1.414    0.293
       193 -11.2211    146.0000    157.9719   4.8997111316e+01   2.0737657141e+01    0.2389282   0.08226496 -47.86 0.0004435864    2.853    0.649
       194 -12.7985    133.3985    157.2542   5.1892911594e+01   2.3170915439e+01    0.3417512    0.2644161 -81.32  0.001629566    1.698    0.411
       195 -12.3076    191.0038    155.8888   3.8838324087e+01   1.3068380861e+01    0.3184641    0.1937989 -47.56  0.001398208    1.725    0.420
       196 -12.3608    112.0065    156.0041   5.7115486895e+01   2.7224738192e+01    0.2535826    0.1830192  72.72  0.001144288    1.802    0.445
       197 -13.9108     62.9323    153.6179   7.0367058861e+01   3.5333679557e+01    0.5239631    0.3172857 -73.65  0.002247748    1.602    0.376
       198 -10.7330     54.3347    156.3018   7.3203659837e+01   3.5720049357e+01    0.1411577    0.1053246 -36.80 0.0007035825    1.659    0.397
       199 -11.1926    141.4892    155.5260   4.9563066326e+01   2.2092233351e+01    0.1463211    0.1437856 -29.15 2.266765e-05    1.042    0.041
       200 -11.9698     20.6605    154.3757   8.2555199262e+01   3.9706455564e+01     0.228948    0.1958952 -87.24 0.0002829531    1.072    0.067
       201 -11.3008    237.7459    153.8701   3.0239515574e+01   5.7896319095e+00     0.237691      0.16279  18.30  0.001028107    1.653    0.395
       202 -11.5972    224.3403    152.7524   3.2156383915e+01   8.0392554373e+00    0.3385182    0.1425661 -23.30  0.001210407    3.346    0.701
       203 -12.0414    212.3059    153.8063   3.4436310146e+01   9.8149041750e+00    0.2126301    0.1569978 -44.39 0.0008489246    1.412    0.292
       204 -12.9300     57.5560    143.9412   7.0517273526e+01   3.8566904979e+01    0.3732132    0.2730014 -39.29  0.001171041    1.598    0.374
       205 -11.8355     51.1459    152.8373   7.3668414592e+01   3.7004564692e+01    0.2328312    0.2213715 -82.59 0.0005770677    1.118    0.106
       206 -13.4146     55.5308    150.2374   7.2037696133e+01   3.7156946779e+01    0.3970564    0.3332695 -83.22   0.00173334    1.080    0.074
       207 -12.0328     44.9497    152.6566   7.5441620911e+01   3.7763338321e+01    0.1994723    0.1730356  59.02  0.001149613    1.138    0.122
       208 -11.1647     13.0693    153.4966   8.4601650882e+01   4.0553401100e+01    0.2225275    0.1377995  53.23  0.001197468    1.524    0.344
       209 -12.2423     19.7854    149.8624   8.2414031088e+01   4.0950273800e+01    0.4893785    0.2553708   5.60  0.001778443    2.955    0.662
       210 -12.1833     12.2926    149.8166   8.4541901926e+01   4.1560563281e+01    0.2474887    0.1975523  72.57 0.0003706883    1.108    0.098
       211 -11.9880      9.3253    147.3090   8.5195657214e+01   4.2428599796e+01    0.2264687    0.2113778  85.53  0.001023926    1.184    0.155
       212 -11.3391    249.1805    151.8904   2.8112478661e+01   4.4117414471e+00     0.178812    0.1393465 -30.58 0.0002827872    1.154    0.133
       213 -13.4409    169.7175    151.0608   4.2156027258e+01   1.7830394623e+01    0.5393006    0.3222558  41.44  0.002453004    1.763    0.433
       214 -12.2180    133.4743    151.0045   5.0576911790e+01   2.4574494271e+01    0.2366942     0.146118 -50.29  0.001032263    1.595    0.373
       215 -13.4394    124.8532    148.4882   5.2235579632e+01   2.6735741123e+01    0.4683741    0.3363815 -79.87  0.001332123    1.893    0.472
       216 -13.4841    120.6288    144.2343   5.2433712689e+01   2.8515127997e+01    0.5829945    0.3350482  32.49  0.001417932    1.903    0.474
       217 -13.2326    108.7182    149.2473   5.6671599588e+01   2.9426521921e+01    0.4375715    0.3264136 -51.01  0.001012961    1.311    0.237
       218 -13.5569    102.1961    143.0063   5.7213032163e+01   3.2095748778e+01    0.6506056    0.4129074  66.27  0.002336343    2.181    0.541
       219 -14.2085     83.9840    144.5430   6.2742919060e+01   3.4684956681e+01     0.624692     0.374411  39.26  0.002765563    1.694    0.410
       220 -12.9165     95.7544    149.3824   6.0276678188e+01   3.1576622731e+01    0.2988178    0.2400103 -43.07 0.0009743688    1.304    0.233
       221 -13.4474     40.9594    148.1530   7.6061197015e+01   3.9383561300e+01    0.4798553    0.2514273 -60.09  0.001607287    1.750    0.429
       222 -12.9815     30.4923    139.3029   7.8166925558e+01   4.2787757426e+01    0.4212654    0.2741118 -52.49  0.002103033    1.566    0.362
       223 -13.5525     26.4008    148.0103   8.0327678721e+01   4.0858001403e+01     0.720398     0.334305 -81.90  0.002904553    1.974    0.493
       224 -12.6366     32.0709    147.4800   7.8608774681e+01   4.0466453481e+01    0.3675929    0.2327611  50.83  0.001302396    1.562    0.360
       225 -11.6166    146.8916    148.7015   4.6807184331e+01   2.2593245197e+01     0.249287    0.1970781 -33.89 0.0002865884    1.253    0.202
       226 -12.3556    151.4074    145.7654   4.5090024990e+01   2.2378861396e+01    0.2582319    0.2464374  -0.49 0.0002828921    1.046    0.044
       227 -12.9286     70.6618    143.4437   6.6491423028e+01   3.6945349807e+01    0.2867261    0.2605532  87.59  0.000599449    1.042    0.040
       228 -13.6056     15.3175    141.2998   8.2966086405e+01   4.3550813321e+01    0.5857401    0.4008144  17.59  0.002750535    1.800    0.445
       229 -10.6998    187.4546    143.4249   3.6786868967e+01   1.6046720449e+01    0.1441651    0.1299153 -24.97 5.740096e-05    1.032    0.031
       230 -11.1573    170.3132    145.3132   4.0745779985e+01   1.8881520423e+01    0.1517385       0.1123  -6.40 0.0005399722    1.636    0.389
       231 -12.4696     51.7158    142.4438   7.2067837943e+01   3.9682739536e+01    0.3720082    0.2175703  46.61 0.0006313095    1.745    0.427
       232 -11.3038    178.2336    142.5460   3.8447856949e+01   1.7939549212e+01    0.2624795    0.1454586  47.71  0.001124066    2.043    0.511
       233 -13.2300     13.5716    134.8868   8.2918706079e+01   4.5375679690e+01    0.4938436    0.2663973  76.96  0.001584522    1.813    0.448
       234 -13.1406     95.1189    140.1913   5.8659554399e+01   3.4007063622e+01    0.4233365    0.2610889 -31.48  0.001357178    2.207    0.547
       235 -12.7304     39.5590    140.5243   7.5528335079e+01   4.1559991478e+01    0.3640108    0.2439574 -26.85 0.0009738932    2.078    0.519
       236 -11.1243     36.3339    138.3196   7.6242827615e+01   4.2482204223e+01    0.1509776     0.127224  86.23 0.0005174352    1.065    0.061
       237 -11.5138    132.0110    140.1639   4.8570502641e+01   2.7343146894e+01    0.2507932     0.181482   4.78 0.0007687212    1.939    0.484
       238 -10.9799    109.4878    137.9982   5.4109818016e+01   3.2057493252e+01    0.2400792    0.1476381 -52.03  0.001020159    1.561    0.359
       239 -11.5252    232.9852    136.9835   2.7395652109e+01   9.2149477894e+00    0.2041689    0.1659721 -28.15 0.0003657434    1.041    0.039
       240 -13.6559    117.5474    134.9609   5.1206324758e+01   3.1318698882e+01    0.6643403    0.3620458  54.73  0.002320586    2.325    0.570
       241 -12.7218     46.3835    136.2209   7.2813163837e+01   4.1970416509e+01    0.2610785    0.2382159 -68.47 0.0005215826    1.100    0.091
       242 -12.2208     90.1050    135.9131   5.9257127703e+01   3.5935855095e+01    0.2752005    0.2185144  55.49 0.0004128188    1.331    0.249
       243 -13.4724     84.9033    134.6868   6.0567285503e+01   3.7097588420e+01    0.5103441    0.3377122 -45.36  0.002296996    1.549    0.355
       244 -13.6104    101.8225    134.1048   5.5435195856e+01   3.4397433680e+01    0.7402861    0.4107659  16.69  0.002518769    3.182    0.686
       245 -11.7484    102.1799    129.8412   5.4380290274e+01   3.5408979401e+01    0.3059344    0.1886878 -52.02 0.0004742184    1.538    0.350
       246 -10.8829    209.7632    134.0449   3.0519250941e+01   1.3693264994e+01    0.1882581    0.1037225 -37.45 0.0004926792    1.565    0.361
       247 -13.6617     57.1908    133.5118   6.8968615485e+01   4.1399930431e+01     0.601024    0.2228712  38.82  0.002208385    2.669    0.625
       248 -11.4125    128.2757    133.3963   4.7972853452e+01   2.9643580077e+01    0.2067248    0.1487316  50.15 0.0008446941    1.501    0.334
       249 -13.2165     35.4386    131.6245   7.5652435033e+01   4.4373746215e+01    0.4799269    0.2609052   6.98  0.002010012    2.759    0.638
       250 -13.0991     35.4986    128.0435   7.5142120516e+01   4.5336563808e+01    0.3652438    0.2451573  74.85   0.00109495    1.555    0.357
       251 -11.2809    230.1413    130.6219   2.6432631500e+01   1.0722057785e+01    0.2180734    0.1529801 -38.92 0.0004040876    1.242    0.195
       252 -11.8544     93.8490    129.8263   5.6844262322e+01   3.6873641622e+01    0.4038648    0.1125874 -58.23  0.001101647    3.802    0.737
       253 -13.4451     48.5905    130.0845   7.1170647863e+01   4.3372589097e+01    0.4824358    0.2579253  37.84  0.002131443    1.938    0.484
       254 -10.9800     19.2360    131.6043   8.0828207123e+01   4.5820268420e+01    0.1665065     0.133936  -7.57 0.0009408296    1.628    0.386
       255 -10.6318    195.2914    143.6817   3.5329185265e+01   1.4565008443e+01    0.1357047    0.1109855 -64.28 0.0003344113    1.601    0.375
       256 -11.0359      2.3996    131.2664   8.6051440273e+01   4.7069490643e+01     0.185071    0.1043335  88.38 0.0005999926    1.501    0.334
       257 -10.9221    199.4831    130.4698   3.1513302467e+01   1.6227417490e+01    0.1457765    0.1268363 -27.68 0.0001444417    1.002    0.002
       258 -14.5875     61.8590    127.0238   6.6320143277e+01   4.2534195186e+01       1.0777    0.3866271  38.93  0.003826547    2.792    0.642
       259 -14.0345     81.4190    127.6544   6.0187127551e+01   3.9492261441e+01    0.6113276    0.3993632  45.73  0.002215102    1.614    0.381
       260 -12.4473     75.0530    125.0434   6.1657172644e+01   4.1171448035e+01    0.2728856    0.2366105  19.27 0.0003897932    1.324    0.245
       261 -11.6837    187.9986    127.9626   3.3067872177e+01   1.8900710346e+01    0.2018979     0.167101 -57.47 0.0003388929    1.358    0.264
       262 -10.5723    130.5149    128.4471   4.6200231062e+01   3.0364288066e+01    0.1561736    0.1498961 -43.97 0.0001485383    1.006    0.006
       263 -12.2434    122.2520    127.0101   4.8048985950e+01   3.2333535012e+01    0.5389311    0.3143087  14.02  0.001732031    3.533    0.717
       264 -11.8918    169.4518    126.0903   3.6377503016e+01   2.2975663196e+01    0.2472549    0.2059419  24.03  0.001257161    1.323    0.244
       265 -12.8054     26.8536    124.7503   7.7556737547e+01   4.7034046099e+01    0.3152203    0.2976142 -85.87  0.001628301    1.129    0.114
       266 -11.7494      9.1266    117.1572   8.2640014052e+01   5.0406650266e+01    0.2149563    0.2010545  68.18     0.001378    1.194    0.163
       267 -12.8701     14.3447    117.5150   8.0900740875e+01   4.9967329643e+01    0.3124913    0.2526794 -51.79 0.0009651019    1.274    0.215
       268 -11.8946     15.1988    123.1830   8.1238727948e+01   4.8382926849e+01    0.2415909    0.1614607  53.35   0.00037928    1.551    0.355
       269 -13.0817     20.8652    122.8004   7.9311494943e+01   4.8058915074e+01    0.3406651    0.3054592 -18.74 0.0005014768    1.373    0.272
       270 -12.8941     23.0511    116.8440   7.7816708126e+01   4.9495578824e+01    0.6712952    0.2894368 -71.54  0.002381292    1.927    0.481
       271 -13.1099     18.1921    114.7915   7.9245502266e+01   5.0426829321e+01    0.3850245    0.2816711  62.42  0.001400891    1.419    0.295
       272 -11.7503    194.9673    122.6867   3.0481085958e+01   1.8533090088e+01    0.1935285    0.1841287 -17.31 0.0003558066    1.096    0.087
       273 -12.8111     63.9225    120.1587   6.4304332098e+01   4.4097309749e+01    0.3737538    0.1600198 -52.52  0.001176344    2.120    0.528
       274 -11.6224      5.1976    122.9020   8.4490110243e+01   4.9113186885e+01    0.2772081     0.135447 -77.07  0.001310168    1.647    0.393
       275 -12.1644    199.1922    121.4482   2.9416826737e+01   1.7937852634e+01     0.285577    0.2179993  -8.10 0.0009780277    1.494    0.331
       276 -13.2877    105.1068    121.4398   5.1539507798e+01   3.6982593757e+01    0.6227605    0.3278058  50.49  0.002356014    2.195    0.544
       277 -11.9285    189.0695    121.3451   3.1252675140e+01   1.9951606171e+01    0.1955394    0.1895702 -10.76 0.0004545063    1.108    0.097
       278 -13.6375     70.6460    119.5771   6.1941228479e+01   4.3286503543e+01    0.4836103    0.3183436  16.46  0.001965181    1.982    0.496
       279 -14.1416     78.0450    119.2470   5.9436545430e+01   4.2239328254e+01    0.6124845    0.4080622  47.17  0.002763168    1.614    0.381
       280 -11.4812    224.0807    120.3146   2.5028579386e+01   1.3484264644e+01    0.1788493    0.1645487 -27.68 0.0004344248    1.127    0.112
       281 -10.9761     10.7649    122.9847   8.2679462295e+01   4.8741809285e+01     0.184616   0.09574514 -77.20 0.0005726419    1.582    0.368
       282 -12.2291     94.8923    117.6846   5.3708065219e+01   3.9799640233e+01    0.3237637    0.2333441 -62.48  0.001467823    1.382    0.276
       283 -12.5358     57.3424    118.0403   6.6110404527e+01   4.5553918903e+01    0.2441974    0.2144314  -1.30 0.0007349363    1.366    0.268
       284 -10.9004     53.3106    117.3185   6.7356555881e+01   4.6262808569e+01    0.1541486    0.1058133 -37.78 0.0005052238    1.642    0.391
       285 -11.9425    196.6765    115.7865   2.8482047266e+01   1.9472991650e+01    0.2340294    0.1980407  27.21 0.0008072529    1.335    0.251
       286 -13.1241    104.4383    114.7257   5.0052830734e+01   3.8780408895e+01    0.3998198    0.3394877   3.37  0.001172261    1.420    0.296
       287 -12.1744    108.8660    111.9080   4.7998145020e+01   3.8618554087e+01    0.2980082    0.2454929  31.49 0.0009428327    1.325    0.245
       288 -10.4394     29.4106    116.4473   7.5543948221e+01   4.9060666482e+01    0.1435379    0.1208726 -74.31 0.0001160153    1.016    0.016
       289 -12.7571    115.5997    113.4955   4.6465447857e+01   3.6897982843e+01    0.4092591    0.3009676  -2.51  0.001299478    1.994    0.499
       290 -13.2733     83.1879    111.3975   5.5901858523e+01   4.3451078012e+01    0.6163582    0.2576162 -53.30 0.0005241418    2.181    0.541
       291 -13.5997     62.7215    111.1884   6.2820106748e+01   4.6668956970e+01    0.6809759    0.3253758 -71.01  0.002477824    2.399    0.583
       292 -11.9775     63.6281    105.7403   6.1259991473e+01   4.7991187340e+01    0.2756625    0.1925103 -49.31 0.0006025454    1.336    0.252
       293 -10.5256    229.6456    112.3136   2.2353373956e+01   1.3810856335e+01    0.1370813   0.09682073 -59.46 0.0007045157    1.735    0.424
       294 -12.9434     90.2898    110.3784   5.3331939436e+01   4.2483080813e+01    0.5638722     0.321887 -37.59 0.0005530529    2.004    0.501
       295 -12.1673     53.1444    110.3709   6.6036137356e+01   4.8161025514e+01    0.3181974    0.2553464  30.30  0.000940207    1.393    0.282
       296 -12.2413    217.8413    109.8667   2.3532086823e+01   1.6397015630e+01    0.2722523    0.2027653  61.01 0.0009464115    1.696    0.410
       297 -11.5531    170.4714    109.4279   3.1891236012e+01   2.6139123488e+01    0.1536554    0.1415172 -36.11 5.374344e-05    1.009    0.009
       298 -11.8710    121.8584    108.2565   4.3286950133e+01   3.6860446898e+01     0.261106    0.2359664 -56.13 0.0004790977    1.079    0.073
       299 -11.0676    113.4088    109.6977   4.6076092788e+01   3.8250884299e+01    0.2254628    0.1454792 -40.32 0.0008387869    1.545    0.353
       300 -12.5524      2.5115    107.1374   8.3927969417e+01   5.3456618944e+01    0.2805352    0.2263325 -52.33  0.001372377    1.263    0.208
       301 -11.3666    158.5005    106.4890   3.3666289197e+01   2.9337325978e+01    0.2601297    0.1545302  61.54 0.0008647119    2.182    0.542
       302 -13.4836     10.5891    105.2427   8.0788430532e+01   5.3512472544e+01    0.4553935    0.3413808  66.02  0.002063623    1.385    0.278
       303 -12.0515     12.7164    102.3244   7.9624957645e+01   5.4163422318e+01    0.2337052    0.1964387 -80.02 0.0005355527    1.043    0.042
       304 -11.7909    220.0268    104.2439   2.1853134232e+01   1.6928563341e+01    0.2284214    0.1702079 -36.15 0.0003289554    1.118    0.105
       305 -11.4204    105.6942    103.4977   4.6650433416e+01   4.1289208220e+01    0.2877174     0.195696 -69.82  0.001179764    1.844    0.458
       306 -11.0892    229.6800    103.0934   2.0198413405e+01   1.5304702307e+01    0.1929055    0.1479743 -34.07 0.0004272355    1.069    0.064
       307 -11.6729    182.8865    102.5291   2.7613127997e+01   2.4807202358e+01    0.2336704       0.1859 -37.78 0.0004821513    1.127    0.112
       308 -13.0727     78.8761     92.2989   5.2262612396e+01   4.9054608326e+01    0.4654142    0.2541617 -60.18  0.001277629    1.915    0.478
       309 -12.4547     78.8372    101.7146   5.4890799945e+01   4.6678472164e+01    0.3212253    0.2922901 -77.13 0.0006133736    1.122    0.109
       310 -12.7641     76.6737     97.0979   5.4400312563e+01   4.8219123152e+01    0.3250179    0.2651229 -25.37  0.000316533    1.371    0.271
       311 -11.3473     25.6568     98.5006   7.4071132873e+01   5.4246861779e+01    0.3295234    0.1978211  63.57   0.00151195    2.022    0.505
       312 -13.0484    162.6031     99.1224   3.0737270952e+01   2.9927457384e+01    0.4472503    0.2542111 -56.04  0.001319269    2.092    0.522
       313 -12.8984    158.0436     94.6329   3.0444855967e+01   3.1852849067e+01    0.4185549    0.1993298  55.75   0.00154083    2.414    0.586
       314 -12.1429    153.1697     99.6541   3.2960219542e+01   3.1932370874e+01    0.3590844    0.2986627 -79.26  0.001734017    1.436    0.303
       315 -11.7272     93.9993     99.5149   4.9197187142e+01   4.4528532448e+01    0.2309249    0.1593358  39.01 0.0006305007    1.549    0.354
       316 -11.7528     60.4885     99.4535   6.0893969733e+01   5.0097548500e+01    0.2444193    0.2371497 -37.16  0.000569553    1.099    0.090
       317 -11.0795     57.9321     97.2187   6.1299735508e+01   5.1040287582e+01    0.3058383     0.180502  26.47  0.001193077    1.948    0.487
       318 -12.6748      8.6674     97.5601   8.0543212545e+01   5.5682089408e+01    0.3330492    0.1935247 -89.23   0.00163819    1.616    0.381
       319 -12.3129     64.7396     95.8366   5.8394564805e+01   5.0427747802e+01    0.3919845    0.2083071 -38.99  0.001533052    2.104    0.525
       320 -10.5332     55.3566    101.2897   6.3241945495e+01   5.0309750087e+01    0.1555008    0.1087582 -30.19 0.0003506597    1.682    0.406
       321 -11.0038    118.1500     95.1021   4.0537194830e+01   4.0679014963e+01    0.2072095     0.182284 -72.01 0.0003022842    1.231    0.187
       322 -11.9744     31.9918     99.1814   7.1724345701e+01   5.3504702197e+01    0.5589876    0.2891007 -31.16  0.002264595    2.582    0.613
       323 -11.0416    191.6277    100.1542   2.5402670893e+01   2.3379959939e+01    0.2201786    0.1300315 -28.07 0.0009454512    1.730    0.422
       324 -10.6037     46.6712     93.2337   6.4689178384e+01   5.3535730167e+01    0.1400973    0.1080942  64.44 0.0002361308    1.524    0.344
       325 -11.6465    171.1469     91.7089   2.6908569049e+01   2.9448370484e+01    0.2387756    0.1961025 -86.28  0.001124042    1.468    0.319
       326 -11.6718     41.2476     91.7179   6.6502907686e+01   5.4558993401e+01    0.2317003    0.2028926  81.88 0.0003977191    1.234    0.190
       327 -12.5446    188.8652     90.9224   2.3433685822e+01   2.5643197623e+01    0.3333152    0.2217795  46.14  0.001184526    1.707    0.414
       328 -12.2317     68.9594     89.8583   5.5179746580e+01   5.1310313173e+01    0.2360889    0.1993937 -29.35 0.0003745938    1.240    0.193
       329 -11.2365     28.0415     90.4812   7.1624393085e+01   5.6191274075e+01    0.1923116    0.1439388  19.01 0.0006866452    1.568    0.362
       330 -11.3849     24.3406     88.6508   7.2798288282e+01   5.6989135307e+01    0.3870014    0.1409187 -51.05  0.001233569    2.307    0.567
       331 -10.4772    249.4230     89.5154   1.4587662561e+01   1.3857506024e+01    0.1323182    0.1018915 -36.89 6.751429e-05    1.014    0.014
       332 -11.9503    126.0428     86.9006   3.5836272953e+01   4.0748115384e+01    0.5289456    0.2240837 -41.80  0.001833946    2.242    0.554
       333 -11.7210      3.2316     88.0626   8.1461731490e+01   5.8480978135e+01    0.3069223    0.1780555 -79.28  0.001570029    1.446    0.309
       334 -11.5591      7.7839     87.3648   7.9485724385e+01   5.8438490086e+01    0.2603247    0.1320823  13.10  0.001021693    2.416    0.586
       335 -11.5670     11.2245     85.7011   7.7786766776e+01   5.8685273396e+01    0.3460132    0.1843249  79.86  0.001520412    2.269    0.559
       336 -12.1423    149.2597     87.9797   3.0440362755e+01   3.5199111020e+01    0.2294227    0.2014517 -43.81 0.0006592388    1.065    0.061
       337 -12.5914     54.6190     85.7805   5.9605302748e+01   5.4462463295e+01    0.4995257    0.3972265  -5.34  0.002541418    1.506    0.336
       338 -13.5553     64.8517     80.9235   5.4106976308e+01   5.4186690311e+01    0.5874732    0.4113767 -36.81  0.002467125    1.437    0.304
       339 -12.0163    160.8395     84.9939   2.7044298632e+01   3.3091235491e+01    0.2687216     0.188367  -4.29  0.001108319    2.128    0.530
       340 -10.7570    140.0707     90.5669   3.3381702211e+01   3.6786391908e+01     0.224286     0.142139  77.42  0.000806769    2.644    0.622
       341 -12.0705    150.0121     83.1488   2.8808444596e+01   3.5977528909e+01     0.270631    0.2134761 -38.31 0.0002487091    1.195    0.163
       342 -11.1555    133.3244     84.1194   3.3067600677e+01   3.9671199967e+01    0.2170456    0.1887757 -46.47 0.0002937648    1.093    0.085
       343 -12.0021    112.6518     82.9748   3.8331510229e+01   4.4573063897e+01     0.317544    0.2530993  57.87  0.000403462    1.380    0.275
       344 -11.7902    112.4340     78.4555   3.6903731383e+01   4.5594534689e+01    0.4124641    0.2600417 -67.44  0.001557962    2.364    0.577
       345 -11.8974     78.7380     82.2501   4.9253120753e+01   5.1536699989e+01    0.2521172    0.2261023 -75.50 0.0002798554    1.218    0.179
       346 -11.5566     73.9529     82.4832   5.1096223634e+01   5.2315822663e+01    0.2143572    0.1542005  36.41 0.0004564683    1.502    0.334
       347 -11.7799     88.9442     78.9729   4.4555766887e+01   5.0396589492e+01    0.2411875    0.2305109 -43.64 0.0007166167    1.027    0.026
       348 -11.1362     51.6974     79.3062   5.8970740507e+01   5.6498813214e+01    0.4091627    0.2367411  56.46  0.001657157    2.511    0.602
       349 -10.9668     55.0088     77.9678   5.7190172919e+01   5.6379527294e+01    0.2649909    0.2315848 -46.72 0.0009226296    1.026    0.025
       350 -13.5964      7.3807     76.6902   7.7965790920e+01   6.1255397989e+01     0.724779    0.3116807 -47.15   0.00270142    2.029    0.507
       351 -12.0078    161.6989     77.0108   2.4485174714e+01   3.4377160571e+01     0.228382    0.1939682 -39.54 0.0008511909    1.097    0.089
       352 -11.3234     70.6106     77.2323   5.0685026334e+01   5.4145781234e+01    0.2171325     0.131455 -42.50 0.0003979666    1.563    0.360
       353 -12.0168     86.2083     74.2266   4.3893506633e+01   5.2005372454e+01     0.500288    0.2181626 -45.00  0.001273079    2.155    0.536
       354 -12.2649     75.4193     75.2274   4.8178949364e+01   5.3786168514e+01    0.3961575     0.215526 -39.48  0.001605178    1.838    0.456
       355 -11.2661    115.6653     74.4521   3.4620336830e+01   4.5707447700e+01    0.2824723    0.1422558 -39.90  0.001067669    1.909    0.476
       356 -11.9129    156.1396     73.7760   2.4613833462e+01   3.6289791925e+01    0.2922615     0.194676 -47.43  0.001309712    1.442    0.306
       357 -11.5681    219.0062     72.2566   1.4091731791e+01   2.2291748742e+01    0.2359796    0.1706409 -38.25 0.0004489071    1.160    0.138
       358 -12.3563    106.5363     73.3033   3.6902310377e+01   4.7982699836e+01    0.4355455    0.2795265  63.90  0.001562541    2.034    0.508
       359 -11.3188     51.3680     73.3014   5.7297654204e+01   5.8034100257e+01    0.2035373    0.1315119 -62.75  0.000697931    1.554    0.357
       360 -11.2711     68.0386     72.3408   5.0058890538e+01   5.5732768208e+01    0.2013435    0.1908018 -19.66 0.0005659293    1.064    0.060
       361 -12.0161      3.1171     71.8106   7.9091723223e+01   6.2717474296e+01    0.2549576    0.1655948  89.95 0.0005389298    1.542    0.351
       362 -10.8840    178.6784     69.3114   1.9107931053e+01   3.1709154895e+01    0.1562308    0.1070618 -63.96 0.0003753004    1.651    0.394
       363 -10.6455     72.2468     68.9835   4.7228356907e+01   5.5782049067e+01    0.1974045    0.1214192 -47.71 0.0003096355    1.515    0.340
       364 -11.0122    154.1774     68.2141   2.3268397892e+01   3.7757746651e+01     0.209126    0.1715422 -69.33  0.000389376    1.316    0.240
       365 -10.3140     99.4494     68.4850   3.7399362444e+01   5.0526975802e+01    0.1548606    0.1467959 -32.12 0.0001479144    1.007    0.007
       366 -11.4642     53.3210     68.6844   5.4956329786e+01   5.8878519852e+01    0.1430615    0.1153717  80.98 0.0007040833    1.659    0.397
       367 -11.7734    241.8117     66.8999   1.0215377373e+01   1.8555910221e+01     0.190566    0.1723561 -50.15 0.0003738127    1.149    0.130
       368 -10.8667    225.4002     67.2551   1.2077467667e+01   2.1733785151e+01    0.1893416    0.1040094 -42.12 0.0002991205    1.480    0.324
       369 -12.1092     60.0519     66.9847   5.1478896075e+01   5.8272319690e+01    0.2289156    0.2019697 -37.50 0.0004970528    1.029    0.028
       370 -11.8928      9.9337     66.8764   7.4901838437e+01   6.3637448826e+01    0.2815811    0.2176705  16.55 0.0006789768    1.537    0.349
       371 -11.6166     10.0002     63.2344   7.4078770913e+01   6.4552025877e+01    0.2315574    0.1711433 -19.95 0.0007507337    1.472    0.321
       372 -11.8404     12.6783     60.1633   7.1987450880e+01   6.5157524464e+01     0.444395    0.1776869 -68.60  0.001860753    2.211    0.548
       373 -10.1875    185.2816     65.7139   1.7012300004e+01   3.0755356977e+01    0.1479054    0.1029505 -61.19 0.0001701953    1.521    0.343
       374 -10.4670    178.7500     64.3390   1.7643566829e+01   3.2509574119e+01    0.1536273    0.1015289 -56.85 0.0002287726    1.567    0.362
       375 -11.5896    164.9468     64.0046   1.9894831330e+01   3.5869722652e+01    0.2256438     0.204315 -47.51 0.0003312028    1.022    0.022
       376 -11.5612     92.0530     63.9061   3.8137244756e+01   5.3040610964e+01    0.2250243    0.2147238 -45.03 0.0003637746    1.061    0.057
       377 -10.4724     23.2904     63.5978   6.7491545210e+01   6.3528468010e+01    0.1383679    0.1007596  77.82 0.0006993599    1.801    0.445
       378 -11.7149    100.4529     62.0192   3.4693689575e+01   5.1611847808e+01    0.2641438    0.2188023  72.78  0.000324404    1.446    0.309
       379 -11.8913    109.0446     59.6238   3.1207167756e+01   5.0132844433e+01    0.2682781    0.2122851 -50.52  0.001306041    1.297    0.229
       380 -11.8715     41.6133     59.7704   5.7271885752e+01   6.2546876548e+01    0.3772174    0.2518671   7.09   0.00183903    1.834    0.455
       381 -12.2599     18.4388     59.4645   6.8821154125e+01   6.4932804860e+01    0.2884136    0.2061025 -62.71  0.001605223    1.224    0.183
       382 -11.8285    198.6642     57.8766   1.2913360518e+01   2.8893245408e+01    0.2337035    0.1972934  52.78  0.001318866    1.369    0.270
       383 -12.4433    192.8915     57.7325   1.3645687562e+01   3.0235244516e+01    0.2660399    0.1838335 -42.45 0.0003144853    1.268    0.212
       384 -12.0554     54.9774     57.4286   5.0176572198e+01   6.1221839877e+01    0.2368222    0.2172783 -61.99 0.0005257424    1.214    0.177
       385 -11.8219     40.5297     53.0912   5.5372650849e+01   6.4215082070e+01    0.2280677    0.1840677  -3.23 0.0005930819    1.318    0.241
       386 -11.8934    159.8831     57.2078   1.8675759843e+01   3.8216450079e+01    0.2341407    0.1935432 -64.22 0.0005733208    1.226    0.184
       387 -11.5382    100.5962     56.7647   3.2637014665e+01   5.2586245805e+01     0.223409    0.1374498 -47.10 0.0009550374    1.668    0.400
       388 -12.5624     23.6588     55.8465   6.5031541621e+01   6.5384771645e+01    0.3373354    0.2306338 -28.59 0.0005501331    1.465    0.318
       389 -11.9451     19.8378     53.0974   6.6218666198e+01   6.6363039094e+01    0.2340537    0.1947878 -68.58 0.0003205527    1.234    0.190
       390 -11.6090    120.8656     53.2733   2.5635530071e+01   4.8470183362e+01      0.32151    0.1585001 -46.45  0.001226905    2.132    0.531
       391 -12.5266    113.2998     52.0387   2.7136715906e+01   5.0495157045e+01    0.3878685    0.2591505  -1.23  0.001349722    2.257    0.557
       392 -12.1408    162.0836     50.6848   1.6211453027e+01   3.8690140162e+01     0.377054    0.2104985 -19.21  0.001512739    2.260    0.558
       393 -11.8918    176.0074     50.9648   1.4091535972e+01   3.5241179239e+01    0.2227359    0.1995217 -56.26 0.0003529041    1.018    0.017
       394 -12.3731    131.8645     49.4199   2.1619844904e+01   4.6406769093e+01    0.3715846    0.2631768 -15.20 0.0008723253    1.673    0.402
       395 -10.9039    106.5182     51.4818   2.8803316060e+01   5.2186632586e+01    0.1489738    0.1453308 -25.65 0.0008101002    1.013    0.012
       396 -13.5980     30.4276     49.8797   5.9399804401e+01   6.6120832531e+01    0.3455716    0.3134923 -87.96   0.00133609    1.373    0.272
       397 -11.7135     41.8117     46.9909   5.2301005622e+01   6.5386736634e+01    0.2253748    0.1984568  16.71 0.0004697372    1.210    0.174
       398 -11.4190     98.8738     45.0997   2.8462542140e+01   5.5037845284e+01    0.1977302    0.1683847  11.43  0.001024896    1.272    0.214
       399 -10.4441     97.7807    249.5979   7.3056370925e+01   9.9577885765e+00    0.1698412   0.08359032  41.80 0.0008984693    1.631    0.387
       400 -10.8166     90.2926     43.6870   3.0555271769e+01   5.7205379356e+01    0.1437876    0.1158678 -69.11 0.0004236728    1.593    0.372
       401 -12.1157    158.3041     41.4322   1.3840178129e+01   4.0976464983e+01    0.2548701    0.2212627 -55.10 0.0002701786    1.090    0.083
       402 -11.7918    114.7481    247.3034   6.9453279992e+01   8.1876408948e+00    0.2797034   0.08325458 -51.45  0.001207054    3.861    0.741
       403 -12.7612     34.6401     40.4222   5.3293327996e+01   6.7701149216e+01    0.3507408    0.2446999  18.58  0.001220883    1.544    0.352
       404 -12.5746    124.4154     39.5982   1.9611273979e+01   4.9748499334e+01    0.2593916    0.2457185 -62.97 0.0003487295    1.066    0.062
       405 -11.0956    119.6486     39.3345   2.0594726844e+01   5.0968388239e+01    0.2374674    0.1697134 -64.61  0.001103893    1.698    0.411
       406 -11.1519    220.6461     38.1558   5.3031133931e+00   2.6768949299e+01    0.1829457    0.1442316 -41.91 0.0007441486    1.102    0.093
       407 -13.2267      8.4956     36.0010   6.7216883384e+01   7.1128989577e+01    0.3623745    0.2433764 -70.69  0.001259189    1.587    0.370
       408 -11.3953    225.4989     36.0114   4.3411575736e+00   2.6012586611e+01    0.1910408    0.1090555 -34.85 0.0003242613    1.487    0.328
       409 -11.4606    106.5323     31.9891   2.0789241984e+01   5.5213114379e+01    0.2214252    0.1394867 -30.53  0.001029041    1.591    0.372
       410 -12.5288     96.3600     30.7110   2.2965550384e+01   5.7812424376e+01    0.2833937     0.278567   7.34 0.0006252754    1.043    0.041
       411 -12.3972     96.5063     27.5227   2.1484648673e+01   5.8207373599e+01    0.2622289    0.2369104 -54.96 5.007177e-05    1.221    0.181
       412 -12.9085     78.2742     31.3835   2.9023520167e+01   6.1780233164e+01    0.3353712    0.2608172  80.07  0.001238648    1.803    0.445
       413 -12.8978     22.1846     35.8585   5.8538190951e+01   7.0048411003e+01    0.3573399    0.1678689 -60.98  0.001285902    2.357    0.576
       414 -10.9915    175.7197     31.0325   8.0895578174e+00   3.8028093771e+01    0.1918085    0.1692694 -44.53 0.0002934409    1.089    0.082
       415 -11.6898    197.0254     44.0110   9.2945798190e+00   3.1253238956e+01    0.2147292    0.1831843 -54.50 0.0003324543    1.021    0.020
       416 -14.1643     59.2624    249.0466   8.0628406882e+01   1.4656406594e+01     1.520907    0.3083792  31.73  0.005724255    4.005    0.750
       417 -11.6095     42.6429     33.3481   4.5635744910e+01   6.8009527087e+01    0.1885262    0.1670395 -86.70 0.0006739961    1.673    0.402
       418 -11.6587     84.8095     29.5778   2.5943764217e+01   6.0615463449e+01    0.1836016    0.1373892  66.78 0.0003117161    1.561    0.359
       419 -11.2725     67.4626     29.2233   3.2014352851e+01   6.4346154081e+01    0.1854681    0.1264197 -42.79 0.0005570413    1.575    0.365
       420 -10.9765      2.6498     29.6979   6.8837961162e+01   7.2867626184e+01    0.1373228   0.07051337 -35.26 0.0007039328    1.696    0.410
       421 -12.2497     60.0189     27.8923   3.4426514517e+01   6.5999703598e+01    0.2217455    0.1842997 -21.51 0.0002711189    1.131    0.116
       422 -11.6123     88.6085     24.2060   2.2200065461e+01   6.0478145510e+01    0.1899435    0.1317409 -11.36 0.0004677005    1.582    0.368
       423 -12.2146     84.0016     23.9514   2.3482977686e+01   6.1560735795e+01    0.2206203    0.1701311 -64.40  0.001133028    1.716    0.417
       424 -11.2385      4.5396     24.0661   6.5245564607e+01   7.3966225680e+01    0.1876457     0.101233 -54.73 0.0005101747    1.540    0.351
       425 -11.1373    132.9892     20.7799   1.0750151764e+01   4.9978168468e+01    0.2061369    0.1757047 -66.31 0.0002059318    1.195    0.163
       426 -11.5719    131.8118     17.1796   9.5816148842e+00   5.0663250766e+01     0.220897    0.1784635 -43.06 0.0003571263    1.250    0.200
       427 -11.2415    123.1619     19.4778   1.1975094415e+01   5.2611157773e+01     0.207896    0.1330025  67.18   0.00100425    1.509    0.337
       428 -11.0348     67.0000     15.5751   2.4894483724e+01   6.6316083648e+01    0.2877577   0.07379624 -28.18 0.0009317575    3.911    0.744
       429 -10.5443     31.6585     15.6713   4.1997668220e+01   7.2684686911e+01    0.1365541   0.08825845  -4.25 0.0007051386    1.741    0.426
       430 -11.3999     74.7293     13.7541   2.1209137532e+01   6.4859657769e+01    0.1705264    0.1569885 -62.28  0.000502115    1.318    0.241
       431 -11.7003    122.9231    246.3063   6.7718240755e+01   7.2940706449e+00    0.1630895    0.1273568  30.47 0.0003673384    1.061    0.057
       432 -12.1660    168.7188    244.8826   5.8618717720e+01   1.5708301429e+00    0.1886256    0.1591437  21.90 0.0003634569    1.142    0.125
       433 -11.2099    205.8290    244.1551   5.1737967667e+01  -2.9109605634e+00     0.159859    0.1302423  12.80 0.0004973117    1.208    0.172
       434 -16.5698     44.6990    201.5710   8.0312988293e+01   2.5842346725e+01     3.579554     1.794059  71.25   0.01695618    2.139    0.533
