#   1 NUMBER                 Running object number                                     
#   2 MAG_AUTO               Kron-like elliptical aperture magnitude                    [mag]
#   3 X_IMAGE                Object position along x                                    [pixel]
#   4 Y_IMAGE                Object position along y                                    [pixel]
#   5 X_WORLD                Barycenter position along world x axis                     [deg]
#   6 Y_WORLD                Barycenter position along world y axis                     [deg]
#   7 A_WORLD                Profile RMS along major axis (world units)                 [deg]
#   8 B_WORLD                Profile RMS along minor axis (world units)                 [deg]
#   9 THETA_WORLD            Position angle (CCW/world-x)                               [deg]
#  10 FWHM_WORLD             FWHM assuming a gaussian core                              [deg]
#  11 ELONGATION             A_IMAGE/B_IMAGE                                           
#  12 ELLIPTICITY            1 - B_IMAGE/A_IMAGE                                       
         1 -12.5302     74.8168     50.9486   9.0346557280e+01   5.6475515038e+01     1.277004    0.7024438 -51.76  0.006174799    1.853    0.460
         2 -10.7233     58.3357     61.8969   9.9145521985e+01   5.6531860932e+01     1.115049    0.5686135 -68.37  0.004576539    3.141    0.682
         3 -11.6514     25.3115     55.7320   1.0863213603e+02   6.1027288053e+01    0.8273683    0.6395866 -10.64  0.005785615    1.559    0.358
         4 -12.0206    124.6232     27.7755   6.7278660835e+01   5.0833784429e+01    0.8351896    0.5243605  38.01  0.001810282    1.596    0.373
         5 -12.8583    120.2670     38.5445   7.2411353004e+01   5.0247264868e+01    0.7906966    0.5960051 -61.99  0.002052271    1.789    0.441
         6 -10.7902    138.6565     32.7929   6.5830069977e+01   4.6886434390e+01     0.736349    0.5013279 -37.32  0.002467871    1.504    0.335
         7 -11.6690    145.6499     47.9579   6.9547343482e+01   4.2964712267e+01     1.196182    0.4861206 -26.43  0.004089618    2.838    0.648
         8 -12.1697     60.5428     45.5491   9.3327865695e+01   5.9464147156e+01    0.9839031    0.4431064 -45.71  0.004691831    1.882    0.469
         9 -10.4043     60.0899     24.6635   8.5695720311e+01   6.3167324627e+01    0.5705755    0.2172451 -33.36  0.002036666    2.488    0.598
        10 -10.6930     80.9028     39.7955   8.4417840638e+01   5.7543682419e+01    0.7275947    0.5431888  -5.53  0.004087382    1.454    0.312
        11 -11.2405    178.5891     21.1781   5.4193578882e+01   3.8232561610e+01    0.6755697    0.3657721  39.64  0.002289669    2.047    0.511
        12 -11.1385      5.1289      9.2952   1.0262830005e+02   7.1114094117e+01    0.7175446    0.4641541 -51.38  0.004517136    1.335    0.251
        13 -11.1618      3.3424      1.6898   1.0043221408e+02   7.2481722829e+01    0.3443415     0.174619   8.23  0.002205797    2.381    0.580
        14 -12.2947     18.9589     22.6544   1.0134949365e+02   6.7859880318e+01    0.9858693     0.677469   5.10  0.004416652    1.685    0.406
        15 -12.3411     16.8432     13.4996   9.8857257501e+01   6.9605959689e+01    0.5151089    0.3280626 -39.54 0.0006523001    1.159    0.137
        16 -11.9270     22.5618     11.5352   9.5486779121e+01   6.9468957172e+01    0.7673908    0.3048715 -43.22  0.004154857    1.908    0.476
        17 -12.3634    162.7273     28.6964   5.9423096661e+01   4.1446592768e+01    0.7179239    0.5358812  14.78 0.0008135146    1.544    0.352
        18 -11.3640    154.9480     23.7790   5.9208460563e+01   4.4043641416e+01     0.998009    0.5943413  19.05  0.004123127    2.265    0.559
        19 -11.4193    142.4081     21.1911   6.0792822348e+01   4.7479353642e+01     1.607815    0.7789445  48.44  0.006765329    1.919    0.479
        20 -12.1551    132.5449     14.4047   6.0343879359e+01   5.0642809701e+01     1.660723    0.6095521  56.27   0.00634719    2.475    0.596
        21 -12.3295    105.9514     20.1396   6.9094725928e+01   5.5881612042e+01     0.320427     0.245663 -22.57 0.0003623552    1.248    0.199
        22 -12.7111    113.3387     24.9081   6.9031563381e+01   5.3701349690e+01    0.8989307    0.4373595  50.32  0.003072039    2.024    0.506
        23  -8.5126     87.8043      7.5708   6.8887601772e+01   6.0996930802e+01    0.5861443    0.3247753  48.37  0.002926899    1.826    0.452
        24 -11.1710     89.9775     21.1355   7.4127843614e+01   5.8873119592e+01    0.6098492    0.5004254  21.20  0.003694911    1.164    0.141
        25 -11.2682     85.6389     14.0454   7.2426023235e+01   6.0610900217e+01    0.4868255    0.3451557 -20.52  0.001861911    1.286    0.223
        26 -10.1241     32.3965     12.3195   9.1495842813e+01   6.8424885230e+01    0.2083933    0.1896607  64.27 0.0006053924    1.878    0.467
        27 -12.1763     48.7974     12.8995   8.4954469208e+01   6.6469920907e+01    0.6209365    0.4031915  27.20  0.003867422    1.652    0.395
        28 -11.6395     35.9677     18.0513   9.2407688553e+01   6.7138464551e+01    0.5986419    0.2465329 -32.74  0.002223261    2.276    0.561
        29 -10.0348     65.2266     10.4078   7.7603779522e+01   6.4514574025e+01    0.6316684    0.3015963  31.57  0.003106591    2.292    0.564
        30 -10.1090     63.2426      6.3359   7.6411278421e+01   6.5349377051e+01    0.3012236    0.2074508  10.23  0.001335786    1.418    0.295
        31 -11.9003     68.6177     18.1174   7.9854759204e+01   6.2920938057e+01    0.5229415    0.4358723   0.29  0.003425687    1.081    0.075
        32 -12.2704    239.1686     15.8441   4.4977751811e+01   2.3144409719e+01    0.9047952    0.5362272  56.35  0.004423418    1.734    0.423
        33 -10.5632    242.7545      3.5731   4.1535041733e+01   2.3601488416e+01    0.5066729    0.2092073  75.02  0.002123755    2.407    0.585
        34 -10.9262    218.7022      3.1303   4.3672833586e+01   2.9661872964e+01    0.3225298    0.3011755 -36.05  0.001230441    1.140    0.123
        35 -11.1191    224.8965      2.2459   4.2823146427e+01   2.8173228755e+01     0.691008    0.3315004  88.10  0.002835299    2.388    0.581
        36 -11.2517    165.1301     17.6673   5.5253971067e+01   4.2149512473e+01    0.4806697    0.3058557  31.62  0.001284316    1.762    0.432
        37 -11.4874     26.4095     27.8588   1.0007720052e+02   6.6335662397e+01    0.5003446    0.2933248 -53.44  0.002031003    1.516    0.341
        38 -11.5327    233.5541      7.0551   4.3255314574e+01   2.5501129170e+01    0.7000604    0.2889182  62.26  0.002132945    2.260    0.557
        39 -11.4164    205.0816      2.5731   4.4963265554e+01   3.3237995117e+01    0.6058955    0.3403208  61.27  0.001186419    1.638    0.390
        40 -10.5669    186.4876     15.1147   5.1077382203e+01   3.6834210509e+01    0.4087349    0.2735144  47.75  0.001292897    1.475    0.322
        41 -11.5185    192.5185      7.6191   4.7952052714e+01   3.6030942958e+01    0.6649489    0.4281526  17.27  0.002107119    2.046    0.511
        42  -9.6847    194.4188      1.4565   4.5862289242e+01   3.6133262332e+01    0.2005176     0.127578  85.94 0.0004497272    1.631    0.387
        43 -10.0167    191.3812     16.7441   5.0889601429e+01   3.5362798333e+01    0.3316149    0.3139823   5.38   0.00135597    1.135    0.119
        44 -10.1058    225.8265     15.6293   4.6312257007e+01   2.6512439454e+01    0.3930264    0.2365563 -30.12  0.001384716    1.645    0.392
        45 -12.3763    104.8278     13.0825   6.6474183822e+01   5.6984572021e+01    0.5755158     0.399264 -29.95  0.003133154    1.446    0.308
        46 -11.3406    245.5084      8.0625   4.2410581769e+01   2.2456951672e+01    0.4420706    0.3582934  -6.39  0.002548064    1.495    0.331
        47 -11.3287    211.8364      9.7958   4.6258382093e+01   3.0747142207e+01    0.5312625    0.3470284  10.68  0.001768824    2.126    0.530
        48  -9.9189    168.9482     10.0638   5.2071567487e+01   4.1972568775e+01    0.3247797    0.2148218  41.80  0.001309755    1.508    0.337
        49  -9.1094    163.2344      9.9956   5.2963091379e+01   4.3461689634e+01    0.2258171    0.1829178  33.77 0.0006749831    1.238    0.192
        50  -9.9655    162.8542      6.0094   5.1663803232e+01   4.3955016342e+01    0.2509471    0.2057265  -1.40 0.0005025293    1.319    0.242
        51  -8.5584    116.6225     10.1303   6.2269386926e+01   5.4777045313e+01    0.1769007    0.1210069  -1.86 0.0002217156    1.531    0.347
        52  -9.7266    185.0571      7.2508   4.8819696940e+01   3.8032427040e+01    0.2660638    0.2037194 -37.44 0.0007344211    1.357    0.263
        53 -10.0879    151.7769      7.5360   5.4046668784e+01   4.6636793166e+01    0.4768386    0.2194432  57.67    0.0011756    1.921    0.479
        54  -9.8047      1.2561      7.3849   1.0374571820e+02   7.1661948914e+01    0.1692338   0.06809493 -52.33 0.0001571754    1.862    0.463
        55 -11.0556     75.3055      4.4474   7.1360924853e+01   6.3611735672e+01    0.5822576    0.4577537  50.69  0.003653059    1.559    0.358
        56 -10.7593     82.0980      1.3313   6.7745386155e+01   6.2748239828e+01    0.2041003    0.1101911  48.52 0.0003715437    1.864    0.463
        57 -10.6819     41.3363      4.6658   8.4167459917e+01   6.8575200046e+01    0.4043646     0.197375 -18.06  0.001901294    2.391    0.582
        58 -10.1706    175.2357      5.1718   4.9521351594e+01   4.0815008632e+01    0.3972588    0.2602747  73.99   0.00165265    1.502    0.334
        59 -10.6423    106.8058      1.8073   6.1167536928e+01   5.7773624700e+01    0.8058054     0.271348  61.53  0.002922712    3.467    0.712
        60 -10.3019    142.6175      3.1011   5.4072505085e+01   4.9348564036e+01    0.3647653    0.2928595  49.30  0.001607086    1.132    0.117
        61 -11.8707    133.5515      2.5974   5.5598530952e+01   5.1604129069e+01    0.4211281    0.2555684  54.70 0.0007669002    1.490    0.329
        62  -9.0519     55.1508      4.1205   7.8355497408e+01   6.6830388381e+01    0.1451337    0.1245723 -20.51  0.000332596    1.260    0.206
        63  -9.8165    116.3996      2.6655   5.9255824380e+01   5.5586816927e+01     0.341223    0.2241004  48.86  0.001518718    1.392    0.282
        64  -9.1801    157.6020      2.8046   5.1397565105e+01   4.5605745590e+01    0.2341915    0.1843213  40.87  0.001270025    1.210    0.174
        65  -8.8674    161.4504      1.0000   5.0170214524e+01   4.4782210098e+01    0.3577258    0.1224329  62.77  0.001324176    2.494    0.599
        66 -10.4089     12.8941      2.0624   9.5880209181e+01   7.1762061492e+01    0.2171475    0.1594483  -8.26 0.0008181884    1.297    0.229
        67  -9.3836    122.7179      1.3700   5.7332725727e+01   5.4269724608e+01    0.3987589    0.1257648  62.19   0.00141517    3.173    0.685
        68  -9.1451    107.6980    146.0239   1.0446643411e+02   3.1088222017e+01    0.1899132     0.167307 -80.68 0.0009596357    1.058    0.055
        69  -9.9413    214.9560    151.5086   8.3237000300e+01   8.5901852428e+00    0.2139731    0.1883103 -20.56 0.0005847006    1.157    0.136
        70 -10.6111     33.0402    144.2868   1.2077927220e+02   4.1353665491e+01    0.2511611    0.1913774  75.12 0.0008038346    1.173    0.148
        71  -9.8801    104.5733    142.2281   1.0450503280e+02   3.2418856987e+01     0.224209    0.2085462 -84.90 0.0003483745    1.078    0.072
        72 -10.2199    133.5210    140.1888   9.7564914040e+01   2.7638512373e+01    0.3318281    0.2994409   4.71  0.001225754    1.388    0.279
        73 -12.0670     23.5366    136.1134   1.2197673671e+02   4.3961437006e+01    0.6540703    0.3214461  52.13  0.001702653    2.095    0.523
        74 -11.6390     29.7915    132.7695   1.2023236907e+02   4.4113369976e+01    0.4533673    0.2853836 -86.57 0.0005030975    1.339    0.253
        75  -8.7413    186.4930    139.5102   8.6092434004e+01   1.6721872301e+01    0.1463202    0.1387948  31.86 0.0008105379    1.012    0.012
        76 -10.5116     80.4780    136.2743   1.0904926831e+02   3.7435047259e+01    0.4059588    0.3391302  -8.17  0.001304219    1.843    0.457
        77 -10.3073     47.3692    135.8121   1.1662871139e+02   4.1692742889e+01    0.4350459    0.1502411 -62.75  0.001581218    2.346    0.574
        78  -8.9304     43.8588    132.6464   1.1702218111e+02   4.2755151391e+01    0.1670509    0.1185088  81.21 0.0004178589    1.315    0.240
        79  -9.0773     40.6696    138.2816   1.1844255815e+02   4.1869592243e+01    0.1203185   0.07474939  73.55 0.0007003873    1.607    0.378
        80 -10.8744     72.1097    134.0741   1.1065413358e+02   3.9073473137e+01    0.5103387    0.3939922 -26.38  0.002923829    1.965    0.491
        81  -9.0441    216.6073    135.1814   7.9291506588e+01   1.0866326530e+01    0.1980302    0.1352026 -19.36 0.0005658612    1.619    0.382
        82 -10.1324     93.2164    134.9698   1.0584473110e+02   3.5817809651e+01    0.2525721    0.1681858 -71.25 0.0005484804    1.483    0.326
        83 -10.7027     92.9309    129.2407   1.0487450538e+02   3.7114453867e+01    0.3909388    0.2782868 -84.68  0.001699152    1.528    0.346
        84  -9.8424     62.5170    131.4715   1.1250951646e+02   4.0880064639e+01    0.3765272    0.1531677 -50.77  0.001559473    2.547    0.607
        85 -11.0404     10.6701    127.1814   1.2391297967e+02   4.6888002032e+01    0.4369261    0.1606232 -59.51  0.001614929    2.273    0.560
        86  -9.5495     78.7613    128.4453   1.0814248821e+02   3.9397488644e+01    0.2908764    0.1549542 -42.54 0.0007808197    2.380    0.580
        87  -9.5773     82.4876    125.5071   1.0671980644e+02   3.9512454013e+01    0.3937392     0.234494  51.01  0.001758355    1.777    0.437
        88  -9.3271     84.6346    122.7272   1.0568167889e+02   3.9811977814e+01    0.1947147    0.1875162  72.29 0.0005413118    1.163    0.140
        89  -9.0912     41.5895    126.7074   1.1677113575e+02   4.4282665810e+01    0.1687872   0.09596457 -79.40 0.0007372785    1.565    0.361
        90 -10.4488     18.4950    124.7534   1.2190273202e+02   4.6799877833e+01    0.3632761    0.1312848 -65.98  0.001452664    2.061    0.515
        91  -8.6233    223.7190    126.6963   7.6016833432e+01   1.0683851067e+01    0.1465643    0.1089326  11.30 0.0003111745    1.552    0.356
        92 -10.7683     55.7583    123.3547   1.1289009542e+02   4.3477655038e+01    0.3846392    0.3296086  -2.13  0.001238444    1.703    0.413
        93 -10.6096     45.7265    120.2933   1.1487944559e+02   4.5260499807e+01    0.3467309    0.2119661  77.95  0.001453766    1.857    0.461
        94  -9.5312      2.1916    125.5462   1.2562982053e+02   4.7828878677e+01    0.2202704    0.1132442 -78.18  0.001399509    1.429    0.300
        95 -10.1223      4.3777    120.3620   1.2466658468e+02   4.8767260320e+01    0.3472182    0.1342848 -61.58   0.00154731    2.037    0.509
        96  -9.7740      7.1078    114.8686   1.2348890663e+02   4.9742792376e+01    0.2615828    0.1560019  88.89  0.001092768    1.437    0.304
        97 -11.2632      2.4657    112.0941   1.2429544308e+02   5.0631854301e+01    0.3153276    0.1733633 -77.18 0.0008493947    1.337    0.252
        98 -11.9641      3.8203    105.6208   1.2328774483e+02   5.1915390110e+01    0.3956439    0.2742187 -87.80  0.001283882    1.184    0.156
        99 -11.6676    104.6980    121.8636   1.0057166497e+02   3.6805765584e+01    0.4706392    0.4211394  78.62  0.001555712    1.104    0.094
       100 -10.9130     33.4260    119.6028   1.1777444501e+02   4.6625734484e+01    0.2953742    0.2216902 -70.64 0.0005073137    1.097    0.088
       101 -11.6129     50.7020    100.7368   1.1038063164e+02   4.9052235408e+01     1.239722    0.7367302 -23.58  0.002378755    3.092    0.677
       102 -11.3380     29.9131     95.5705   1.1515289845e+02   5.2187299301e+01     1.149276    0.5449211  75.74  0.004508979    4.351    0.770
       103 -11.3154      9.8400     97.5853   1.2081042391e+02   5.3244613385e+01    0.6391622    0.4028151 -79.92  0.004269861    1.269    0.212
       104  -9.0104     35.4809     92.4278   1.1307949670e+02   5.2388109731e+01     1.094321     0.671146  79.67  0.005934796    2.113    0.527
       105 -12.3276     41.3615     85.6771   1.1013058455e+02   5.3313167144e+01     1.066419    0.4885409  30.71  0.005443693    2.655    0.623
       106 -10.5863     18.1448    100.8906   1.1908690281e+02   5.1959626158e+01    0.2303337     0.215078 -40.79 0.0009603869    1.367    0.269
       107 -11.8031      7.3251     88.7003   1.2030052350e+02   5.5297449352e+01    0.4789579    0.4101123  56.82  0.002177531    1.422    0.297
       108 -13.0928     24.6755    109.0211   1.1851847615e+02   4.9691480826e+01      1.62114     0.809257 -64.79  0.009359327    1.538    0.350
       109 -11.7818     18.8534    106.1252   1.1960331433e+02   5.0776286806e+01    0.1974289    0.1622423 -75.88 0.0002645709    1.094    0.086
       110 -11.7916     22.0877     95.1294   1.1721289083e+02   5.2910901777e+01    0.4236583    0.3060188   9.29  0.002223293    1.996    0.499
       111 -12.1842     18.3671     90.2321   1.1748632873e+02   5.4243132962e+01    0.3756506    0.2311268 -56.20 0.0004524901    1.346    0.257
       112  -8.9848    221.2815    120.6305   7.5001221047e+01   1.2210089279e+01    0.1483594     0.114473 -63.32 0.0003327936    1.694    0.410
       113  -9.1652    148.4102    119.7627   8.9704441401e+01   2.8813863590e+01    0.2081556    0.1417401 -34.15 0.0004890022    1.635    0.388
       114  -9.2946     72.7805    119.8460   1.0809944617e+02   4.2125124800e+01    0.1921533    0.1608454 -51.15 0.0005883228    1.250    0.200
       115  -9.7725     81.8142    117.5344   1.0540047363e+02   4.1375137780e+01    0.2271985    0.1658224 -61.51 0.0002513272    1.226    0.184
       116  -9.4677    113.1906    116.1011   9.7241998794e+01   3.6564277845e+01    0.2106303    0.1932793 -26.87 0.0005092568    1.250    0.200
       117  -9.7460     94.1514    111.4942   1.0102722280e+02   4.0827404499e+01    0.3112938    0.2525626  57.82  0.001767613    1.306    0.234
       118 -10.7337    107.5499    112.0242   9.7734322382e+01   3.8456790855e+01    0.6580937    0.3766726 -67.06  0.002426132    2.130    0.531
       119 -10.9531    101.7508    109.5481   9.8649821924e+01   3.9999745218e+01    0.4610272    0.3623663  29.47  0.002489529    1.516    0.341
       120 -10.1193    103.1251    106.0803   9.7502333123e+01   4.0521267243e+01    0.2980763    0.2404991  39.29 0.0004201906    1.359    0.264
       121 -10.2489     67.1166    112.1092   1.0813103214e+02   4.4588164643e+01    0.5028531    0.2666808 -69.94  0.002429651    1.874    0.466
       122  -9.7084     35.9275    113.9882   1.1638812476e+02   4.7619851983e+01    0.3545415    0.1824088  79.15  0.001690517    2.666    0.625
       123  -9.0720    126.5992    113.7713   9.3421223556e+01   3.4531516805e+01    0.2051544    0.1348565 -58.50 0.0007174738    1.585    0.369
       124 -10.1894     90.0509    104.4998   1.0056165032e+02   4.3017026745e+01    0.4166927    0.3090112 -26.02  0.001689866    1.774    0.436
       125  -9.4949     82.4167    102.5238   1.0215689215e+02   4.4611732166e+01     0.207945    0.1841295 -62.52 0.0005007157    1.014    0.014
       126 -11.3904     79.6701    108.3030   1.0411466028e+02   4.3732023056e+01    0.5637174    0.4656186  49.67  0.002401147    1.322    0.244
       127 -10.5690     85.9266    104.5639   1.0166819291e+02   4.3637734687e+01    0.5295601    0.3132362 -31.84  0.002188562    2.457    0.593
       128 -11.1377    170.2540    110.3343   8.2507655620e+01   2.5829129935e+01    0.4521282    0.4243371  11.59  0.001534382    1.120    0.107
       129  -9.8113    130.2478    109.3938   9.1481405758e+01   3.4730081934e+01    0.2802987    0.1837907 -36.25  0.001274628    1.668    0.400
       130 -10.2485    120.0455    109.2267   9.3951316195e+01   3.6767264714e+01    0.2591896    0.2030769 -50.11 0.0006615382    1.228    0.186
       131  -9.7280     58.2509    107.9635   1.0968304591e+02   4.6598192362e+01    0.2766384    0.1496504 -79.59 0.0007927734    2.200    0.545
       132  -9.7472     48.8535    112.0507   1.1282365173e+02   4.6747786109e+01    0.1987318    0.1706954  68.68  0.001211378    1.239    0.193
       133 -11.1685    158.3131    106.0922   8.4052032797e+01   2.9381762696e+01    0.5954075    0.3593959  30.47  0.002379267    2.172    0.540
       134 -10.5366    139.7125     93.9503   8.5166613804e+01   3.5934390550e+01    0.5399578    0.4127198  87.24  0.001057169    1.753    0.430
       135 -10.9106    143.3451    106.1461   8.7524369840e+01   3.2674982543e+01    0.3599857    0.3348371  51.04 0.0009793179    1.087    0.080
       136 -11.7705    146.1711    100.1852   8.5302462511e+01   3.3268706741e+01    0.5245765     0.489667  -4.84  0.001891504    1.160    0.138
       137  -9.4403    246.4668    102.9852   6.6445864527e+01   9.3600765314e+00    0.2222419    0.1332152 -31.05 0.0009491307    1.560    0.359
       138 -10.0101     57.8294    102.5410   1.0878924190e+02   4.7850571224e+01    0.2474833    0.2037818  85.11  0.001184369    1.256    0.204
       139  -9.7751     61.0000    100.9611   1.0762451946e+02   4.7824213888e+01    0.2843594    0.1841345  89.15 0.0009044423    1.955    0.489
       140 -10.2971     64.4535     99.4355   1.0637547486e+02   4.7738047206e+01     0.333012    0.2031043 -47.81    0.0012286    1.545    0.353
       141 -10.5843     68.4405     95.6872   1.0448519979e+02   4.8057568443e+01    0.3913417    0.3012716 -43.06  0.001523969    1.304    0.233
       142  -9.8177    120.7955    101.2318   9.1791823084e+01   3.8322756322e+01    0.2015602    0.1752492 -13.46 0.0008280981    1.360    0.265
       143 -12.2921     78.8947     95.7080   1.0158810010e+02   4.6623463266e+01    0.7049239    0.4465158 -42.55            0    1.584    0.369
       144 -11.1068     90.1356     89.1418   9.6874615580e+01   4.6348977545e+01    0.7222518    0.3781007 -34.44  0.002992496    2.451    0.592
       145 -12.6897     53.0948     74.2094   1.0406052938e+02   5.4569952632e+01    0.6450695    0.4324353 -78.79  0.001105161    1.841    0.457
       146 -10.8315     46.9172     74.3167   1.0600346051e+02   5.5209556259e+01    0.3381915    0.1623916 -60.13  0.001689294    1.772    0.436
       147 -10.1634    142.9461    249.3149   1.1171783009e+02   7.1856008774e+00    0.1652047    0.1130811  49.65  0.001166226    1.093    0.085
       148 -10.3531     93.8504     76.4964   9.2412271560e+01   4.8409887215e+01    0.4991069    0.3265941  26.60  0.002074625    1.913    0.477
       149 -11.7433     85.1893     73.3659   9.4051023341e+01   5.0459128567e+01    0.6414065    0.5602006  45.65   0.00315791    1.293    0.226
       150 -10.7720     78.9696     67.4600   9.4218228787e+01   5.2618922682e+01    0.4627686    0.3986149  81.90  0.002439466    1.482    0.325
       151 -11.1552     66.9199     81.8728   1.0174134927e+02   5.1266439341e+01    0.7499239    0.6141357   2.63  0.004529552    1.553    0.356
       152 -10.7787     80.0519     83.0804   9.8193514192e+01   4.9194077088e+01    0.5969691    0.4529476 -67.54   0.00296288    1.373    0.272
       153 -11.4108     73.4510     78.0317   9.8826001002e+01   5.1212860932e+01     0.994745    0.8015261 -36.95  0.005930118    1.208    0.172
       154 -10.5328    120.3258     85.1814   8.7611073466e+01   4.1755659571e+01    0.4091435    0.2751345  42.64  0.001876127    1.569    0.363
       155 -10.2554    117.4941     93.0106   9.0500398232e+01   4.0692929779e+01    0.4247766    0.2660067  30.46  0.001543288    2.006    0.502
       156 -10.8476    124.6620     93.4557   8.8775383921e+01   3.9185661773e+01     0.605722    0.3624711  43.27  0.002564193    1.753    0.430
       157 -10.8967    121.2426     89.0638   8.8456429136e+01   4.0777251774e+01    0.4527666    0.3179291  12.28  0.001913611    2.170    0.539
       158  -9.5109    160.8764     93.7702   8.0171220260e+01   3.1191721992e+01    0.2886185    0.2219624  74.53   0.00126502    1.580    0.367
       159 -12.2754    101.9951     90.1401   9.3863592334e+01   4.4153238353e+01    0.4364087    0.3909878 -20.05 0.0004217826    1.230    0.187
       160 -10.6614    152.5341     91.6009   8.1472291394e+01   3.3540429534e+01    0.4655105    0.4030043 -77.42  0.002355813    1.321    0.243
       161  -9.2481    211.7919     88.1862   6.8405581498e+01   1.9812582101e+01    0.2114052    0.1776519  13.16 0.0004463875    1.319    0.242
       162 -10.3963    183.5072     85.4038   7.2993580054e+01   2.7278067919e+01    0.7797133    0.2775702 -46.95  0.002341715    3.389    0.705
       163  -9.5280    102.7323     80.3406   9.0990271577e+01   4.6078245265e+01    0.2996077    0.1702066 -34.79 0.0009309712    1.910    0.476
       164 -10.1071    104.4700     76.3882   8.9368408771e+01   4.6574416513e+01    0.3601698    0.3271546 -80.34  0.002054401    1.242    0.195
       165 -11.2223    113.6167     83.8607   8.9013622768e+01   4.3337595251e+01    0.6741409    0.3288133 -39.53  0.002194151    2.050    0.512
       166 -10.4537    165.8887     83.5654   7.6173307893e+01   3.1920239785e+01    0.4210763    0.3506849 -63.51  0.001612069    1.351    0.260
       167 -10.5238    127.4172     83.0582   8.5168107960e+01   4.0738521491e+01    0.3842828    0.2758172 -38.93   0.00145546    1.354    0.262
       168 -10.1602    120.2611     80.9072   8.6402962048e+01   4.2634197545e+01    0.3674822    0.1986298  63.34  0.001349154    2.934    0.659
       169 -10.0448    233.0222     77.8370   6.2136206602e+01   1.6295991883e+01     0.360506    0.2483619 -21.86   0.00116509    1.493    0.330
       170  -9.1465     20.1079     71.6197   1.1378044342e+02   5.8099201949e+01    0.1436936    0.1031784 -14.29 0.0009466414    1.843    0.457
       171 -11.7755     14.0544     74.7403   1.1620554909e+02   5.7845703970e+01    0.4482755    0.2883214 -66.06  0.001741314    1.172    0.146
       172 -10.2253     14.4591     67.3351   1.1473236824e+02   5.9379314989e+01    0.2982731    0.1877883 -58.06  0.001479472    1.185    0.156
       173 -10.6540     23.0703     37.1559   1.0441519251e+02   6.4873151354e+01    0.4745493    0.3381886  83.46  0.002826973    2.481    0.597
       174  -9.5093    175.0155    246.4905   1.0623194774e+02   2.4462301645e+00     0.185173   0.08570582  45.01 0.0009777041    1.620    0.383
       175 -11.1214     21.0739     47.5504   1.0807172914e+02   6.2990923043e+01    0.4036075    0.2248222 -46.88  0.001113101    1.383    0.277
       176 -10.4041     27.5107     47.2280   1.0565168230e+02   6.2567192479e+01    0.4537948    0.2457821 -22.40  0.001120359    2.435    0.589
       177 -11.1920     33.8433     43.3466   1.0221173251e+02   6.2790782504e+01    0.5315825    0.4423374 -18.61  0.003797464    1.248    0.199
       178  -9.2620    156.6618    246.3257   1.0918683358e+02   5.4158218467e+00    0.1139022   0.07259566  65.59 0.0007051466    1.725    0.420
       179 -11.0083     33.1353     58.6555   1.0668173788e+02   5.9793467196e+01    0.3746919    0.2175079 -25.04 0.0009223424    2.192    0.544
       180 -12.4326     49.6240     60.4050   1.0159985797e+02   5.7833004988e+01     0.619211    0.4541244  76.78  0.001310895    2.109    0.526
       181 -11.9397      1.8754     71.3742   1.1932192021e+02   5.9255045592e+01    0.6394236    0.1276132 -67.54  0.002601108    3.320    0.699
       182 -12.5167      7.0119     62.2760   1.1616150772e+02   6.0873858160e+01    0.7196036     0.399219 -38.80  0.004155247    1.811    0.448
       183 -11.7548     46.8312     49.1188   9.9279586379e+01   6.0391749553e+01     0.656137    0.4512143 -39.49  0.003333943    1.216    0.178
       184 -11.6820     41.8755     45.3572   9.9890115686e+01   6.1637453969e+01    0.3597439     0.298423 -41.89 0.0004213062    1.053    0.051
       185  -9.3793    170.3650     77.8381   7.3537391693e+01   3.1866879186e+01     0.267024    0.2168518  68.02 0.0009760181    1.346    0.257
       186  -9.5644     33.1491     77.7520   1.1098501695e+02   5.5773924355e+01    0.2224837    0.1397045 -60.52  0.001351693    1.248    0.198
       187 -12.1276     40.7719     69.9408   1.0691106814e+02   5.6748510708e+01    0.4900199    0.2325019 -56.75  0.002319047    1.666    0.400
       188 -11.2638     32.5485     71.9559   1.0996225984e+02   5.7062700741e+01    0.4408373    0.2766519  27.87  0.002087967    1.995    0.499
       189  -9.6415    126.9463     76.9573   8.3493591480e+01   4.2043480886e+01    0.2227675    0.2143312 -29.80 0.0003057199    1.006    0.006
       190 -11.9895    186.6153     70.5897   6.8109306847e+01   2.9045492363e+01    0.9660336    0.6554015 -39.86  0.003129123    1.463    0.316
       191  -9.6321    184.4829     61.4925   6.5807952850e+01   3.1073907126e+01    0.3096253    0.2516325  12.04  0.001071495    1.425    0.298
       192 -11.1870    109.2334     80.6471   8.9285328520e+01   4.4826555489e+01    0.4139203    0.3373032 -11.90   0.00105623    1.455    0.313
       193 -11.3780    142.7065     84.0072   8.1638011715e+01   3.7243734379e+01    0.5772164    0.4044841  38.58  0.001206662    1.520    0.342
       194 -10.0209    135.0406     77.5173   8.1607150324e+01   4.0197767768e+01    0.3434243    0.1506561  55.91  0.001200903    2.746    0.636
       195  -9.5694    151.5416     73.4137   7.6390813593e+01   3.7210589559e+01    0.3764696    0.1361511  46.61  0.001235716    2.800    0.643
       196 -10.3371    128.5118     64.4335   7.9196572305e+01   4.4082906647e+01    0.5979057    0.4135539 -43.00   0.00198946    1.422    0.297
       197 -10.3594    123.3360     72.9608   8.3221911004e+01   4.3574735353e+01    0.3712149     0.298418  83.88 0.0005058617    1.640    0.390
       198 -11.2134    123.4985     68.4969   8.1793381200e+01   4.4395013843e+01    0.4051873    0.3494089 -51.25  0.001064647    1.193    0.162
       199 -10.6875    120.3158     68.6896   8.2696014364e+01   4.5018627101e+01    0.2942888     0.277725 -88.04 0.0006414297    1.195    0.163
       200 -11.4979     40.0524     55.8851   1.0359620062e+02   5.9729816721e+01     0.530479    0.4155489 -77.85  0.002822812    1.528    0.346
       201  -9.8904    162.0125     70.6533   7.3188054422e+01   3.5189104054e+01    0.3469213    0.2710126  81.54  0.001100026    1.590    0.371
       202 -10.7120    171.5789     66.8290   6.9983427325e+01   3.3477465030e+01    0.6702729    0.3504407 -42.01  0.002638436    1.929    0.482
       203  -8.9900     67.7343     69.9653   9.8405483245e+01   5.3682682450e+01    0.1869277    0.1396852 -50.07 0.0002078248    1.151    0.132
       204 -11.3313    219.6575     66.5988   6.1194859741e+01   2.1290880053e+01    0.7224779    0.3639053  57.60  0.002511369    2.002    0.500
       205  -8.8068    111.5987     67.2602   8.4611764211e+01   4.7037671263e+01    0.1424915    0.1143592  87.58 0.0006964212    1.721    0.419
       206  -9.7641    210.4332     97.8706   7.1223911267e+01   1.8526430733e+01    0.3021542     0.270558  56.62  0.001124121    1.158    0.137
       207  -9.4511     53.6274     66.1562   1.0184406010e+02   5.6204459458e+01    0.2405164    0.1834981  68.34  0.001250006    1.816    0.449
       208 -10.0224     21.4301     65.5425   1.1214353470e+02   5.9284090426e+01    0.2849705     0.192577  74.13  0.001094214    2.041    0.510
       209  -9.1982     25.8250     65.1947   1.1064444797e+02   5.9031391109e+01     0.155177    0.1220375 -52.61 0.0003045704    1.063    0.059
       210  -9.7230    192.5733     65.7411   6.5564722044e+01   2.8317142239e+01    0.2913549    0.2472367 -87.58 0.0007569347    1.341    0.254
       211 -10.3368    106.1569     63.7642   8.5023909798e+01   4.8752084067e+01    0.3372667    0.2785304  26.52  0.001839085    1.309    0.236
       212 -10.2029     98.2471     62.4631   8.6885234195e+01   5.0453968687e+01    0.4908885    0.3133196  -6.54  0.002050162    2.627    0.619
       213  -9.6914     84.5201     61.9930   9.0854303503e+01   5.2859412819e+01    0.3862866    0.2473661 -37.39  0.001976713    1.443    0.307
       214 -11.1149     91.4429     62.7237   8.8983850137e+01   5.1583569353e+01    0.4410329    0.3718681 -42.99  0.001230275    1.097    0.089
       215 -10.5432     91.4938     57.5163   8.7289445406e+01   5.2576920930e+01    0.3005358    0.2708443  30.16  0.001044077    1.202    0.168
       216 -10.8580     87.6076     56.7929   8.8237239614e+01   5.3366159041e+01    0.5071411    0.2226509 -42.21  0.001796541    2.054    0.513
       217  -9.4082    198.0911     62.8215   6.3718803072e+01   2.7362730111e+01    0.2484183    0.2053207 -65.10 0.0006654617    1.344    0.256
       218 -10.5939    159.3832     61.7447   7.0996038479e+01   3.7369723912e+01     0.508546    0.3698636  31.14  0.002337764    1.536    0.349
       219 -11.1818    157.6074     55.0237   6.9230551337e+01   3.8918755607e+01    0.6237196     0.491417 -23.14  0.003064246    1.302    0.232
       220 -11.1440    155.1469     49.5732   6.7977638361e+01   4.0394751782e+01    0.4921461    0.3575279  -1.17 0.0005080749    1.685    0.406
       221  -9.6586    199.0687    244.5243   1.0208368123e+02  -1.2154771799e+00    0.1831582   0.08638074  44.12  0.001036399    1.606    0.377
       222 -11.0686    123.7021     57.5415   7.8184315556e+01   4.6361030695e+01    0.7958299    0.5431209   7.19  0.003481333    2.089    0.521
       223 -11.5503    117.4424     56.0627   7.9354532551e+01   4.7940266145e+01    0.9206238    0.6196854   4.15  0.004017626    2.167    0.539
       224 -11.3173    113.1782     49.6069   7.8296795388e+01   4.9943324717e+01    0.5625807    0.4526907  32.31  0.001901963    1.280    0.219
       225 -12.9286    116.3241     41.9391   7.4697789196e+01   5.0560372179e+01    0.9937304    0.7924215  83.31  0.005067892    1.785    0.440
       226 -10.8569    128.4110    242.0142   1.1330428908e+02   1.0447103532e+01    0.2958001    0.2638743  85.28  0.002374236    1.289    0.224
       227  -9.4571    147.1673     60.7179   7.3423646481e+01   4.0499206793e+01    0.2734526    0.1834803  55.88  0.001041081    1.548    0.354
       228  -9.0248    163.7795    243.5952   1.0771376503e+02   4.6252109738e+00    0.1663816   0.08287434  51.72 0.0007727083    1.652    0.395
       229 -11.0739    139.6917     43.7118   6.9464590069e+01   4.5044963582e+01    0.6634817    0.3663813  28.63  0.001840489    2.470    0.595
       230  -8.4549    200.3229    241.3328   1.0145246079e+02  -1.0578925243e+00    0.1155693   0.07431565  22.53 0.0004836681    1.704    0.413
       231 -10.7564    136.4560     56.4485   7.4583219348e+01   4.3727443289e+01    0.6329689    0.4103498  -8.72  0.001793451    2.123    0.529
       232 -10.5941    133.7356     49.6154   7.2938921759e+01   4.5492428277e+01    0.4314114    0.2772962 -55.39  0.001264091    1.994    0.498
       233  -9.5035    167.7634    237.9807   1.0637873839e+02   4.7032953985e+00    0.1236498   0.09911197 -48.38 0.0007391371    1.623    0.384
       234 -11.2483     60.6739     36.4352   9.0065576854e+01   6.1106375413e+01     0.330882    0.1903984 -38.95 0.0009900717    1.472    0.321
       235 -11.4888     56.9777     31.5387   8.9563377365e+01   6.2441110403e+01    0.3576194    0.2988347 -27.35  0.001103918    1.048    0.045
       236 -11.4976     48.2074     30.5675   9.2468240685e+01   6.3682103864e+01    0.5684588    0.2717294  25.31  0.002158594    2.596    0.615
       237  -9.5393      2.1070     56.1304   1.1661682432e+02   6.2391315145e+01    0.1624495    0.1093783 -50.07 0.0004747771    1.220    0.180
       238  -9.5706    187.8010     55.0619   6.3247960804e+01   3.1222378239e+01    0.2775976    0.2174441  56.12  0.001346295    1.265    0.209
       239  -9.9961     66.9159     54.5108   9.4102933171e+01   5.6910787873e+01    0.2887384    0.1741568 -56.30  0.001018916    1.726    0.421
       240 -10.4281    150.0253    237.6877   1.0928810633e+02   7.6397351950e+00    0.1704921    0.1230392  49.09  0.001157553    1.070    0.065
       241  -9.8122    234.5547     45.4559   5.3301072919e+01   2.0603078393e+01     0.409447    0.2067893 -65.37  0.001447716    3.125    0.680
       242 -10.2106    244.5095     51.0110   5.3494025388e+01   1.7415628329e+01    0.2897366    0.2201677 -34.23  0.000912016    1.233    0.189
       243 -10.9798    240.3265     50.3549   5.3855154930e+01   1.8517366966e+01    0.3715624    0.3364584 -75.90 0.0006148965    1.124    0.111
       244  -9.8926    210.7717     52.9067   5.8747325179e+01   2.5589089765e+01    0.3084836    0.1971658  56.26 0.0009330492    1.553    0.356
       245 -11.2805    201.7722     46.9484   5.8437797520e+01   2.8779234841e+01      0.77013    0.5091386 -52.65  0.003459241    1.652    0.395
       246 -10.8912    174.1420     48.1537   6.3646441370e+01   3.5802681630e+01    0.6604831    0.4296812  68.90  0.002878101    1.698    0.411
       247 -10.0759    176.0105     43.2440   6.1731254653e+01   3.6037749296e+01     0.395592     0.293597  76.12  0.001533264    1.505    0.336
       248 -10.1263     90.9147     47.8074   8.4155201419e+01   5.4463123540e+01    0.3042002     0.211607 -43.60 0.0009728402    1.381    0.276
       249 -10.1249     13.8220     46.6669   1.1047824625e+02   6.3652556661e+01     0.431778    0.1533739 -37.20  0.002003796    3.045    0.672
       250 -10.1067     17.9021     41.7537   1.0770244391e+02   6.4356820019e+01    0.3539785    0.1687609 -37.44  0.001993985    1.931    0.482
       251  -9.6985      2.3267     48.8640   1.1509084656e+02   6.3850986846e+01    0.1843666     0.145389 -21.49  0.001250088    1.480    0.324
       252  -9.4606    209.5368     47.4213   5.7363034059e+01   2.6693090220e+01    0.2994472    0.1439535  61.94  0.001168299    2.072    0.517
       253  -9.2927     54.9034     51.1395   9.7092567919e+01   5.9088851115e+01    0.1647053    0.1280961 -18.89  0.000690556    1.341    0.254
       254  -9.3096    193.3340     45.6967   5.9444328015e+01   3.1163135080e+01    0.2249093    0.1438162 -46.20 0.0009684107    1.630    0.387
       255 -10.8820    101.8107     57.2172   8.4129413914e+01   5.0797388301e+01    0.6542267    0.4279042 -31.19  0.002788468    1.498    0.332
       256  -9.4313    101.4848     44.5094   7.9799457088e+01   5.3114935475e+01     0.235268    0.1905376 -67.65 0.0008919092    1.683    0.406
       257 -10.9878     95.0305     41.3219   8.0551986115e+01   5.4852964288e+01    0.6857471    0.2917531  47.71  0.002823592    2.600    0.615
       258  -9.7477      3.1140     44.6072   1.1388626045e+02   6.4662064592e+01    0.1843361    0.1121302 -24.20 0.0005133927    1.879    0.468
       259  -9.9018    162.6998     43.9110   6.4522657322e+01   3.9361038708e+01    0.2854027    0.2272413  62.67 0.0009246247    1.284    0.221
       260 -11.4519    156.0009     41.9134   6.5234425983e+01   4.1342218649e+01    0.4236745    0.3717036  -7.82 0.0009950141    1.172    0.147
       261 -10.8695    153.3077     36.2621   6.3871171639e+01   4.2823715084e+01    0.3149449    0.2961066 -89.90 0.0005694747    1.170    0.146
       262 -10.7689    189.1751     41.5697   5.8883269516e+01   3.2834254092e+01    0.4815025    0.2596563 -23.99 0.0008565924    1.990    0.497
       263 -10.6834    197.9898    232.7909   1.0065868127e+02   3.2624018463e-01    0.2957138    0.2498213 -79.93   0.00206805    1.782    0.439
       264 -10.8575     77.5961     34.3290   8.3433594212e+01   5.8996716200e+01     0.370168     0.258706  31.36 0.0009705979    1.529    0.346
       265 -10.4584     81.8907     31.7243   8.1005258085e+01   5.8718305148e+01    0.5822358    0.4099391  27.55  0.003262531    1.498    0.333
       266 -10.3574    231.5252     39.4635   5.2079936158e+01   2.2157473347e+01    0.3437872    0.2264342 -50.16 0.0008359359    1.518    0.341
       267  -9.2656    217.8155     38.8330   5.3714286644e+01   2.5727110080e+01     0.212023    0.1657288 -60.45 0.0006126889    1.332    0.249
       268 -11.2758    176.1257     36.1415   5.9433947904e+01   3.6996627953e+01    0.6611096    0.4809063 -74.39  0.002341952    1.730    0.422
       269  -9.7788     15.0991    233.7483   1.3013841844e+02   2.6335029388e+01    0.1696947     0.106427 -87.34  0.001002996    1.353    0.261
       270 -10.7377    176.6125     29.8142   5.7307580887e+01   3.7699206048e+01    0.4789531    0.2794059  40.49  0.001342628    1.839    0.456
       271 -11.6305    183.0250     25.2460   5.4789022566e+01   3.6581134060e+01    0.6711629    0.3508643  49.37  0.002813556    1.858    0.462
       272  -9.8302    206.8548     37.1631   5.4788013703e+01   2.8793332282e+01    0.2483518    0.2361658 -67.20 0.0006516505    1.039    0.037
       273  -9.7474    133.0642     36.9204   6.8622861791e+01   4.7615075502e+01    0.3959699    0.2467004 -60.24  0.001628246    2.458    0.593
       274  -9.8348      5.3476     35.7313   1.1090182954e+02   6.6286231074e+01    0.5110753    0.2761858 -56.60  0.003316156    1.338    0.253
       275 -10.0896    242.3991    231.3962   9.3190284436e+01  -6.7640673721e+00    0.2477481    0.1993091  88.09  0.001508991    2.850    0.649
       276  -9.6412     23.4202    231.6748   1.2884508243e+02   2.5826560115e+01    0.1691286   0.07821509  55.61 0.0008004493    1.587    0.370
       277  -9.6460    247.2057    231.3679   9.2420993617e+01  -7.5119413515e+00    0.1545404    0.1143261  17.68 0.0003934226    1.121    0.108
       278 -10.8864     31.0679     28.0404   9.8254822711e+01   6.5896761233e+01    0.4134554    0.3262722  63.15  0.002004397    2.163    0.538
       279  -9.6897    234.2363    222.7875   9.3150561988e+01  -4.5534753209e+00    0.1677242    0.1122381  22.06  0.001063066    1.337    0.252
       280  -9.4631      9.8239    217.7985   1.3017519239e+02   2.9493305563e+01    0.1412642   0.07641692  71.37 0.0006022646    1.311    0.237
       281  -9.8671    165.6545    212.7729   1.0339847974e+02   8.5843021347e+00      0.24272    0.1371942  62.46  0.001215792    2.146    0.534
       282 -10.1140    147.8851     31.6792   6.3411898043e+01   4.4797837058e+01    0.2518299    0.2125302 -34.39 0.0006700759    1.219    0.180
       283  -9.4906    152.7719    207.7960   1.0501396335e+02   1.1608702108e+01    0.1713707    0.1297046  66.27  0.001058783    1.322    0.244
       284  -9.0110     61.0190    207.0289   1.2129784010e+02   2.5774765632e+01    0.1778052   0.09760508  69.08  0.000555681    1.593    0.372
       285 -10.6199      4.4091    204.8727   1.3038365486e+02   3.2232041218e+01    0.2628152    0.1109816 -67.63  0.001347963    2.296    0.564
       286  -9.7759    238.6206    204.0922   8.9295252589e+01  -3.1718239203e+00    0.2305428    0.1433379  -9.06  0.001290887    1.881    0.468
       287 -12.0650    105.8122     32.8915   7.4201124125e+01   5.4126876751e+01    0.6173807    0.3690166   9.90  0.002357121    2.526    0.604
       288 -10.6100    245.4828    200.8009   8.7573264263e+01  -3.9581211708e+00    0.2264461    0.1469336  37.43 0.0007518542    1.319    0.242
       289  -9.9341    248.5272     33.4649   4.8509996281e+01   1.8753328581e+01    0.2612575    0.2297166 -45.34  0.001524626    1.057    0.054
       290 -10.3652     68.6251     32.7859   8.5884569243e+01   6.0625876286e+01    0.3775626    0.2830569  36.30  0.002281729    1.503    0.335
       291 -10.8733    197.8595     29.2431   5.3759065209e+01   3.2174736363e+01    0.5217687    0.4391944 -10.02  0.001899975    1.302    0.232
       292  -9.0263    216.6018     32.2287   5.2015100357e+01   2.6897083288e+01    0.1948843     0.141148 -10.27  0.000414355    1.615    0.381
       293 -10.7000    189.3947     28.8163   5.4907933640e+01   3.4461217197e+01    0.6244821    0.3236452 -19.84  0.002514615    2.185    0.542
       294  -9.8279    182.3523     32.1802   5.7095502081e+01   3.5888871735e+01    0.2291442    0.1877866   6.05 0.0006186343    1.378    0.274
       295 -10.8512    240.1188     32.3527   4.9160140739e+01   2.0936208723e+01    0.5461582    0.5219682 -41.72  0.003279245    1.072    0.067
       296  -9.8714    199.5190     25.4698   5.2388016384e+01   3.2201481869e+01    0.2650684    0.2371563  39.30  0.001089263    1.168    0.144
       297  -9.8854    230.7376     27.8949   4.9061629497e+01   2.3825949592e+01    0.4091943    0.1815421 -28.08  0.001653522    2.212    0.548
       298  -9.5918    221.2816     29.4173   5.0623777238e+01   2.6044012366e+01    0.2560082     0.195536 -30.25 0.0005940231    1.311    0.237
       299 -11.5734     98.5446     27.2371   7.4065291139e+01   5.6392742091e+01    0.3706746    0.2582991 -40.06 0.0005130364    1.504    0.335
       300  -9.9154    250.5243     26.3790   4.6509846817e+01   1.9149286575e+01    0.3199221    0.1182587 -31.26  0.000625386    2.422    0.587
       301  -8.9882     41.7475     27.1507   9.3672200404e+01   6.4996567980e+01    0.1552684    0.1091545 -23.79 0.0004461491    1.271    0.213
       302 -10.6176    214.3773     23.7175   4.9893739802e+01   2.8521276604e+01    0.4633506    0.3489122  -4.98  0.002024171    1.585    0.369
       303 -10.9300    210.1748     18.7277   4.8997695272e+01   3.0197883099e+01    0.6475895    0.2755941  74.78 0.0009443364    2.583    0.613
       304  -9.3615    169.5915     23.8193   5.6550014080e+01   4.0275345565e+01    0.2668521    0.1855484  53.11  0.001027985    1.357    0.263
       305  -9.8250     80.5139     19.2309   7.6309000646e+01   6.0822783138e+01    0.3476876    0.1861295  39.41  0.001264596    1.914    0.478
       306  -8.5357    207.3375    201.2974   9.4186772758e+01   2.7203511308e+00    0.1303212    0.0870253  20.51 0.0007032129    1.655    0.396
       307  -9.8923    233.7961    197.1955   8.8885715313e+01  -1.5012393640e+00    0.2733466    0.1911244 -24.02  0.001323569    1.540    0.351
       308  -8.6453     83.6529    195.7469   1.1622279599e+02   2.4827235749e+01   0.09837732   0.09245794  27.37 0.0002919606    1.588    0.370
       309  -9.5166    223.0602     22.4732   4.8489315380e+01   2.6429590799e+01    0.2457824    0.2157518 -83.80 0.0006410024    1.108    0.097
       310  -8.9885    220.9914     19.0358   4.7784993140e+01   2.7360988925e+01    0.1959511    0.1513306 -59.55            0    1.293    0.226
       311 -10.3699     47.0744     19.1151   8.8345530057e+01   6.5727322349e+01    0.3041526    0.2311282 -23.78  0.001424096    1.051    0.048
       312 -12.2343      4.6848    184.5754   1.2929230563e+02   3.5893236095e+01    0.5850114     0.335248  80.47  0.003619746    1.278    0.217
       313 -10.0752    169.7791    191.4958   9.9404560077e+01   1.1142077509e+01    0.3306466     0.184336  35.73  0.001061782    1.827    0.453
       314  -9.6579    239.8530    184.6837   8.5544534388e+01  -1.0089176615e+00    0.2088532     0.159573  -3.59 0.0006313093    1.292    0.226
       315  -9.6950    242.7921     22.2285   4.6249802814e+01   2.1514893906e+01     0.381613    0.1205546  58.32  0.001394603    2.975    0.664
       316 -10.1401    213.0309    181.3600   8.9611557045e+01   4.4461487601e+00    0.2963312     0.165168   7.70  0.001081136    3.874    0.742
       317  -9.1564    250.0000    179.4814   8.2838112075e+01  -2.1720765003e+00    0.2636977   0.06899858 -31.94 0.0009360166    3.945    0.747
       318  -9.9870     52.0179    173.7150   1.1992723243e+02   3.3225537341e+01    0.3788925    0.1594891 -86.94  0.001720331    2.907    0.656
       319  -9.9836     74.1988     19.4366   7.8497642666e+01   6.1847683729e+01    0.2384882    0.1823087  21.60 0.0009210103    1.296    0.228
       320  -9.2395     28.0521    176.0082   1.2463375812e+02   3.5372075163e+01    0.1728601    0.1268127  82.72   0.00129566    1.009    0.009
       321  -8.8250    230.4608    175.4750   8.5382055121e+01   1.9505742160e+00    0.1327303    0.1144797  20.30 6.957671e-05    1.006    0.006
       322  -9.1486     57.2064    174.8479   1.1903840000e+02   3.2376813794e+01    0.1414274    0.1236586 -77.98 0.0004297545    1.300    0.231
       323  -9.7641    247.4791    174.0000   8.2178134297e+01  -1.0197687865e+00     0.401348    0.1359994  33.77  0.001394176    3.718    0.731
       324  -9.6817     39.5102    173.4993   1.2229563161e+02   3.4679075762e+01    0.1809744     0.118365 -60.37  0.000810188    1.681    0.405
       325 -10.4697     35.8674    170.7402   1.2274421416e+02   3.5617032354e+01    0.3715887    0.1628353  89.17  0.001898933    2.380    0.580
       326  -8.6641    170.5226    172.4213   9.5973517217e+01   1.4196745703e+01    0.1369423    0.1219033  49.22 0.0001755307    1.017    0.017
       327 -11.8468      9.8137    166.5481   1.2728370207e+02   3.8912595607e+01    0.5395641    0.3085093 -74.74  0.002729264    1.423    0.297
       328 -10.7679     13.9438    158.0693   1.2589622894e+02   4.0248374060e+01    0.3523257     0.160865 -81.01  0.002107826    1.720    0.419
       329  -8.8930    197.6568    167.8272   8.9851295540e+01   9.5376871613e+00    0.1812384    0.1271738 -48.37 0.0009312622    1.663    0.399
       330  -9.8987     40.5101    165.5069   1.2137248913e+02   3.6180618396e+01     0.292484    0.1191064 -70.25  0.001547943    2.064    0.515
       331 -10.0358    194.8031     18.1788   5.0851621136e+01   3.4298628642e+01    0.2622806    0.2317585 -18.54 0.0003262484    1.207    0.172
       332 -10.1643     18.8440    165.2503   1.2551424555e+02   3.8377423570e+01    0.2286531    0.2004431  59.62  0.001879919    1.403    0.287
       333  -9.9649    188.8660    164.1882   9.0818943183e+01   1.1920341038e+01    0.2810631    0.2008073 -28.72 0.0009428123    1.593    0.372
       334 -10.4515     28.4932    162.3461   1.2343258888e+02   3.8053915028e+01    0.4578105    0.1367935 -72.28  0.002153515    2.717    0.632
       335 -10.1141     38.5484     21.9421   9.2923122722e+01   6.6224402828e+01    0.3025666    0.1566049 -35.65  0.001375649    1.582    0.368
       336  -9.5627    204.9792    163.0115   8.7506467084e+01   8.8221109545e+00     0.215924    0.1886793  26.77  0.000641069    1.059    0.056
       337  -9.7691    219.6967     12.6795   4.6180891991e+01   2.8406501028e+01    0.3605704    0.1563515  65.86  0.001477215    2.145    0.534
       338  -9.5245     79.6889    160.5532   1.1281548060e+02   3.2353597050e+01    0.2252916    0.1371398  89.30  0.001191271    1.789    0.441
       339  -9.4861    215.1216    158.3395   8.4657457969e+01   7.4845578508e+00    0.2468323    0.1854183 -16.27 0.0008076866    1.442    0.307
       340  -8.7458    223.7566    156.9648   8.2798387486e+01   5.9370027293e+00    0.1763507    0.1148299 -30.35 0.0008790987    1.585    0.369
       341 -10.5438    105.0555    154.3954   1.0646000772e+02   2.9768879740e+01    0.4103828    0.3444421 -81.25  0.002499448    1.113    0.102
       342 -10.1791      8.9141    156.1516   1.2671727742e+02   4.1053276447e+01    0.2456724    0.1141352 -71.81   0.00152638    1.687    0.407
       343 -10.7581     31.2944    153.1517   1.2203587173e+02   3.9667257100e+01    0.4248206    0.2417206 -87.63  0.002624108    1.487    0.328
       344 -11.7098     15.1771    147.8034   1.2482580755e+02   4.2233907310e+01     0.730398    0.3270673  79.72  0.002772683    2.293    0.564
       345 -11.7982     12.3372    139.0984   1.2465640543e+02   4.4265492658e+01     1.454784    0.5686343  81.78    0.0066754    3.153    0.683
       346 -11.0005     21.2838    150.6980   1.2384206022e+02   4.1110136719e+01    0.2366111    0.1482175  82.09 0.0003898977    1.328    0.247
       347 -11.4026     24.1331    148.6044   1.2307177528e+02   4.1286939702e+01    0.2552656    0.1825547 -72.40 0.0007140743    1.234    0.190
       348 -11.7175      3.7145    147.2745   1.2707290117e+02   4.3250606109e+01    0.6205122     0.333771 -78.62  0.003477258    1.381    0.276
       349 -12.1097      3.9698    137.0527   1.2622710497e+02   4.5320540662e+01    0.2539036    0.1572221 -70.22 0.0003089145    1.326    0.246
       350 -10.8995      1.9995    142.9951   1.2709404855e+02   4.4246071274e+01    0.2506741    0.1406771 -80.06 0.0009581703    1.308    0.236
       351 -10.7593      5.5145    141.4903   1.2626721877e+02   4.4295196698e+01     0.232381    0.1514991  84.54 0.0005783684    1.197    0.165
       352 -10.1359     71.9000    152.1494   1.1334773375e+02   3.5193804302e+01    0.4621747    0.2216329  52.95  0.002291772    2.109    0.526
       353 -11.2267     47.6224    146.7663   1.1792455889e+02   3.9310409198e+01    0.4353147    0.4284242  68.82  0.003314533    1.397    0.284
       354 -11.4687     62.8934    150.0581   1.1502440709e+02   3.6806201436e+01    0.4019139    0.3621971  49.23  0.001499858    1.338    0.253
       355  -9.8718     47.9323    151.8689   1.1844766282e+02   3.8194361041e+01    0.2674561    0.2144301  60.73   0.00102616    1.254    0.203
       356  -9.6205    239.8362    146.8257   7.7787550086e+01   4.1913809125e+00    0.2128337    0.1739862  14.09 0.0006689287    1.165    0.142
       357 -10.7308    249.4123    142.4504   7.5212670201e+01   2.9090173688e+00    0.5573369    0.2602131 -28.58  0.002422853    2.113    0.527
