#   1 NUMBER                 Running object number                                     
#   2 MAG_AUTO               Kron-like elliptical aperture magnitude                    [mag]
#   3 X_IMAGE                Object position along x                                    [pixel]
#   4 Y_IMAGE                Object position along y                                    [pixel]
#   5 X_WORLD                Barycenter position along world x axis                     [deg]
#   6 Y_WORLD                Barycenter position along world y axis                     [deg]
#   7 A_WORLD                Profile RMS along major axis (world units)                 [deg]
#   8 B_WORLD                Profile RMS along minor axis (world units)                 [deg]
#   9 THETA_WORLD            Position angle (CCW/world-x)                               [deg]
#  10 FWHM_WORLD             FWHM assuming a gaussian core                              [deg]
#  11 ELONGATION             A_IMAGE/B_IMAGE                                           
#  12 ELLIPTICITY            1 - B_IMAGE/A_IMAGE                                       
         1 -13.2372    173.1025     53.5988   5.9792784227e+01   3.4525534860e+01     1.997637      1.29247  25.01  0.005495831    2.015    0.504
         2 -13.3490    187.9844     39.8412   5.2988776091e+01   3.2467338804e+01     1.076726     1.044142  14.22  0.003532527    1.052    0.049
         3 -12.7932    192.9080     33.4821   5.0270508096e+01   3.1935588752e+01    0.7166655    0.6509415 -22.48   0.00134533    1.084    0.077
         4 -12.3628    193.1458     15.4455   4.4398023611e+01   3.3854594229e+01     1.173758     0.662528  53.73  0.005119028    1.785    0.440
         5 -12.5188    198.7951     23.4936   4.6355575598e+01   3.1495115734e+01    0.9652032     0.607874 -75.17  0.003547813    1.913    0.477
         6 -13.8019    211.7646      8.4257   4.0351035529e+01   2.9566574790e+01       1.6667     1.179236  -0.97  0.006887151    1.572    0.364
         7  -9.4817     61.3376      2.3285   6.6739080831e+01   6.9021467030e+01    0.1395946   0.09677184  10.40 0.0007051882    1.731    0.422
         8  -9.4617     54.3307      1.6626   6.9342048400e+01   7.0417857188e+01    0.1289205   0.09985321 -61.20 0.0007052028    1.736    0.424
         9 -10.7937     44.1096    211.2074   1.1626427603e+02   2.9290654602e+01    0.2170662    0.1759889 -88.92  0.001170913    1.418    0.295
        10 -13.0923    247.2158    244.8987   8.6529740652e+01  -1.9985605593e+00    0.9507698    0.5591506 -18.09  0.007735926    1.981    0.495
        11 -10.3834    204.1746    199.2435   8.6690873573e+01   7.9276760389e+00    0.2599939    0.1052242  40.17  0.001381161    1.911    0.477
        12 -11.5284     62.0386    196.1985   1.1202394588e+02   2.9653214350e+01    0.2500473     0.207494 -41.49  0.001339021    2.001    0.500
        13  -9.3285     82.3845    195.0996   1.0803306227e+02   2.7226597462e+01    0.2172228    0.1291924  67.89  0.001381918    1.607    0.378
        14 -11.3777    150.8445    196.4786   9.5373478388e+01   1.6798436680e+01    0.2568718    0.2467941  54.72  0.001808804    1.244    0.196
        15  -8.5060     78.4206    193.3560   1.0864590482e+02   2.8041379630e+01    0.1106595   0.08175945  55.51 0.0001615963    1.034    0.033
        16  -9.9198    156.3953    190.1362   9.3529642495e+01   1.6754282660e+01    0.1993135    0.1310777  35.83 0.0005455523    1.317    0.241
        17 -10.1533    150.5162    187.4965   9.4239046142e+01   1.8083922063e+01    0.1481411    0.1153908 -68.10 -6.526504e-05    1.722    0.419
        18  -9.6185     77.0241    176.9640   1.0742802030e+02   3.1041390432e+01    0.1853361    0.1256512  63.65  0.000555299    1.238    0.192
        19  -9.2436     73.7268    189.4017   1.0922319721e+02   2.9320413690e+01    0.1579453   0.09939708  63.85 0.0003306149    1.341    0.254
        20 -11.9899     72.1542    182.7156   1.0895617529e+02   3.0676077242e+01    0.6233072    0.5486947 -65.34  0.004586245    1.492    0.330
        21 -10.5984    141.1266    188.5120   9.6112865503e+01   1.9472982153e+01    0.2096599    0.1563269 -23.50  0.001329579    1.994    0.499
        22 -11.0133     56.0900    213.0361   1.1422423824e+02   2.7648389939e+01    0.2186622    0.1258906  57.19 0.0005559066    1.255    0.203
        23 -19.4887     26.6800    147.8231   1.1604737584e+02   4.2561575177e+01     16.36517     4.372727 -80.87   0.06762226    3.738    0.732
        24 -11.1206     99.2358    180.9641   1.0331632076e+02   2.7196608762e+01    0.2519204    0.2256923  28.01 0.0008096902    1.426    0.299
        25 -10.0843    151.7474    181.0745   9.3110857246e+01   1.8788866097e+01    0.2883705    0.1803884 -77.37  0.001402425    3.225    0.690
        26 -11.7353    144.8885    181.1151   9.4404529989e+01   1.9932765859e+01    0.3339919    0.2766725  58.54  0.001170265    1.174    0.148
        27 -11.8314    142.0913    175.3953   9.4126044845e+01   2.1258885225e+01    0.5148636    0.3261334  68.86  0.002406769    2.118    0.528
        28  -9.8578    189.0636    178.4262   8.6003564445e+01   1.2767096478e+01     0.326995    0.2140895  58.17  0.001249856    1.836    0.455
        29  -9.7581    187.7851    173.2786   8.5386601858e+01   1.3628674105e+01    0.2983239    0.2195189 -68.59  0.001705806    2.391    0.582
        30  -9.6681     75.1396    249.6821   1.1313390207e+02   2.0212195051e+01    0.1970128   0.09845304 -61.65  0.001436556    2.782    0.641
        31  -9.4275    240.3223    169.2936   7.6222452368e+01   5.1540196069e+00    0.1210453   0.07145314  19.50 0.0002999315    1.614    0.380
        32 -11.1488     68.0398    207.1121   1.1167594171e+02   2.7144777598e+01    0.1740421    0.1177637  51.22 0.0004140128    1.108    0.097
        33  -9.3585      2.1519    161.6330   1.2220026933e+02   4.2032622152e+01    0.1639788   0.07829546  38.35 0.0006254204    1.849    0.459
        34 -11.8627     97.5729    151.4387   9.9987030197e+01   3.2735897698e+01     0.479348    0.4164756 -20.34  0.003036599    1.708    0.415
        35 -10.9686    133.8751    145.8199   9.1113736866e+01   2.7548650017e+01     1.016949    0.2790976 -55.32  0.003012939    5.950    0.832
        36  -9.5370    187.4890    151.9591   8.1688474164e+01   1.6482653112e+01     0.162994    0.1107266 -63.07 0.0008091033    2.488    0.598
        37 -10.1469    113.1161    151.2047   9.6495887045e+01   3.0240794795e+01    0.2986861    0.1682841  67.22  0.001394951    2.298    0.565
        38  -9.5424    174.7047    149.0522   8.3494933308e+01   1.9322140717e+01    0.1754113    0.1640529  20.24 0.0004687289    1.098    0.089
        39  -9.4692     92.3552    147.0416   1.0055822697e+02   3.4396546120e+01    0.1776666    0.1521764  87.40  0.001154458    1.132    0.117
        40  -8.6408    117.6569    146.2819   9.4718777327e+01   3.0365361397e+01    0.1343753   0.09086297  68.52 0.0004526592    1.635    0.388
        41  -8.5627    114.2807    143.6511   9.5043138073e+01   3.1438795166e+01    0.1327219   0.09344009  76.87 0.0004951282    1.645    0.392
        42 -11.3597    108.4501    138.1735   9.5470851587e+01   3.3484614177e+01     0.511698    0.3072518 -40.39  0.002515293    2.261    0.558
        43 -11.8311     97.0460    137.3415   9.8014360452e+01   3.5555713368e+01    0.2861463    0.2316011  66.54 0.0002643522    1.106    0.096
        44 -10.5370    135.9361    130.3456   8.7803014554e+01   2.9918271800e+01    0.6321154    0.1513253 -47.12  0.001973459    4.583    0.782
        45 -10.8622    105.9723    130.8324   9.4800841449e+01   3.5347243163e+01    0.3519306    0.2879544 -81.27  0.001224391    1.255    0.203
        46 -10.1245    115.4210    128.9820   9.2224093193e+01   3.4033828520e+01    0.2732276    0.2490502 -37.40 0.0005965253    1.321    0.243
        47  -9.5387    160.9357    127.8040   8.1971068240e+01   2.5361176635e+01    0.3265172    0.2186491  79.69  0.001453302    2.451    0.592
        48 -10.5452    103.2681    124.6210   9.4345753653e+01   3.7060121809e+01    0.2627681    0.2259905  18.20 0.0006156639    1.519    0.342
        49  -9.8828    120.2876    123.1604   8.9958077514e+01   3.4263429838e+01     0.243136    0.2117708  -7.83 0.0007791249    1.537    0.350
        50  -8.5781     73.4003    205.2950   1.1055615613e+02   2.6760565147e+01    0.2802761    0.1710726  32.16  0.001814109    1.839    0.456
        51  -9.2075    151.4745    118.4867   8.1933357614e+01   2.8902043606e+01    0.2490055    0.1290603 -54.21  0.001026919    2.434    0.589
        52  -9.3892    110.6772    118.1584   9.1282074874e+01   3.7041123588e+01    0.2176681    0.1696802  60.09 0.0003435526    1.215    0.177
        53  -9.9277    231.1636    113.7496   6.6454665750e+01   1.2839901638e+01    0.2533969    0.1983561  29.61 0.0007406469    1.189    0.159
        54  -9.6662    167.5566    112.5261   7.7232367827e+01   2.6482950226e+01    0.3346265    0.2440818  86.50  0.001353905    2.028    0.507
        55 -10.4950    134.7574    108.3997   8.3374624520e+01   3.4227815347e+01    0.7944248    0.1179825 -45.77  0.001836339    7.110    0.859
        56 -11.4356    119.2083    110.0260   8.7466840740e+01   3.7052191358e+01     0.511847      0.41914  65.30  0.002833897    1.199    0.166
        57  -9.5368    205.5753    110.1072   6.9657220652e+01   1.8594154714e+01    0.2628305    0.1851258  39.80 0.0007018556    1.349    0.259
        58  -8.5749    166.2892     93.6742   7.2811429061e+01   2.9888524023e+01    0.1460279    0.1151195 -73.82 0.0004675115    1.612    0.380
        59 -12.8447     50.3495    208.1112   1.1497112753e+02   2.9085448335e+01    0.3954739    0.1472924  53.95  0.001922646    1.969    0.492
        60  -9.1131    184.3058     84.0489   6.6773712818e+01   2.7175376371e+01    0.2122186    0.1919151 -30.51 0.0009676131    1.115    0.103
        61 -10.9888     71.9517    245.1662   1.1338907226e+02   2.1174290867e+01    0.1847936    0.1428506  86.68  0.001673129    1.482    0.325
        62  -8.7140     84.0000    244.9972   1.1144367210e+02   1.9751730956e+01    0.1139543   0.05387245 -69.89 0.0007764131    2.765    0.638
        63  -9.5454    167.7492    231.2596   9.6666200825e+01   1.0057536159e+01    0.1932134    0.1295978  26.57 0.0008110441    1.437    0.304
        64 -11.3373     59.5017    203.2674   1.1299027235e+02   2.8797935725e+01    0.2221619    0.2004257 -19.90  0.001322761    1.954    0.488
        65  -9.0429     87.6538    202.6310   1.0769203425e+02   2.5313987980e+01    0.1409255    0.1245079  16.94 0.0006446785    1.669    0.401
        66 -10.0651     62.9155    221.0871   1.1350169740e+02   2.5620313845e+01    0.2853995    0.1034229  58.03  0.001597068    2.353    0.575
        67 -10.7775    193.2935    195.5509   8.7918185253e+01   1.0057675078e+01    0.6590244    0.3675606 -60.42  0.002773479    5.581    0.821
        68 -10.6765     39.3959    212.7686   1.1718051316e+02   2.9555833952e+01    0.1673567   0.09377758  45.49 0.0003070475    1.351    0.260
