#   1 NUMBER                 Running object number                                     
#   2 MAG_AUTO               Kron-like elliptical aperture magnitude                    [mag]
#   3 X_IMAGE                Object position along x                                    [pixel]
#   4 Y_IMAGE                Object position along y                                    [pixel]
#   5 X_WORLD                Barycenter position along world x axis                     [deg]
#   6 Y_WORLD                Barycenter position along world y axis                     [deg]
#   7 A_WORLD                Profile RMS along major axis (world units)                 [deg]
#   8 B_WORLD                Profile RMS along minor axis (world units)                 [deg]
#   9 THETA_WORLD            Position angle (CCW/world-x)                               [deg]
#  10 FWHM_WORLD             FWHM assuming a gaussian core                              [deg]
#  11 ELONGATION             A_IMAGE/B_IMAGE                                           
#  12 ELLIPTICITY            1 - B_IMAGE/A_IMAGE                                       
         1 -15.7303     12.6556     23.8702   9.6053578029e+01   6.9978819175e+01     3.052277     1.340909 -34.41   0.01635404    1.863    0.463
         2 -14.0313     24.6939     49.2935   9.9223154220e+01   6.4237188445e+01     1.194714    0.5921993 -29.04  0.005978996    2.033    0.508
         3 -14.7594     43.5915     44.0894   8.9079221730e+01   6.3368187739e+01     2.244889       1.1784 -31.41  0.007561245    1.789    0.441
         4 -14.6355     79.5007     70.1275   8.4262161397e+01   5.3201201945e+01     2.347179     1.358487 -14.06  0.009022363    2.848    0.649
         5 -14.6359     70.2314     56.3361   8.2870165910e+01   5.7407972523e+01     1.423774      1.21466  -5.36  0.005023968    1.089    0.082
         6 -10.7463    128.8196      5.8732   4.6694295058e+01   5.2001587813e+01    0.2408879    0.2036701   9.44  0.000438023    1.277    0.217
         7 -12.9717    123.9336     10.4832   4.9295690831e+01   5.2761370006e+01     1.117686    0.2413196  52.16 0.0003247254    3.324    0.699
         8 -13.0491     83.2486     22.7160   6.4764486067e+01   6.0395761590e+01    0.6608038     0.489573  44.11 0.0007939216    1.323    0.244
         9 -13.0836    104.4998      4.9542   5.1342594135e+01   5.7732207144e+01    0.6684268    0.6565819  55.53  0.004509571    1.195    0.163
        10 -12.7578    111.3375      4.0528   4.9461520685e+01   5.6256108274e+01    0.7812887    0.5413792 -29.05  0.003052994    1.607    0.378
        11 -12.6233     75.6970     13.5944   6.3195674310e+01   6.2916185450e+01    0.4619135    0.3345213 -27.38 0.0009249077    1.457    0.314
        12 -13.8928     85.8654     11.8634   5.9198941437e+01   6.1093891980e+01     1.464095    0.5942659  50.86  0.006516459    2.192    0.544
        13 -13.7949     86.3029      3.6480   5.5419709495e+01   6.1776025732e+01      1.49931    0.4439945  55.89  0.005853481    2.975    0.664
        14 -11.7989     64.5298     18.0297   6.9243186295e+01   6.4417810890e+01    0.4361996     0.288472  29.52  0.001454252    1.379    0.275
        15 -12.1002    185.8953     11.7722   4.0262336012e+01   3.7459960317e+01    0.4674763    0.2814259  74.80  0.002410627    1.536    0.349
        16 -10.6006    150.7992      9.0096   4.4097685064e+01   4.6375885346e+01    0.2760274    0.2301734 -56.32  0.001639978    1.308    0.235
        17 -11.6058    192.8339      6.0605   3.7982643129e+01   3.6340962709e+01    0.3824193    0.2893654 -43.20  0.001463848    1.336    0.251
        18 -11.3684    188.3760      5.0340   3.8174011297e+01   3.7513098784e+01    0.3274361    0.2449319  29.11 0.0009629582    1.715    0.417
        19  -9.7887     66.4777      8.4399   6.3961506391e+01   6.5180527570e+01    0.1265354    0.1032532  15.72 8.806542e-05    1.016    0.016
        20 -12.0349    138.2890      4.6346   4.4629181363e+01   4.9820146232e+01    0.7064046    0.2793313  56.59   0.00292389    2.058    0.514
        21 -11.4341     73.2916      1.5952   5.8351159312e+01   6.4564748998e+01    0.2351076    0.1446009  47.54 0.0005505935    1.465    0.317
        22 -13.5389    219.6927    122.0681   6.3991483229e+01   1.2921809503e+01    0.9358402    0.7607981 -74.89  0.004824997    1.624    0.384
        23 -11.4053    122.0654    127.1109   8.7205423614e+01   3.2686570390e+01    0.3782119     0.368745 -88.78  0.001247367    1.065    0.061
        24 -11.1932    189.0908    112.1457   6.7326003186e+01   2.1373047312e+01    0.2258873    0.2030066  -8.81 0.0002803347    1.155    0.134
        25 -10.8796    120.2706    104.4071   8.1828457648e+01   3.8232930266e+01    0.2772907    0.1966867 -65.59  0.001197764    1.765    0.433
        26 -12.9034    141.5498     96.4151   7.3853099322e+01   3.5373638084e+01    0.6453116    0.5534779 -47.54   0.00321477    1.173    0.148
        27 -11.6394    135.0027     98.2677   7.6081601339e+01   3.6441840749e+01    0.4759305    0.3140874  28.01  0.001061235    1.823    0.451
        28 -12.7397    134.7762     92.9829   7.4609861558e+01   3.7594094716e+01    0.5628938     0.398432 -36.83   0.00122412    1.396    0.284
        29 -11.2891    113.9965     97.1489   8.1579685434e+01   4.1105535385e+01    0.3319387    0.2815676 -59.70 0.0006612261    1.273    0.214
        30 -11.9317    188.5563     94.4211   6.2772075044e+01   2.4833566214e+01    0.3328285    0.2997242 -67.80 0.0002467425    1.187    0.158
        31 -11.7909     70.2535     94.6313   9.4651739672e+01   4.9232183751e+01    0.3479412    0.2777534   8.00  0.001856687    1.436    0.304
        32 -13.1359     70.1250     90.2757   9.3539257333e+01   5.0257795663e+01    0.8491208    0.3902117  26.43  0.003358978    2.663    0.625
        33  -9.9802    246.4292    183.2888   7.2669179080e+01  -2.1692467523e+00    0.1758548    0.1114365 -38.92 0.0009462401    1.611    0.379
        34 -10.7431     33.7824    177.4226   1.1868976898e+02   3.3446276983e+01    0.1545039    0.1236368  13.85  0.000962786    1.724    0.420
        35 -14.4669     37.2074     84.9523   1.0382761599e+02   5.5377211061e+01     1.417735     1.020487 -46.70  0.008195833    1.168    0.144
        36 -14.8587     96.1892     71.1471   7.9010257534e+01   5.0032722609e+01     1.488615     1.181457  16.28  0.004018521    1.345    0.257
        37 -11.7084    202.9379    171.8776   7.8445537344e+01   7.1411096795e+00     0.372779    0.2084267 -34.71   0.00168889    1.757    0.431
        38 -15.6010     57.6184     71.0210   9.2494404429e+01   5.6240319835e+01     2.674706      1.26092  37.46   0.01183085    2.382    0.580
        39 -10.4286    185.7476    167.5813   8.1095940254e+01   1.1188956254e+01    0.2025084    0.1377458  50.05 0.0009470521    1.634    0.388
        40 -11.4963    213.6828    164.6539   7.4796170341e+01   6.4470456731e+00    0.2420892    0.1697116 -14.88  0.001036724    1.513    0.339
        41 -13.2702      5.2577     83.3049   1.1500819116e+02   5.8009968493e+01     1.035461     0.369674 -53.46  0.004970117    2.004    0.501
        42 -12.6581      8.3866     65.2001   1.1037321067e+02   6.1938058389e+01    0.4584812    0.2299228 -46.77  0.002188412    1.537    0.350
        43  -9.7065    249.5121     86.4550   5.1038659771e+01   1.2832772797e+01    0.1367044     0.116139 -46.01 9.438767e-05    1.037    0.036
        44 -12.0123    128.1690     82.0353   7.3074299259e+01   4.1270313383e+01    0.3686886    0.2898456 -62.15  0.001198364    1.522    0.343
        45 -13.6554    123.8403     71.9705   7.1061857781e+01   4.4164633863e+01     1.252768    0.5086511  58.90  0.003701625    4.015    0.751
        46 -13.1510    117.0800     67.2819   7.1399987892e+01   4.6513882967e+01    0.6525605    0.4560463 -25.42  0.003059637    1.504    0.335
        47 -13.1498    121.3174     80.9863   7.4634902094e+01   4.2974023588e+01    0.6315351    0.5188656  -9.44  0.002298363    1.339    0.253
        48 -13.4284    115.7586     76.5888   7.4825072810e+01   4.5029803087e+01    0.8053436    0.5073358 -27.65  0.003483863    1.740    0.425
        49 -12.2610    110.6230     76.8161   7.6401615657e+01   4.6055232781e+01     0.434133    0.2871028 -49.33  0.001238081    1.605    0.377
        50 -13.2191    144.3545     75.8591   6.7010549269e+01   3.8746567334e+01    0.6176028    0.4807959 -38.54  0.001531428    1.277    0.217
        51 -13.1762      2.7655     69.7949   1.1351848510e+02   6.1190613383e+01     1.068594    0.2920015 -69.02  0.004194632    3.145    0.682
        52  -9.6821    182.5914     71.8106   5.7677253064e+01   3.0227340445e+01    0.2021824    0.1347581 -46.04 0.0003908859    1.493    0.330
        53 -10.2430    170.9098     72.4758   6.0119960722e+01   3.2957342273e+01    0.3775276    0.1545913  67.96  0.001031285    4.559    0.781
        54  -9.9500    160.1868     72.3831   6.2325393123e+01   3.5580587709e+01    0.2013457    0.1468918  65.85 0.0002140846    1.508    0.337
        55 -11.2950    146.3146     66.9525   6.3762653211e+01   3.9865595523e+01    0.2881622     0.219818  43.40 0.0004192284    1.308    0.235
        56 -10.2558    214.6066     61.0416   4.9606016159e+01   2.4299076526e+01    0.3418658    0.2046409 -26.21   0.00157305    1.821    0.451
        57 -10.7323    168.9296     62.9933   5.7717316987e+01   3.5015120896e+01    0.5398232    0.2026843  57.23   0.00187456    2.656    0.623
        58  -9.5301    189.5731     59.4068   5.2974506990e+01   3.0509053211e+01      0.14385    0.1352412 -71.89 0.0001192719    1.033    0.032
        59 -11.9045    125.1467     57.2671   6.5808984383e+01   4.6463378420e+01    0.4450988    0.2633074  43.55 0.0007176006    1.661    0.398
        60 -10.4464    174.6919     56.4982   5.4713446266e+01   3.4609086454e+01    0.2368337    0.2201249 -67.42 0.0004277331    1.082    0.076
        61 -11.6016    152.7321     53.7133   5.8143824481e+01   4.0457559023e+01    0.4648866    0.2759071  36.15   0.00196594    1.957    0.489
        62 -11.6011    133.4524     53.7212   6.2507293696e+01   4.5106968447e+01    0.4017279     0.286121  58.17  0.001552292    1.446    0.308
        63 -11.5689    145.2986     50.8330   5.8810663015e+01   4.2710392920e+01    0.3368727    0.2822897 -35.97 0.0007838893    1.225    0.184
        64 -12.0307     98.7694     50.1172   7.0795270821e+01   5.3349048665e+01    0.6005512    0.2355653  40.33  0.002157717    2.606    0.616
        65 -11.2957    137.4911     48.3834   5.9751170906e+01   4.4962493301e+01    0.3193563    0.2501616 -56.22  0.001121127    1.486    0.327
        66 -12.0052    121.9162     44.0051   6.2006689989e+01   4.9268662920e+01    0.3282473    0.2794006 -10.39 0.0009444057    1.202    0.168
        67 -10.4011    175.8967     44.2572   5.0908449759e+01   3.6082408146e+01     0.359946    0.2072514 -61.72  0.001492898    2.268    0.559
        68 -11.5531    157.4154     43.5342   5.3980874064e+01   4.0780589408e+01    0.3701898    0.2364183  53.71  0.001264961    1.485    0.326
        69 -11.0919    141.0037     43.9902   5.7486378905e+01   4.4751065982e+01    0.2233188    0.2096296  34.08 0.0004696211    1.031    0.030
        70 -10.2934    181.6452     43.3634   4.9718926858e+01   3.4778424350e+01    0.2683869    0.1655101  61.68 0.0005783724    1.565    0.361
        71 -11.8532    217.4420     38.7390   4.3617159286e+01   2.6770853484e+01    0.3898009    0.2799773  43.65  0.002093866    1.686    0.407
        72 -11.1552    196.9762     40.4548   4.6651534126e+01   3.1406581924e+01    0.3732888    0.2106698 -52.59  0.001653816    1.850    0.459
        73  -9.7413    130.1413     37.3411   5.7641603589e+01   4.8272904809e+01    0.1924109    0.1311328  66.57 0.0002140772    1.600    0.375
        74 -10.3834    159.8974     36.1940   5.1216294443e+01   4.1139746460e+01     0.199003    0.1824852 -88.75 0.0002696069    1.111    0.100
        75  -9.7385    140.2976     35.3236   5.4715149362e+01   4.6090562056e+01    0.1480453    0.1040467  26.57 0.0002502934    1.625    0.385
        76 -12.7186     79.8640     32.0260   6.9866497816e+01   5.9803767894e+01    0.6532007    0.5350443  66.87  0.001768895    1.771    0.435
        77  -9.2777    240.3191     34.3363   4.0156550183e+01   2.2213450151e+01    0.1199943   0.09922447  26.42 0.0007049339    1.704    0.413
        78 -10.3597    176.4959     33.5774   4.7686164531e+01   3.7332306836e+01    0.2509728    0.1974004  62.62 0.0006859442    1.208    0.172
        79 -10.2096     97.5936     33.7868   6.4877070172e+01   5.6056560299e+01    0.2316563    0.1703886  31.08  0.001240083    1.284    0.221
        80 -11.4664     26.1565     31.1577   9.2103166331e+01   6.7560087816e+01    0.4772387     0.237257 -11.24  0.002204539    2.757    0.637
        81  -9.6033    216.5002     28.9886   4.1309518685e+01   2.8220008117e+01    0.1714633    0.1162015   7.76 0.0008097047    2.473    0.596
        82 -13.1014    237.6155    154.6299   6.8245378445e+01   3.8456292325e+00    0.8500015    0.6982031  30.27  0.004978342    1.293    0.226
        83 -13.1427    248.0930    145.4410   6.4496174690e+01   3.5258142938e+00     1.954245    0.4589903 -36.48  0.006241488    3.715    0.731
        84 -11.4498    241.2999    146.0870   6.5757920688e+01   4.6143314271e+00    0.3475567    0.3261216 -60.97  0.001923618    1.354    0.261
        85 -12.0325    199.1341    154.8883   7.5543206426e+01   1.1004183532e+01    0.4794896    0.2892396 -49.26   0.00211787    1.851    0.460
        86 -10.8890    189.6596    153.4984   7.7193601329e+01   1.3151089916e+01    0.2758617     0.135276 -40.38  0.001097179    1.989    0.497
        87 -10.2584    138.8316    152.1952   8.8587709173e+01   2.3638231565e+01    0.2136935    0.1838998  -8.46   0.00107283    1.325    0.245
        88 -11.6328     58.8355    144.5276   1.0835125004e+02   3.8544058751e+01    0.5530691    0.3729684  67.11  0.002804805    1.686    0.407
        89 -13.3450     49.3274    141.8839   1.1055497898e+02   4.0306919648e+01    0.8370961    0.5978651  29.08  0.004640156    1.617    0.382
        90 -10.7595    149.5084     21.8162   4.8452219999e+01   4.5420686128e+01    0.2658011     0.182699  62.28 0.0008076571    1.332    0.249
        91 -10.6860    140.0282     21.0929   4.9926374932e+01   4.7830741032e+01    0.2748488    0.1752852  61.02 0.0009152517    1.435    0.303
        92  -9.5457    186.9639     19.9244   4.2367033159e+01   3.6341519684e+01    0.1570368    0.1455151 -81.51 0.0003126282    1.038    0.036
        93 -10.2958    208.8532     19.0761   3.9657983263e+01   3.1167920481e+01    0.2149013    0.1569995 -63.49  0.001227826    1.293    0.226
        94 -10.7694     90.3802    145.7853   9.9930987408e+01   3.3812026944e+01    0.2164142    0.1262961 -49.56 0.0009536554    1.670    0.401
        95 -10.7576    175.0160     15.0005   4.2503493984e+01   3.9805503928e+01    0.2201248     0.148148  39.27  0.001135116    1.696    0.410
        96 -12.2503    213.5151    142.2195   6.9845113225e+01   1.0519272932e+01    0.7325764     0.406191  54.28  0.003109593    2.245    0.555
        97 -12.0064     76.2356    137.7348   1.0233709965e+02   3.7916475966e+01    0.4582435    0.1796892 -52.10  0.001742166    2.324    0.570
        98 -11.4334    223.7757    133.8260   6.6026629751e+01   1.0005830578e+01    0.4343556    0.3036959  37.10  0.002188005    1.549    0.354
        99 -11.1665     33.6490    135.7876   1.1401641932e+02   4.3405498067e+01    0.2098992     0.188276  66.79  0.001046822    1.192    0.161
       100 -12.7015    198.9961    129.4447   6.9652143793e+01   1.5883411624e+01    0.7755696    0.2817264 -39.49  0.002659961    2.596    0.615
       101 -13.5976    203.9057    123.8355   6.7328854602e+01   1.5903315365e+01    0.9138299    0.6712472 -51.91  0.004416908    1.465    0.317
       102 -11.4626    241.9006     22.6038   3.7390327250e+01   2.3310295083e+01    0.3135091     0.214106 -63.50 0.0006867315    1.303    0.232
