#   1 NUMBER                 Running object number                                     
#   2 MAG_AUTO               Kron-like elliptical aperture magnitude                    [mag]
#   3 X_IMAGE                Object position along x                                    [pixel]
#   4 Y_IMAGE                Object position along y                                    [pixel]
#   5 X_WORLD                Barycenter position along world x axis                     [deg]
#   6 Y_WORLD                Barycenter position along world y axis                     [deg]
#   7 A_WORLD                Profile RMS along major axis (world units)                 [deg]
#   8 B_WORLD                Profile RMS along minor axis (world units)                 [deg]
#   9 THETA_WORLD            Position angle (CCW/world-x)                               [deg]
#  10 FWHM_WORLD             FWHM assuming a gaussian core                              [deg]
#  11 ELONGATION             A_IMAGE/B_IMAGE                                           
#  12 ELLIPTICITY            1 - B_IMAGE/A_IMAGE                                       
         1 -13.0387     79.6584     59.1142   2.9975046871e+01   5.6246427801e+01     1.681171     1.140888 -20.00  0.007230389    2.020    0.505
         2 -14.8981      6.8931     71.0577   6.9116982278e+01   6.3516615224e+01     1.365849    0.9014176 -70.27  0.005136711    1.352    0.261
         3 -13.6866     33.2933     24.3889   3.6365960424e+01   7.1688549083e+01     2.913513     1.163849  23.99  0.008918165    4.857    0.794
         4 -14.0384     41.4278      5.4048   1.9256686579e+01   7.3073260617e+01     1.196669    0.7250834  16.71  0.004298589    2.114    0.527
         5 -11.8497     46.7202     12.8903   2.1565294011e+01   7.1048514158e+01    0.4402956    0.3196934  47.88  0.002114705    1.303    0.233
         6 -13.2866      6.2485     43.0741   6.3424174228e+01   7.0613044290e+01     1.189707    0.8087341 -12.43    0.0065378    1.530    0.346
         7 -13.2354      8.4612      2.3838   4.1727836962e+01   7.8969855410e+01    0.8614143    0.6245389  28.85  0.003178306    1.384    0.277
         8 -13.9328     26.1465     13.5654   3.4599044847e+01   7.4681506476e+01    0.8170479    0.5106394  23.66  0.004316536    1.643    0.392
         9 -15.7699     12.4148     21.2610   5.0161101063e+01   7.5015291810e+01     2.098638     1.088418 -27.44  0.009808939    2.188    0.543
        10 -14.2499    189.0975     20.4447   3.5512692554e+02   3.5404112485e+01     1.563484    0.7304383 -42.14  0.007700901    1.771    0.435
        11 -12.5681    223.7377     21.0178   3.5279976922e+02   2.7992917814e+01    0.3488489    0.3347565 -80.87  0.001572292    1.318    0.241
        12 -13.3376     57.3384     27.0168   2.4711926168e+01   6.6797489744e+01     1.361585    0.4014254  44.39  0.004564187    3.269    0.694
        13 -12.7076    119.9672     26.8316   5.8978799649e+00   5.1705996005e+01     2.190489    0.8681879  39.91  0.006822391    4.212    0.763
        14 -14.3016    166.9678     29.7327   3.5990167067e+02   3.9504169742e+01     1.040311    0.7966924  87.00  0.003557094    1.251    0.200
        15 -14.6128    147.9413     29.5047   2.2666756746e+00   4.4227414208e+01     1.761606    0.8762351  58.55  0.007823197    1.968    0.492
        16 -14.0539    122.4081     36.8055   9.1540038538e+00   4.9764347766e+01     1.007187    0.5456541  43.74  0.002665277    2.135    0.532
        17 -12.8300    218.5011     29.3815   3.5507814680e+02   2.8089162874e+01    0.8630419    0.3610502 -66.07  0.003840885    2.761    0.638
        18 -15.2281     98.9142     12.2739   4.0743579526e+00   5.8769813513e+01     1.735522    0.8460355  62.51  0.004245449    1.800    0.444
        19 -11.5758     71.2565     16.3612   1.3458773594e+01   6.5178214076e+01    0.3408213     0.263756  -8.79  0.001524226    1.467    0.318
        20 -11.4819     74.4643     10.4411   9.2653826694e+00   6.5079087718e+01    0.4413437    0.2626787 -13.97  0.002109573    2.013    0.503
        21 -11.7993     60.6199     15.6887   1.7007279161e+01   6.7707358046e+01    0.4925992    0.3512515  28.33  0.002089152    1.489    0.329
        22 -12.4518    229.3146      2.8431   3.4845983658e+02   2.8793198786e+01    0.7672977    0.2763776  71.26  0.003865595    2.927    0.658
        23 -12.0106    175.8871     13.4136   3.5430396724e+02   3.9214267972e+01    0.2901374    0.2510636 -56.36  0.001853794    1.091    0.084
        24 -10.8242    142.5070     11.9908   3.5716074885e+02   4.7562157208e+01    0.2779152    0.1688469 -80.13  0.001360955    1.655    0.396
        25 -10.9110    123.0988     11.0351   3.5934947482e+02   5.2641511433e+01    0.3617899    0.1856454 -54.21  0.001598533    2.080    0.519
        26 -11.6541    201.7534      7.2115   3.5085230618e+02   3.4000190403e+01    0.3684391    0.2651235  76.02  0.002145229    1.458    0.314
        27 -11.9727    153.5709      8.9272   3.5497923309e+02   4.5079830910e+01    0.4170431    0.2678098  83.38  0.002223107    1.435    0.303
        28  -9.7848     60.2974      6.2706   1.1546865462e+01   6.8866149744e+01    0.1359232   0.09058551  33.70 0.0004541959    1.522    0.343
        29 -12.0087     47.4633     20.0459   2.5587040716e+01   6.9876858728e+01     0.785617    0.3061323  49.55  0.001641992    2.545    0.607
        30 -11.9117    119.9479      3.1594   3.5676291584e+02   5.4172577464e+01    0.5738878    0.2601686 -81.20  0.002246832    2.719    0.632
        31 -10.2883    192.9337      2.7103   3.5023405771e+02   3.6371561806e+01    0.1727848    0.1359859 -68.04 0.0005649006    1.046    0.044
        32 -10.9452     67.6821      2.8553   7.0633823586e+00   6.7455731182e+01    0.2978275    0.1973057  40.97  0.001534731    1.446    0.309
        33 -11.6545     80.7702      1.7572   2.9923105485e+00   6.4337357188e+01    0.6485079     0.112841  62.51  0.002028712    3.787    0.736
        34 -14.1505    215.9761     12.9074   3.5139415267e+02   3.0426875413e+01     1.102326    0.8619618 -42.11  0.007499916    1.181    0.153
        35 -10.7575    169.7081      1.5954   3.5142025382e+02   4.1830555923e+01      0.24958    0.1052846  73.21  0.001142679    2.186    0.543
        36 -11.2616     61.5197      1.4714   8.1785701935e+00   6.9044452080e+01    0.5896877    0.0954717  61.29  0.001722434    4.580    0.782
        37 -10.8015     55.9688      1.0000   9.8156611482e+00   7.0376175223e+01    0.2933252   0.06808268  61.75 0.0006536989    3.904    0.744
        38 -10.8758    101.7988    161.3601   4.9343683770e+01   2.7790430901e+01    0.2178116    0.1367684  22.99  0.000955242    1.755    0.430
        39 -11.5200     52.3134    249.9906   7.1347795731e+01   1.5570212238e+01    0.2574331    0.1402775  44.58  0.001084533    1.425    0.298
        40 -11.1088     41.5012    249.9771   7.3658633952e+01   1.6688319484e+01    0.2291395    0.1399768  51.25  0.001464144    1.339    0.253
        41 -14.1885     23.3281    224.1825   7.6433607669e+01   2.3435014388e+01     1.258955    0.7644982 -86.81  0.006984198    1.730    0.422
        42 -13.1154     28.5053    246.2915   7.6256973700e+01   1.8641104751e+01    0.6333051    0.4987236  42.04  0.003116919    1.077    0.072
        43 -12.0367      2.9029    249.5331   8.1701164170e+01   2.0348798085e+01    0.3541634    0.1885031  46.72  0.001724631    1.324    0.245
        44 -13.9389      9.5962    245.5493   8.0221829385e+01   2.0509374566e+01    0.9199358    0.3587844  45.15  0.003546242    1.754    0.430
        45 -12.4597    112.2721    156.2387   4.5566097620e+01   2.7239007923e+01    0.5811296     0.377756  62.60  0.002500205    2.065    0.516
        46 -13.0307     22.4249    181.1205   7.4351372663e+01   3.3158620783e+01    0.6220906    0.4227444 -77.86  0.002218493    1.461    0.316
        47 -13.4517     75.9829    155.1688   5.5768946619e+01   3.3310825723e+01    0.9644452    0.6483057  48.78  0.002697692    1.463    0.316
        48 -11.8617     55.3621    155.5574   6.2166454649e+01   3.6040503075e+01    0.5394209    0.3357553  -2.75  0.002238193    2.472    0.596
        49 -12.2993     85.1900    153.1794   5.2684572448e+01   3.2411779178e+01    0.6976734    0.3947022 -39.27  0.002847055    2.190    0.543
        50 -11.5605    103.5895    149.5208   4.6684164840e+01   3.0290931910e+01    0.4001061    0.2855377 -33.00  0.001258594    1.639    0.390
        51 -11.4013     10.6480    149.5504   7.5797389086e+01   4.2134054219e+01    0.5846756    0.2834574 -12.12  0.002243928    3.509    0.715
        52 -10.7464    189.4498    150.8237   2.6983259256e+01   1.4995545894e+01    0.2404156   0.09930134  44.41 0.0009991347    2.702    0.630
        53 -11.2261     59.5862    149.2092   5.9955639591e+01   3.7142448752e+01    0.2754652    0.2489695   0.40  0.001154339    1.270    0.213
        54 -11.2470     38.2976    145.5058   6.6403437252e+01   4.0693377977e+01    0.2965594    0.2290646  89.48 0.0005407688    1.250    0.200
        55 -12.3164     42.2008    138.4816   6.4209214963e+01   4.2143641054e+01    0.5773537    0.3653925  38.55   0.00272805    1.520    0.342
        56 -11.7623     43.9008    132.8809   6.2842304272e+01   4.3460398538e+01    0.2867961    0.2578846  10.04 0.0008948831    1.250    0.200
        57 -11.0128    149.9970    141.4985   3.3117938499e+01   2.3685111980e+01    0.2065711    0.1261118  63.27  0.000810689    2.631    0.620
        58 -12.1066    246.5098    134.8288   1.4951823293e+01   8.8274321643e+00    0.3037433    0.2598021 -85.40  0.002110901    1.855    0.461
        59 -10.3410     10.8530    134.0970   7.4618337439e+01   4.6224677816e+01    0.2079932    0.1619861  61.25 0.0003794471    1.197    0.164
        60 -12.2506    138.5708    131.7233   3.3631800134e+01   2.7905279254e+01    0.4860338    0.3391082   9.57  0.002046414    2.053    0.513
        61 -12.1825    110.7027    131.7593   4.0991157771e+01   3.3245593625e+01     0.636893    0.3928233  22.45  0.002576683    2.086    0.521
        62 -11.3148    222.8904    127.3379   1.6644956237e+01   1.3427587920e+01    0.2380862    0.1489438 -41.16  0.001343128    1.393    0.282
        63 -13.2736     95.2387     93.5017   3.5986703980e+01   4.5390622515e+01     1.437939    0.9175183   1.62  0.004704348    3.584    0.721
        64 -13.9730     82.6267    114.7435   4.5793247909e+01   4.2587463857e+01      1.65625      1.25027 -16.27  0.007410049    1.776    0.437
        65 -14.4670    106.5301    121.4184   3.9816486373e+01   3.6499937383e+01      1.92138     1.118037  30.73  0.007747401    1.943    0.485
        66 -14.7851    105.4683    104.3623   3.5808606181e+01   4.0749578800e+01     1.495571     1.327718  17.56  0.007547902    1.263    0.208
        67 -12.9516     32.2177    112.2544   6.4126454771e+01   5.0378585747e+01    0.7045789    0.4119897 -58.30  0.003195686    1.597    0.374
        68 -12.3245     28.4599    122.0743   6.6983269450e+01   4.8049821436e+01     0.551129    0.3288955 -59.88  0.002379372    1.580    0.367
        69 -11.1763     58.6265    124.3600   5.6211281080e+01   4.3870514569e+01    0.3728932    0.2493925  81.75 0.0006738962    1.813    0.448
        70 -12.1607    180.9922    120.4786   2.1953581866e+01   2.1888617121e+01    0.3130828    0.2998052 -16.23  0.001104724    1.068    0.064
        71 -12.8183      5.0835    117.4936   7.5391439110e+01   5.1089110479e+01    0.9853751    0.5129276 -70.89  0.004584182    1.691    0.408
        72 -10.8018    229.6216    117.8135   1.3737347663e+01   1.3806235046e+01    0.1861653   0.09387296 -42.53 0.0008060665    1.702    0.412
        73 -13.9971     18.3159    110.8009   6.9509614787e+01   5.2023759407e+01     1.055764    0.7418498 -51.60  0.003852685    1.414    0.293
        74 -13.6557     11.1002    103.3403   7.1597564158e+01   5.4582528359e+01    0.8895696    0.7172235  47.91  0.004201734    1.280    0.219
        75 -13.4779      2.3932     96.7000   7.4629451204e+01   5.6880156379e+01    0.9783108     0.405913 -77.57  0.003623268    2.107    0.525
        76 -12.9558     19.6808     86.5864   6.5329548680e+01   5.8524020816e+01    0.7274843    0.4970421   9.24 0.0005607717    1.650    0.394
        77 -12.2593     36.7303     92.7024   5.8665883509e+01   5.5220504194e+01    0.5106158    0.3517579  24.91  0.001634401    1.535    0.349
        78 -14.2251     23.1429     94.9967   6.5176452198e+01   5.5957574405e+01     1.623475    0.8558121   9.67  0.006882483    2.283    0.562
        79 -12.6739     29.7478     89.4959   6.1163193364e+01   5.6830301133e+01    0.7450185    0.4448039  77.64  0.002782763    2.169    0.539
        80 -10.8979    194.7864    113.4077   1.7920486571e+01   2.0530283672e+01    0.1759606    0.1277231  34.57  0.000826872    1.613    0.380
        81 -12.4649    121.0187    111.0083   3.3105196217e+01   3.6006098637e+01    0.6193383    0.3875929 -64.64   0.00170495    2.029    0.507
        82 -10.9397     42.6927    107.1179   5.9030191205e+01   5.0622169989e+01    0.2507582    0.2161227  32.39  0.000562056    1.207    0.171
        83 -10.9986     45.9340    110.2228   5.8326502660e+01   4.9380000609e+01    0.4150195    0.2337445 -40.43  0.001602947    2.057    0.514
        84 -11.4474     42.9384     90.3230   5.5381427481e+01   5.5109060430e+01    0.6206458    0.2481307 -67.00  0.002011223    2.600    0.615
        85 -11.7233     63.2737    110.1225   5.1631239882e+01   4.6989075390e+01     1.005582    0.5734903 -79.87  0.003819676    2.336    0.572
        86 -12.6071     49.7970     98.8828   5.4416146193e+01   5.1931076554e+01    0.9246347    0.5307844  15.66  0.003749768    2.191    0.543
        87 -10.5493     64.6754    101.7060   4.9143164653e+01   4.8980295146e+01     0.279906    0.2251457   3.66 0.0004398433    1.508    0.337
        88 -12.1686     60.9589     97.8156   4.9637075486e+01   5.0580829247e+01    0.5749091    0.4181825  63.86   0.00244598    1.607    0.378
        89 -11.1823    239.4938    110.5010   1.0974998485e+01   1.3328064397e+01    0.1231819   0.09706426 -33.72 0.0008106656    1.001    0.001
        90 -11.4279    222.6144    109.0881   1.2822229687e+01   1.6275252184e+01    0.2239302    0.1892422  33.27  0.001452225    1.417    0.295
        91 -11.6403     49.2708     93.6152   5.3414938745e+01   5.3400934037e+01    0.4881699    0.3257795  85.31  0.002098473    1.951    0.488
        92 -11.3146    124.7904     92.0629   2.6898192528e+01   3.9315595634e+01    0.3476983    0.2189606 -72.14  0.001306811    2.476    0.596
        93 -13.2442    120.3128    102.4936   3.1030926024e+01   3.8051254888e+01    0.8632503    0.4206576  45.28  0.003282417    2.084    0.520
        94 -12.1263    129.7270     96.0551   2.6768453995e+01   3.7378639365e+01    0.4463756    0.2885605  53.56  0.001960029    1.615    0.381
        95 -13.2303    135.0173    102.7424   2.7290578920e+01   3.4817248487e+01    0.9856369    0.4339621  50.98   0.00230853    2.419    0.587
        96 -10.9684     75.3606    100.7963   4.4904954966e+01   4.7416358395e+01    0.2547133    0.2080492  53.54  0.001235514    1.267    0.211
        97 -12.3792    163.2559     97.6722   1.9728420492e+01   2.9681937701e+01    0.4562352    0.3550417  48.40  0.001110932    1.377    0.274
        98 -12.9841    137.2782     95.2606   2.4693447463e+01   3.5861924517e+01    0.5538042    0.4732247  79.83  0.001217217    1.299    0.230
        99 -10.6605     74.5719     95.5755   4.3807980007e+01   4.8871698965e+01    0.3620412     0.195044  29.79  0.001014677    2.093    0.522
       100 -13.3944    188.3549     84.2136   1.1915788728e+01   2.6693254322e+01     1.077258     0.439202  48.80  0.003713842    2.813    0.644
       101 -13.6144    197.5824     70.9439   7.2876577050e+00   2.6852320823e+01     1.644514    0.7694888  37.69   0.00597157    4.122    0.757
       102 -14.6168    165.1488     78.8795   1.4332558203e+01   3.2635149574e+01     2.184024    0.8608483  43.77  0.007546557    3.334    0.700
       103 -13.6334    165.0358     70.8784   1.2126162633e+01   3.4012597372e+01      1.13426    0.7985597 -88.56  0.004873769    1.733    0.423
       104 -10.1952     78.6793     86.9782   3.9824988414e+01   5.0224540982e+01     0.219521    0.1955614 -62.38 0.0004340124    1.127    0.113
       105 -11.3191    132.6776     86.0206   2.3151720392e+01   3.8760362678e+01    0.2261132    0.1980679 -47.31 0.0007599296    1.111    0.100
       106 -11.9483    242.4863     83.7617   5.0700238658e+00   1.6619224148e+01    0.3850954    0.2470631  70.82   0.00214672    2.069    0.517
       107 -12.4455    237.4629     79.8161   4.7431668305e+00   1.8008495235e+01    0.3542733    0.2813679  84.74  0.002370489    1.554    0.356
       108 -10.0031    109.3342     85.2988   2.9154976069e+01   4.4211849914e+01    0.1564617    0.1261814   5.60 0.0007032257    1.651    0.394
       109 -12.2946     97.6290     83.1096   3.2069596881e+01   4.7257180244e+01    0.6280511    0.2804612 -49.74  0.002191986    2.284    0.562
       110 -12.0466     99.3706     64.5135   2.5277866619e+01   5.0769913587e+01    0.6984097    0.4494401  56.13  0.002148839    1.590    0.371
       111 -12.1522     57.4023    246.6904   7.0044596878e+01   1.5618790782e+01    0.4344939    0.2199329  24.55  0.002374486    1.762    0.433
       112 -13.8964    101.2663     50.4212   1.9481567225e+01   5.2926044434e+01     1.036203    0.8178701  73.79  0.002245561    1.357    0.263
       113 -13.8679     39.7015     67.4836   5.0783087712e+01   6.1393213954e+01     3.706717     1.056926  23.85    0.0102888    4.851    0.794
       114 -12.8832    136.3125     50.5246   1.1167320484e+01   4.4221120708e+01    0.6577539     0.525219 -28.59 0.0009384706    1.356    0.263
       115 -13.3934     65.4923     49.3832   3.1725180720e+01   6.1135473080e+01     1.369927    0.7324623 -36.72  0.005714644    2.021    0.505
       116 -12.9901     91.6351     58.1194   2.5395422494e+01   5.3789865256e+01    0.6784397    0.5579841 -54.07  0.003249306    1.264    0.209
       117 -13.7801     73.9325     73.8708   3.7482679943e+01   5.4218314917e+01     1.559269    0.7766509  23.26  0.004854914    3.700    0.730
       118 -12.9903     87.4752     65.3019   2.9464397008e+01   5.3288324747e+01     0.537967    0.4719802  17.19  0.001017196    1.286    0.222
       119 -13.1428     55.6484     80.2059   4.7096990330e+01   5.5916058220e+01    0.7539859    0.5550984 -37.11  0.002286239    1.443    0.307
       120 -14.0120     61.2219     75.6783   4.3295561833e+01   5.6113896149e+01     0.987496    0.6558059 -51.27  0.002968396    1.469    0.319
       121 -13.3439    215.4135     78.8014   6.9552859534e+00   2.2134074192e+01    0.8331631    0.6185703  75.75  0.004348608    1.615    0.381
       122 -11.9842    114.1295     79.8450   2.6084832671e+01   4.4276795339e+01    0.5441243    0.4013577 -57.10  0.001506912    1.423    0.297
       123 -11.9060     42.3595     78.0875   5.2552781573e+01   5.8374472125e+01    0.5493035    0.3514591 -74.82  0.002191207    1.779    0.438
       124 -12.7787    135.5616     79.3289   2.0478614200e+01   3.9394536762e+01    0.7685643    0.4070039  54.85  0.002240651    1.942    0.485
       125 -10.9770     89.9582     80.7059   3.3853634081e+01   4.9425248678e+01    0.3333323    0.2873391  48.38  0.001675082    1.162    0.140
       126  -9.7399     82.5242     81.4727   3.6719775013e+01   5.0773210898e+01     0.152982    0.1516727 -35.88 0.0008093757    1.030    0.029
       127 -13.1409    171.7876    242.0185   4.5637745752e+01   2.9329829558e+00    0.6813195    0.3918414  27.46  0.004253404    1.447    0.309
       128 -13.9719      5.3609     63.6831   6.8675617807e+01   6.5515549780e+01    0.8575863    0.5777146  -1.42  0.004249176    1.640    0.390
       129 -11.7631    126.6919     83.7823   2.3964159735e+01   4.0584863797e+01    0.5289948     0.320823  26.48  0.001965357    2.666    0.625
       130 -11.5934     27.4330     76.3836   5.9434651327e+01   6.0542443869e+01    0.4443728      0.26704 -84.95  0.001318728    1.983    0.496
       131 -14.5274    119.9359     54.7163   1.6159778938e+01   4.7617924851e+01     1.019268     0.631115  45.78  0.001713112    1.710    0.415
       132 -12.7446    135.3504     65.6475   1.6289583287e+01   4.1952198981e+01    0.6190988     0.519673  -3.29  0.001777112    1.516    0.341
       133 -10.6165    199.5121     61.8857   4.7831532786e+00   2.7783813868e+01    0.2104114    0.1158953 -36.12  0.001031969    1.588    0.370
       134 -13.3974    177.9312     57.2520   6.3436721577e+00   3.3188646365e+01    0.8171183    0.5427409 -51.93  0.003194005    1.387    0.279
       135 -11.5396     34.5121     60.5328   5.1311761282e+01   6.3759698752e+01    0.3984733    0.2847274 -45.18    0.0011306    1.328    0.247
       136 -11.8604     35.9890     54.6686   4.8494852598e+01   6.4965015843e+01    0.5857789     0.314473 -35.59   0.00247863    2.106    0.525
       137 -12.1060     39.1026     60.1165   4.8709158498e+01   6.3261659533e+01    0.4361076    0.3553404  61.17  0.002300442    1.459    0.315
       138 -11.9440     24.5654     59.5182   5.6561851811e+01   6.5128036839e+01    0.5736541    0.3760213 -33.46    0.0017068    1.579    0.367
       139 -10.7392     47.7227     56.4325   4.2915717358e+01   6.2846190770e+01    0.3393012    0.2173517  56.15  0.001466935    2.030    0.507
       140 -11.6144    248.1982     54.9526   3.5849817638e+02   1.9442687566e+01    0.4344183    0.2016892 -44.03  0.002419422    1.604    0.377
       141 -10.8867    248.7671     48.9722   3.5720561280e+02   2.0084049982e+01    0.2614772    0.1826341  47.95  0.001701366    2.031    0.508
       142 -11.2492     17.6163     54.9655   5.9361241491e+01   6.6896745190e+01    0.3363493     0.229894 -70.66   0.00173903    1.475    0.322
       143 -10.9532    231.4456     55.1522   3.5991835446e+02   2.2395793476e+01    0.2241464    0.1684299 -81.60  0.001109566    1.445    0.308
       144 -10.3464     23.6462     49.9928   5.4101619045e+01   6.7530492863e+01    0.1938821    0.1598251 -51.32 0.0004387475    1.138    0.121
       145 -11.6454    145.0375    232.6852   4.9708025896e+01   7.5256215497e+00    0.3067997    0.2198438  87.12  0.001603973    3.146    0.682
       146 -12.9325     96.0314    236.5120   6.0694301323e+01   1.2992702988e+01    0.9986737    0.2955828  33.60  0.004211046    2.510    0.602
       147 -13.1175     91.2081    229.9226   6.1125795377e+01   1.4775636494e+01    0.6736535    0.3287851  29.99   0.00342567    1.684    0.406
       148 -12.0635    237.1087    159.5112   2.0908833437e+01   6.6011083208e+00    0.3984365    0.1334374  37.50  0.001796381    3.528    0.717
       149 -10.8251    202.1985    234.6016   3.9076956658e+01   5.0067008228e-01    0.1619891   0.08482514  16.98 0.0009586666    1.726    0.421
       150 -10.7994    235.6593    229.3237   3.2798286244e+01  -2.3323966494e+00   0.08736683    0.0798853   0.55 0.0007050938    1.726    0.421
       151 -13.0097      3.1217     34.4204   6.3159026423e+01   7.2836758155e+01    0.3838116    0.3265829 -74.37  0.001160986    1.253    0.202
       152 -13.6991     62.6434    214.4302   6.6420418779e+01   2.1291723496e+01    0.8350409    0.4844625  47.87  0.004458194    1.515    0.340
       153 -12.3676    154.5387     46.5289   6.6774410542e+00   4.0302722845e+01     0.457797    0.2818974  60.30  0.002188609    1.632    0.387
       154 -13.1066    158.7912     43.1064   4.9837361062e+00   3.9747213221e+01    0.7411519    0.5134597  57.65   0.00275416    1.506    0.336
       155  -9.8932     38.5075     46.4573   4.3905977783e+01   6.6470554762e+01    0.1401992    0.1308749 -15.49 0.0008090676    1.010    0.009
       156 -12.6569     68.5148    221.5112   6.5620564751e+01   1.9150346507e+01    0.6539451    0.3173816 -66.94  0.003268239    2.362    0.577
       157 -12.5596     64.0161    224.0053   6.6895655648e+01   1.9179054158e+01    0.6080101      0.31187  35.09  0.003128735    1.555    0.357
       158 -11.2738     27.6492     44.6079   4.9639512269e+01   6.8329261284e+01    0.5576605    0.2392819  34.34  0.002328173    2.347    0.574
       159 -11.6830    147.5096    238.6061   4.9956132402e+01   6.3063539255e+00    0.2284826    0.2084811  44.26 0.0009749774    1.422    0.297
       160 -12.5911     46.2358     33.7522   3.3754999921e+01   6.7789194443e+01    0.9865736    0.4974816  36.84  0.004323772    1.978    0.494
       161 -12.8540     32.7951     40.3525   4.4676966117e+01   6.8602141123e+01    0.5915723    0.3958395 -37.24 0.0007933762    1.471    0.320
       162 -10.5939    249.2657    225.4195   3.0164102101e+01  -3.1969272547e+00    0.1819503   0.08266109  22.71  0.001138657    2.111    0.526
       163 -12.5535    140.1853     21.3535   6.3525971179e-01   4.7157852216e+01    0.6507348    0.3345156  69.67  0.001232111    1.814    0.449
       164 -10.4990      5.9562    219.3159   8.0241080298e+01   2.5984690956e+01    0.1739772     0.129031  45.64  0.001160694    1.087    0.080
       165 -11.1436     94.1937    217.9336   5.9178246623e+01   1.6671128075e+01    0.2449873    0.1645344  31.33  0.001238734    1.259    0.206
       166 -12.8299    131.6483     33.1649   6.0851574886e+00   4.7897479098e+01    0.5287711    0.4518041  -6.25  0.001555864    1.429    0.300
       167 -12.5291    110.1253     41.9343   1.3844854849e+01   5.2124281677e+01    0.5853102    0.2782006  57.66  0.001084797    1.993    0.498
       168 -10.8523    200.6611    216.3086   3.6620476883e+01   3.1146091574e+00   0.09929831   0.09107395  39.64 0.0007043505    1.685    0.406
       169 -12.3822    113.6099     38.0240   1.1513819113e+01   5.1828719907e+01    0.4234133    0.3138843  79.34  0.001333131    1.405    0.288
       170 -11.9866      4.6685    211.3528   8.0290804415e+01   2.7774539738e+01    0.4265741    0.2641148 -71.13  0.002546569    1.781    0.438
       171 -13.0586     74.6113     36.9143   2.2506630345e+01   6.1455712815e+01    0.7382596    0.3794379  56.78  0.001829626    2.028    0.507
       172 -12.9351    243.0700     35.4461   3.5474740076e+02   2.2702215305e+01    0.5499806     0.464136 -84.90  0.002874497    1.312    0.238
       173 -12.1100     40.5730     40.3284   4.0063934911e+01   6.7455575597e+01    0.6162811    0.4329717  47.10  0.003144381    1.586    0.369
       174 -10.4792     98.4684     27.1295   1.0713320954e+01   5.7161395333e+01    0.2613803    0.1724639  55.31 0.0006559119    1.412    0.292
       175 -10.6302     39.8834    210.9937   7.1749288657e+01   2.4562647053e+01    0.3165792    0.1673825  27.63   0.00162252    1.701    0.412
       176 -10.0611    136.5207    210.5195   4.8522714076e+01   1.2362911644e+01    0.1295056    0.1107889  16.42 0.0002111707    1.004    0.004
       177 -10.7824     46.2099    208.4656   7.0000855178e+01   2.4432342651e+01    0.3879341    0.1418401 -88.80  0.001385007    4.178    0.761
       178 -10.8398    150.4774    206.8495   4.4951446334e+01   1.1076993362e+01    0.2421069    0.1664088  26.32  0.001392941    1.289    0.224
       179  -9.9509    248.9706     18.0000   3.5076978491e+02   2.3596790986e+01    0.1524668   0.05972847  78.90 0.0006219952    2.883    0.653
       180  -9.5872    124.0169    205.9768   5.0701578930e+01   1.4939283666e+01    0.1523041    0.1304893  23.15            0    1.019    0.018
       181 -10.3827    153.2365     15.0940   3.5696732318e+02   4.4542452220e+01    0.2412837     0.117838 -53.20  0.001079469    1.976    0.494
       182 -12.8782     57.2518    203.9499   6.6848364331e+01   2.4169426777e+01    0.4915205    0.4238829  89.43  0.002932493    1.228    0.185
       183 -11.0284     13.6273    205.2366   7.7907360771e+01   2.8352377561e+01    0.2758363    0.1515121 -57.80  0.001137661    2.188    0.543
       184 -12.9519     16.2450    197.2527   7.6889867009e+01   2.9916925490e+01      1.05037    0.3389793 -52.47  0.003803229    4.431    0.774
       185 -13.5759     30.0262    168.7210   7.1281626670e+01   3.5505547948e+01    0.7453317    0.5017997 -41.75  0.003790244    1.846    0.458
       186 -15.1991      9.4701    180.1856   7.7858637028e+01   3.4498500735e+01     2.004225     1.380794 -79.94   0.01157244    1.420    0.296
       187 -12.9125     40.0845    195.0782   7.0563258684e+01   2.8093960574e+01    0.6799213    0.3719223  41.43  0.003454009    1.534    0.348
       188 -11.0351     80.6990    192.6093   5.9606295897e+01   2.3732918568e+01    0.4454376    0.1387005  31.88  0.001617337    2.729    0.634
       189 -14.1704    213.2962     40.9685   3.5823348971e+02   2.7742041717e+01     1.904362    0.6725394  79.32  0.007367394    3.933    0.746
       190 -11.9731    200.9167    191.1651   3.2464748588e+01   6.7308750079e+00    0.3510106    0.2363538  10.05  0.001398815    1.460    0.315
       191 -11.3236    217.4955    187.4987   2.8987683139e+01   5.1272217711e+00    0.1918953     0.106817  44.31  0.001039583    2.430    0.589
       192 -10.3900     98.3262    187.6797   5.4387925413e+01   2.2354701245e+01    0.1454537   0.09981733  59.48 0.0007046968    1.682    0.405
       193 -11.6569     48.3814    182.2192   6.7217082668e+01   3.0207020429e+01    0.3984102    0.2792694 -32.98  0.002002069    1.898    0.473
       194 -10.7054    123.0554    182.1790   4.7335102945e+01   1.9805768025e+01    0.2978104    0.2238544  74.38  0.001494901    1.896    0.473
       195 -11.6543    198.8013    181.0700   3.1067972685e+01   8.5737836006e+00    0.2767132    0.2536759 -29.64  0.001256275    1.313    0.239
       196 -12.5032    124.1837    166.3278   4.4330974373e+01   2.2985372888e+01    0.5688718    0.4221032 -78.99   0.00276048    1.856    0.461
