#   1 NUMBER                 Running object number                                     
#   2 MAG_AUTO               Kron-like elliptical aperture magnitude                    [mag]
#   3 X_IMAGE                Object position along x                                    [pixel]
#   4 Y_IMAGE                Object position along y                                    [pixel]
#   5 X_WORLD                Barycenter position along world x axis                     [deg]
#   6 Y_WORLD                Barycenter position along world y axis                     [deg]
#   7 A_WORLD                Profile RMS along major axis (world units)                 [deg]
#   8 B_WORLD                Profile RMS along minor axis (world units)                 [deg]
#   9 THETA_WORLD            Position angle (CCW/world-x)                               [deg]
#  10 FWHM_WORLD             FWHM assuming a gaussian core                              [deg]
#  11 ELONGATION             A_IMAGE/B_IMAGE                                           
#  12 ELLIPTICITY            1 - B_IMAGE/A_IMAGE                                       
         1 -10.4428      8.7196      9.1486   7.6166671591e+01   7.7888509464e+01    0.3720773    0.2295718  55.68   0.00137869    2.720    0.632
         2 -10.8678      4.0863      7.1845   7.9866741684e+01   7.8696783464e+01    0.3535644    0.2455456 -35.00  0.002100158    1.270    0.212
         3 -11.9863     18.4161     20.5566   7.3999725265e+01   7.4525265106e+01    0.4496465    0.3479767  25.30  0.001557679    1.326    0.246
         4 -11.9102     14.2121     15.5827   7.4815012931e+01   7.6019377504e+01    0.7122948    0.2781055 -58.50  0.002376364    2.761    0.638
         5 -11.8934      2.7651     21.1951   8.8018152581e+01   7.5711049374e+01    0.4862704    0.3152781 -78.48  0.002308417    1.718    0.418
         6 -12.1797    125.3866     17.0170   2.8283421833e+01   5.1335503798e+01    0.2997981    0.2437126 -69.41 0.0002410733    1.243    0.195
         7 -11.8196     34.8342     12.3248   5.6413811343e+01   7.3661120122e+01    0.3455113    0.2996779  20.50  0.001218307    1.079    0.073
         8 -11.6688     30.1167      7.6887   5.6312210688e+01   7.5228822482e+01    0.8357134    0.3166957  49.09  0.003198907    3.162    0.684
         9 -10.0735    203.3643     11.7494   1.8539430831e+01   3.2589174085e+01    0.2069327    0.1498472 -19.60 0.0008781189    1.458    0.314
        10 -10.0272    185.1570     12.1417   1.9926087433e+01   3.6687674972e+01    0.1889897    0.1287845 -55.50 0.0003878655    1.313    0.238
        11 -12.3199    125.9129     10.7056   2.5701391716e+01   5.1826673204e+01    0.3231397    0.2595702 -61.25 0.0003218405    1.243    0.196
        12  -9.9086     90.8571     11.5424   3.2690877397e+01   6.1011533119e+01    0.3639426    0.1243063  49.69  0.001292445    2.697    0.629
        13 -12.1299     54.9367      9.7174   4.3549703599e+01   6.9977011902e+01    0.5277847    0.3214994  42.41  0.002594203    1.547    0.353
        14  -9.8607    164.6785     10.6645   2.1202692695e+01   4.1787324903e+01    0.3020173    0.1047481 -45.25  0.001170684    2.597    0.615
        15 -10.2237     97.1257     10.3941   3.0682417398e+01   5.9494249270e+01    0.3305945    0.1591221 -41.75  0.001299887    2.205    0.546
        16 -10.2192     23.5634      9.9019   6.3003481379e+01   7.5915225161e+01      0.42851    0.2733792  48.33  0.002203402    1.939    0.484
        17 -10.3448     45.7711      9.6297   4.7975678761e+01   7.1959197994e+01    0.3064009    0.1981672  46.33  0.000884006    1.464    0.317
        18 -10.3034     42.4585      9.4125   4.9650425534e+01   7.2663212606e+01    0.1958737    0.1808367   3.52 1.704386e-05    1.051    0.049
        19 -10.2831     16.1400      7.9047   6.8033718360e+01   7.7302437437e+01    0.2153687    0.1670195 -26.56 0.0003415512    1.187    0.158
        20 -12.9443     20.2163      2.2774   5.9873991576e+01   7.7706770914e+01    0.3122095    0.2449367  11.18 0.0009172976    1.212    0.175
        21 -10.1371     88.7950      6.7531   3.0738216624e+01   6.2022486028e+01    0.2285755    0.1852998   6.04 0.0008379851    1.378    0.274
        22 -10.6319    247.1760      5.9598   1.4927629358e+01   2.4332408649e+01    0.1719617     0.130389 -57.45 0.0003498493    1.133    0.117
        23 -11.5958    194.0258      4.7941   1.7272955466e+01   3.5316315580e+01    0.2278549    0.2051718 -35.51 0.0003266813    1.166    0.142
        24 -10.9562    148.4840      2.4778   2.0001111497e+01   4.6624376674e+01    0.2475064    0.2321386  85.20  8.60869e-05    1.087    0.080
        25 -10.7356    151.5345      5.9709   2.0906655575e+01   4.5541695592e+01     0.326506    0.1995696 -85.71   0.00131976    1.625    0.385
        26  -9.7274    111.4692      5.5357   2.5752381507e+01   5.6143968119e+01    0.1405942    0.1291907  74.21 0.0001175006    1.016    0.016
        27  -9.8929    228.4770      4.4130   1.5373263474e+01   2.8022089696e+01    0.1190353   0.09079795 -51.33 -4.786323e-05    1.043    0.041
        28  -9.4667    173.8302      3.8320   1.8345496860e+01   4.0150587630e+01    0.1828607    0.1283682 -58.06 0.0002474512    1.280    0.219
        29 -10.0823    104.6464      4.2139   2.6297801880e+01   5.8075017688e+01    0.2282733    0.1722628  84.11 0.0003794669    1.287    0.223
        30 -10.8715     46.5642      3.9215   4.3475830416e+01   7.2526725368e+01    0.5260023     0.191831  50.42  0.001676658    2.438    0.590
        31 -10.4791     36.9770      3.3136   4.8320389105e+01   7.4588163187e+01    0.3581138    0.2400842  58.33  0.001816395    1.723    0.420
        32 -10.5494     13.8957      3.4819   6.6823305876e+01   7.8393668172e+01     0.228038    0.1945926  -0.14   0.00063366    1.057    0.054
        33 -10.6880     10.7031      1.3258   6.8369028954e+01   7.9176008206e+01     0.309118    0.1447369  29.34   0.00126827    2.122    0.529
        34 -10.4774    161.7708      2.2555   1.8778050021e+01   4.3261314632e+01    0.2391191    0.2083585  14.17   0.00144481    1.397    0.284
        35 -10.4273    138.0859      2.3028   2.0971393215e+01   4.9346012109e+01    0.2358066    0.2143276  42.30 0.0006623099    1.223    0.182
        36  -9.6348     63.4372      2.7808   3.5643655722e+01   6.8779291171e+01    0.1788216    0.1306231   0.16 0.0004067888    1.515    0.340
        37 -10.5574     29.8871      1.3488   5.1389683666e+01   7.6206864460e+01    0.2257438    0.1170811  48.20 0.0006815464    1.942    0.485
        38 -10.1454     28.9848    139.0144   9.5583627345e+01   4.3591598950e+01    0.1998053    0.1790016  72.72 0.0003623185    1.018    0.018
        39 -10.4841    110.0579    250.3478   8.5637011065e+01   1.1725326539e+01    0.1693222    0.1194053  19.75 0.0005423193    1.194    0.163
        40 -11.0198     28.9360    250.0000   1.0223902657e+02   2.0242189228e+01    0.2556145   0.09299699  30.91  0.001412326    1.930    0.482
        41 -11.7633      3.3395    232.7953   1.0701014049e+02   2.5365597138e+01    0.3211053    0.2262846  17.18  0.001052579    1.544    0.352
        42 -12.5150     10.3558    244.0768   1.0582428459e+02   2.2837300078e+01    0.5589581    0.2290856 -69.56  0.003236523    2.970    0.663
        43 -12.8563      4.8846    241.7068   1.0687894439e+02   2.3684248029e+01    0.4899499    0.3695877  67.41  0.003877249    1.259    0.206
        44  -9.3677    235.6877    138.3475   4.4680910247e+01   1.0821759846e+01    0.1121939   0.08570065 -48.51 0.0007046254    1.715    0.417
        45  -9.0182     25.3127    136.3202   9.6553589647e+01   4.4606475124e+01    0.1370865   0.09752672 -40.90 0.0004561997    1.650    0.394
        46 -10.0575     96.0288    133.7955   7.3213754115e+01   3.5919132928e+01    0.2481518    0.2135034 -57.13 0.0005855117    1.213    0.176
        47 -10.1835     11.0945    128.0987   1.0074066633e+02   4.7818325884e+01    0.2076797    0.1691934 -53.99  0.001219558    1.319    0.242
        48 -10.2652    247.6676    127.3453   4.0917581851e+01   1.0495456922e+01    0.1124617     0.080833 -48.83  0.000704999    1.761    0.432
        49  -9.7987     65.0090    125.2768   8.1462991984e+01   4.2868379482e+01    0.1987964    0.1803809  39.51 0.0002117291    1.082    0.076
        50  -9.7005    208.5226    123.4874   4.5604931024e+01   1.7146239772e+01    0.1290811     0.110751 -18.31 0.0002483507    1.020    0.019
        51 -10.5653     25.2678    123.2750   9.5264769211e+01   4.7971598524e+01    0.2376109    0.1253278  58.10   0.00104627    1.975    0.494
        52 -11.7279     10.5671    120.9877   1.0039790046e+02   4.9688738944e+01    0.3952776    0.3109799  -9.49 0.0009919103    1.527    0.345
        53 -11.0369     69.5590    116.0406   7.8119690138e+01   4.4517326996e+01    0.3762687    0.3288016  23.33  0.001999607    1.196    0.164
        54 -11.6623      3.0405    112.4777   1.0258057269e+02   5.2347868014e+01     0.435184    0.2206476  67.42   0.00156771    1.946    0.486
        55 -10.5843     40.4884    113.5573   8.8316977534e+01   4.9015477817e+01    0.3056511    0.1378285 -70.52  0.001213243    2.179    0.541
        56 -11.6529     23.3749    113.2876   9.4849820341e+01   5.0752682736e+01     0.248223    0.2312882  82.76 0.0002230288    1.017    0.017
        57 -10.1263     56.4048    110.7508   8.1811009534e+01   4.7773161617e+01    0.2029505    0.1321422 -53.70 0.0004609034    1.523    0.343
        58 -12.3321     13.6908    107.7354   9.8040762049e+01   5.2953371408e+01    0.5333513    0.2795534 -66.08   0.00249918    1.729    0.422
        59 -10.1637     26.5008    107.1446   9.2846403549e+01   5.2107990009e+01    0.3007343    0.1762314  71.28  0.001349392    1.913    0.477
        60  -9.8499     97.0052    106.5068   6.6732274945e+01   4.2081801654e+01    0.2246975    0.1970755 -52.27 0.0005165159    1.157    0.135
        61 -10.9366      6.0496    103.7199   1.0074213156e+02   5.4481325553e+01    0.1801925    0.1711293  52.53 0.0005403911    1.114    0.102
        62 -10.3440    109.0140    102.9959   6.2145929460e+01   4.0504982034e+01    0.2258518    0.2206139   0.26  0.001222179    1.039    0.037
        63 -10.9249    247.4817    101.9432   3.5761548622e+01   1.3681635869e+01    0.1888217   0.09400149 -30.42  0.001031987    1.589    0.371
        64  -9.9426     23.4178     98.5043   9.2918934676e+01   5.4669345809e+01    0.2475145    0.1864955 -31.15 9.370912e-05    1.498    0.332
        65 -11.7130     18.1786     96.3637   9.4871210733e+01   5.5653076626e+01    0.5775635    0.3347932  85.85  0.001598644    1.809    0.447
        66 -11.1845     21.0393     92.3047   9.3050613402e+01   5.6513337540e+01    0.3099685    0.2107518 -64.58 0.0005149773    1.349    0.259
        67  -9.8206    217.8962     98.6437   3.8679341072e+01   1.9049096312e+01    0.1638739    0.1545283 -13.33 0.0005623387    1.123    0.109
        68 -10.1129     11.5527     97.5467   9.7859436223e+01   5.5791970518e+01    0.2151574    0.1902309 -80.01  0.000502796    1.033    0.032
        69 -10.4410     10.8271     93.9499   9.7776267287e+01   5.6791751693e+01    0.2589957    0.2087293  88.38 0.0004336964    1.156    0.135
        70 -10.0269      8.2897     90.5704   9.8526602673e+01   5.7836693078e+01    0.2511346    0.1660194 -69.42 0.0007753368    1.355    0.262
        71 -10.6027     56.0316     96.7900   7.9008615461e+01   5.1417598169e+01    0.2677233    0.2113788 -77.74 0.0003352873    1.331    0.248
        72  -9.7376     92.7703     93.6306   6.4653009773e+01   4.5870600856e+01    0.3512574     0.237628  83.07   0.00136385    2.471    0.595
        73  -9.3550     80.5954     94.2322   6.9019426100e+01   4.8042076168e+01    0.1583096    0.1131616  62.18 0.0006898228    1.671    0.401
        74 -10.6331     44.1913     93.6214   8.3190648035e+01   5.3815231434e+01    0.2955009    0.1974389 -56.08  0.001056455    1.430    0.301
        75  -9.3518     30.5897     94.4616   8.9198083768e+01   5.5094611158e+01    0.1416343    0.1307047 -89.28 7.690958e-05    1.041    0.039
        76 -11.5436    125.2982     92.9743   5.4813811188e+01   3.9168735645e+01    0.2598549     0.217556  45.05 0.0002368971    1.196    0.164
        77 -10.6766    105.9154     91.8953   5.9979635729e+01   4.3574955950e+01    0.2930347     0.239727  74.57  0.000303116    1.455    0.313
        78 -11.0761     66.7037     91.6553   7.3525195034e+01   5.1077681182e+01    0.2541938    0.2386471  89.85   0.00027829    1.093    0.085
        79 -11.4894     58.0084     91.6750   7.6995479923e+01   5.2433726823e+01     0.337857    0.2643463  -1.35 0.0009889313    1.569    0.363
        80 -12.1761    159.5001     89.4010   4.5939616668e+01   3.2245169618e+01    0.3792446    0.2867183  27.28 7.132629e-05    1.539    0.350
        81  -9.2756    132.4474     90.4662   5.2268160085e+01   3.8081611655e+01    0.1504107    0.1454089 -71.05 7.875178e-05    1.074    0.069
        82 -10.3785     95.9096     87.3259   6.1784345175e+01   4.6663290030e+01    0.2084367    0.1925718  45.50 0.0003962486    1.077    0.071
        83  -9.6131     31.1580     87.1728   8.7614755029e+01   5.6967207229e+01    0.1838417    0.1549987  66.72 0.0002921467    1.237    0.192
        84 -13.5784     65.5375     81.7702   7.1261915776e+01   5.3701284516e+01    0.4618132    0.4229116  60.04 0.0006929938    1.137    0.120
        85 -10.8748      7.3611     83.6775   9.8172203769e+01   5.9714341406e+01    0.2972736     0.215892 -71.11 0.0009858605    1.231    0.188
        86 -10.6708      3.3721     81.3342   9.9808263392e+01   6.0529278268e+01    0.2926651    0.1856546 -62.53  0.001525559    1.408    0.290
        87  -9.9182    124.5908     81.0220   5.1442384265e+01   4.1689385935e+01    0.2779455    0.2276883  -9.52  0.001070036    1.455    0.313
        88  -9.7909    250.4416     80.5005   3.0920665631e+01   1.5822352657e+01    0.1186142   0.09247869 -30.56 0.0001819621    1.007    0.007
        89 -10.1298     86.2853     78.5954   6.2361821329e+01   5.0576895296e+01    0.2933464     0.226517  33.86 0.0007569747    1.341    0.254
        90 -10.3810     47.9133     78.9224   7.8058121591e+01   5.7118406924e+01    0.2556084    0.2056024 -43.37 0.0003683601    1.243    0.196
        91 -10.1956     51.8223     75.6597   7.5380601322e+01   5.7379256688e+01    0.2975462    0.2278135 -13.03 0.0009481348    1.600    0.375
        92  -9.9977     42.8177     76.8289   7.9858469206e+01   5.8328454924e+01    0.1939828    0.1651022  63.46 0.0002590155    1.279    0.218
        93 -10.0821    176.9941     76.5106   3.9224614106e+01   3.0473776460e+01    0.2993736    0.1404762  57.75  0.001247106    2.293    0.564
        94  -9.5615     74.8887     76.3643   6.5881504883e+01   5.3313358545e+01    0.2138675    0.1849004 -65.96 0.0007258179    1.223    0.182
        95 -10.2921     17.5846     85.0061   9.3529275730e+01   5.8717448046e+01    0.2348206    0.1931246 -65.42  0.000422214    1.120    0.107
        96 -11.4695      4.4859     75.1686   9.8553528169e+01   6.2104036254e+01     0.327334    0.2657357 -17.80  0.001153949    1.357    0.263
        97 -10.8852     17.0620     74.3082   9.2012729822e+01   6.1583751062e+01    0.3848529     0.261017  67.65  0.001763972    1.656    0.396
        98 -11.5296    117.7690     71.3790   5.0163328699e+01   4.5119773065e+01    0.3697209    0.2547783  28.15 0.0009558736    1.820    0.451
        99  -9.1317    148.2145     72.0331   4.3204905738e+01   3.7788474639e+01    0.1905877    0.1177066 -34.70 0.0002989861    1.588    0.370
       100  -9.6848    105.7274     71.8217   5.3740841735e+01   4.7818233824e+01    0.2025851    0.1752713  82.16  0.000629961    1.311    0.237
       101 -10.8396     11.7912     76.8113   9.5095997137e+01   6.1277916477e+01    0.2043839    0.1708233 -47.93 0.0005867313    1.168    0.144
       102 -13.2506     80.8646     67.1540   6.0486145467e+01   5.4199013611e+01    0.4753401    0.3971522   2.89 0.0006762715    1.426    0.299
       103 -11.3692     10.5868     70.0627   9.4660066555e+01   6.3126195385e+01    0.4049935    0.2144798  -8.42   0.00179721    2.342    0.573
       104  -9.5316     45.4554     69.5194   7.6561402321e+01   5.9815470863e+01    0.1466046    0.1372463 -37.42 -1.30067e-05    1.050    0.048
       105 -12.0702      5.6812     65.4719   9.6593473301e+01   6.4589302954e+01    0.6028789     0.229881 -60.68  0.002524699    2.141    0.533
       106  -9.6027     58.6219     66.9675   6.9594935544e+01   5.8412603204e+01    0.3421977    0.1388972 -52.55  0.001236443    2.403    0.584
       107 -11.6579     11.7320     59.7935   9.2151480018e+01   6.5726860106e+01    0.3046379    0.2457437  20.44 0.0002988342    1.342    0.255
       108 -11.2995     17.2326     63.3530   8.9756496920e+01   6.4427267018e+01    0.3954127    0.2571878  20.81  0.001233445    1.637    0.389
       109 -13.6773     20.9316     58.3304   8.6454644846e+01   6.5412744169e+01    0.6428813    0.4138147 -75.27 0.0008502073    1.590    0.371
       110 -10.2182    128.6292     63.3669   4.4741429597e+01   4.3971117974e+01    0.2433264    0.2129006 -66.07 0.0005930866    1.207    0.172
       111  -9.9083     51.6286     63.7927   7.1770418939e+01   6.0297603017e+01    0.2515588    0.1808596 -75.10  0.000613304    1.703    0.413
       112  -9.6965     62.8628     66.5245   6.7565521254e+01   5.7786004057e+01    0.2310936     0.147516  36.14 0.0003329492    1.588    0.370
       113 -10.1199    170.9937     63.0038   3.6397926906e+01   3.3860812788e+01    0.2045469     0.197098 -21.70 0.0003308089    1.078    0.073
       114  -9.5686    119.9213     62.4870   4.6583293519e+01   4.6240020907e+01    0.2061563    0.1485404  53.27 3.414402e-05    1.376    0.274
       115  -9.6715     98.5725     60.9670   5.2117030013e+01   5.1588997272e+01    0.2291988    0.1492094 -41.54 0.0004634636    1.550    0.355
       116 -12.3055     58.2086     58.8380   6.6910239456e+01   6.0359892503e+01    0.3113737    0.2584521  31.80 0.0003762826    1.222    0.182
       117  -9.8459     38.7405     59.4607   7.6842976451e+01   6.3192071011e+01    0.3315805    0.1456061  25.53  0.000867805    2.485    0.598
       118 -10.9220     73.4722     57.6639   5.9843388385e+01   5.7730340265e+01    0.4002246     0.229193  55.37  0.000895398    2.066    0.516
       119 -10.1432    229.2008     56.4168   2.7558929389e+01   2.2423341281e+01    0.1995963    0.1438907 -25.21 0.0006194176    1.264    0.209
       120  -9.3800    130.9467     57.4228   4.2192732149e+01   4.4401492481e+01    0.1975745    0.1302174 -87.92 0.0007970781    2.200    0.545
       121 -11.9094    211.9890     67.4576   3.2012498176e+01   2.4384815580e+01    0.2280422    0.1926267 -34.48 0.0003119442    1.029    0.028
       122 -12.8317    114.7932     53.3383   4.4631080042e+01   4.9080513354e+01    0.3314849    0.3067954  63.57 0.0004482312    1.068    0.063
       123 -12.4506     86.6128     53.8997   5.3392865359e+01   5.5673330457e+01    0.5047988    0.2879198  48.79 0.0004563924    1.731    0.422
       124 -10.6993     80.3486     51.6901   5.4776230373e+01   5.7488319819e+01    0.3956815    0.2555809  67.18 0.0009345067    2.104    0.525
       125  -9.8946      7.3849     55.2290   9.3832650467e+01   6.7151478453e+01    0.1837732    0.1196759 -87.00   0.00043444    1.581    0.368
       126 -10.0741     99.1729     52.6336   4.8765777612e+01   5.2998510576e+01    0.4675694    0.2267992 -56.75  0.001539747    3.221    0.690
       127 -12.1712     65.8391     52.1166   6.0838283770e+01   6.0412238675e+01    0.7062875    0.3357632  50.20  0.002687731    2.358    0.576
       128  -9.8260    225.4807     52.5295   2.6985560985e+01   2.3593695858e+01    0.1250271    0.1036521 -39.93 3.150727e-05    1.002    0.002
       129  -9.8170    148.7244     52.0100   3.6799286821e+01   4.0829334410e+01    0.2007189     0.180718 -44.66 0.0003489075    1.078    0.072
       130  -9.2841    134.7078     52.6800   3.9751246797e+01   4.4222170072e+01    0.2496605    0.1297405  50.05 0.0009044628    1.938    0.484
       131 -10.0265    138.1644     50.1626   3.8183730673e+01   4.3740258720e+01    0.2216548    0.1968132  33.24 0.0005582308    1.234    0.190
       132 -12.3722    106.2557     50.3233   4.5791174915e+01   5.1691738015e+01    0.3777015    0.2904094 -45.01 0.0002928175    1.328    0.247
       133 -10.9700    103.5287     43.4779   4.3837218697e+01   5.3499000663e+01    0.4919379    0.4272861  37.45  0.002583096    1.185    0.156
       134 -10.0020     37.7776     52.0421   7.4826472633e+01   6.5098567042e+01    0.2543898    0.1880608   0.00  0.001269814    1.585    0.369
       135 -10.5551     54.7222     48.8538   6.4640324565e+01   6.3174607695e+01    0.2825542    0.2169791 -78.66 0.0006612942    1.775    0.437
       136 -10.4002     74.9335     47.5111   5.5111418216e+01   5.9469223122e+01    0.2615494    0.2083668 -62.69  0.000566838    1.472    0.320
       137  -9.9565      9.0303     47.7201   9.1159550119e+01   6.8962804505e+01     0.306327    0.1455864 -11.90  0.001275487    2.664    0.625
       138  -9.9118    154.8672     46.9185   3.4099233500e+01   4.0035009018e+01    0.2041671    0.1962643  13.08 0.0004906204    1.149    0.130
       139 -10.9140     66.5561     45.7488   5.7822181653e+01   6.1563436410e+01    0.3980627    0.2880143   4.80  0.001087013    1.900    0.474
       140 -10.0475     79.1043     45.6207   5.2686241825e+01   5.8913413857e+01    0.2391077    0.2019212 -51.47 0.0003520631    1.256    0.204
       141 -10.5244     35.2624     43.4456   7.2978437401e+01   6.7428187711e+01     0.660916    0.3171334  19.71  0.001687222    2.645    0.622
       142 -10.1801     38.4251     41.4638   7.0263331120e+01   6.7425151580e+01    0.3835092    0.2291383  55.46  0.001640933    2.389    0.581
       143 -11.1657     23.8314     45.1523   8.0735492370e+01   6.8395526335e+01    0.3175276    0.1908551  29.92 0.0004257415    1.722    0.419
       144 -11.1549     26.3469     42.7214   7.8240366315e+01   6.8701782728e+01    0.6035901    0.3518533  63.71  0.002438531    2.979    0.664
       145 -10.2244     16.9552     43.9680   8.4850244151e+01   6.9324260159e+01     0.374742    0.2305506  60.14  0.001162813    2.228    0.551
       146 -13.0359    141.5976     40.6803   3.4276550409e+01   4.4230442744e+01    0.2982798    0.2767292  82.69 0.0005731302    1.055    0.052
       147 -11.0912    110.2537     40.5648   4.0874536132e+01   5.2267710554e+01    0.3349432    0.2552573 -73.45 0.0007492637    1.564    0.360
       148 -11.0452    183.8199     40.3291   2.8110494437e+01   3.3928449617e+01    0.3411468    0.2344392 -75.89  0.001676071    1.605    0.377
       149  -9.8966    170.8110     40.3039   2.9704140651e+01   3.7007628739e+01     0.216594    0.1617599 -44.24 0.0001479856    1.240    0.193
       150 -10.3930    116.9198     41.0518   3.9445156837e+01   5.0498801773e+01    0.2449483    0.2071504  61.92            0    1.152    0.132
       151 -10.8906      4.4333     39.3671   9.2281703071e+01   7.1289665790e+01    0.2885644   0.04823161 -56.74 0.0009557397    3.451    0.710
       152 -12.4866    121.4711     37.4495   3.7029014625e+01   4.9851106957e+01    0.3790623    0.3246595 -31.15 0.0005622694    1.206    0.171
       153 -10.3891     93.4946     38.9855   4.4883438833e+01   5.6690875784e+01    0.2211446    0.1475227 -35.05 0.0004606193    1.538    0.350
       154 -11.1252     81.5039     37.8167   4.8324009551e+01   5.9743820944e+01    0.5651375    0.2861382 -24.42  0.001521545    2.605    0.616
       155  -9.8991     51.8338     39.0489   6.1737648733e+01   6.5732033701e+01    0.2087169    0.1966153  70.05 0.0005581934    1.222    0.182
       156  -9.3823     43.7976     39.6129   6.6338780495e+01   6.6996336361e+01    0.1933616    0.1297538  45.17 0.0004901325    1.610    0.379
       157 -10.1462     18.6248     39.2231   8.2116803698e+01   7.0317566401e+01    0.2055841    0.1068868 -51.22 0.0009507858    1.700    0.412
       158  -9.6239     77.0242     37.7663   4.9940115138e+01   6.0782209464e+01    0.2519235    0.1626243  25.75  0.001073183    1.999    0.500
       159 -10.0039    131.9257     36.7874   3.4664264572e+01   4.7241423416e+01    0.2453758    0.1947889  11.66  0.001024345    1.564    0.361
       160 -10.5861    177.2390     35.9913   2.7621069715e+01   3.5998219804e+01    0.1957444    0.1783561 -42.48 0.0004820958    1.066    0.062
       161 -10.2978      1.4865     31.4668   9.2450136840e+01   7.3352654877e+01    0.2320551    0.1185878 -88.18 0.0006435127    2.382    0.580
       162 -12.4391    144.5655     31.0595   3.0445578034e+01   4.4714159658e+01    0.4334301    0.3006947 -25.49 0.0004680771    1.502    0.334
       163 -11.8778     45.2229     32.5776   6.2121775387e+01   6.8191196491e+01    0.3019576    0.2417745 -45.17 0.0002526956    1.270    0.213
       164 -10.1917     28.3004     33.3390   7.3029792450e+01   7.0597969612e+01    0.2439958    0.1780481 -26.32 0.0007344778    1.408    0.290
       165  -9.7710     55.4159     32.7871   5.6836570657e+01   6.6262086328e+01    0.1862652    0.1338648 -27.01 0.0002357336    1.483    0.326
       166  -9.5704    117.2536     32.9185   3.6166503149e+01   5.1566415732e+01     0.273371    0.1966356  62.22            0    1.336    0.251
       167 -10.0646     89.4357     31.4840   4.2765326523e+01   5.8844181992e+01    0.2307874    0.2184274  14.53 0.0005315745    1.091    0.083
       168 -11.9548     90.9931     26.4863   3.9960061640e+01   5.9170690150e+01    0.3375399    0.2624977 -41.52 0.0003536993    1.346    0.257
       169  -9.9137     24.0440     31.5002   7.5146473213e+01   7.1522948386e+01     0.199076    0.1304372  25.78 0.0005372338    1.562    0.360
       170 -12.6427     11.0751     29.8325   8.4242087106e+01   7.3162630966e+01    0.3147088    0.2554541  29.17 0.0007550971    1.348    0.258
       171 -11.1030    135.7000     29.1052   3.1177623713e+01   4.7248204569e+01    0.2419549    0.2127954  79.90 0.0002839005    1.097    0.089
       172 -10.0350    226.8588     28.2020   2.1073242043e+01   2.6036144740e+01    0.2841932   0.04548061 -31.02 0.0009911529    3.736    0.732
       173 -11.1321    221.0005     26.4804   2.1065755868e+01   2.7388285114e+01    0.2270896    0.1502395 -34.95 6.914209e-05    1.266    0.210
       174  -9.8664     80.9355     26.8848   4.3292385878e+01   6.1591327771e+01    0.2288639    0.1741503 -69.48 0.0007254852    1.678    0.404
       175 -11.3350     67.7774     27.4562   4.8468510417e+01   6.4571000019e+01    0.4281348    0.3810634 -87.81  0.002211286    1.346    0.257
       176  -9.6002    110.4561     25.7795   3.4717584845e+01   5.4265614402e+01    0.1878977    0.1448019  -5.82 0.0004110717    1.530    0.346
       177  -9.6067    103.3070     26.0296   3.6480984359e+01   5.6091854921e+01     0.253521    0.1796215  32.53  0.001202159    1.607    0.378
       178  -9.8566    102.9546     22.5026   3.4995870077e+01   5.6626213068e+01    0.3289125    0.2635154  40.05 0.0008953655    1.285    0.222
       179 -10.7963     51.2138     24.8198   5.4664834095e+01   6.8504460970e+01    0.3765312    0.2311968 -40.66  0.001801739    1.664    0.399
       180  -9.6666     45.2997     25.9784   5.8532638038e+01   6.9424759392e+01    0.1897117    0.1711972 -23.52 0.0003670317    1.085    0.079
       181  -9.4800     18.6181     25.7770   7.6515387330e+01   7.3386593493e+01    0.2234678    0.1185149 -56.68  0.001053552    1.822    0.451
       182 -12.2507     18.0908    247.9256   1.0436426101e+02   2.1540288909e+01    0.3920218    0.2140749  15.49   0.00227808    2.032    0.508
       183 -10.0557    131.5187    247.0473   8.1025986738e+01   9.7123304445e+00    0.1345471    0.1103114 -36.93   0.00055051    1.536    0.349
       184 -10.0735    115.8814    246.8321   8.4128796840e+01   1.1562061842e+01    0.1673763    0.1283955   9.66 0.0006057381    1.259    0.206
       185  -9.5521    170.7618    246.4423   7.3490026510e+01   5.2600641208e+00    0.1580748    0.0798427  19.17 0.0009402224    1.672    0.402
       186 -10.2257     52.4425    244.4680   9.7126511276e+01   1.8910092701e+01    0.2016049    0.1543144  19.78 0.0007574177    1.316    0.240
       187  -9.1576    186.5042     25.4544   2.3597455677e+01   3.5017195242e+01    0.1323308    0.1170846 -56.63 9.580312e-05    1.007    0.007
       188  -9.9190     59.5263     24.4605   5.0410990394e+01   6.6854030718e+01    0.2704365    0.1380077 -36.70 0.0007331368    2.000    0.500
       189  -9.2763    119.5172     24.6188   3.2365815286e+01   5.2031464724e+01    0.1445008    0.1335624  73.59 0.0001875724    1.030    0.030
       190 -10.3007     85.1878     23.2051   4.0098301866e+01   6.1063478859e+01    0.2528129    0.2398016  58.57  0.001443475    1.032    0.031
       191  -9.8253    128.0250     23.4532   3.0356962632e+01   4.9928818585e+01    0.2199171    0.1208325  56.65 0.0004671485    1.730    0.422
       192 -10.7420    124.4926     20.5966   2.9848709575e+01   5.1184168253e+01    0.2551532    0.2315462 -82.79 6.788405e-05    1.065    0.061
       193  -9.4389    147.0000    243.9786   7.7661414050e+01   8.3151268665e+00    0.1462628   0.06371659 -47.25 0.0006249679    2.897    0.655
       194 -10.4708    238.5843     19.7138   1.8379525711e+01   2.4632686537e+01    0.1817174    0.1329041  65.30  0.001217553    1.648    0.393
       195  -9.8435     62.8988     19.9832   4.6391561693e+01   6.6799717911e+01    0.2192235    0.1744132 -77.43 0.0007318063    1.717    0.418
       196  -9.4952      7.4743     20.2959   8.3351661709e+01   7.5609703983e+01    0.1673796     0.122092 -77.53 0.0009316339    1.609    0.379
       197 -10.6454     33.3219     24.0662   6.4852383161e+01   7.1809847043e+01     0.352139    0.2562227  78.61  0.001632099    2.561    0.609
       198 -10.4583     70.9573     18.9314   4.2622315791e+01   6.5089841375e+01     0.216289    0.1993833  25.32 0.0004991728    1.056    0.053
       199 -10.3702     43.2051     19.1296   5.5684106032e+01   7.1009893575e+01    0.2113551    0.1783696   5.31 0.0005103435    1.185    0.156
       200 -10.6460    139.9531     17.9839   2.6477474077e+01   4.7396798078e+01    0.2041275    0.1905638  84.91  0.001194553    1.040    0.038
       201  -9.5588    134.8320     18.1826   2.7276882788e+01   4.8718866273e+01    0.1875239    0.1578858  45.95 0.0003263781    1.267    0.211
       202  -9.9856     77.2176     18.3919   4.0148464984e+01   6.3656588823e+01    0.1990572    0.1349547  71.37 0.0004458784    1.635    0.389
       203  -9.6768     50.1228     18.1336   5.1264426650e+01   6.9816645820e+01    0.1752838    0.1638857 -68.03            0    1.297    0.229
       204  -9.8149    215.6211     16.1467   1.8881728054e+01   2.9539965822e+01    0.2030167    0.1171397 -45.11 0.0006031151    1.414    0.293
       205  -9.3462    171.0123     16.2426   2.2346231837e+01   3.9680382782e+01    0.1627195    0.1084406  78.21 0.0002458212    1.480    0.324
       206  -9.9404    159.7137     15.9895   2.3401638347e+01   4.2516214035e+01    0.1850462    0.1643261 -43.58 0.0003079352    1.106    0.096
       207  -9.3164     92.4962     16.5378   3.4760906299e+01   6.0040828021e+01     0.144051    0.1339987  54.83 0.0004639703    1.017    0.017
       208 -10.3317     60.2238     15.4744   4.4869997894e+01   6.8035966521e+01    0.2770402    0.2123572  81.18  0.001089931    1.718    0.418
       209  -9.9825     30.5414     15.4734   6.1521391021e+01   7.3849304589e+01     0.229221    0.1585781   9.87  0.000679292    1.670    0.401
       210  -9.7138     39.6223    243.3090   9.9757015440e+01   2.0363141415e+01    0.1247208   0.05479871  48.66 0.0007028009    1.786    0.440
       211  -8.9059    194.3428    242.6972   6.8830362189e+01   3.0687048088e+00    0.0950994   0.07421882  34.22 0.0007039369    1.680    0.405
       212 -10.2646    208.0224     12.9945   1.8564602928e+01   3.1457090165e+01    0.1925431    0.1545036 -49.30 0.0004867753    1.038    0.036
       213 -10.0568    188.6548    248.3035   7.0536929238e+01   3.0588741121e+00   0.09579657   0.07239775  35.54 0.0004921028    1.688    0.407
       214  -9.0664    202.4857    241.4952   6.7284178014e+01   2.3182360007e+00    0.1082177    0.0755828   8.19 -4.009237e-05    1.017    0.017
       215  -9.0201     60.3575    240.7001   9.5226255196e+01   1.8724421024e+01    0.1235529   0.06151546  48.51 0.0007036572    1.709    0.415
       216  -9.0948    109.2951     12.6454   2.9263240108e+01   5.6056166253e+01    0.1522405    0.1005321 -59.60 0.0007032728    1.690    0.408
       217  -9.4521     59.0100    235.9995   9.5214803760e+01   1.9660913350e+01    0.1356564    0.1057305  40.15 0.0003484523    1.029    0.028
       218  -9.6145    230.1939    247.2333   6.3594303449e+01  -1.1085428027e+00    0.1231974   0.09142886  10.13 0.0004736041    1.284    0.221
       219 -10.1357     32.3591    233.1616   1.0084057630e+02   2.2807341734e+01    0.1770838    0.1250174  28.98 0.0003912108    1.242    0.195
       220 -10.5222     56.4528    228.9077   9.5313343552e+01   2.1168118267e+01     0.277842    0.1647859 -55.54  0.001686414    2.127    0.530
       221 -10.2530    246.0769    230.4544   5.8870183762e+01  -1.0219988479e+00    0.1940459    0.1075724  18.96  0.000652461    1.463    0.317
       222  -9.4190    231.1911     10.6138   1.6684511092e+01   2.6921767488e+01    0.1404668     0.104118  69.95 0.0004131109    1.573    0.364
       223  -9.1984    148.3251     10.2923   2.2720365397e+01   4.5978320057e+01    0.1393641   0.09848562  42.61 0.0002264896    1.617    0.382
       224 -10.1916    140.1780    227.9351   7.7105540074e+01   1.1380321147e+01    0.1836289    0.1407089  39.60  0.001244801    1.362    0.266
       225 -10.8299      1.4193    226.6145   1.0728718355e+02   2.6632180991e+01    0.2602661   0.09514092 -82.86  0.001003288    2.931    0.659
       226  -9.7933    223.3056    226.3337   6.1748613118e+01   1.7298208566e+00    0.1113223     0.061929  -0.21 0.0007039262    1.665    0.399
       227 -11.4968      3.1424    220.7793   1.0678872684e+02   2.7582139298e+01    0.4425856    0.1108422  62.06  0.001903484    3.458    0.711
       228  -8.9108     44.2592    223.2542   9.7698994142e+01   2.3451348202e+01   0.09774442   0.08470504  -0.26 -0.000275831    1.434    0.302
       229 -10.5174      8.1213    221.3159   1.0570955953e+02   2.7088752804e+01    0.2529183    0.1003693  81.62  0.001312935    2.632    0.620
       230  -9.2470    130.6556    221.3212   7.8263794825e+01   1.3588215140e+01     0.119694   0.08226419  50.03  5.73816e-05    1.729    0.422
       231 -11.5408      1.9431    248.5159   1.0759787357e+02   2.2766430996e+01     0.290645    0.1940773  87.86  0.002216846    1.653    0.395
       232 -10.0594     85.8444    215.0831   8.7500232868e+01   2.0311873805e+01    0.1745731    0.1369662  43.67            0    1.135    0.119
       233  -9.1570    205.5242    211.4326   6.2450464931e+01   5.4653828084e+00     0.115317   0.08391862   4.34 8.263037e-05    1.054    0.052
       234 -10.6156      3.8678    211.1126   1.0639401989e+02   2.9381282626e+01    0.1910634    0.1151134  51.34  0.001230716    1.271    0.213
       235  -9.7809    230.3050    209.6532   5.8130700462e+01   2.7968344603e+00   0.08984752   0.08191712 -11.80 0.0007009378    1.695    0.410
       236 -10.2524     39.3158    207.1598   9.7892652821e+01   2.7039717808e+01    0.1923708    0.1465108  28.31 0.0004891984    1.223    0.183
       237 -10.2656      2.3178    204.6598   1.0658819379e+02   3.0779118542e+01    0.1297761   0.05837975  52.61 0.0007049092    1.710    0.415
       238 -10.5024      4.5025    201.4896   1.0598972206e+02   3.1255399302e+01    0.1167912   0.09247355  52.05 0.0008105143    1.020    0.020
       239  -9.5474     18.2467    194.7401   1.0239990732e+02   3.1546771782e+01    0.1793966   0.08099195 -65.87 0.0008975336    2.424    0.587
       240  -9.4033     22.2534    180.2039   1.0063798305e+02   3.4353339607e+01    0.2073567   0.06363869  33.84 0.0008517494    2.424    0.587
       241  -9.2828    229.5116    165.5109   5.0765883004e+01   8.1873854169e+00    0.1188271   0.09082102  -7.21 0.0008102565    1.033    0.032
       242  -9.7877     10.4870    161.4853   1.0292197352e+02   3.9613341469e+01    0.1266582      0.10926  62.81 0.0001120003    1.023    0.022
       243 -10.1268      6.4991    148.4758   1.0346773001e+02   4.3021603722e+01    0.1284684     0.111434  67.66 0.0003847092    1.015    0.015
