#   1 NUMBER                 Running object number                                     
#   2 MAG_AUTO               Kron-like elliptical aperture magnitude                    [mag]
#   3 X_IMAGE                Object position along x                                    [pixel]
#   4 Y_IMAGE                Object position along y                                    [pixel]
#   5 X_WORLD                Barycenter position along world x axis                     [deg]
#   6 Y_WORLD                Barycenter position along world y axis                     [deg]
#   7 A_WORLD                Profile RMS along major axis (world units)                 [deg]
#   8 B_WORLD                Profile RMS along minor axis (world units)                 [deg]
#   9 THETA_WORLD            Position angle (CCW/world-x)                               [deg]
#  10 FWHM_WORLD             FWHM assuming a gaussian core                              [deg]
#  11 ELONGATION             A_IMAGE/B_IMAGE                                           
#  12 ELLIPTICITY            1 - B_IMAGE/A_IMAGE                                       
         1 -13.5260      2.5105     82.9893   1.4042648140e+02   5.6973303877e+01     4.042923     0.426442 -70.63   0.00857525   11.688    0.914
         2 -14.4587      6.2825    143.3531   1.4626679607e+02   4.3665997791e+01     3.973512     1.057372 -79.67   0.01591358    3.618    0.724
         3 -13.5070    194.7686     24.9636   7.0932988985e+01   3.3052930894e+01     1.678709     1.370301  21.68  0.008297021    1.396    0.284
         4 -13.3151    209.7322      6.8379   6.4113311145e+01   3.1210576308e+01    0.9878325    0.8461206  52.31  0.005974078    1.213    0.176
         5 -12.8543      2.7044      8.4087   1.2143467170e+02   7.1724930041e+01     1.081219    0.4652415 -43.26  0.006404045    1.662    0.398
         6 -12.6442      2.6419     21.4992   1.2638065592e+02   6.9446777149e+01    0.8114618    0.2423796 -46.71  0.004088507    2.197    0.545
         7 -11.6608    100.4485    248.6224   1.3767367148e+02   1.3036844409e+01    0.3191619    0.2557746  49.29  0.002468195    1.159    0.137
         8  -9.1620    249.6808    250.3148   1.1279470800e+02  -9.3471881917e+00   0.09305347   0.07984402  38.39 0.0007038966    1.653    0.395
         9 -11.6644    173.8000    249.0179   1.2522884625e+02   2.0635061895e+00    0.4527887    0.2427109  57.44  0.002397615    2.469    0.595
        10 -13.2210    140.7935    248.0820   1.3077916340e+02   7.2483182842e+00     1.047554     0.405212  49.26  0.005259822    2.223    0.550
        11  -9.3312     73.9460    250.0496   1.4213464981e+02   1.6333740403e+01    0.1358588    0.1259328  24.23 0.0009130756    1.656    0.396
        12 -10.1522     19.6048    247.8484   1.5038749550e+02   2.2845916262e+01    0.3195111    0.2204556  34.52  0.002566917    1.908    0.476
        13 -11.5857    185.5333    238.9044   1.2185696602e+02   1.5001370591e+00    0.3555286    0.2801943 -89.95  0.002250484    2.231    0.552
        14 -11.3590     37.4179    215.2566   1.4571713687e+02   2.6511464408e+01    0.6440092    0.5564345  60.57  0.005302555    1.303    0.232
        15 -12.4056     51.8783    207.3018   1.4256167943e+02   2.6340686481e+01     1.854893    0.5512285  59.83  0.006606062    5.155    0.806
        16 -12.6961     36.2627    236.0200   1.4722537370e+02   2.3036353344e+01    0.2659594    0.2119632 -84.30 0.0008305508    1.352    0.261
        17 -13.7558     41.2637    229.2215   1.4599925560e+02   2.3636510553e+01    0.7477825    0.4819979  56.57  0.002584866    1.223    0.182
        18 -11.1152     78.4523    222.9389   1.3913977361e+02   2.0196979906e+01    0.8902907   0.09713648  48.73  0.002355378    8.328    0.880
        19 -12.9047    109.0138    230.9052   1.3447317404e+02   1.4583036392e+01     1.392714    0.1127838  43.18  0.003843615    6.979    0.857
        20 -11.7297     93.2719    227.8201   1.3696376340e+02   1.7345133378e+01    0.3440069    0.1972416  56.95  0.001801153    1.511    0.338
        21  -9.0930      3.0755    227.8082   1.5196995176e+02   2.7703733202e+01     0.175465   0.08172141  50.72  0.001250072    1.673    0.402
        22 -13.4516    126.0573    231.9562   1.3153974200e+02   1.1864022581e+01     1.590735    0.2665668  40.95  0.005107577    4.977    0.799
        23  -9.5096    171.6659    222.6759   1.2202852264e+02   5.9399868162e+00    0.1237022   0.08666074  15.22  0.000705088    1.710    0.415
        24  -9.6085     28.0718    221.5509   1.4769144785e+02   2.6378013197e+01    0.2109765    0.1446231 -57.82  0.001550686    1.948    0.487
        25  -8.8686     25.4017    214.7621   1.4772667430e+02   2.7855469996e+01    0.1389953      0.13155  11.41 0.0007232053    1.747    0.428
        26  -9.8706     20.5789    211.9907   1.4837128507e+02   2.8833054545e+01    0.2914413    0.1521535  27.70  0.001778909    2.742    0.635
        27 -12.1922     10.4399    206.7587   1.4977735474e+02   3.0737811809e+01    0.4977008    0.3811152  33.70  0.003039072    1.728    0.421
        28 -11.4657     62.1708    201.3312   1.4012735534e+02   2.6222187266e+01    0.2223573    0.1977373 -74.61 0.0005697902    1.307    0.235
        29  -9.4304    192.7594    194.3429   1.1350428569e+02   6.4741092481e+00    0.2538082    0.1606463 -71.32 0.0009549483    4.492    0.777
        30 -11.8166     68.4705    192.6619   1.3805101003e+02   2.7096396472e+01    0.2387506    0.2141459 -80.13 0.0005199757    1.222    0.182
        31 -12.5690     50.3926    217.9038   1.4366387544e+02   2.4580510744e+01    0.9770945    0.5860184  79.14   0.00651311    1.517    0.341
        32 -10.2358     81.3500    248.3708   1.4080620030e+02   1.5642744181e+01    0.1886864     0.122108 -79.07  0.001349291    1.680    0.405
        33  -8.9045      2.4895    249.0059   1.5290122879e+02   2.4304037934e+01    0.1309995   0.06982732 -87.55  0.001027914    1.578    0.366
        34  -8.9201    102.5051    178.9944   1.2935518052e+02   2.4968360883e+01    0.1771925    0.1225677 -68.18 0.0004434591    1.505    0.336
        35 -11.6097     85.7678    170.2917   1.3173875327e+02   2.9258894104e+01    0.5366083    0.4969988  14.50  0.003529618    1.383    0.277
        36 -10.7948      2.5534    153.8082   1.4789129799e+02   4.1747605637e+01    0.3254612    0.2044296 -78.36 0.0008400526    1.240    0.193
        37 -10.0764     98.1796    153.6543   1.2637415190e+02   3.0902818282e+01    0.3365515    0.2641248 -48.33 0.0008965196    1.350    0.259
        38  -9.1101    101.1123    149.2200   1.2491784767e+02   3.1386829982e+01    0.2186689    0.1768447 -47.82 0.0003926226    1.296    0.228
        39 -11.8340     86.9089    152.9063   1.2888809828e+02   3.2785070456e+01    0.2648717    0.2377366 -45.28 0.0005405887    1.261    0.207
        40  -9.5710    134.2372    146.1091   1.1654210920e+02   2.6208769470e+01    0.4421833     0.137333 -49.85  0.001450942    3.371    0.703
        41 -12.1356     67.2699    143.6090   1.3211225086e+02   3.7540181269e+01    0.6289385    0.3953443  63.14  0.002964095    1.789    0.441
        42 -13.0441     65.2887    177.6981   1.3705936525e+02   3.0501176695e+01    0.4492371     0.256808 -47.07  0.001710471    2.249    0.555
        43  -9.6752    109.6855    138.0528   1.2075289691e+02   3.2367540729e+01    0.3592605    0.2290101 -26.94   0.00156259    2.368    0.578
        44 -10.4003     97.0243    135.4772   1.2337555285e+02   3.5038954633e+01    0.2399924    0.2112284 -44.79  0.000422258    1.186    0.157
        45  -9.2258     82.1010    133.4942   1.2675518792e+02   3.7760505921e+01    0.2032133    0.1657408  74.05 0.0008359135    1.296    0.228
        46  -8.9063    106.9320    124.3870   1.1859481750e+02   3.5818044844e+01     0.184211    0.1692424  39.53  0.000353316    1.139    0.122
        47  -9.6212    167.9863    113.0853   1.0113836887e+02   2.5787957568e+01    0.2989016    0.2214385 -52.52 0.0009924986    1.500    0.333
        48  -8.8345    203.4761    111.5360   9.3485266720e+01   1.8045462028e+01    0.1516076    0.1387123   3.64 8.706078e-05    1.061    0.057
        49 -11.0917     16.3842     93.7954   1.3793112023e+02   5.3767231552e+01    0.2802789    0.1619784 -77.97  0.001615319    1.588    0.370
        50 -10.6636     78.5234    179.3818   1.3448725822e+02   2.8408625679e+01    0.2194036    0.1954589  79.76 0.0003037892    1.060    0.056
        51  -8.3371    209.3627    179.7545   1.0765116948e+02   5.6473525706e+00    0.1241647     0.103851  63.54 0.0002835015    1.607    0.378
        52 -11.0885     14.2715     55.0041   1.3108503137e+02   6.2235532997e+01    0.3109423    0.1213275  36.60   0.00151419    3.344    0.701
        53 -12.2906      4.7504    170.2823   1.4860950070e+02   3.8221486498e+01     1.199843     0.345115 -71.54  0.005977334    2.652    0.623
        54 -10.8953    190.9473    246.7010   1.2199313468e+02  -3.0422665720e-01    0.3043105    0.2121352  72.51  0.001708861    2.849    0.649
        55  -9.5656    237.3223    247.3162   1.1433116618e+02  -7.3216773644e+00      0.11652   0.06688897  15.88 0.0007042191    1.663    0.399
        56 -12.7574    125.0759    249.7113   1.3363427569e+02   9.3606410063e+00    0.6679062    0.3810342  47.43  0.004279629    1.353    0.261
