#   1 NUMBER                 Running object number                                     
#   2 MAG_AUTO               Kron-like elliptical aperture magnitude                    [mag]
#   3 X_IMAGE                Object position along x                                    [pixel]
#   4 Y_IMAGE                Object position along y                                    [pixel]
#   5 X_WORLD                Barycenter position along world x axis                     [deg]
#   6 Y_WORLD                Barycenter position along world y axis                     [deg]
#   7 A_WORLD                Profile RMS along major axis (world units)                 [deg]
#   8 B_WORLD                Profile RMS along minor axis (world units)                 [deg]
#   9 THETA_WORLD            Position angle (CCW/world-x)                               [deg]
#  10 FWHM_WORLD             FWHM assuming a gaussian core                              [deg]
#  11 ELONGATION             A_IMAGE/B_IMAGE                                           
#  12 ELLIPTICITY            1 - B_IMAGE/A_IMAGE                                       
         1 -13.4883      5.8318     64.6084   1.0069985104e+02   6.3264927882e+01     1.700347    0.3531737 -56.53  0.006485955    3.139    0.681
         2 -15.1225      4.7143    132.8239   1.1268108897e+02   4.7109979323e+01     5.678927     1.134912 -76.44   0.01507448    5.777    0.827
         3 -13.4262    237.3584     32.6911   3.2015608937e+01   2.3952814342e+01    0.7078243    0.5722926 -84.86  0.005056607    1.155    0.134
         4 -12.7141     88.4788    229.8720   1.0201628726e+02   1.3644838886e+01    0.6486546     0.334148  16.28  0.002498015    3.230    0.690
         5 -13.6388    137.7311    244.4277   9.2852014144e+01   3.4112585693e+00     1.025998    0.9267076 -26.02  0.006613701    1.215    0.177
         6 -13.7299    119.3436    245.5418   9.7018768148e+01   5.9283909116e+00     1.094903    0.7124912  53.39  0.005842499    1.638    0.389
         7 -13.7501     57.4903    248.4607   1.1072778810e+02   1.3931980823e+01     1.304547    0.5810035  32.56  0.004728603    2.092    0.522
         8 -13.1596     40.9945    248.0267   1.1411408783e+02   1.6032722602e+01    0.8190615     0.477169  38.46  0.002822443    1.520    0.342
         9 -11.9071     46.3305    240.7309   1.1244527355e+02   1.6915941431e+01    0.4825908     0.329243  39.36  0.001815838    1.345    0.256
        10 -11.3807     80.7427    250.0750   1.0593886024e+02   1.0549416589e+01    0.4175816    0.1498882  37.54  0.001630912    2.265    0.559
        11 -13.9377      3.6998    244.0288   1.2126085831e+02   2.0838724154e+01     3.221727     1.110922 -81.16   0.01550687    2.689    0.628
        12 -13.0891     23.0980    191.0207   1.1353367709e+02   3.0935573306e+01     1.098108    0.9149413  28.16  0.006820581    1.392    0.282
        13 -14.2813     10.3516    200.1482   1.1729160537e+02   2.9938557021e+01     1.345505    0.7336461  81.94  0.003250971    1.706    0.414
        14 -12.0493     58.7536    232.1278   1.0899469495e+02   1.7216565196e+01    0.4620143    0.3595675  29.79  0.002302207    1.369    0.270
        15 -10.6563     53.0197    231.0710   1.1017022348e+02   1.8174107309e+01    0.2211605    0.1781402 -89.65  0.001373852    1.196    0.164
        16 -14.4849     97.8330    243.5802   1.0151757218e+02   9.4510143887e+00     2.066258    0.8639527  43.56  0.009146329    2.087    0.521
        17 -12.5326    109.2912    230.0617   9.7255255239e+01   1.0521776355e+01    0.5056228    0.1893221  40.92  0.002011104    2.347    0.574
        18 -11.2839     65.2555    225.3950   1.0685567611e+02   1.7852858183e+01    0.3513842    0.3140378 -86.65   0.00136625    1.136    0.120
        19 -12.2739     54.0810    222.6027   1.0913685812e+02   1.9927764045e+01    0.5729988    0.4465469  80.12  0.002016541    1.203    0.169
        20 -11.8666     60.9681    214.6161   1.0671204089e+02   2.0874752676e+01    0.6392109    0.4046933  60.88  0.002319841    1.570    0.363
        21 -11.2109     38.0082    204.7662   1.1118641693e+02   2.6017429669e+01    0.7128868    0.2745313  58.03  0.002701474    3.080    0.675
        22 -10.0925     44.9237    201.8396   1.0922603607e+02   2.5917564083e+01    0.2680563    0.1584306  53.31  0.001338062    1.617    0.381
        23 -13.0254      3.9647    205.0340   1.1905853326e+02   2.9358622388e+01    0.4232195    0.3046484 -84.58 0.0007441992    1.190    0.160
        24 -11.3957     38.9571    178.8466   1.0823432029e+02   3.2314901223e+01    0.2709087    0.2400057 -49.91 0.0004899963    1.252    0.201
        25 -11.6641     47.3520    172.3612   1.0516121480e+02   3.3006503793e+01     0.260143    0.2501507 -63.09 0.0004673667    1.132    0.117
        26 -12.9421     16.8391    135.0447   1.0918831043e+02   4.5689691499e+01    0.6543513    0.3617214 -47.45  0.003195348    1.735    0.424
        27 -11.3587     44.2217    233.7566   1.1233024971e+02   1.8663425968e+01    0.5457698    0.3427799 -56.06  0.002756683    1.834    0.455
        28 -13.1809      4.3228    163.0547   1.1584447111e+02   3.9510928468e+01     1.127342    0.4878311 -86.74  0.004951747    2.230    0.552
        29 -12.6735     83.7397    232.1085   1.0336023987e+02   1.3841982151e+01    0.5865234    0.3494962 -55.59   0.00300631    1.839    0.456
        30 -12.6077     26.5159    158.2608   1.0922775900e+02   3.8877015937e+01    0.7752149    0.4535022  65.19  0.003668148    1.935    0.483
        31 -11.2983     69.9593    155.9567   9.6184762541e+01   3.4294711630e+01    0.4840084    0.3843943 -34.62   0.00140126    1.408    0.290
        32 -12.5477     32.4487    145.2988   1.0577607216e+02   4.1660256121e+01    0.5162631    0.3803057  68.94  0.001956173    1.475    0.322
        33 -11.7615     67.6780    143.2736   9.4561417949e+01   3.7919299932e+01    0.7311403     0.432769  61.13  0.002498977    2.273    0.560
        34  -9.6985     87.1383    143.1447   8.8606693569e+01   3.4939773636e+01    0.2383014    0.2093863 -29.30 0.0006847905    1.218    0.179
        35 -11.0791     74.9442    140.7957   9.1835204459e+01   3.7485112595e+01    0.3226095    0.2393987 -54.02 0.0003613722    1.278    0.217
        36 -11.9572     35.6112    136.8377   1.0351863777e+02   4.3538065674e+01    0.4448178    0.3734082 -79.66  0.001645827    1.132    0.117
        37  -9.9742    105.0437    130.9345   8.0567777881e+01   3.4822260474e+01    0.3492564    0.2285527  34.23   0.00150884    1.598    0.374
        38 -10.0548     88.8481    127.4927   8.4640995765e+01   3.8596689645e+01     0.250701    0.2102703 -54.19 0.0003719048    1.157    0.136
        39 -10.4467     61.0148    162.2916   9.9848905337e+01   3.3888989596e+01    0.2495629    0.1974655 -59.29 0.0003691701    1.202    0.168
        40  -8.8972    101.6605    119.4940   7.8788691143e+01   3.8222154227e+01    0.1547584    0.1430519 -43.86 -6.074059e-05    1.059    0.055
        41 -13.2166    247.2597    107.5046   4.5794676040e+01   1.0970110380e+01    0.8098082    0.4613816 -59.92  0.004137259    1.910    0.476
        42 -12.8728     45.6123    158.7587   1.0378439999e+02   3.6735427044e+01    0.5783477    0.3488939 -40.86   0.00164495    1.904    0.475
        43  -9.5919     52.4978     89.5127   8.7612673002e+01   5.3292618686e+01     0.142412    0.1281174 -28.18 8.683702e-06    1.011    0.011
        44 -10.7187     36.4519     65.1971   8.7104918441e+01   6.0501183726e+01    0.2723506    0.1859608 -16.47   0.00138721    1.502    0.334
        45 -11.5518     25.7662     63.1038   9.1199342310e+01   6.2046960559e+01    0.4818836    0.2566999 -62.33  0.002301583    2.208    0.547
        46 -11.8346     43.4106     59.7184   8.2329492404e+01   6.0736091030e+01    0.3817895    0.3150123  63.19  0.002183374    1.827    0.453
        47 -12.5794    216.3467     48.1797   3.7155261285e+01   2.6150621705e+01    0.4705148    0.3851692  80.61  0.003055844    1.205    0.170
