#   1 NUMBER                 Running object number                                     
#   2 MAG_AUTO               Kron-like elliptical aperture magnitude                    [mag]
#   3 X_IMAGE                Object position along x                                    [pixel]
#   4 Y_IMAGE                Object position along y                                    [pixel]
#   5 X_WORLD                Barycenter position along world x axis                     [deg]
#   6 Y_WORLD                Barycenter position along world y axis                     [deg]
#   7 A_WORLD                Profile RMS along major axis (world units)                 [deg]
#   8 B_WORLD                Profile RMS along minor axis (world units)                 [deg]
#   9 THETA_WORLD            Position angle (CCW/world-x)                               [deg]
#  10 FWHM_WORLD             FWHM assuming a gaussian core                              [deg]
#  11 ELONGATION             A_IMAGE/B_IMAGE                                           
#  12 ELLIPTICITY            1 - B_IMAGE/A_IMAGE                                       
         1 -14.3027    166.9808     49.0903   7.3567916150e+01   3.7228917123e+01     1.555433     1.180623  23.85  0.005964852    1.737    0.424
         2 -13.5082    184.9105     27.5887   6.5125521161e+01   3.5618382435e+01    0.5788514    0.4277204  74.01  0.001150099    1.169    0.144
         3 -14.4563    180.8449     34.0652   6.7331241297e+01   3.5819150992e+01    0.9782436    0.9007298  53.84  0.003967838    1.208    0.172
         4 -12.9723    189.6322     14.8945   6.1443149239e+01   3.5911308810e+01    0.3244137     0.258612 -75.58  0.001148029    1.178    0.151
         5 -13.7470    203.2708      3.0136   5.7274244638e+01   3.3934942472e+01    0.7708262    0.4698544  48.63  0.002749301    1.979    0.495
         6 -12.7891    198.9917      2.4961   5.7581446849e+01   3.4975549397e+01    0.5022016    0.2301612  67.50  0.001839117    1.784    0.439
         7 -11.3693     77.6432     10.2054   8.1552699106e+01   6.1489154043e+01    0.2911776    0.1614459  56.59  0.001331808    1.953    0.488
         8 -12.5774     60.2584      6.3776   8.5569837544e+01   6.4870102732e+01    0.4466249    0.2531351  55.53  0.002111739    2.294    0.564
         9 -13.4417    106.8352    209.3756   1.2532811632e+02   1.6381501576e+01    0.6755505    0.6218258  45.82  0.003998423    1.158    0.137
        10 -18.6317     49.9668    242.4307   1.4088689592e+02   1.7942913010e+01     7.225351     6.507859  79.20   0.05246754    1.298    0.230
        11 -10.6424    209.8799    199.3782   1.0086926538e+02  -8.4181649083e-01    0.2298635    0.1863606 -47.31 0.0005643086    1.370    0.270
        12 -12.6703    193.6376    193.0182   1.0296638801e+02   3.3905769610e+00    0.8588886    0.5120012 -53.59  0.003359263    2.000    0.500
        13  -9.9883     20.4431    200.5340   1.4311202249e+02   3.0396687768e+01    0.1692058    0.1214888  11.49  0.001001151    2.298    0.565
        14 -10.7692    154.6856    197.0686   1.1232639463e+02   1.0184025425e+01    0.2654387    0.1956186  53.57  0.001119143    1.369    0.270
        15 -10.3336     64.6387    195.6203   1.3304196238e+02   2.6178594034e+01    0.2041394    0.1805423 -65.36 0.0006332764    1.239    0.193
        16  -9.7208    180.1868    192.2147   1.0569726731e+02   6.1696130584e+00    0.1975923    0.1748222  75.89 0.0004234807    1.345    0.256
        17 -10.8085    168.0146    189.7332   1.0790654838e+02   9.0964141234e+00    0.2677688    0.2200263 -43.66 0.0009844322    1.271    0.213
        18 -10.0113     67.4512    189.2065   1.3156022733e+02   2.7291422902e+01    0.2141858    0.1603815  69.44 0.0004446745    1.275    0.216
        19 -12.1323    206.9284    180.0714   9.7570725436e+01   3.3311686624e+00    0.7460783    0.4108402  28.06  0.002850975    2.251    0.556
        20 -13.5516     10.7735    206.3944   1.4549172131e+02   3.0068939544e+01    0.4879685    0.3086685  32.98  0.003080464    1.919    0.479
        21 -11.9638    196.0076    170.8771   9.7893517056e+01   7.3227839816e+00    0.6569393    0.4034605 -49.34  0.002471805    1.707    0.414
        22 -10.7787    193.8064    164.9413   9.7077378663e+01   8.9877592964e+00    0.3525649    0.2769854 -55.63  0.001438777    1.377    0.274
        23 -10.8727    159.1816    206.0098   1.1294717367e+02   7.4512356006e+00     0.348544     0.257588  70.07  0.001677372    1.726    0.421
        24 -11.0951      9.7196    214.0949   1.4624128202e+02   2.8513011741e+01    0.1280376   0.06887633  26.94 0.0007029814    2.572    0.611
        25 -10.2239    223.8024    164.0692   9.0877369350e+01   3.1323193767e+00    0.2166926    0.1889149 -60.24 0.0006255825    1.297    0.229
        26 -12.1022     96.7980    161.5389   1.1980229958e+02   2.9390089747e+01    0.3113879    0.2643881 -62.72  0.000298457    1.136    0.120
        27 -13.4274    101.8261    153.9052   1.1698618841e+02   3.0372469961e+01    0.8427383    0.5620441 -34.33  0.003691102    1.875    0.467
        28 -10.3123      4.6376    161.8454   1.4304981131e+02   4.0626761820e+01    0.1641024    0.1509266 -61.15 0.0007353215    1.300    0.231
        29 -10.7134    237.5036    159.4933   8.7398539873e+01   1.3977596658e+00     0.139993    0.1271576 -31.79 4.705743e-05    1.028    0.027
        30 -10.3225    120.1560    156.9923   1.1280382810e+02   2.6189868935e+01    0.3278039    0.1893306 -52.45  0.001354142    1.721    0.419
        31 -11.0495     10.7046    153.4113   1.4075764393e+02   4.2110489009e+01    0.3145089    0.2059837  36.34  0.001933447    1.774    0.436
        32 -12.2583    133.9095    145.4139   1.0671560452e+02   2.6155259505e+01     1.249491    0.3304514 -54.92  0.002871788    5.591    0.821
        33 -10.5520    163.9029    204.8784   1.1169419918e+02   6.7757250397e+00    0.2304062    0.2111992 -49.12 0.0003964684    1.178    0.151
        34 -10.7976    174.7809    148.9296   9.7652733044e+01   1.6467478470e+01    0.2952248    0.2225875 -65.71 0.0008384978    1.554    0.356
        35 -12.3973    144.5677    145.2835   1.0398880531e+02   2.3918816275e+01     0.496679    0.3517316 -72.50  0.001056848    1.808    0.447
        36 -12.6685      9.0515    144.7879   1.4020167818e+02   4.4243623478e+01    0.6125491    0.4682413 -15.67  0.003961993    1.801    0.445
        37 -13.3907      4.2925    131.1626   1.3981482122e+02   4.7721596915e+01     1.588261    0.5181513 -75.77  0.006525697    2.874    0.652
        38 -12.4725    100.1447    139.7261   1.1446921169e+02   3.4122304310e+01    0.2964909    0.2818645 -36.50 0.0004283876    1.104    0.094
        39 -11.6814    105.8375    130.8360   1.1087360275e+02   3.5208538384e+01    0.4245063    0.3387666 -53.85  0.001330951    1.221    0.181
        40 -11.3949    105.3257    126.3470   1.0995620145e+02   3.6364237361e+01    0.3344648    0.2536082 -26.99  0.001471273    1.552    0.356
        41 -12.3233    117.7572    129.9061   1.0735625497e+02   3.3113233155e+01     0.430731    0.3755459   3.97  0.001107141    1.348    0.258
        42 -12.1067    135.4023    123.0016   1.0094019830e+02   3.0998258572e+01     0.722776    0.2145417 -49.90  0.002023479    3.657    0.727
        43 -12.9415    110.6303    140.0720   1.1166480282e+02   3.2097690130e+01    0.7606171    0.4452072 -30.28  0.002852313    2.490    0.598
        44 -10.6037    111.9997    119.0503   1.0627974955e+02   3.6770737958e+01    0.2273234    0.2252666 -30.82 0.0003330296    1.015    0.015
        45 -19.1436     33.1002    106.1789   1.2742432402e+02   5.1247171059e+01     16.76962    0.7913541 -61.36   0.02570712   17.714    0.944
        46 -11.1903    168.3288    113.2173   9.0440013006e+01   2.5583333716e+01     0.416958    0.3028418 -78.74  0.001045737    1.840    0.456
        47 -11.6325      2.4999    112.6362   1.3787066581e+02   5.2036874084e+01    0.2688526    0.1809286 -41.70  0.001515175    1.441    0.306
        48 -10.6856    205.4530    110.1811   8.2125456921e+01   1.7491040650e+01    0.3266842    0.2169401  44.74  0.001016403    1.637    0.389
        49 -11.4824    160.7870    127.5461   9.5782341576e+01   2.4291176656e+01    0.3887021    0.2945839 -87.76  0.001687031    1.750    0.428
        50  -9.8106     79.8346    105.5910   1.1240501689e+02   4.5565792641e+01    0.1877945    0.1346205  47.27 0.0005556584    1.562    0.360
        51 -10.8413    151.2673    101.8690   9.1427870415e+01   3.1929845354e+01    0.4529189    0.2965722  77.51  0.001753849    2.307    0.567
        52 -12.8390    106.0334    202.3384   1.2445663910e+02   1.8097112352e+01    0.6224886     0.391075  38.68  0.001869763    1.572    0.364
        53 -10.5489     81.8137     76.0307   1.0351172378e+02   5.1399956386e+01    0.2242629    0.1892159  27.05 0.0003410487    1.181    0.153
        54  -9.9489    176.7909     74.8219   7.8643429068e+01   3.0811071028e+01    0.2091768    0.1675695 -81.04 0.0004612586    1.356    0.263
        55  -9.2035    168.2962    248.2852   1.1797105516e+02  -2.0482601479e+00    0.1265868   0.09468425  12.00  0.000193459    1.546    0.353
        56 -11.5418    159.9180    236.3198   1.1786304559e+02   1.4799682373e+00    0.1979916    0.1591522  37.53 0.0004029266    1.085    0.078
        57 -10.4051     13.7022     59.9456   1.2370735633e+02   6.2443487487e+01    0.1787689     0.146342 -20.62 0.0004645441    1.140    0.123
        58 -13.3543    116.3586    211.4882   1.2349617677e+02   1.4253826855e+01     0.749157    0.5304616 -86.59  0.003055512    1.682    0.406
        59 -11.9155    201.2162     22.5958   6.1869241819e+01   3.2299948827e+01    0.2028002    0.1836534  54.28  0.001313518    1.331    0.248
        60 -12.6287    121.8711    199.2690   1.2029195505e+02   1.5960463638e+01    0.4577309    0.3345771 -13.68  0.001345138    2.259    0.557
        61 -14.2687    104.8938    192.7167   1.2321461357e+02   2.0505226798e+01     1.538713     1.010647 -20.18  0.002868673    3.087    0.676
        62 -12.6972     99.2176    187.6959   1.2376351410e+02   2.2663472009e+01    0.5437921    0.3373461 -47.70  0.002507907    1.780    0.438
        63 -14.3891    112.9637    196.9189   1.2198830609e+02   1.8108887481e+01    0.8230834    0.7569349  89.41  0.004435271    1.064    0.060
