#   1 NUMBER                 Running object number                                     
#   2 MAG_AUTO               Kron-like elliptical aperture magnitude                    [mag]
#   3 X_IMAGE                Object position along x                                    [pixel]
#   4 Y_IMAGE                Object position along y                                    [pixel]
#   5 X_WORLD                Barycenter position along world x axis                     [deg]
#   6 Y_WORLD                Barycenter position along world y axis                     [deg]
#   7 A_WORLD                Profile RMS along major axis (world units)                 [deg]
#   8 B_WORLD                Profile RMS along minor axis (world units)                 [deg]
#   9 THETA_WORLD            Position angle (CCW/world-x)                               [deg]
#  10 FWHM_WORLD             FWHM assuming a gaussian core                              [deg]
#  11 ELONGATION             A_IMAGE/B_IMAGE                                           
#  12 ELLIPTICITY            1 - B_IMAGE/A_IMAGE                                       
         1 -13.4903    224.7236      6.6998   3.5060108982e+01   2.8692463353e+01     2.124962     1.145736  47.61  0.009183415    2.448    0.592
         2 -13.0407    182.1009     51.0098   5.1491291711e+01   3.3407274814e+01     1.093147    0.9700826  48.44 0.0007941722    1.178    0.151
         3 -13.2079    194.0921     41.0074   4.6902854612e+01   3.1851209646e+01     1.168651    0.9484139 -51.54  0.003611916    1.193    0.162
         4 -13.3498    201.7973     32.9075   4.3743628927e+01   3.1032802144e+01    0.9495226    0.8938122  -8.00  0.001391604    1.270    0.212
         5 -11.6276     60.6052      2.7583   6.2797246679e+01   6.6708803501e+01    0.5393802    0.2071304  43.00  0.002545232    2.235    0.553
         6  -9.1293    158.1553    235.4267   9.8348392414e+01   3.6129688451e+00    0.1850732     0.155428 -54.18 0.0008911494    1.462    0.316
         7 -11.1336    140.0713    248.3990   1.0363965915e+02   4.3440228646e+00    0.4310227    0.2721708 -57.04  0.002538914    1.989    0.497
         8 -11.0677    119.8056    245.7661   1.0727350586e+02   7.8515502781e+00    0.3063434    0.1712272  47.25  0.001017268    1.507    0.337
         9 -10.7666    115.2280    244.6036   1.0803614561e+02   8.7353136351e+00    0.4621619     0.188102 -50.17  0.002178326    3.012    0.668
        10 -19.1690     14.0225    173.6276   1.2236584835e+02   3.6246035753e+01     17.97722     4.386291 -79.16   0.06347745    4.013    0.751
        11  -9.7748    149.5513    187.8256   9.2526725704e+01   1.3801998859e+01      0.30323    0.2513953  78.07 0.0009611633    1.500    0.333
        12  -8.6184     93.4631    205.4898   1.0790549255e+02   1.9528616364e+01    0.2253919    0.1209068  37.01 0.0009451094    1.780    0.438
        13 -10.9448    184.0833    212.1144   8.9435576181e+01   3.2131961234e+00     0.487061    0.3035506 -51.01  0.002479801    2.005    0.501
        14 -10.7802     99.0551    180.9046   1.0317519248e+02   2.4064645264e+01    0.3549401     0.258806  22.71  0.001600373    1.661    0.398
        15 -10.0680    189.3508    177.3533   8.1824607169e+01   8.4449192860e+00    0.4583151    0.3517255 -57.00  0.002350388    1.626    0.385
        16 -10.0793    143.9343    178.1409   9.2026541667e+01   1.6844319696e+01    0.3583613     0.228813 -33.45  0.001010518    1.869    0.465
        17  -8.9399    149.3053    177.0090   9.0568894538e+01   1.6079524129e+01    0.1959652    0.1844274 -52.83 0.0003692801    1.122    0.109
        18 -10.6998    173.8511    211.6652   9.1452632148e+01   5.0203454782e+00    0.3210477    0.1681254  21.90  0.001336619    2.513    0.602
        19  -8.0315    194.3195    172.3245   7.9760899953e+01   8.4480840765e+00    0.1501714    0.1077477   0.37 0.0007045678    1.676    0.403
        20 -10.1690    138.3539    169.7585   9.1738036463e+01   1.9693360434e+01    0.3919155    0.2829823  47.44  0.001213336    1.373    0.272
        21 -10.6447    108.2565    211.0202   1.0538482931e+02   1.6104303738e+01    0.2457259    0.2208562  36.61  0.001536444    1.158    0.136
        22  -9.3415    240.4600    169.4516   7.0404100257e+01   7.0608458678e-01    0.1351786    0.1135985 -11.25 7.406728e-05    1.010    0.010
        23 -11.5370    189.1931    209.0302   8.7864779093e+01   2.8681783251e+00    0.4190168    0.3285109  -8.31  0.002429337    1.319    0.242
        24  -9.2464    187.9969    163.1728   7.9141128556e+01   1.1395969553e+01    0.2594659     0.190308 -55.15 0.0009453644    1.617    0.382
        25 -11.1709    193.9294    196.6179   8.4647103318e+01   4.1620362426e+00     1.270284    0.6453091 -61.14  0.003811253    5.989    0.833
        26 -15.1445     72.7943    151.4755   1.0514341256e+02   3.5028978235e+01     4.944195     2.639457  85.43   0.00977486    3.336    0.700
        27 -11.4940     92.9948    151.8539   9.9800094332e+01   3.1890610589e+01    0.7249601     0.539081 -30.27  0.003535224    1.687    0.407
        28  -8.3500     77.2882    208.3146   1.1176679140e+02   2.1275473544e+01    0.1156055    0.1001767 -31.63 0.0002106461    1.587    0.370
        29 -10.7808    133.7908    145.0394   8.7719102568e+01   2.6124899664e+01     1.286095    0.3342441 -54.98  0.002907819    6.137    0.837
        30  -8.9930    112.7185    150.9058   9.4403352731e+01   2.8746986257e+01    0.2370531    0.1720502  89.22 0.0006487797    1.819    0.450
        31  -9.0799    174.8315    149.1097   7.8874513341e+01   1.6849418807e+01    0.2291423     0.210992 -77.08 0.0006462081    1.269    0.212
        32 -10.4049    105.2929    138.1289   9.3728569786e+01   3.3127032340e+01    0.5504153    0.3401838 -28.79   0.00220372    2.295    0.564
        33  -8.3131    224.2767    206.6712   8.0635660254e+01  -2.4771734387e+00     0.109878    0.1050936 -65.28  0.000269341    1.594    0.373
        34 -11.6083     92.9712    137.8973   9.7091618760e+01   3.5291199149e+01    0.2906468    0.2588682 -40.56 0.0003332738    1.166    0.142
        35 -12.4444    112.6438    205.9931   1.0373771024e+02   1.6432530813e+01     1.212199    0.2892954 -48.88  0.003729432    4.957    0.798
        36 -10.6974    113.8735    129.5327   8.9441880290e+01   3.3606405999e+01    0.5092135    0.3857885 -71.39  0.001793694    1.523    0.344
        37 -10.1837    105.9121    130.7554   9.1930353857e+01   3.4787076351e+01    0.3775097    0.3240765 -69.84   0.00117697    1.200    0.167
        38  -9.8856    135.7404    128.6476   8.3393854655e+01   2.9467275339e+01    0.4329721    0.1781063 -47.81  0.001487152    2.407    0.585
        39  -8.5436     96.8192    128.8023   9.4061084804e+01   3.6857851715e+01    0.1987454    0.1703318  81.24 0.0003821025    1.305    0.234
        40  -9.0281    160.5907    127.7863   7.7051498598e+01   2.4351657270e+01    0.2296498    0.1462304 -53.08 0.0009523621    1.702    0.412
        41 -10.2977    100.7656    125.1047   9.2091600254e+01   3.7062975125e+01    0.3205488     0.252196 -21.46  0.001141804    1.530    0.347
        42 -11.0126    119.6029    123.2540   8.6361373477e+01   3.3973287909e+01    0.5253336    0.3721777 -12.84  0.002197793    2.054    0.513
        43 -10.3551    135.0018    120.9767   8.1670631109e+01   3.1352404875e+01    0.5683732    0.1294453 -48.40  0.001401745    4.632    0.784
        44  -9.2787    109.0965    118.3316   8.8080481244e+01   3.7150651049e+01    0.2389501    0.2040451 -35.47 0.0003005843    1.181    0.154
        45 -10.0669    231.1523    113.6757   5.9643782762e+01   1.1840482268e+01    0.2730214    0.2642631  65.75 0.0007907111    1.174    0.148
        46  -9.0067    167.6771    112.6157   7.1533960671e+01   2.5941394255e+01    0.3153991    0.2284975 -79.98  0.001308083    2.067    0.516
        47 -11.5724    117.6020    109.1313   8.3292346567e+01   3.7617153428e+01     0.673658    0.5567804  68.58  0.002324352    1.435    0.303
        48  -9.3562    205.5943    110.1152   6.3168185913e+01   1.7877186169e+01    0.2672879    0.2195393  40.42 0.0006724985    1.306    0.234
        49 -11.2022    107.7152    204.0002   1.0455220716e+02   1.7634351559e+01    0.4898787    0.2631557  57.11 0.0003920636    2.077    0.519
        50  -8.2087    133.3192    195.2956   9.7481652410e+01   1.5168051223e+01    0.1369691    0.1095067  -1.11 0.0005222571    1.612    0.379
        51  -9.1623    134.5246    102.9578   7.6988199649e+01   3.5419995262e+01    0.2480929    0.1527624 -43.75 0.0006649507    1.592    0.372
        52  -9.7907    120.0164    194.0203   1.0030179503e+02   1.7717589697e+01    0.2304055     0.193636 -62.37 0.0003517206    1.260    0.206
        53 -12.0947    109.5995    200.8197   1.0368374777e+02   1.7999288035e+01     0.690579    0.3976588 -36.70  0.002627783    2.539    0.606
        54 -10.9422     51.3031     89.7169   9.9320254595e+01   5.2847251927e+01    0.3308969    0.2443747  64.71 0.0009954232    1.856    0.461
        55  -9.0885     96.4070    201.7771   1.0677284932e+02   1.9870152940e+01    0.3160288     0.149246 -49.69  0.001391329    2.417    0.586
        56  -8.4877    156.4885     82.4218   6.5666452918e+01   3.4491865259e+01    0.1515133    0.1506903  31.01  0.000143738    1.012    0.012
        57  -8.5190    184.5820     77.1444   5.8391775550e+01   2.8652591335e+01    0.2108616    0.1445798 -20.89 0.0009082631    1.716    0.417
        58  -9.4895     87.3347    204.2344   1.0909998683e+02   2.0705790014e+01    0.3255092    0.2434972  85.69  0.001872895    1.369    0.270
        59  -9.1749     63.5323     69.8104   8.9289568870e+01   5.5693618816e+01    0.1980291    0.1918158  88.73 0.0005425264    1.288    0.224
        60  -9.2430     92.2505    249.1411   1.1292686122e+02   1.1273508946e+01    0.3084609   0.05900298  39.19 0.0008601277    3.890    0.743
        61  -8.5017    168.1880    248.1469   9.8166515285e+01   7.4072805584e-02    0.1482232    0.1259467  47.11 0.0009981397    1.266    0.210
        62 -11.0277    125.7456    243.5961   1.0585774878e+02   7.3213063632e+00     0.245274     0.232543 -39.44  0.001748711    1.296    0.228
        63 -10.7814    107.3184    241.7047   1.0926607423e+02   1.0415844920e+01    0.3066586    0.1805614  20.93  0.001509989    2.498    0.600
        64 -10.7946    203.4387    199.8203   8.3347190156e+01   1.9901086180e+00    0.3594574    0.1768618  32.08  0.001620493    1.995    0.499
        65  -9.3964    189.3618     14.9705   4.0496077279e+01   3.6121294721e+01    0.1807111    0.1636308 -50.04 0.0006686821    1.155    0.134
        66  -8.7628     74.6217     13.2796   6.2928194223e+01   6.3052672325e+01    0.1150855    0.1030531 -84.99  0.000700829    1.711    0.415
