#   1 NUMBER                 Running object number                                     
#   2 MAG_AUTO               Kron-like elliptical aperture magnitude                    [mag]
#   3 X_IMAGE                Object position along x                                    [pixel]
#   4 Y_IMAGE                Object position along y                                    [pixel]
#   5 X_WORLD                Barycenter position along world x axis                     [deg]
#   6 Y_WORLD                Barycenter position along world y axis                     [deg]
#   7 A_WORLD                Profile RMS along major axis (world units)                 [deg]
#   8 B_WORLD                Profile RMS along minor axis (world units)                 [deg]
#   9 THETA_WORLD            Position angle (CCW/world-x)                               [deg]
#  10 FWHM_WORLD             FWHM assuming a gaussian core                              [deg]
#  11 ELONGATION             A_IMAGE/B_IMAGE                                           
#  12 ELLIPTICITY            1 - B_IMAGE/A_IMAGE                                       
         1 -12.2884     42.5225     20.3123   7.7931420452e+01   6.7213296242e+01    0.6495407    0.3982544  26.09  0.003795946    1.592    0.372
         2 -12.4067    216.9608     14.3510   3.7531987357e+01   2.9406046451e+01     0.568514    0.3859352  88.68  0.001383947    1.379    0.275
         3 -10.8429     65.6580     11.0631   6.4322578956e+01   6.4681465125e+01    0.2582995    0.1657992  51.55   0.00145186    1.714    0.417
         4 -12.2952    190.8289      9.5620   3.8890088495e+01   3.6090287461e+01    0.3542682     0.221243  66.90  0.001903204    1.466    0.318
         5 -11.6754     43.8710      8.5227   7.1547463410e+01   6.8560542259e+01    0.2523001    0.2080378  14.17 0.0006303714    1.155    0.134
         6 -12.2009     57.5734      6.5631   6.5053578618e+01   6.6580639689e+01    0.4631497     0.434581  53.47  0.002390869    1.510    0.338
         7 -12.3446    185.0951      4.7690   3.8219394727e+01   3.7945425866e+01    0.4283919    0.3388003 -24.01  0.002594547    1.451    0.311
         8 -10.3499    109.7647      8.6108   5.0957692018e+01   5.5812476189e+01    0.1838184    0.1199195  71.80 0.0009488658    1.686    0.407
         9 -11.2728    165.5302      1.8163   3.9581046400e+01   4.2986081946e+01    0.3070123    0.1443637  64.54  0.001233859    1.814    0.449
        10 -11.2732     72.6222    228.5281   1.1456933771e+02   1.7623276609e+01    0.2458546    0.1642711  66.13 0.0006879767    1.345    0.256
        11 -10.7660     15.0015    249.9966   1.2642365865e+02   2.0421650752e+01    0.1328585   0.09260919  66.87  0.001016471    1.028    0.027
        12 -11.0443     95.6842    224.9147   1.0958877690e+02   1.5047373276e+01    0.3080212    0.1930425  60.94   0.00170007    1.558    0.358
        13 -10.8050    149.7766    223.8280   9.8384996369e+01   6.6610479219e+00    0.1835607    0.1460053  59.10  0.001084604    1.364    0.267
        14 -10.9809    226.9786    221.8178   8.3099733974e+01  -5.3949182282e+00    0.1827772    0.1434214  56.51  0.001083823    2.049    0.512
        15 -11.0756    239.6941    215.4721   7.9714074074e+01  -6.3833226018e+00    0.3163765    0.1089031 -41.21  0.001314646    3.317    0.699
        16 -10.0988    211.4041    218.2200   8.5332051046e+01  -2.5066704395e+00    0.1656232    0.1176505 -44.69 0.0007948491    1.732    0.423
        17 -11.2475    237.1979    219.3770   8.0850421622e+01  -6.5532056307e+00    0.2218852    0.1008226  35.89  0.001112155    2.072    0.517
        18  -9.9531    236.7957    210.3224   7.9287296095e+01  -5.2460845585e+00    0.1734701    0.1423248 -12.80  0.001135153    1.130    0.115
        19 -11.0097    116.1458    209.4598   1.0334654237e+02   1.4920923125e+01    0.3176617    0.1569729 -66.35  0.001376706    2.560    0.609
        20 -10.1209     85.5075    209.0197   1.0986085483e+02   1.9762650087e+01    0.1876551     0.102349  85.02 0.0008105211    2.625    0.619
        21 -10.3332    185.5118    204.4981   8.7931225502e+01   3.9542376312e+00    0.1342527    0.1211894  19.67 0.0008101559    1.045    0.043
        22 -10.9167     49.0137    201.0760   1.1675814247e+02   2.6365244995e+01    0.3857274    0.1819951 -86.09  0.001807123    2.314    0.568
        23 -11.3279    149.3341    197.5910   9.4293533137e+01   1.1607907679e+01    0.5448931    0.2638168 -60.42  0.002134267    2.926    0.658
        24  -9.6290      2.4852    199.5030   1.2601228658e+02   3.1520630366e+01    0.1169536   0.08216683  76.98 4.577513e-05    1.072    0.067
        25 -10.6804    112.3800    197.5605   1.0245049345e+02   1.7995733773e+01    0.2608965    0.1264164 -73.30 0.0009533122    3.359    0.702
        26 -10.2336    171.9739    196.4795   8.9263007965e+01   7.7644139254e+00    0.2198852    0.1282761  38.54  0.001036598    1.604    0.377
        27  -9.9988    133.2041    195.7950   9.7532549908e+01   1.4817905144e+01    0.2341258    0.1446914  74.36 0.0009442568    2.767    0.639
        28 -12.5660    159.9777    192.0657   9.1012103355e+01   1.0768829559e+01    0.7337737    0.5343405  81.90  0.002939843    2.202    0.546
        29 -10.0654    215.3255    193.9886   8.0132878182e+01   6.1299652117e-01    0.2044883    0.1044375 -56.23 0.0007051457    4.354    0.770
        30 -10.7253     34.4753    187.0298   1.1855782727e+02   3.1152730366e+01    0.1933271     0.104905 -77.16  0.001036722    1.610    0.379
        31 -11.2297    183.2427    183.5663   8.4457323931e+01   8.1050964940e+00    0.4036841    0.2304441 -44.25  0.001851501    1.821    0.451
        32 -10.7097    223.9927    184.0184   7.6553635607e+01   7.6910147903e-01    0.1692063     0.144665  -7.94 0.0008418369    1.020    0.020
        33 -11.6462    147.7152    179.3704   9.1369250679e+01   1.5593713381e+01    0.4664226    0.1706087 -49.64  0.001651752    2.865    0.651
        34 -10.9295    191.6698    178.3399   8.1674665839e+01   7.5080478681e+00    0.2107515    0.1783731  89.04 0.0009239335    1.721    0.419
        35 -10.8295    159.6380    175.3349   8.7908687761e+01   1.4170422455e+01    0.2282555    0.1814262  82.63 0.0009925086    1.719    0.418
        36 -10.1464    105.7902    175.1969   1.0044397114e+02   2.4032277256e+01    0.2536049    0.1465552  73.51 0.0009577266    2.848    0.649
        37 -11.0066     34.1633    173.1751   1.1728940326e+02   3.4369531973e+01    0.1875758    0.1268308  74.91 0.0007701542    1.366    0.268
        38 -11.0693    175.9039    171.9394   8.3662770183e+01   1.1720293376e+01    0.2741109    0.2069673 -47.23  0.001383704    1.388    0.280
        39 -10.8107     44.3346    168.3372   1.1436686402e+02   3.4396250021e+01    0.2344474   0.07901904 -58.93 0.0009463524    2.594    0.614
        40 -11.1726     55.5952    168.2154   1.1162886714e+02   3.3083221732e+01    0.5005096    0.2567795  89.40  0.002118051    2.480    0.597
        41 -11.8358    121.1703    169.1706   9.5665807895e+01   2.2723863003e+01    0.4135883    0.2580556  70.26  0.001680664    2.377    0.579
        42 -11.4228    167.9775    168.2888   8.4629029100e+01   1.3992473638e+01    0.4004919    0.2443378 -60.73  0.001667059    2.213    0.548
        43 -10.7090    138.0079    178.7801   9.3475829043e+01   1.7523241867e+01    0.2672754    0.1954922 -70.85  0.001293811    1.658    0.397
        44 -10.0765    191.6702    166.3388   7.9174807348e+01   9.7515630654e+00    0.1429317    0.1187136 -85.00 5.797928e-05    1.737    0.424
        45 -10.4932    138.8100    164.4255   9.0514841576e+01   2.0497396461e+01    0.4410557    0.2716516  82.45  0.001469588    3.704    0.730
        46 -11.0592    159.8769    164.7462   8.5695939911e+01   1.6316591822e+01    0.2881604     0.205489 -77.13   0.00124777    2.126    0.530
        47 -11.7691    106.7817    158.1768   9.7164802980e+01   2.7829986191e+01    0.6704147     0.410895  71.65  0.002671816    2.465    0.594
        48 -10.1541    198.4993    170.0006   7.8566879288e+01   7.7621906300e+00    0.1954815    0.1245068 -61.70 0.0008101144    2.500    0.600
        49 -11.0181     22.2611    159.5408   1.1870885419e+02   3.8749209517e+01    0.2860871    0.2119629  87.09  0.001151217    1.138    0.121
        50 -10.8351    218.5782    156.2787   7.1735366535e+01   6.4540826316e+00    0.2854271    0.1265055 -41.67   0.00114955    2.158    0.537
        51 -10.6245    196.3340    156.8612   7.6164528987e+01   1.0640464851e+01    0.2999612    0.1262797 -47.15  0.001087313    2.574    0.612
        52 -10.4340    188.3010    157.6451   7.7983232054e+01   1.2085537258e+01    0.1466586    0.1196149 -78.02 0.0007037946    1.705    0.414
        53 -11.4505    157.7838    155.7315   8.4243173531e+01   1.8642784405e+01    0.4353468    0.2099909 -61.26  0.001377526    3.543    0.718
        54 -10.8631    144.7023    154.7267   8.7087956465e+01   2.1490482172e+01     0.307643    0.1904253 -70.28   0.00117957    2.461    0.594
        55 -11.1528    133.4510    153.3363   8.9513582380e+01   2.4020608564e+01    0.3504561    0.2244698  74.00  0.001333334    2.598    0.615
        56 -12.3339    167.5462    156.4666   8.2194542228e+01   1.6509284110e+01    0.4805996     0.404403  86.26  0.002402201    1.531    0.347
        57 -11.5069    189.9802    150.5991   7.6058428225e+01   1.3123223794e+01    0.3847441    0.2478225 -65.47  0.001544606    2.481    0.597
        58 -11.2657    118.3561    156.9450   9.4005911209e+01   2.6048163783e+01    0.3458131    0.2973408 -31.14  0.001089588    1.301    0.231
        59 -11.2349    107.6807    146.0044   9.4524865484e+01   3.0569176392e+01    0.5458444    0.3262653  73.25  0.001976061    2.949    0.661
        60 -11.5633    148.7879    145.0179   8.3955962144e+01   2.2809819939e+01    0.4330622    0.2911876 -73.13  0.001750234    2.204    0.546
        61 -10.7166     55.5232    145.8459   1.0848512343e+02   3.8530813723e+01     0.336557    0.1617249  73.91  0.001089848    4.254    0.765
        62 -11.0696    182.0940    141.9022   7.5702828667e+01   1.6485191482e+01    0.3200228    0.2324243 -82.02  0.001347309    2.242    0.554
        63 -10.0614    179.6403    134.3111   7.4417238309e+01   1.8545780917e+01    0.1565931    0.1240139 -84.65 0.0007042078    1.743    0.426
        64 -10.7033    131.9237    131.4610   8.4946902886e+01   2.9332387381e+01     0.411994    0.2132147 -65.59  0.001311717    3.273    0.695
        65 -10.6482     83.3724    131.9097   9.8239610595e+01   3.8089117416e+01    0.3179381    0.2082787 -86.74  0.001365186    2.076    0.518
        66 -12.0291     99.7452    128.6849   9.2926470344e+01   3.6147822784e+01     0.847864    0.4994768  74.43  0.002856776    3.487    0.713
        67 -10.5127    117.9102    125.7823   8.7253269496e+01   3.3454561216e+01    0.2575041    0.1797243  70.54  0.001080053    1.973    0.493
        68 -11.1094     43.4283    122.6351   1.0810306085e+02   4.5661013571e+01    0.6770418     0.328105 -88.87  0.002401222    3.598    0.722
        69 -11.2910     27.0442    120.7024   1.1263559170e+02   4.7721166709e+01    0.6338593    0.2728939  88.48  0.002100071    4.399    0.773
        70 -11.3730     15.2191    120.9665   1.1611380125e+02   4.8603552031e+01     0.326679    0.2594937 -13.28 0.0005670608    1.654    0.395
        71 -11.6597    193.3536    118.8178   6.7776010039e+01   1.8624323949e+01    0.5758179    0.4228067 -68.83  0.001822684    1.795    0.443
        72 -10.1575     70.5262    120.0222   9.9485709317e+01   4.2932655705e+01     0.208623    0.1230399 -83.62 0.0008100159    2.572    0.611
        73 -11.7261    141.2991    115.0798   7.8428129430e+01   3.1029531294e+01    0.7716938    0.2859055 -41.33  0.002488171    2.703    0.630
        74 -10.2899    130.3277    118.6512   8.2168963246e+01   3.2580211285e+01    0.1634976    0.1257876 -87.36  0.000704913    1.758    0.431
        75 -10.6293    108.3275    112.4738   8.6564397974e+01   3.8416974492e+01    0.5296687    0.2333465 -61.67  0.001596864    3.582    0.721
        76 -10.8098     78.7043    112.5835   9.5340375963e+01   4.3530577320e+01     0.464799     0.277651 -82.34  0.001742958    2.876    0.652
        77 -12.7753    160.2872    111.4639   7.2906835923e+01   2.7562074874e+01     0.694115    0.4792092 -67.51  0.002882839    1.952    0.488
        78 -11.1716    174.2270    110.7467   6.9627226333e+01   2.4524516722e+01    0.4195652    0.2665368 -49.73   0.00108321    1.618    0.382
        79 -11.4796     14.7210    109.5727   1.1466950134e+02   5.1381265229e+01    0.6111013    0.3332278 -87.18  0.003062954    1.955    0.488
        80 -11.9462     44.4572    100.5906   1.0352452425e+02   5.0922153944e+01    0.6920658    0.3922944 -83.90  0.002921427    2.611    0.617
        81 -11.8918    150.3647    103.1715   7.2977121032e+01   3.1546783535e+01     0.320893    0.2458503 -73.54  0.001428459    1.675    0.403
        82 -12.0825    127.8770    101.2209   7.8111285211e+01   3.6963651509e+01    0.5973735    0.2650372 -52.59  0.002023961    2.604    0.616
        83 -12.9155    110.3618    100.2008   8.2669596604e+01   4.0816166557e+01     1.166337    0.5781506  59.17  0.003812826    3.377    0.704
        84 -10.3185     91.5872    110.2729   9.0882209700e+01   4.1979032588e+01    0.3012492    0.1411212 -55.48   0.00114161    2.115    0.527
        85 -11.0783     62.7250     95.3245   9.6209752910e+01   4.9954334281e+01    0.3876097    0.1804142 -71.21  0.001215116    4.125    0.758
        86 -12.3699    169.8942     90.9259   6.5159771094e+01   2.9409349036e+01    0.3948719    0.3252366 -52.00 0.0005119177    1.223    0.183
        87 -12.5714    141.2069    103.4934   7.5307271281e+01   3.3549473519e+01    0.7221511    0.4809171 -54.29  0.003102618    1.621    0.383
        88 -10.9383     34.3035     88.0982   1.0423732793e+02   5.4896274486e+01    0.5900382    0.1965812 -65.13  0.002139871    3.093    0.677
        89 -10.0876      4.3851     91.1926   1.1516086865e+02   5.6366248375e+01     0.182125   0.09802488 -79.81 0.0009538013    1.762    0.433
        90 -10.8557     86.4241     86.9227   8.6106344799e+01   4.8213987899e+01    0.3665909    0.2672763 -87.80  0.001619493    2.232    0.552
        91 -10.9301     46.8455     82.9680   9.8522683063e+01   5.4779834021e+01    0.5391579    0.3373645  81.31  0.002184299    3.363    0.703
        92 -10.9974    104.4925     83.1678   7.9365807337e+01   4.5659339319e+01    0.3912461    0.2693782 -71.61  0.001636663    2.238    0.553
        93 -10.6935     94.6167     97.2718   8.6512895454e+01   4.4459337774e+01     0.350688    0.1898254 -61.02  0.001341825    2.314    0.568
        94 -10.8159     23.9829     79.7180   1.0606371479e+02   5.7718132415e+01    0.3602123    0.1754737 -73.40  0.001604548    2.409    0.585
        95  -9.3921      1.4778     78.4748   1.1403668935e+02   5.9433072959e+01    0.1233938   0.09271786 -57.78 7.982594e-05    1.021    0.020
        96 -11.2499     82.3197     73.0699   8.3166010978e+01   5.1863416921e+01    0.4594216    0.2679064 -66.64  0.001697369    3.196    0.687
        97 -11.0294     62.5068     70.4910   8.9246427626e+01   5.5515792479e+01    0.4027978    0.1138576 -46.15  0.001368606    3.074    0.675
        98 -10.8880     51.9070     70.9079   9.3282012702e+01   5.6842091478e+01    0.2374501    0.1918328 -55.57 0.0006099516    1.254    0.203
        99 -11.9957     42.4473     62.9846   9.4490923148e+01   5.9633443452e+01    0.3577871    0.3250614 -37.80  0.002319286    1.133    0.117
       100 -11.8476     20.7638     52.2743   1.0016199239e+02   6.3913386515e+01    0.6973048    0.2542841 -54.54  0.003177931    2.218    0.549
       101 -11.1030     28.7236     52.1490   9.6698604268e+01   6.3252749113e+01    0.4516193    0.2634693  -5.34  0.002347476    2.136    0.532
       102 -13.3337     29.7838     59.9280   9.8660562132e+01   6.1561055321e+01     1.212848    0.6833977  32.00  0.003580541    2.080    0.519
       103 -11.8120    238.9764     65.3072   4.7283546586e+01   1.7750995387e+01    0.4234091    0.2395464 -62.21  0.001958563    2.025    0.506
       104 -10.1989    197.3090     67.5326   5.3621931777e+01   2.6902341167e+01    0.3379665    0.1362431  56.45   0.00098564    2.488    0.598
       105 -10.9025    230.9413     59.4298   4.6860695312e+01   2.0371141828e+01    0.2620421    0.2080244 -47.45 0.0005656034    1.114    0.102
       106 -11.3829      8.2752     55.9453   1.0654557689e+02   6.4012463959e+01     0.499264    0.2870473 -70.87  0.002764818    1.861    0.463
       107 -10.2246     54.1560     54.7151   8.7125036036e+01   5.9846124559e+01    0.2570045    0.1488123 -56.64  0.001204651    2.123    0.529
       108  -9.9541    161.7865     53.3871   5.5761681762e+01   3.7835838416e+01    0.2098448    0.1299925  49.18 0.0004370489    1.608    0.378
       109 -11.7059     18.9050     59.7085   1.0308653869e+02   6.2510821578e+01    0.3531899    0.2388018 -16.70  0.001241426    1.571    0.364
       110 -10.7965    149.0743     52.0902   5.7886399144e+01   4.1170643713e+01    0.2286135    0.1963407  29.68 0.0007142039    1.237    0.192
       111 -10.2899    154.3573     47.6156   5.5400949404e+01   4.0530736082e+01      0.25691    0.1815294 -25.84 0.0007478608    1.512    0.339
       112 -11.7636     74.3066     43.2405   7.5245826383e+01   5.8765915698e+01    0.3763615    0.3089359  52.38  0.001800735    1.521    0.342
       113 -11.5470      7.7297     43.2485   1.0324989467e+02   6.6644246463e+01    0.4949769    0.2525215  34.58  0.002723922    2.589    0.614
       114 -12.0861     41.0152     37.8388   8.6203787460e+01   6.4626804606e+01    0.6072316    0.3339642  18.71   0.00254615    2.056    0.514
       115 -11.4642    120.5467     34.5291   5.8251718679e+01   5.0487333645e+01    0.2753554    0.2443438  37.74  0.000561269    1.053    0.050
       116 -10.3220     49.5637     34.8623   8.1349436095e+01   6.4014287415e+01    0.3443448    0.1546417  25.80   0.00152148    2.631    0.620
       117 -10.3344     72.6544     32.3174   7.1376128183e+01   6.0738777868e+01    0.1921764    0.1672954 -69.58  0.001120687    1.755    0.430
       118 -10.8970    104.1846     30.2137   6.0762532283e+01   5.4733870049e+01    0.3721512    0.1943307  51.56 0.0006886988    1.804    0.446
       119 -11.2256    219.8736    248.6641   8.8811075905e+01  -7.8923711405e+00    0.2716171    0.1927214  56.38   0.00157758    2.507    0.601
       120 -10.9841    239.4703     20.5883   3.7011616643e+01   2.3662389707e+01    0.2334083    0.1864658 -74.22 0.0006313715    1.084    0.077
       121 -10.0450    104.4767    225.5079   1.0787055672e+02   1.3608646128e+01    0.2414351    0.1241792 -61.94  0.001208297    2.163    0.538
       122  -9.9533     89.5705     18.5095   6.0073984334e+01   5.9234933159e+01    0.2297922    0.1285116  65.83  0.001032273    2.436    0.590
       123 -11.6378    203.8255     21.5971   4.0621572705e+01   3.1667053066e+01    0.2779728    0.1572554 -88.30   0.00131613    1.937    0.484
       124 -10.6431    113.4894     14.9809   5.2593215305e+01   5.4360662311e+01     0.188473   0.09811132 -47.70 0.0008104665    2.575    0.612
       125  -9.6489     69.5471    245.4964   1.1665749087e+02   1.4833480184e+01    0.1188533   0.08921561  63.16 0.0008081372    1.057    0.054
       126  -9.8802     32.6830    242.3082   1.2303195984e+02   1.9927645463e+01    0.1187462   0.06022663  64.37 0.0004173042    1.633    0.388
       127 -11.9480     21.7829    238.3615   1.2469170344e+02   2.1855122483e+01    0.4563806    0.1599867  66.62  0.002176444    2.890    0.654
       128  -9.7293      2.5323    240.4725   1.2802813623e+02   2.3393520000e+01    0.1075244   0.07260738  70.82 0.0002514713    1.032    0.031
       129  -9.8385    109.2742    232.5968   1.0774209036e+02   1.1547341314e+01    0.1673738    0.1084555  33.74 0.0008853352    1.525    0.344
       130 -10.8577     12.5556    227.3629   1.2570100416e+02   2.4911559889e+01    0.2051184   0.08867659 -82.11 0.0006212116    2.010    0.502
