#   1 NUMBER                 Running object number                                     
#   2 MAG_AUTO               Kron-like elliptical aperture magnitude                    [mag]
#   3 X_IMAGE                Object position along x                                    [pixel]
#   4 Y_IMAGE                Object position along y                                    [pixel]
#   5 X_WORLD                Barycenter position along world x axis                     [deg]
#   6 Y_WORLD                Barycenter position along world y axis                     [deg]
#   7 A_WORLD                Profile RMS along major axis (world units)                 [deg]
#   8 B_WORLD                Profile RMS along minor axis (world units)                 [deg]
#   9 THETA_WORLD            Position angle (CCW/world-x)                               [deg]
#  10 FWHM_WORLD             FWHM assuming a gaussian core                              [deg]
#  11 ELONGATION             A_IMAGE/B_IMAGE                                           
#  12 ELLIPTICITY            1 - B_IMAGE/A_IMAGE                                       
         1 -14.0472    160.4112     91.7230   5.0089871859e+01   3.1864384758e+01     8.128976     2.893457 -55.11 0.0008806277    6.234    0.840
         2 -13.7205    220.2959     80.0982   3.7693711341e+01   2.1462958415e+01     2.538821      1.41866  88.71   0.01121939    3.057    0.673
         3 -13.6616    246.9752     77.6614   3.4194808681e+01   1.7033553958e+01     2.541357    0.3898669 -38.16  0.008151926    4.559    0.781
         4 -13.9766    192.9518     52.5860   3.4640249172e+01   3.1089290805e+01     16.30201     3.372762 -47.56   0.04663105    5.191    0.807
         5 -13.5850    248.7396     45.5754   2.7583281204e+01   2.1088872809e+01     1.703697     1.058551 -45.33  0.007197372    1.247    0.198
         6 -14.2981    229.1253     92.6279   3.9338615711e+01   1.7890690076e+01     6.112208     1.362408 -48.38   0.01694662    5.748    0.826
         7 -13.2330    246.8220     11.0541   2.0984268179e+01   2.5465566960e+01     1.185228    0.7029498 -14.46  0.006604541    3.018    0.669
         8 -14.5759    241.4206     66.6745   3.2494677655e+01   1.9560248817e+01     3.621747      1.79928  48.60   0.01862499    2.799    0.643
         9 -11.2005    133.5875     22.4101   3.4571413330e+01   4.8571863116e+01    0.8941289    0.3126707 -19.34  0.003015201    4.492    0.777
        10 -12.6075    214.1350     27.1815   2.6492911168e+01   2.9905207775e+01     1.570731     1.115682 -86.15  0.009236814    1.328    0.247
        11 -13.1840    180.4363     82.3692   4.3965417645e+01   2.9180160269e+01     1.881835     1.144459 -39.50   0.00117937    1.516    0.340
        12  -9.1283     79.1607     20.4260   4.5943054693e+01   6.1389156276e+01    0.5266958    0.1557622 -24.55  0.001773914    4.324    0.769
        13  -8.2141     78.6498     16.1709   4.4221720106e+01   6.1965810923e+01    0.1800075    0.1574856   9.18 0.0006472364    1.168    0.144
        14  -9.0194    158.2320      5.9837   2.6383104413e+01   4.4380439943e+01    0.2929597    0.2242364  15.06  0.001530983    1.827    0.453
        15  -8.9725    155.2277     13.9039   2.8959247952e+01   4.4328279494e+01     0.383886    0.2168386  -8.63  0.001818422    2.702    0.630
        16  -8.1157    187.0337     11.3444   2.5079832029e+01   3.7366216731e+01    0.1659881    0.1324667 -86.22 0.0004479856    1.101    0.092
        17 -10.3611    120.3186      9.3592   3.2361035357e+01   5.3019080662e+01    0.3493549    0.3053456 -46.79  0.001019431    1.240    0.193
        18 -10.7353    206.1612      3.4138   2.1805049833e+01   3.4086763454e+01    0.3509156    0.2249497  -6.31  0.001972933    2.624    0.619
        19  -7.9408    146.8431      6.5791   2.7808040840e+01   4.6982930391e+01    0.1690412    0.1069124  88.79 0.0003828622    1.511    0.338
        20  -9.4836    136.6061      5.1787   2.8632450155e+01   4.9518650449e+01     0.215909    0.2062379  35.40 0.0004283832    1.217    0.178
        21  -8.1107    142.3094      5.0165   2.7875765182e+01   4.8186388545e+01    0.1840695   0.09413204  13.41 0.0007038652    4.186    0.761
        22 -10.7329    235.2502      2.7790   1.9990310527e+01   2.8436912382e+01    0.2392852    0.1989547  64.92 0.0007273727    1.558    0.358
        23  -8.6832    230.0305      2.1381   2.0135788964e+01   2.9483652637e+01     0.160104    0.1226543 -62.97 0.0003152114    1.032    0.031
        24  -9.0583    182.8467      3.6428   2.3534469212e+01   3.9033774864e+01    0.2854935    0.2110893 -88.61  0.001862067    1.175    0.149
        25 -12.6804    220.4844     33.1484   2.7277006409e+01   2.7921235945e+01      3.26331     1.325578 -34.82   0.01068466    2.203    0.546
        26  -7.7709    191.9553      3.7070   2.2853801475e+01   3.7048232084e+01    0.1338621   0.09257618  83.04 0.0005032769    1.308    0.236
        27  -7.9783    240.5195      1.3917   1.9458007196e+01   2.7603038756e+01    0.1041134   0.08322693 -66.72 0.0001888353    1.115    0.103
        28 -10.1102    228.5219    171.4827   5.5620664283e+01   4.9649916993e+00    0.3402522    0.1978357 -46.03  0.001401148    1.747    0.427
        29  -9.3863    249.6512    247.5482   6.5201107145e+01  -8.4000942752e+00    0.4070151   0.08093942 -37.87  0.001655313    4.402    0.773
        30  -9.8965    186.7990    250.6447   7.6682113829e+01  -2.1595392950e+00    0.1901388   0.09373567  27.30 0.0002247298    1.765    0.433
        31  -9.1484    153.4567    250.1109   8.3194837511e+01   1.9734074959e+00    0.2732972     0.145063  32.72  0.000997412    1.633    0.388
        32  -8.6737    135.2369    249.5141   8.6887234664e+01   4.3775007089e+00    0.2663359    0.1687599  66.67  0.001259989    3.170    0.685
        33 -10.3265    230.6882    167.5337   5.4513039308e+01   5.3109044813e+00    0.5000971     0.195891 -44.33  0.002183826    2.393    0.582
        34 -10.2846    220.5061    174.2601   5.7491931269e+01   5.6273705931e+00    0.5882316    0.3801678 -59.04  0.002049388    2.496    0.599
        35  -9.3400    213.9531    176.2846   5.9018061950e+01   6.2205762403e+00    0.2572688    0.2332339  48.01   0.00111648    1.503    0.335
        36  -9.5285    157.0679    167.9001   6.8789981172e+01   1.6874378341e+01    0.2276766    0.2068054 -27.38 0.0003218085    1.044    0.042
        37  -9.2383    242.1512    164.9738   5.2238375525e+01   4.1559073378e+00    0.1974472    0.1297621 -54.56  0.001088987    2.047    0.511
        38  -8.0193    162.8524    165.1548   6.6935378953e+01   1.6453253759e+01    0.1986089    0.1616551  -3.82 0.0002986969    1.299    0.230
        39  -8.3771    199.9717    163.9748   5.9130909446e+01   1.0511508135e+01    0.1967509    0.1651844 -70.64 0.0006260996    1.695    0.410
        40  -9.2205    155.1740    245.6136   8.2236501760e+01   2.4799877961e+00    0.2135119    0.1679511 -13.85 0.0004314398    1.247    0.198
        41  -8.8692     21.6714    161.3264   1.0474917977e+02   3.7993527016e+01    0.1475199   0.08942679  62.64 0.0002953201    1.703    0.413
        42 -10.3866    194.2079    157.0240   5.8792767354e+01   1.2733066447e+01    0.6363029    0.4016143 -57.84  0.002340075    2.096    0.523
        43  -7.9815    100.2635    160.3801   8.1692358301e+01   2.8277687057e+01    0.1814691    0.1410979  41.19 0.0003307769    1.298    0.230
        44  -8.4658    156.0456    241.1784   8.1442373196e+01   3.0942938349e+00    0.1848115    0.1396009   3.50  0.000253301    1.227    0.185
        45 -10.1617      8.4826    155.9198   1.0807848241e+02   4.0435490013e+01    0.3603059    0.1209008 -81.87  0.001329678    2.866    0.651
        46  -8.7065    203.4197    151.7391   5.5989202850e+01   1.2187153283e+01    0.2906223    0.1984961 -56.06  0.001442497    1.768    0.434
        47 -12.0400     14.2571    143.1892   1.0514572707e+02   4.3339836290e+01    0.7696803    0.4287491 -81.21  0.003690332    1.639    0.390
        48  -8.4665    182.2152    151.5857   5.9990644197e+01   1.5820071473e+01    0.2299179    0.1767463 -48.36  0.001213233    1.310    0.237
        49 -10.6630     63.9024    141.2962   8.9001301404e+01   3.8641497198e+01       3.1099    0.9916484  41.78   0.01004248    3.275    0.695
        50 -12.0804     30.4245    147.2793   1.0055313946e+02   4.0893475781e+01    0.7146474    0.5562439 -78.16  0.001728666    1.172    0.147
        51 -12.6055     41.3520    144.0198   9.6656096919e+01   4.0658431067e+01     1.073119    0.8504886  17.26   0.00430949    1.423    0.297
        52  -9.6657    134.0027    146.1926   6.9735831943e+01   2.5763747945e+01    0.9439668    0.2873335 -54.68  0.002550594    4.337    0.769
        53  -8.4225    173.3217    150.3126   6.1543469560e+01   1.7647833831e+01    0.1488641    0.1090034  -8.36 0.0004500966    1.654    0.395
        54  -9.2964    223.7078    145.8656   5.1341265200e+01   9.9707927213e+00    0.3458623     0.256989  88.08  0.001057297    2.567    0.611
        55  -9.2564    217.5712    145.2005   5.2196970793e+01   1.1054537509e+01    0.4172085    0.2223146 -34.98  0.001155152    1.627    0.385
        56 -10.2598    213.6472    140.8773   5.1944949572e+01   1.2450139241e+01    0.3665536    0.2592281 -41.19 0.0008438478    1.234    0.190
        57  -8.1709    204.2736    144.4282   5.4300739079e+01   1.3376960693e+01    0.2187887     0.153674 -55.77 0.0006964324    1.648    0.393
        58  -9.0802    201.1740    139.9821   5.3899882108e+01   1.4719581274e+01    0.4824094    0.2286528 -57.51  0.001397341    3.713    0.731
        59  -9.8670    192.2011    143.8118   5.6371441548e+01   1.5567941450e+01     0.298319    0.2452143  43.87 0.0005956055    1.385    0.278
        60  -9.3297    143.4578    143.8185   6.6860164839e+01   2.4533168364e+01     0.230939    0.2109399  84.45 0.0005567103    1.292    0.226
        61  -9.5673    228.6385    140.5456   4.9488637038e+01   1.0104123925e+01    0.3262514     0.171831 -19.26  0.001372173    2.825    0.646
        62  -9.0623    166.0262    151.0611   6.3266433957e+01   1.8807722880e+01    0.2248002     0.183163 -80.26 0.0006502727    1.705    0.413
        63  -9.8341    146.3527    139.0278   6.5073508155e+01   2.5041696261e+01    0.3980133    0.2211588  40.43  0.001050221    1.881    0.468
        64  -8.6034    142.2652    135.4324   6.5229283510e+01   2.6621205629e+01    0.2036137    0.1469985  52.54 0.0005987408    1.561    0.360
        65 -10.2709    223.9351    129.2463   4.7866435740e+01   1.2767582278e+01    0.3701104    0.3337941 -51.36  0.001564946    1.195    0.163
        66 -10.1631    159.9705    128.8829   5.9562156501e+01   2.4566095233e+01    0.5381778    0.3578849 -22.01  0.002361519    1.869    0.465
        67  -9.5115    136.6229    129.7985   6.5293343258e+01   2.8976705837e+01    0.4973986    0.2982889 -57.85  0.001440484    1.902    0.474
        68  -8.1030    210.4891    129.5610   5.0053385671e+01   1.4987550696e+01    0.1361909    0.1169313 -35.64 7.413993e-05    1.014    0.014
        69  -9.7157    169.8814    128.0207   5.7231930398e+01   2.2800534266e+01    0.2953096    0.2719122 -78.46 0.0008525795    1.241    0.194
        70  -9.1898    201.7756    125.6786   5.0661323802e+01   1.7228984830e+01    0.2758176    0.1779702 -65.29 0.0004298911    2.248    0.555
        71  -7.7013     91.6327    125.7583   7.6987085957e+01   3.8371938381e+01     0.154493    0.1199566  -7.02 0.0005425761    1.610    0.379
        72 -10.4600    223.9450    119.9641   4.5902753926e+01   1.4335913886e+01    0.6996734    0.3452223 -60.86  0.002543855    3.965    0.748
        73  -9.6690    166.8331    121.9983   5.6437173922e+01   2.4615659090e+01    0.3690689    0.2256042 -34.20  0.001640876    1.640    0.390
        74  -8.3002    205.6454    121.9022   4.9171417946e+01   1.7208446703e+01      0.19477    0.1106163 -47.12 0.0004674252    1.625    0.385
        75  -8.0266    184.4438    239.5179   7.5500126297e+01  -2.2327631317e-01     0.121328   0.09817601   2.59 0.0001144216    1.029    0.028
        76  -9.0890     86.9754    116.4004   7.6223353355e+01   4.1499891047e+01    0.2888957     0.222221 -54.68 0.0004558882    1.266    0.210
        77 -12.9156    235.8091     75.3858   3.4886774907e+01   1.9311373873e+01    0.8131061    0.5887561 -47.22    0.0023791    1.108    0.097
        78  -9.4776    200.4826    116.0182   4.8706788682e+01   1.9212247367e+01    0.3094341    0.2045446  38.75  0.001571242    1.797    0.443
        79 -10.1886    173.6099    112.3617   5.2720209594e+01   2.5152040307e+01    0.6014955    0.2611477 -52.79  0.002028866    2.774    0.640
        80 -10.4782    134.8038    110.7829   6.0975180035e+01   3.3531561094e+01    0.8168446    0.1878452 -46.25   0.00214198    4.274    0.766
        81 -11.3166    135.8616    101.1131   5.8124996595e+01   3.5352515708e+01     0.832459    0.5729864 -62.39 0.0007784002    1.738    0.424
        82  -8.4002    143.6265    107.8005   5.8039132613e+01   3.2311271029e+01    0.2960025     0.205008 -43.75 0.0006613478    1.380    0.275
        83  -9.8012    141.4143    104.2400   5.7622388607e+01   3.3518710576e+01    0.2958496    0.2618763 -66.76  0.001151171    1.200    0.167
        84 -10.2377    205.8332    109.6081   4.6381217779e+01   1.9344698033e+01    0.3743945     0.349407 -40.07  0.001793056    1.080    0.074
        85 -10.1734    209.0529    106.8021   4.5246664771e+01   1.9228653179e+01    0.4599901    0.2668053 -52.57  0.000851264    1.738    0.425
        86  -8.4405     52.1108    124.0742   8.9706493568e+01   4.4719748047e+01    0.2137093    0.1852406 -34.97 0.0002755474    1.182    0.154
        87  -9.8092    111.0785    107.7449   6.6574111810e+01   3.9060602536e+01    0.8348162     0.548915 -18.14  0.003312143    2.254    0.556
        88 -11.8462    122.8577    102.4277   6.1834084788e+01   3.7831069819e+01     1.189133    0.8413565 -63.25  0.003967704    1.678    0.404
        89  -9.2027    150.5835    104.8767   5.5666861310e+01   3.1434295845e+01    0.3018882    0.2703256 -19.43 0.0005745098    1.183    0.155
        90 -10.7705    144.4220     95.7762   5.4629799082e+01   3.4581792174e+01    0.4108915    0.3493214  72.05 0.0008400915    1.311    0.237
        91 -10.2003     72.0502    107.8576   7.9119404512e+01   4.6088970083e+01    0.2462365    0.2405615 -16.01            0    1.043    0.041
        92  -8.9390    195.4645     97.1855   4.5148179197e+01   2.3515800154e+01    0.2556738    0.1986116  57.28  0.001417235    1.444    0.307
        93  -9.8588    124.9185     84.3367   5.6105708234e+01   4.1123799684e+01    0.4764079    0.2386146 -48.35  0.001395466    2.069    0.517
        94 -10.1345      1.7197    158.7192   1.1022995982e+02   4.0179109243e+01     0.543425    0.1416795 -73.29  0.001985167    3.022    0.669
        95 -12.5520    201.6769     86.4219   4.1643998238e+01   2.4089699375e+01     1.863821    0.8127286  38.18  0.006489688    4.333    0.769
        96  -9.5699    139.4117     79.2569   5.1106460060e+01   3.8848418096e+01    0.3783055    0.2397293  34.38  0.001644072    1.952    0.488
        97  -8.3799     85.1774     78.8289   6.6231055707e+01   5.0525448166e+01    0.2059281    0.1708185 -13.93  0.000450231    1.312    0.238
        98  -9.9576    156.2955     77.2433   4.6971363685e+01   3.5389074918e+01    0.2732435    0.2285073 -54.61 0.0002242801    1.162    0.140
        99  -7.8010     42.4770    237.5170   1.0584306738e+02   1.7980969913e+01    0.1200881    0.1028154  54.13 0.0008097152    1.037    0.036
       100  -9.9293    151.2498     71.4287   4.6328834550e+01   3.7534461491e+01    0.2878312    0.2514489 -75.11 0.0004541518    1.180    0.153
       101 -10.1950    123.0259    232.7770   8.7376568960e+01   8.9511414082e+00    0.2381982    0.2073961 -40.21 0.0006778359    1.266    0.210
       102  -8.1701    163.6637     69.1198   4.3349797917e+01   3.5091210861e+01    0.2338337    0.1565259 -53.02  0.001142341    1.491    0.329
       103  -9.6788    224.9459    232.1166   6.6891327827e+01  -3.8750700534e+00    0.3148433    0.2312045 -57.14  0.001861834    2.702    0.630
       104  -8.1025    102.7090     75.5535   5.9553335696e+01   4.7656995324e+01     0.214468    0.1433689  57.79 0.0009553049    1.702    0.412
       105  -8.9992    140.1034     64.8994   4.6696798085e+01   4.1195681562e+01    0.2152889     0.185781 -70.31            0    1.211    0.174
       106 -10.2174    135.5925     61.3550   4.6579474985e+01   4.2823474613e+01     0.512419    0.2661017 -30.25  0.001504497    2.152    0.535
       107  -8.7439     74.2877    224.0420   9.7487240216e+01   1.7111471695e+01    0.2110189    0.1660473  36.58 0.0004626834    1.146    0.127
       108  -9.3958    207.8535     60.8748   3.4819196731e+01   2.6784650017e+01    0.2345852      0.17507 -31.26 0.0008799965    1.390    0.280
       109  -8.9736    125.3918     63.3610   4.9523479696e+01   4.4851180177e+01    0.2376254     0.217788 -72.83 0.0005910738    1.141    0.124
       110  -8.5080    186.1935     58.8387   3.7093241035e+01   3.1658098558e+01    0.2654011    0.1519776 -47.65 0.0009909938    1.598    0.374
       111  -9.5483    144.5123     59.6544   4.4220718663e+01   4.1017799419e+01    0.2585173    0.2459393 -81.94 0.0006134186    1.010    0.010
       112  -7.8382     72.6249     58.4704   6.3727002175e+01   5.6963375787e+01    0.1399156    0.1308343 -11.51 0.0001276576    1.036    0.034
       113  -7.6811     80.5714    222.4966   9.5850693620e+01   1.6645544607e+01    0.1285306    0.1175645  43.14 4.566674e-05    1.022    0.022
       114  -9.0050    109.9467     54.8864   5.0594738682e+01   4.9779505401e+01    0.2060708     0.203804  65.57 0.0005223158    1.032    0.031
       115  -9.4665    178.3699     50.3027   3.5971649263e+01   3.4615428604e+01    0.5083152    0.3306794 -71.64  0.002585865    1.715    0.417
       116  -9.2760    199.3787     47.5499   3.2648215399e+01   3.0408229368e+01    0.2987733    0.1842866 -33.46 0.0009053716    1.602    0.376
       117 -11.1039    147.3631     43.9566   3.8976844946e+01   4.2655901967e+01    0.4705575    0.3492379 -84.64  0.002182263    1.478    0.323
       118 -10.6290    140.3283     43.7556   4.0171691548e+01   4.4346497676e+01    0.3576992    0.3265158  -3.70  0.002117038    1.273    0.214
       119  -8.6966    111.1774     44.5659   4.6680920680e+01   5.1082203974e+01    0.2311376    0.1909491 -31.81  0.000456292    1.270    0.213
       120 -10.6403    133.5343     40.7682   4.0508699574e+01   4.6362275083e+01     0.384716    0.2689826  51.14  0.001662217    1.404    0.288
       121 -10.1841    133.8452     35.5365   3.8767130733e+01   4.6970372214e+01    0.3076689    0.2391143 -24.93 0.0008126816    1.429    0.300
       122  -9.6545    133.8864     30.1856   3.7034071343e+01   4.7617689532e+01    0.2443107    0.2027474 -19.61 0.0006055997    1.375    0.273
       123  -8.6094    146.7571    220.1249   8.0338621666e+01   8.0409661442e+00    0.1774092    0.1654832  19.88 0.0003554348    1.142    0.124
       124 -10.0611    123.1877     38.4715   4.1832177300e+01   4.9119083058e+01    0.3330771    0.1869252 -37.39  0.001565003    1.829    0.453
       125  -8.5403    110.4294     39.2770   4.4983616541e+01   5.1999646414e+01    0.1855147    0.1287299 -43.68 0.0009416658    1.538    0.350
       126  -8.0363    105.7276     39.3200   4.6160696094e+01   5.3077834002e+01    0.1352066     0.106114 -69.50 0.0002383748    1.568    0.362
       127  -9.1844    167.2325     36.5585   3.3802302680e+01   3.8980753953e+01    0.3784779    0.1475613 -38.15   0.00160692    2.358    0.576
       128  -9.1859     78.4410     34.9563   5.2381613536e+01   5.9689498086e+01    0.2797235    0.2228913 -26.09 0.0009196167    1.306    0.234
       129  -8.2305    111.4705     35.4915   4.3380047994e+01   5.2262397628e+01     0.137245    0.1266203  46.45 8.112368e-05    1.047    0.044
       130  -8.7837    224.7008    218.6458   6.4730948615e+01  -1.9212704430e+00    0.2338565     0.189425  60.74  0.001214369    2.632    0.620
       131  -8.9093    164.4409     32.0882   3.2939918000e+01   4.0178246285e+01    0.1949986     0.123943 -34.32  0.001027582    1.596    0.373
       132  -9.4514    159.5291     30.1259   3.3048574289e+01   4.1556224820e+01    0.2829319    0.2353918 -32.69  0.001160841    1.298    0.229
       133  -9.3603    156.5644     27.5452   3.2714054540e+01   4.2552145292e+01    0.2351024    0.2002484  43.28 0.0007628084    1.349    0.259
       134  -8.6615     78.7706     29.4526   4.9958512293e+01   6.0369882364e+01    0.2271613    0.1785035 -24.91 0.0005087869    1.341    0.254
       135 -10.0068    140.4994     26.9562   3.4903952418e+01   4.6419136663e+01    0.3402972    0.1312214 -28.48   0.00137885    2.790    0.642
       136  -8.3024     92.1558     28.0591   4.5415918375e+01   5.7625913833e+01      0.19997    0.1668108  20.85 0.0006064282    1.248    0.199
       137  -8.9120     32.8526    219.1634   1.0669468235e+02   2.2900132930e+01    0.1561905    0.1481046 -46.60 0.0009862611    1.299    0.230
       138  -9.8113    178.6445     23.7168   2.8997861381e+01   3.7908395138e+01    0.5078738    0.3158612  79.84  0.002817494    1.541    0.351
       139  -8.4133    250.4372    217.2586   6.0256972935e+01  -4.5716056373e+00    0.1465139   0.09017904 -37.58 0.0009365058    1.591    0.371
       140  -9.6667     37.3894    214.4629   1.0528960357e+02   2.3480111558e+01    0.2434659    0.1896891  -5.12  0.001428817    1.737    0.424
       141  -7.9636    176.5078    212.9909   7.2877618355e+01   5.1581359397e+00    0.1838406    0.1202401 -39.32 0.0005825156    1.512    0.339
       142  -8.7628    189.4721    210.7758   6.9902565584e+01   3.7608722519e+00    0.2776041    0.2121659  61.20  0.001197508    2.342    0.573
       143  -8.5051    221.0384    160.8154   5.4782152331e+01   7.8248773429e+00    0.1814939    0.1590476 -41.90 0.0004359948    1.253    0.202
       144  -7.6092    228.6213    207.2660   6.2122090578e+01  -6.9382267252e-01   0.09897435   0.09705198  40.68 0.0006987636    1.681    0.405
       145  -8.1806    206.9950    206.0158   6.5737298832e+01   2.2134917851e+00    0.1689151    0.1602499  75.92 0.0009231949    1.723    0.420
       146  -9.2238      6.8478    204.4338   1.1177806803e+02   2.8639995999e+01     0.205804    0.1728419  89.43  0.000384266    1.122    0.109
       147  -9.9143    193.3421    195.5477   6.6461511369e+01   5.8428848454e+00    0.9249873    0.4669244 -60.79  0.002805886    6.365    0.843
       148  -7.8400     67.2398    200.6226   9.6637367667e+01   2.3227619613e+01    0.1398288   0.09563542  70.58 0.0006926532    1.627    0.385
       149  -8.9632    203.4152    196.2002   6.4656562201e+01   4.3182927378e+00     0.174084    0.1136743 -45.81 0.0007866425    1.658    0.397
       150  -8.9292    209.9882    187.8110   6.1905234143e+01   4.8241287243e+00    0.3283393    0.1707686 -59.25  0.001100086    5.287    0.811
       151  -8.7265     10.2595    188.9736   1.1003988027e+02   3.2006246279e+01    0.1910144    0.1666658  47.59 0.0005251378    1.176    0.150
       152  -8.1599    171.6657    186.3440   6.9170846166e+01   1.0773022066e+01    0.1906655    0.1655232  81.24 0.0005760193    1.719    0.418
       153  -9.5036    242.2796    182.3640   5.5455251259e+01   1.4258418913e+00    0.4066697    0.1962498 -22.81 0.0006852358    2.230    0.552
       154 -10.5401    238.4412    175.8852   5.4861036526e+01   2.9235330839e+00    0.4121709    0.3077914  73.83  0.002158781    3.224    0.690
