#   1 NUMBER                 Running object number                                     
#   2 MAG_AUTO               Kron-like elliptical aperture magnitude                    [mag]
#   3 X_IMAGE                Object position along x                                    [pixel]
#   4 Y_IMAGE                Object position along y                                    [pixel]
#   5 X_WORLD                Barycenter position along world x axis                     [deg]
#   6 Y_WORLD                Barycenter position along world y axis                     [deg]
#   7 A_WORLD                Profile RMS along major axis (world units)                 [deg]
#   8 B_WORLD                Profile RMS along minor axis (world units)                 [deg]
#   9 THETA_WORLD            Position angle (CCW/world-x)                               [deg]
#  10 FWHM_WORLD             FWHM assuming a gaussian core                              [deg]
#  11 ELONGATION             A_IMAGE/B_IMAGE                                           
#  12 ELLIPTICITY            1 - B_IMAGE/A_IMAGE                                       
         1  -9.9422     40.3758     42.4767   4.4358547240e+01   6.7246840210e+01     1.346374    0.9292443 -30.24  0.006724263    1.556    0.357
         2 -12.2962     80.5231     22.0410   1.5774012458e+01   6.2556465923e+01     0.791041    0.4769476  53.65  0.003390216    1.500    0.333
         3 -15.0164     66.2772     83.0154   4.6027265404e+01   5.3566284495e+01     2.477584     1.821626  63.66   0.01134504    1.608    0.378
         4 -11.9755     76.0043      6.8958   9.2569369559e+00   6.5426758571e+01    0.6715739    0.5788484  22.30  0.003945757    1.235    0.190
         5 -12.9049     65.9586     15.2812   1.7352995311e+01   6.6912834827e+01       1.3287     0.605576  49.71  0.005676779    1.946    0.486
         6 -13.8224      4.1409     55.4839   7.1190532687e+01   6.7640586199e+01     1.969472    0.8483738 -75.74  0.004121548    2.184    0.542
         7 -11.2726     25.5968     40.4515   5.2798873295e+01   6.9646534480e+01     2.628317     1.002611 -45.04   0.01037851    2.496    0.599
         8 -14.3609     62.7418     38.3074   3.0756474330e+01   6.4045412605e+01     2.092432     1.403689 -31.37  0.006777221    1.624    0.384
         9 -12.3919     51.8183     22.4250   2.7802232270e+01   6.8984230609e+01     1.502237    0.7100925 -27.66  0.005062031    2.648    0.622
        10 -13.5633      5.9720     37.1895   6.5716993940e+01   7.2041807801e+01     1.249764    0.5930437 -85.17  0.002050573    2.843    0.648
        11 -13.3386     13.1332     34.5978   5.9455544316e+01   7.2170494101e+01     1.215636    0.5523846 -74.72  0.004908164    2.937    0.660
        12 -13.7009    228.2265     65.2324   4.0983635976e+00   2.0915249010e+01     2.306084     1.060187 -61.62  0.009885185    2.962    0.662
        13  99.0000    212.2278     20.0697   3.5489635293e+02   2.9793670184e+01    0.7502912    0.5419329 -22.66  0.004541774    1.576    0.366
        14 -12.1116    234.3134     37.6650   3.5739524932e+02   2.3271240872e+01     1.386594    0.3615114 -55.78  0.004325735    5.248    0.809
        15 -11.9948    160.1431     24.8236   9.5959942893e-01   4.1503101868e+01    0.8556474    0.4783503   2.49  0.002438945    3.768    0.735
        16 -10.1478    151.4774     24.2910   1.8834796271e+00   4.3786900694e+01    0.7017959    0.4367377 -81.98  0.003339514    1.672    0.402
        17 -13.8356    243.9842      8.5506   3.5055884252e+02   2.4659776936e+01     1.060994    0.4119706 -75.07  0.005222895    2.793    0.642
        18 -13.8813    182.9831     39.9275   2.6684784611e+00   3.3999999468e+01     2.005125     1.225817  71.30   0.01016275    1.654    0.396
        19 -13.3138    201.1104     37.7618   1.8896099306e-01   3.0125197681e+01     2.008988    0.6009019 -50.53  0.005764783    3.240    0.691
        20 -12.7505    224.9764     23.9663   3.5495688536e+02   2.6704946324e+01     1.028727    0.5503078  44.74  0.005053554    3.053    0.672
        21 -13.4300    222.7016     10.3057   3.5196936288e+02   2.8645371624e+01    0.9738455    0.4806478 -62.78  0.003498409    1.763    0.433
        22 -12.7477    221.3740     38.0714   3.5848060159e+02   2.5778864876e+01    0.7527515    0.3970624 -46.87  0.001451417    1.526    0.345
        23  99.0000     35.7093     20.9699   3.6344183746e+01   7.2195861514e+01      2.19531    0.8996731  40.18  0.009168412    2.363    0.577
        24 -10.7457    101.8043     20.9861   9.3825808442e+00   5.7275006407e+01    0.4265116    0.2438366 -27.69  0.001927429    1.916    0.478
        25 -12.1914    135.1567     21.4402   3.2295420450e+00   4.8391166346e+01    0.6151487     0.382664 -21.59  0.002910366    1.873    0.466
        26 -11.4868     20.5722     23.0589   4.8549137695e+01   7.3944616637e+01     0.551378    0.2508749 -55.65 0.0009602741    2.307    0.567
        27 -11.4361    123.8387     23.4055   5.8335877381e+00   5.1162705806e+01    0.4667943    0.3143301 -10.28  0.001445611    1.947    0.486
        28  99.0000    113.1847     21.6911   7.1962791630e+00   5.4193922444e+01     1.099951    0.6140639  33.04  0.004470137    2.508    0.601
        29 -11.3246    113.4761     14.1697   4.0658691882e+00   5.4955293882e+01    0.3736187    0.2739712   4.01 0.0007293014    1.787    0.440
        30 -12.2060    115.9321      8.3217   1.2575585797e+00   5.4882003722e+01    0.7932785    0.4408273 -39.94  0.002965832    1.840    0.457
        31 -12.7412    162.3830     36.2776   4.1894309909e+00   3.9508258609e+01    0.8875489    0.7535957   0.54  0.003666927    1.535    0.349
        32 -11.7890    202.9491     17.5347   3.5492347710e+02   3.2095670625e+01    0.3897477    0.3594361 -75.66 0.0009598439    1.194    0.162
        33 -12.1610    241.5467     22.6245   3.5365503017e+02   2.3624617134e+01     1.099572     0.380129  65.87  0.005346601    3.196    0.687
        34  99.0000    156.6054      8.1668   3.5613636850e+02   4.4197715593e+01    0.3570586    0.2626559  34.58  0.001920844    1.797    0.444
        35  -9.9757    154.5141     15.5106   3.5868490955e+02   4.3987094863e+01    0.2859146    0.1883706 -10.01  0.001400662    2.022    0.505
        36  -9.9953    156.2912     12.6417   3.5758028843e+02   4.3830886879e+01       0.2554    0.1394423 -40.83  0.001227324    1.707    0.414
        37 -10.8033    150.2786     13.2998   3.5844732462e+02   4.5312064205e+01     0.241041    0.1951334 -65.52 0.0005860387    1.122    0.109
        38 -10.8420    125.3137     11.8925   1.2061500249e+00   5.2033491280e+01    0.2779438    0.2632765  15.45 0.0008877959    1.257    0.204
        39 -10.4054    108.6446     11.0526   3.6518072331e+00   5.6558186072e+01    0.4760351    0.2556597  -0.62  0.001902387    2.953    0.661
        40 -10.5918     38.0218     12.3047   2.9358379885e+01   7.3204010125e+01    0.2093679    0.1741656  -5.32 0.0003254286    1.196    0.164
        41 -10.0564     92.8286     11.4127   7.1341448578e+00   6.0683136192e+01     0.245755    0.1712925 -42.64 0.0006176728    1.551    0.355
        42  -9.9601     88.5671     12.0809   8.5056430776e+00   6.1714275981e+01    0.1847557    0.1417526 -19.05 0.0004818022    1.476    0.322
        43  -9.8093    179.5483     10.9079   3.5493762576e+02   3.8221770350e+01    0.1860808    0.1210429 -31.95  0.001008076    1.533    0.347
        44 -10.1195    144.2621     10.1224   3.5807708911e+02   4.7198916520e+01    0.2857591    0.1717207 -84.19  0.001078302    1.628    0.386
        45  -9.5530    100.4982      6.8141   3.3425445499e+00   5.9121826381e+01    0.5670236    0.2326135 -49.07  0.002148241    2.914    0.657
        46 -10.5174     26.5391      9.5155   3.5432316501e+01   7.5600838091e+01    0.3191358    0.1932812  19.24 0.0009647175    1.847    0.458
        47 -11.8312    193.6721      8.1194   3.5316059976e+02   3.5181928609e+01    0.3110573     0.228821  73.76  0.001266058    1.406    0.289
        48  -9.7038    188.7553      5.2875   3.5274126550e+02   3.6601260381e+01    0.2032955   0.09675107 -50.27 0.0002407582    1.754    0.430
        49  -9.3025    184.3337      3.1277   3.5245269340e+02   3.7848190585e+01    0.3091834    0.1780412  66.17  0.001644304    1.781    0.439
        50 -12.7229    173.3084      5.8357   3.5399199498e+02   4.0242074222e+01    0.4460216    0.2297672 -20.67  0.001744155    2.256    0.557
        51  -9.7142    164.2350      7.7549   3.5530573282e+02   4.2305495381e+01    0.1740051    0.1485339  58.21 0.0004759114    1.334    0.250
        52 -11.4958     63.4517      6.9296   1.3410137388e+01   6.8472919901e+01    0.4134575    0.2727533  80.95  0.001201416    1.922    0.480
        53 -11.6919     65.1285      3.1161   1.0501698837e+01   6.8458720734e+01    0.4485039    0.2922598  73.33  0.001682967    1.617    0.382
        54 -10.9447     46.0003      2.3835   1.7893683279e+01   7.2900633653e+01    0.2251707    0.1864176 -11.97 0.0006829587    1.270    0.213
        55  -9.7608     44.6031      8.1831   2.2696562858e+01   7.2498603378e+01    0.2580475    0.1922457   4.71  0.001431003    1.485    0.326
        56 -10.3778     48.5525      6.0196   1.9176178037e+01   7.1938441600e+01     0.309529    0.2639016  51.47   0.00170718    1.151    0.131
        57 -10.6207      3.5400      6.0126   5.4755533805e+01   7.8989276951e+01    0.4641983    0.2179085 -24.28  0.002150971    2.438    0.590
        58  99.0000    209.6763      6.2509   3.5172607731e+02   3.1801974609e+01    0.3521541     0.211138  50.65  0.001760831    2.277    0.561
        59 -10.6078    217.5418      2.4985   3.5043619806e+02   3.0500463893e+01    0.2132985    0.1703128 -78.01 0.0007015281    1.170    0.145
        60 -10.8414    214.5058      1.4617   3.5034032511e+02   3.1240463950e+01    0.2303145    0.1626006  65.70 0.0008475487    1.659    0.397
        61  -9.5979    133.6056      5.0207   3.5754331558e+02   5.0483630535e+01    0.1800138    0.1317161 -30.30 7.502617e-05    1.475    0.322
        62  -9.4929    107.4750      5.5558   1.5054829568e+00   5.7387656176e+01    0.1408222    0.1234864  79.07 -7.731749e-06    1.008    0.008
        63 -12.1703    154.4387      2.2345   3.5446049889e+02   4.5305094431e+01    0.2380411     0.208924 -70.77 0.0003663886    1.065    0.061
        64  -9.1162    142.2788      4.2365   3.5629341834e+02   4.8272470444e+01    0.1270862   0.09427688  54.14 -0.000275831    1.441    0.306
        65 -11.1327     56.2421      3.4341   1.4002811672e+01   7.0515869179e+01    0.4458543    0.2410976  43.55  0.000717181    1.685    0.407
        66 -11.6710     87.8845      1.4125   3.3611112337e+00   6.2896066277e+01    0.3813002    0.1299324  62.62 0.0005162348    2.338    0.572
        67  -9.5953    207.4529      2.6826   3.5098458453e+02   3.2636782570e+01    0.1185079   0.09529094 -71.37 8.542157e-06    1.086    0.079
        68 -10.5851    126.9465      1.8657   3.5718470610e+02   5.2523189180e+01     0.204361    0.1736882  86.63 0.0003354641    1.022    0.022
        69 -12.6116    181.6908     71.0073   1.1284746651e+01   2.9784789682e+01     1.578486    0.5201217  59.82  0.003388309    3.199    0.687
        70 -13.9451    117.9610     62.3466   2.1417879905e+01   4.6759781435e+01     1.569956     1.268639 -83.13  0.005745245    1.391    0.281
        71 -13.3581     18.1251     64.2743   6.4673660889e+01   6.4554313821e+01      1.48384    0.5683863  45.75  0.004581647    3.270    0.694
        72 -13.9274     35.8534     56.6948   5.2411384253e+01   6.4638853418e+01     1.990078     1.341591   9.61  0.009365619    1.702    0.412
        73 -12.8458     57.7435     60.0277   4.2244241708e+01   6.0529854461e+01    0.8276874    0.5194471 -67.04  0.003518441    2.061    0.515
        74 -12.7596     50.7446     55.2065   4.3869985832e+01   6.2809930639e+01    0.7292996    0.6685228 -85.72  0.001901207    1.243    0.196
        75 -13.2278     51.6232     44.7089   3.9123573207e+01   6.4929737317e+01    0.7625042    0.4520442  13.21  0.001482978    2.712    0.631
        76 -10.5042    221.7672    121.4189   1.7265484279e+01   1.3876036541e+01    0.3468554     0.127277  49.39  0.001477871    3.185    0.686
        77 -10.3460    228.7617    118.9361   1.5764263760e+01   1.3094513619e+01     0.236479    0.1658489  46.12 0.0008923432    1.688    0.408
        78 -13.3534     79.1735     49.8070   2.8974546621e+01   5.8366817369e+01     1.249988    0.7579283  38.90  0.004478981    1.703    0.413
        79 -12.8361     81.5215     40.7391   2.4218749239e+01   5.9473778497e+01    0.6739599    0.3968458  48.98  0.002091746    1.605    0.377
        80 -12.4164     75.1500     41.7561   2.7077453392e+01   6.0752296958e+01    0.3111162     0.290968 -82.76 0.0006178952    1.177    0.151
        81 -11.8804     44.9383     92.7886   5.7743515055e+01   5.4285477866e+01    0.4376524    0.2581112   9.47  0.001783178    2.233    0.552
        82 -10.1786    227.2863     92.0476   1.0186756179e+01   1.7312063317e+01    0.1783309    0.1396974 -37.33 0.0003221301    1.061    0.058
        83 -13.3936    177.3654     84.1367   1.5450916133e+01   2.8605982780e+01     1.586364    0.9670901   5.81  0.005242362    4.388    0.772
        84 -13.6329    236.1230     86.0395   7.8571897078e+00   1.6608790899e+01     2.235954     0.801071  67.79  0.008354613    5.022    0.801
        85 -12.1687    161.9311     83.5731   1.8088579293e+01   3.2210189030e+01    0.5351562    0.4324244  49.32  0.002777774    1.309    0.236
        86 -12.2418    248.9676     83.0442   5.8862600994e+00   1.4842734877e+01    0.3063926    0.2446669 -77.18 0.0003372721    1.499    0.333
        87 -11.0624    204.3019    116.9100   1.8930397186e+01   1.7643259359e+01    0.4074506    0.3060085 -75.05  0.002166669    1.927    0.481
        88 -11.6822    160.8067     53.7827   9.7111137497e+00   3.7421896830e+01     1.061428    0.8583227  51.91  0.005659068    1.343    0.255
        89  -9.8324    248.8919    118.2161   1.3045093874e+01   1.0062153009e+01    0.1922594    0.1394336 -89.31  0.001128717    2.476    0.596
        90 -14.3335    195.6062     80.8525   1.1756346642e+01   2.5184823152e+01     1.548602     1.232664  80.86  0.005636621    1.422    0.297
        91 -12.7987    168.8581     78.4294   1.5397468656e+01   3.1504489964e+01    0.8653924    0.4514239 -51.12  0.002556205    1.997    0.499
        92 -12.2476    195.2470     56.1368   5.5350717088e+00   2.8968408091e+01    0.6369767    0.4156958  52.88  0.002277239    1.755    0.430
        93 -10.7547    171.9136    116.5444   2.4599113364e+01   2.3982267008e+01    0.2546387    0.1936767 -45.69  0.001311742    1.276    0.216
        94  -9.4462     50.2710    116.9985   6.0370697756e+01   4.7079865826e+01    0.1887089    0.1287803 -68.69 0.0006404361    1.434    0.303
        95 -11.5853    126.4218    116.0330   3.5005761766e+01   3.3641128253e+01    0.4093191    0.2251227  41.59 0.0007537917    1.820    0.451
        96  -9.7272    182.5229    115.0062   2.2213811138e+01   2.2127222864e+01    0.2152768    0.1298461 -39.73 0.0003738448    1.536    0.349
        97 -12.3535    164.5940     65.4798   1.2508317755e+01   3.4663104382e+01     1.298424    0.4803034  54.91  0.004746787    2.697    0.629
        98 -13.2801    184.0642     61.0206   8.2706855633e+00   3.0780655710e+01     1.001077     0.757652 -43.17  0.001995071    1.201    0.167
        99 -11.1463    196.3522    108.1216   1.8210317002e+01   2.0593343623e+01    0.4502628    0.2768914 -46.25  0.002240202    1.547    0.354
       100  -9.2462    210.9560    112.0000   1.6813454883e+01   1.7222162480e+01     0.196066   0.07627748  51.53  0.000804258    2.955    0.662
       101 -14.3333    209.6408     68.6209   6.9183598489e+00   2.4107470925e+01     1.564741    0.8502926  70.53  0.003485964    2.189    0.543
       102 -13.9147    210.6421     58.5917   4.3822391881e+00   2.5317213296e+01     1.968167    0.7335401  51.13  0.004418484    3.323    0.699
       103 -12.2457    160.8105    104.8018   2.3954335630e+01   2.8532265364e+01     0.457772    0.2619253 -44.68 0.0002848594    1.690    0.408
       104 -10.2547     15.3117    106.8973   7.2869909782e+01   5.3371842339e+01    0.2002149    0.1669298 -74.38 0.0004830252    1.106    0.096
       105 -12.2197    238.1971     51.3482   1.0637293193e-01   2.0859002991e+01    0.4259138    0.2160209 -47.88  0.001366668    1.593    0.372
       106 -12.9115    229.8136     47.2799   3.5989794855e+02   2.2958613256e+01    0.5936654    0.4875784  57.66  0.002955096    1.517    0.341
       107 -10.7484    209.9068    104.9922   1.5399382568e+01   1.8523189394e+01    0.3242799    0.2626891 -75.10  0.001897783    1.535    0.348
       108  -9.3628     78.2855     92.3088   4.3959071114e+01   4.9084594425e+01     0.155187    0.1241192 -17.71  0.000420739    1.570    0.363
       109 -12.8687    242.3725     61.1271   1.8718894894e+00   1.8854874202e+01     1.020439    0.6118994  88.08  0.004161452    2.172    0.540
       110 -11.4507    212.7927     89.9760   1.1561783355e+01   2.0307782743e+01    0.2163524    0.1842465 -65.75 0.0004219701    1.241    0.194
       111 -10.2261    167.2942     90.0309   1.8812355424e+01   2.9832909465e+01    0.2663558    0.2036208 -88.11 0.0009531484    1.614    0.380
       112 -11.8286    148.2174     84.5471   2.1161280545e+01   3.5238206155e+01    0.4770458    0.4043483 -72.89  0.001283288    1.250    0.200
       113 -11.0422    147.2730     78.5860   1.9639997717e+01   3.6570237562e+01    0.3999723    0.2640734 -48.59  0.001257822    1.497    0.332
       114  -9.7001    184.9893    105.5584   1.9521641383e+01   2.3292244251e+01    0.1985583     0.139522  51.11 0.0004166566    1.544    0.352
       115 -10.6970     18.3874     82.4403   6.8098565962e+01   5.9768255617e+01    0.3868477    0.1711575 -29.42  0.001407813    3.090    0.676
       116 -11.0453     82.4184     79.3087   3.8512321976e+01   5.1392469634e+01    0.4130864    0.2602524  40.51  0.001765867    1.578    0.366
       117 -11.6999     84.7979     73.3127   3.5658517937e+01   5.2261231381e+01    0.7342896    0.5616587  88.35   0.00280317    1.726    0.421
       118 -11.3486     68.0861     70.7440   4.1397654001e+01   5.6189861537e+01    0.5036812    0.1831398  41.37  0.001686129    2.696    0.629
       119 -11.7505    249.7990     73.7682   3.8801761939e+00   1.5929299467e+01    0.3758713    0.1971427 -39.06  0.002149844    1.453    0.312
       120  -9.6505    155.2333     76.6434   1.7442248307e+01   3.5015744424e+01    0.2102443    0.1350445  48.51 0.0009416551    1.643    0.391
       121 -12.0280    137.3797     71.3237   1.9621853487e+01   4.0303867937e+01     1.046459    0.6348451  56.52  0.004538861    1.639    0.390
       122  -9.7988    154.7119     64.8253   1.4075638671e+01   3.7169931380e+01    0.9421079    0.3592903 -49.06  0.003200006    2.877    0.652
       123 -10.5193    152.0353     59.2762   1.2892084185e+01   3.8739803554e+01    0.4421191      0.30428  12.27 0.0001658378    2.497    0.600
       124 -11.0863    145.6862     59.1098   1.4044642588e+01   4.0354643240e+01    0.4351117    0.3459573   4.61 0.0003840456    1.742    0.426
       125 -11.5234    144.4836     67.5850   1.6924329637e+01   3.9219742416e+01    0.4357211    0.3730703 -28.24  0.001029261    1.276    0.216
       126 -11.6280    148.2639     65.4525   1.5503034843e+01   3.8652583695e+01    0.9299111    0.5135706 -74.90  0.003121804    3.369    0.703
       127 -10.6485    142.5593     54.4860   1.3183128480e+01   4.1893531586e+01    0.3367586    0.2744699 -29.98  0.000785809    1.330    0.248
       128 -10.7804    145.7820     52.1898   1.1830048854e+01   4.1436964972e+01    0.2475047    0.2374487  31.11 0.0004981428    1.204    0.170
       129 -10.7147     74.3859     70.3454   3.8657798915e+01   5.5066321402e+01    0.4224916    0.3050693 -25.64  0.001886754    1.726    0.420
       130 -11.8381     73.9610     75.3157   4.0494681127e+01   5.4004023475e+01    0.6818241    0.4782525  37.48  0.002390762    1.430    0.300
       131 -10.0490    136.4900     62.0615   1.6884848698e+01   4.2169438037e+01    0.2658571    0.2441985 -77.91 0.0004985282    1.050    0.048
       132 -10.9906    137.4567     58.0228   1.5367094082e+01   4.2610332390e+01    0.4048798    0.3018104  85.60  0.001090574    1.476    0.322
       133 -10.6419    126.9958     58.8567   1.7976206245e+01   4.5116799744e+01    0.4581366    0.3061523  31.81  0.001948097    1.999    0.500
       134 -11.5154    173.7185     56.7361   8.5720149465e+00   3.3840532409e+01    0.3258056    0.2686243  72.81 0.0004942347    1.233    0.189
       135 -10.9078    245.8054     53.7629   1.3079002572e-02   1.9177141714e+01    0.2143102    0.1773556 -78.40  0.001522545    1.295    0.228
       136 -11.0412    245.0263     49.9588   3.5926461149e+02   1.9787846439e+01     0.199954     0.140836 -42.79 0.0003082744    1.101    0.092
       137 -13.6321      6.6046     67.9537   7.1871347034e+01   6.4324818983e+01      1.04117    0.8713965  83.08  0.006139768    1.223    0.182
       138 -11.6977    123.5128     53.6367   1.7001968997e+01   4.6891619784e+01     0.418324    0.2597497  67.42 0.0007825763    1.673    0.402
       139 -10.8587    249.9193     49.3272   3.5876321697e+02   1.8997898566e+01    0.3037625    0.1341093 -37.25  0.001634044    1.697    0.411
       140 -14.1179     76.6422     58.8126   3.3558134339e+01   5.7118592664e+01     1.055022    0.4404072  43.67  0.003276676    2.344    0.573
       141 -11.3872    133.5485     46.5954   1.2351534372e+01   4.5439936332e+01    0.3305005     0.274835 -79.55 0.0007264331    1.210    0.173
       142 -11.4046    133.2258     40.3070   1.0237345891e+01   4.6457423965e+01    0.4986672    0.3631931 -65.42   0.00243445    1.448    0.309
       143 -10.1187    104.9142     42.6432   1.7639927791e+01   5.3435192082e+01    0.4218005    0.2236294  73.10  0.001556906    2.485    0.598
       144  -9.7687     99.2558     46.4568   2.0779345694e+01   5.4224894149e+01    0.2860762     0.189297 -55.75 0.0007699335    1.736    0.424
       145 -11.7706     95.6948     42.1178   2.0092517460e+01   5.5830698642e+01    0.6345387    0.2772226  56.46  0.001878301    2.191    0.544
       146  -9.4019     94.2401     47.6427   2.2806573119e+01   5.5248833733e+01    0.1511875    0.1148333 -68.49  0.000692098    1.587    0.370
       147 -11.8172    125.9285     45.6779   1.3636267871e+01   4.7554265667e+01    0.4054127    0.3103327  71.09  0.000592011    1.269    0.212
       148 -10.9750    214.4773     42.0822   1.7898505482e-02   2.6701928673e+01    0.5832449    0.2427782 -50.57  0.002659949    2.123    0.529
       149 -11.4565    247.8326     42.1663   3.5740873532e+02   2.0229347070e+01    0.3824971    0.2062518 -54.68  0.001660831    1.581    0.368
       150  -9.8072    111.8466     38.7011   1.4291343604e+01   5.2266864853e+01    0.3080078    0.1113792  53.76 0.0008625548    2.515    0.602
       151 -12.0973     91.9634     33.4367   1.7517049915e+01   5.8119827105e+01    0.6927201    0.3990578  38.33  0.002923836    1.982    0.496
       152 -10.8515    131.8312     33.3740   8.0506454881e+00   4.7785725466e+01    0.3556593    0.1942275 -44.95 0.0002340584    1.830    0.454
       153 -10.3506    111.5961     32.7703   1.2009838026e+01   5.3186922081e+01    0.4246278    0.2863299  35.53    0.0019456    1.780    0.438
       154  -9.6326    114.5223     28.3960   9.6120812244e+00   5.3007382466e+01    0.1476911    0.1315475  60.50 5.692091e-05    1.092    0.084
       155  -9.9690    247.7524     32.7419   3.5543176140e+02   2.1344485662e+01    0.1518308    0.0974084 -54.38 0.0003413874    1.241    0.194
       156 -10.5569    121.7357     33.0916   9.9106469535e+00   5.0482115243e+01    0.2348019    0.1949043  68.44 0.0007406693    1.123    0.110
       157 -10.1642    239.6886     31.2113   3.5561385663e+02   2.3007212719e+01    0.2769595    0.2135598 -88.16  0.001918779    1.371    0.270
       158 -12.0766    149.0415     42.4879   8.1391218252e+00   4.2049304886e+01     1.145627    0.6233957  53.51   0.00447618    1.877    0.467
       159 -11.3502    104.1407     29.5059   1.2469992615e+01   5.5576572659e+01    0.4650679    0.3402473  76.98  0.001419411    1.388    0.279
       160 -10.0030    199.7549    106.0565   1.7185407999e+01   2.0276318078e+01    0.2341607    0.1719814 -33.40 0.0003664252    1.235    0.191
       161 -11.3289     97.5291     22.0291   1.0886180967e+01   5.8260234674e+01    0.2818809    0.2617684 -54.03 0.0008152304    1.144    0.126
       162 -10.4554    138.5165     29.3748   5.4883672076e+00   4.6547782573e+01    0.3603727    0.2085762 -11.50  0.001486603    2.539    0.606
       163  -9.9477     80.4459     30.4746   1.9901279399e+01   6.1382719453e+01    0.1980026    0.1826882  50.55 8.033257e-05    1.012    0.012
       164 -11.0016     85.2216     29.0150   1.7615192814e+01   6.0438819104e+01    0.5125625    0.2133204  54.99   0.00196452    2.176    0.540
       165  -9.3741    120.4713     28.4432   8.3979321077e+00   5.1430834618e+01    0.1490262    0.1317339 -85.80 8.480682e-05    1.077    0.071
       166 -11.1326    148.7004    103.9864   2.6379225417e+01   3.1348922775e+01    0.2402462    0.2091466 -79.27 0.0006274446    1.278    0.217
       167  -9.5836    130.5501     19.4630   3.2295398566e+00   4.9836266432e+01    0.2458661    0.1316703  73.31 0.0005960567    1.740    0.425
       168 -10.6805    144.4886    103.0176   2.7095453858e+01   3.2478963786e+01    0.3559769    0.2932284  21.26  0.001408017    1.440    0.305
       169 -11.3835    176.1861     24.1006   3.5896840360e+02   3.7594515907e+01    0.3372323    0.1881213 -40.34 0.0007177925    1.610    0.379
       170  -9.7223    179.6097     20.7098   3.5767557401e+02   3.7152986266e+01    0.2746203    0.1788986  75.06  0.001281008    1.489    0.328
       171 -11.4596    141.3491     96.1209   2.5969991604e+01   3.4579619068e+01    0.5517392    0.3124133  55.15  0.001640638    1.858    0.462
       172 -10.0996    128.7099     23.7755   5.1179340439e+00   4.9825605853e+01    0.2817943    0.2312729   6.28  0.001490112    1.564    0.361
       173 -13.5016    121.0066    100.6282   3.2440738509e+01   3.8222765582e+01     1.029132    0.4782056 -40.27  0.003697448    2.318    0.569
       174 -12.9234    121.1269     87.9240   2.8768151351e+01   4.0932511527e+01    0.7735173    0.5256067 -39.41  0.003419772    1.529    0.346
       175 -11.9111    137.5007     81.5749   2.2711913680e+01   3.8349401116e+01    0.7440626     0.625616 -79.55  0.003072083    1.294    0.227
       176 -13.6969    130.9957     96.2973   2.8569793909e+01   3.6906087684e+01     1.050195    0.8159875  66.11  0.004969914    1.405    0.288
       177 -12.2143    124.4227     81.9737   2.6086832987e+01   4.1388617154e+01    0.7291221    0.3796427  37.79  0.001972278    2.360    0.576
       178 -10.0426    194.4542     18.3186   3.5575923594e+02   3.3926956538e+01    0.2136139    0.1195562 -28.36 0.0008156229    1.802    0.445
       179 -11.0749    128.0280     76.0083   2.3313563334e+01   4.1706245016e+01     0.359446    0.3091272  57.79 0.0006325236    1.148    0.129
       180  -9.6116     14.4253     19.2729   5.1655631065e+01   7.5377540095e+01    0.1628217      0.12303 -65.46 0.0006600161    1.577    0.366
       181  -9.8738     92.5855     16.8753   9.7787861108e+00   6.0151441521e+01     0.256509    0.1649664  51.88 0.0005697809    1.432    0.302
       182 -11.5582    127.6314     89.8140   2.7587414608e+01   3.9029603081e+01    0.5138525    0.2978902  38.19  0.001043933    1.966    0.491
       183 -11.3408    132.4804     87.0861   2.5554642407e+01   3.8453954992e+01    0.7207339    0.3064412  57.08   0.00243874    2.680    0.627
       184 -11.5971    215.5388     99.8878   1.3449649955e+01   1.8274751939e+01    0.4603398    0.2509508 -34.62  0.002195476    1.593    0.372
       185  -9.8007    160.2461     14.0334   3.5760535135e+02   4.2678015771e+01    0.1841172    0.1585562 -68.57 0.0002451124    1.038    0.037
       186 -12.1591     82.8351     98.8894   4.4090352000e+01   4.6595204703e+01    0.5634956    0.4945644 -29.86  0.002813485    1.264    0.209
       187 -10.2736     87.9346     97.8433   4.2002677347e+01   4.5866326135e+01    0.3509811    0.2704924  33.52 0.0008091673    1.343    0.255
       188 -11.7988    169.7086     97.0372   2.0186689349e+01   2.8035731565e+01    0.5635808    0.3774617 -26.05  0.001790832    1.680    0.405
       189 -11.8796    152.1515     98.0646   2.4041134598e+01   3.1745058528e+01    0.7427379    0.4207456 -58.91  0.002906713    2.261    0.558
       190 -10.4100    180.1465     99.8790   1.8985794069e+01   2.5287467221e+01    0.3852059    0.2521329 -13.43  0.001691557    2.195    0.545
       191 -12.1666    184.1111     95.1956   1.7132441412e+01   2.5261192933e+01    0.6333117    0.3635047  66.58   0.00257373    2.236    0.553
       192  -9.3322     13.5830     12.5154   4.8550660171e+01   7.6798122549e+01    0.1265345    0.1087457 -15.35 0.0001906574    1.014    0.014
       193 -10.9629    205.1950     97.7089   1.4417771360e+01   2.0572175902e+01    0.3946296    0.2163768 -29.78  0.001354899    1.791    0.442
       194  -9.4077    102.2895     14.6755   6.4966541639e+00   5.7865109440e+01    0.1461749    0.1020735 -65.82 0.0007012298    1.610    0.379
       195 -12.6929    199.5396     96.4048   1.4953770735e+01   2.1892937274e+01    0.3228571    0.2689543 -44.49 0.0001741642    1.083    0.076
       196 -13.4035    102.8310     96.7108   3.6733234771e+01   4.3072524314e+01       1.1557    0.5663834  34.22  0.003307378    2.421    0.587
       197 -11.8796     95.4395     89.9436   3.7180486018e+01   4.6214446751e+01    0.5518861    0.4275579  63.78  0.001051903    1.417    0.294
       198 -11.8144    106.2495     87.2068   3.2880393315e+01   4.4480187748e+01    0.7000071    0.4348569  56.45  0.002427794    1.728    0.421
       199 -12.2333    114.8317     86.5121   3.0111740547e+01   4.2684653489e+01    0.4467389    0.3460411  49.23 0.0002350796    1.275    0.216
       200 -12.7625    115.0100     80.9413   2.8346640788e+01   4.3819987717e+01    0.8112981    0.5666429 -46.24  0.002557576    1.446    0.308
       201 -10.9288    250.3486     97.6454   8.7439280561e+00   1.2655268475e+01    0.2317866    0.1429458 -44.48  0.000771426    1.383    0.277
       202 -10.8323    250.4601     93.7561   7.9393404176e+00   1.3163669922e+01    0.2501203    0.1312865 -35.53 0.0004620912    1.480    0.324
       203 -10.6934     11.6693     97.8462   7.3397044800e+01   5.6073071009e+01    0.2198852    0.2071451  51.49 0.0007242659    1.115    0.103
       204  -9.7971    227.2470     97.4144   1.1367204839e+01   1.6535053853e+01    0.1576241    0.1230781  80.29 0.0009557562    1.669    0.401
       205 -10.3859     16.9053     96.8966   7.0966796397e+01   5.5977893436e+01     0.208865    0.1757801 -48.91 0.0002941723    1.197    0.164
       206 -10.5388    159.2849     95.6896   2.1895688544e+01   3.0594863561e+01      0.37657    0.1973882  58.47  0.001442967    2.138    0.532
       207 -11.3682     36.4977    249.2559   7.6567081498e+01   1.7786380449e+01    0.1987912     0.143198  41.56  0.001382563    1.036    0.035
       208 -11.2069      3.0755    248.8944   8.3534073376e+01   2.0991253324e+01    0.3422325    0.1136133  41.54  0.001874882    1.854    0.461
       209 -11.0271    180.6963    244.1178   4.5970271142e+01   1.5279314378e+00    0.2249221    0.1329398  19.64  0.001368169    1.350    0.259
       210  -9.6081    218.5200    239.5353   3.8681648128e+01  -2.1009873617e+00    0.1079379   0.07790399   3.28  0.000175145    1.026    0.025
       211 -14.7093     42.0404     75.1002   5.4726755971e+01   5.9281278531e+01     2.076304     1.647651 -25.89    0.0106218    1.384    0.277
       212 -10.3843     15.9206    238.5949   8.0572056173e+01   2.1747745565e+01    0.1694502    0.1480933  87.67 0.0006344011    1.358    0.264
       213 -12.4639     86.5253     63.6202   3.1615298126e+01   5.3975341906e+01    0.5997596    0.5445409 -25.68 0.0006484584    1.189    0.159
       214 -11.8567    100.7264     54.0135   2.3277836740e+01   5.2533628072e+01     1.363496    0.7936121  46.42  0.004573526    1.697    0.411
       215  -9.7458    101.1562    176.0244   5.3945804011e+01   2.4580882857e+01    0.1821505    0.1695752  44.18            0    1.040    0.038
       216 -10.0442    236.8261    146.1033   2.0084911551e+01   7.9093911347e+00    0.1696988    0.1391924 -29.79 0.0004122151    1.141    0.124
       217  -9.4713    250.1711    132.1198   1.5607630349e+01   7.9695367753e+00    0.1467001    0.1158381 -40.51 0.0002791127    1.266    0.210
       218  -9.4885    222.4463    124.5650   1.7828291660e+01   1.3283969881e+01     0.214229    0.1426768 -30.37 0.0005979489    1.295    0.228
       219 -13.4498     97.9274     74.8538   3.1607902036e+01   4.9046661279e+01     1.564527     1.140856 -44.51  0.007213904    1.402    0.287
