#   1 NUMBER                 Running object number                                     
#   2 MAG_AUTO               Kron-like elliptical aperture magnitude                    [mag]
#   3 X_IMAGE                Object position along x                                    [pixel]
#   4 Y_IMAGE                Object position along y                                    [pixel]
#   5 X_WORLD                Barycenter position along world x axis                     [deg]
#   6 Y_WORLD                Barycenter position along world y axis                     [deg]
#   7 A_WORLD                Profile RMS along major axis (world units)                 [deg]
#   8 B_WORLD                Profile RMS along minor axis (world units)                 [deg]
#   9 THETA_WORLD            Position angle (CCW/world-x)                               [deg]
#  10 FWHM_WORLD             FWHM assuming a gaussian core                              [deg]
#  11 ELONGATION             A_IMAGE/B_IMAGE                                           
#  12 ELLIPTICITY            1 - B_IMAGE/A_IMAGE                                       
         1 -15.0786      6.4895     68.7328   7.5919222130e+01   6.2196770449e+01     1.337646    0.7041419 -62.39  0.005104676    1.624    0.384
         2 -15.8600     11.1587     23.4768   5.9998904573e+01   7.0416509321e+01     1.826525    0.9276277 -26.42    0.0101856    1.837    0.455
         3 -14.2706     26.8906     12.1615   4.6832594560e+01   7.0438202325e+01    0.8301531    0.4994561  -1.52  0.004993654    1.744    0.427
         4 -12.8216      7.8241      2.6654   5.2443923138e+01   7.3725382485e+01    0.5149167    0.2804363  34.06  0.003292191    2.118    0.528
         5 -13.8630    122.2335     36.8623   2.4341688384e+01   4.9757594258e+01     0.978501    0.5034187  36.55  0.003628629    2.381    0.580
         6 -12.9271     43.3468     32.9242   4.8298800998e+01   6.5400046078e+01    0.8337873    0.5102671  29.25  0.004827973    1.575    0.365
         7 -14.2197    166.5564     29.4335   1.3962813908e+01   4.0028289423e+01     1.034524    0.7241651  73.26  0.003865091    1.278    0.217
         8 -14.2025    147.7213     29.7037   1.7040459923e+01   4.4573684369e+01     1.242906    0.6904739  67.46  0.004422357    1.648    0.393
         9 -13.5487    188.2665     24.5540   9.8374185586e+00   3.5396281318e+01     1.243903    0.5596056 -58.24  0.005388499    2.474    0.596
        10 -13.1525    187.5531     11.5159   6.7384777623e+00   3.7035324209e+01    0.7285706    0.4787327 -39.19  0.004241937    1.609    0.379
        11 -12.6239    120.3862     26.2049   2.1214392135e+01   5.1487944987e+01    0.6026339    0.3822957  41.83  0.002855003    1.559    0.359
        12 -15.1001     99.2191     11.5692   2.0842697269e+01   5.7770773455e+01     1.388351    0.7715712  54.49   0.00412687    1.513    0.339
        13 -12.0647     85.6367     13.9479   2.5258833154e+01   6.0416058891e+01    0.3561622    0.3303531  15.20  0.001868174    1.126    0.112
        14 -11.6137     71.0366     16.2324   3.0621947147e+01   6.3048926551e+01    0.2851287    0.1956462 -15.53  0.001458903    1.546    0.353
        15 -12.1006     60.0361     15.3534   3.4062543897e+01   6.5131303031e+01    0.4758547    0.2474486  30.02  0.002469769    1.921    0.479
        16 -13.4408    214.8237      9.9883   3.8359248578e+00   3.0964913807e+01    0.7178231    0.3736822  86.97   0.00279255    1.752    0.429
        17 -11.7224     46.8237     12.9004   3.8105172879e+01   6.7580408198e+01    0.2680749    0.2266141  34.48   0.00133038    1.297    0.229
        18 -12.0248    123.1880     10.7600   1.5524059181e+01   5.2429702815e+01    0.2662551    0.2146611  89.44 0.0004730722    1.304    0.233
        19 -13.8675     41.7851      4.5701   3.6253709145e+01   6.9268067033e+01    0.6743587    0.4577943   9.84  0.003540003    1.352    0.260
        20 -11.5101     75.0275     10.0043   2.6737393433e+01   6.2921836990e+01    0.2591349    0.1740262  -4.94 0.0009779601    1.655    0.396
        21 -12.0891    152.5623      8.8901   1.0256593768e+01   4.5636865137e+01     0.424929    0.2229413  61.97  0.002171222    1.605    0.377
        22 -10.8418    168.3095      9.6344   8.4295384803e+00   4.1792454370e+01    0.1377873   0.08298136 -67.61 0.0001274239    1.754    0.430
        23 -10.5018     80.4334      7.2653   2.4017285632e+01   6.2105786264e+01     0.150527    0.1127398 -33.78 0.0009383467    1.572    0.364
        24 -11.9076    118.7750      2.4012   1.3555798927e+01   5.4173179935e+01    0.4724873    0.2278354  84.11  0.002007463    2.851    0.649
        25 -11.8126     81.2851      1.3332   2.1345362227e+01   6.2437282065e+01    0.6973831          nan  52.65  0.002011833    5.628    0.822
        26 -11.1001     67.6990      2.7158   2.5863277881e+01   6.4991292291e+01     0.267626     0.152661  28.44  0.001506215    1.706    0.414
        27 -10.6248    232.9296      1.5122   7.4283202938e-01   2.7984503129e+01    0.1733551   0.09593017  81.70   0.00071147    1.566    0.361
        28 -11.1229     61.2995      1.4552   2.7373028311e+01   6.6286360345e+01    0.3128181   0.09894032  52.35  0.001367691    2.768    0.639
        29 -11.4845     48.9354    181.4183   8.0426436420e+01   3.1150565474e+01    0.2811748    0.1831344 -64.49  0.001477973    1.447    0.309
        30 -12.1731     50.9227    248.7328   8.6347876013e+01   1.5855657736e+01    0.3670224    0.3157219  80.70  0.002617321    1.203    0.169
        31 -12.1921      2.8512    249.6466   9.5255592332e+01   2.1197878931e+01    0.3992715    0.2426313  53.63  0.001888652    1.294    0.227
        32 -13.6714      9.5781    245.5309   9.3873842061e+01   2.1315550876e+01    0.8423753    0.3684668  58.74  0.003572405    1.773    0.436
        33 -12.4744    124.2912    166.9911   5.8817477573e+01   2.2630683097e+01    0.6359298    0.4003223 -73.74   0.00260156    2.080    0.519
        34 -11.7926     24.2171    159.7747   8.4262536604e+01   3.9238261519e+01    0.1794042    0.1405223 -55.11 0.0008033114    1.341    0.254
        35 -12.1537     77.3069    156.8854   6.9409770620e+01   3.3343747845e+01    0.4688519    0.3595119  25.35  0.001418382    1.526    0.345
        36 -13.2580     73.9770    153.2926   6.9713318368e+01   3.4761000886e+01    0.7725109    0.4619519  34.11  0.002719996    1.784    0.439
        37 -11.8787    111.2300    155.6709   5.9957074784e+01   2.7834860932e+01    0.5671262    0.3533306  89.73  0.002103866    2.633    0.620
        38 -12.5174      8.7521    149.2283   8.7236248953e+01   4.3167176154e+01    0.5309172    0.4269248  28.54  0.003438212    1.507    0.337
        39 -11.1958    103.5590    149.5734   6.0790624377e+01   3.0753182357e+01    0.3257064    0.2569219 -30.16  0.001175379    1.541    0.351
        40 -11.9156     59.5924    148.2397   7.2929837188e+01   3.8096103052e+01     0.239262    0.2247979 -50.04  0.001154455    1.167    0.143
        41 -10.8048     38.4734    145.5253   7.8559445385e+01   4.1347669784e+01    0.1375525    0.1190954 -75.46 0.0001622042    1.027    0.026
        42 -12.3872     40.6322    137.3955   7.6716137142e+01   4.3160220999e+01    0.4384824    0.2412889  68.49  0.001866985    2.460    0.593
        43 -12.2317     43.9906    132.9717   7.4994026615e+01   4.3897684903e+01    0.2362085    0.2045472  11.05 0.0008400262    1.391    0.281
        44 -11.6714    138.0192    132.0075   4.7736058178e+01   2.8109241138e+01    0.3137464     0.221463  14.90  0.001271368    2.139    0.532
        45 -14.6222    105.5828    104.0960   4.9514128677e+01   4.1268439974e+01     1.336554     1.240277  -4.63  0.005920033    1.179    0.152
        46 -12.2166    181.0871    120.8467   3.5186019876e+01   2.1040051210e+01    0.3140469    0.2059813  55.68   0.00107176    1.610    0.379
        47 -13.2910      5.3599    117.0910   8.4547950132e+01   5.1208183068e+01     1.497203    0.4052541 -58.24  0.005999686    2.606    0.616
        48 -12.5396     49.7623     98.7227   6.6305609994e+01   5.1593341233e+01    0.7858653    0.4742947  12.79  0.003673869    2.154    0.536
        49 -12.0332     49.0214     93.4016   6.5295589377e+01   5.2916374397e+01    0.4064825    0.3212827  61.93  0.002242575    1.581    0.367
        50 -12.0264     42.4957     90.3337   6.6915250666e+01   5.4380213968e+01    0.3796199    0.2571142 -69.58 0.0001958666    1.603    0.376
        51 -12.3460     36.8185     92.9128   6.9592625868e+01   5.4398575536e+01    0.4885823    0.3489193  -0.19  0.001560883    1.679    0.405
        52 -13.4185      2.3169     96.9641   8.2714078542e+01   5.6133685575e+01     0.828266    0.3622056 -71.74  0.003410131    1.952    0.488
        53 -12.5065     19.0342     86.0563   7.4693661628e+01   5.7553445363e+01     0.485257    0.3269069 -11.36 0.0003670781    1.735    0.424
        54 -14.1261     18.3610    111.7832   7.9624749220e+01   5.1577337888e+01    0.6794276    0.5064486  -6.02  0.002967685    1.668    0.401
        55 -14.2301     14.0977    103.6672   7.9735205309e+01   5.3831046467e+01    0.9745669     0.501865  32.10  0.003159149    2.208    0.547
        56 -14.4185     22.8278     94.9466   7.5098375471e+01   5.5215811108e+01     1.316162    0.7683278  16.04  0.006827349    2.033    0.508
        57 -13.0803     29.6971     89.4141   7.1425886634e+01   5.5894676183e+01    0.7474136    0.4434721  67.65  0.003322982    2.929    0.659
        58 -11.5921     62.7119    110.6436   6.4655865767e+01   4.7060431093e+01    0.5157576     0.311726  68.15  0.002080312    2.696    0.629
        59 -13.0407     84.5113    114.9659   5.8686223961e+01   4.2632403376e+01    0.9951915    0.5908374  23.28  0.004115093    2.192    0.544
        60 -11.7319    121.7167    112.0910   4.7060495073e+01   3.6145030337e+01    0.2987556    0.2603113  70.87 0.0007499375    1.224    0.183
        61 -12.4199    136.3416    103.0315   4.0815151590e+01   3.4932547302e+01     0.579347    0.3217719  54.57  0.001755838    1.904    0.475
        62 -13.2024    112.0825    116.5761   5.0887215828e+01   3.7107605856e+01    0.6161497    0.3634427  34.01  0.002329218    1.909    0.476
        63 -10.7215     64.5160    101.5403   6.1896521131e+01   4.8967125088e+01    0.2311298     0.212193  41.93 0.0004818354    1.175    0.149
        64 -11.9828     61.6904     97.7131   6.1908869503e+01   5.0259566168e+01    0.4367204     0.341476  88.36  0.001606218    1.653    0.395
        65 -11.8683    163.6360     97.7824   3.3057109554e+01   2.9701621610e+01    0.3064091    0.2704916 -88.01 0.0005902909    1.158    0.137
        66 -12.8005    137.1775     94.8366   3.8372127207e+01   3.6451704454e+01    0.5281466     0.417152  68.89  0.001688301    1.375    0.273
        67 -12.1818     78.6071    110.7648   5.9527887284e+01   4.4620545178e+01    0.4201719    0.3105882 -68.85  0.001779662    1.461    0.315
        68 -11.0945     35.0285     86.4748   6.8759247964e+01   5.6047783199e+01    0.2573247    0.1531409 -43.53 0.0007512594    1.507    0.337
        69 -13.2400    188.3828     84.0125   2.4732769101e+01   2.6466523369e+01    0.6385764    0.3163209  48.12  0.002055116    2.217    0.549
        70 -11.7931    242.2124     84.0058   1.6844842334e+01   1.4716161025e+01    0.2869733    0.1946034  82.85  0.001560004    1.689    0.408
        71 -13.2444    164.0136     71.3542   2.5902250179e+01   3.4502705625e+01    0.9503099    0.5789151  53.61  0.004325559    1.607    0.378
        72 -14.1024    169.2938     76.8917   2.6377675402e+01   3.2266906852e+01      1.46373    0.5452654  53.21   0.00430712    2.605    0.616
        73 -12.7747    161.0540     80.1982   2.8906142630e+01   3.3655405186e+01    0.4762342     0.371922  32.70  0.001447966    1.559    0.359
        74 -13.4535    105.8971    124.0105   5.4478341596e+01   3.6570181726e+01     1.233058    0.6704621  38.99  0.004974985    1.906    0.475
        75 -11.9860     40.7511     68.1163   6.1655742014e+01   5.9390968069e+01    0.9629174    0.2090699  31.77  0.003209346    4.524    0.779
        76 -13.3262     65.8627     49.2482   4.5529979334e+01   5.9409944121e+01     1.146702    0.6142465 -32.39  0.005507784    1.931    0.482
        77 -12.8685     51.8013     67.4532   5.7082098158e+01   5.8156597416e+01     1.068703    0.5250239 -59.24  0.004547905    2.579    0.612
        78 -13.3815     91.8332     57.5112   3.9574788940e+01   5.3294561023e+01    0.5724583    0.4809835 -19.02  0.002126465    1.232    0.188
        79 -13.7053     73.9218     73.9127   5.0928801531e+01   5.3538651776e+01     1.384518    0.7068446  17.60  0.004759539    3.765    0.734
        80 -13.0605     87.4303     65.2389   4.3573244117e+01   5.2788951482e+01      0.50603    0.4039662   6.09  0.001021063    1.410    0.291
        81 -12.8339     54.7834     81.2570   6.0015972684e+01   5.4887697262e+01    0.6181886    0.4296338 -34.19  0.003271703    1.413    0.292
        82 -13.8282     61.2094     75.6280   5.6015583392e+01   5.5179222631e+01    0.7836038    0.4901591 -38.03  0.001731162    1.546    0.353
        83 -12.3117    101.6058    118.6101   5.4412044968e+01   3.8680229906e+01    0.8627322    0.4523017  27.50  0.003137619    2.619    0.618
        84 -13.2793    216.0016     80.7330   1.9592163342e+01   2.0752594401e+01    0.5100899    0.4259897  69.94  0.002519769    1.245    0.197
        85 -11.2997     42.5196     79.4762   6.4147663042e+01   5.6793035133e+01    0.3166973    0.2485176 -32.74  0.001861269    1.185    0.156
        86 -11.1819     41.6194     75.7455   6.3483739775e+01   5.7697942002e+01    0.3128261    0.1803154 -54.80  0.000796423    1.616    0.381
        87 -12.1298    236.9498     79.9892   1.6640014363e+01   1.6431622728e+01    0.3147264    0.1934143  76.85  0.001603941    1.878    0.468
        88 -12.4057    135.4333     79.2633   3.4385002005e+01   3.9906986839e+01    0.7300897    0.3460805  55.93  0.002784962    2.178    0.541
        89 -13.0202     28.8926    121.9340   7.7860367230e+01   4.8206738618e+01    0.9038901     0.217853 -56.95  0.003225415    3.010    0.668
        90 -12.2303    109.6389    249.0410   7.4597418803e+01   7.4195192225e+00    0.2427517    0.1980198  64.74  0.001544142    1.173    0.147
        91 -11.9359    158.4562     83.5005   3.0347475667e+01   3.3670711104e+01    0.3595905    0.2800857  64.68 0.0008904857    1.281    0.219
        92 -11.5925     27.2678     75.7548   6.9142724458e+01   5.9154302561e+01    0.3699369    0.2387565 -81.46  0.001879082    2.189    0.543
        93 -13.4468    199.2315     70.0019   1.9515226522e+01   2.6331557690e+01    0.7137236    0.4470706  49.57   0.00258323    1.798    0.444
        94 -12.4839    134.7239     66.1187   3.0665610881e+01   4.2424580350e+01    0.5922526    0.4274379  36.00  0.002053187    1.547    0.353
        95 -11.8845    158.6054     64.8130   2.5150018806e+01   3.6912170454e+01    0.5249332    0.2316792 -44.94  0.002045086    2.303    0.566
        96 -11.4183     99.7041     64.8629   3.9611153097e+01   5.0428378243e+01    0.4183728    0.2744597  71.26   0.00179668    2.361    0.576
        97 -12.8467     78.5409     59.5753   4.4643167392e+01   5.5450547315e+01    0.6930826    0.4863935 -57.56  0.003507941    1.817    0.450
        98 -11.7095     83.1459     54.2414   4.1245461188e+01   5.5524218355e+01    0.3146051     0.189519  11.52  0.001200781    2.744    0.636
        99 -12.2560     35.1083     58.3578   6.1017573992e+01   6.1965975538e+01    0.9142297    0.2084415 -45.04    0.0032041    3.662    0.727
       100 -13.3690    177.9133     57.5096   1.9704939284e+01   3.3386190738e+01     0.767593    0.5490896 -57.99  0.002489709    1.391    0.281
       101 -11.7391     24.7327     59.0796   6.5683530101e+01   6.2850768132e+01    0.4012505      0.20135 -46.99  0.002104882    1.664    0.399
       102 -14.3449    119.6000     54.4693   3.0721282082e+01   4.7839117868e+01    0.9236782    0.5836849  39.77  0.001950694    1.635    0.388
       103 -13.0716     56.8372     65.7388   5.4598602267e+01   5.7801019097e+01    0.8484501    0.5261354 -17.32  0.004017552    2.088    0.521
       104 -11.2614     17.7025     55.3434   6.7684097500e+01   6.4185166844e+01    0.2935211    0.1681974 -56.80  0.001651325    1.630    0.387
       105 -13.5306    103.4009     50.6193   3.3771238008e+01   5.2022533378e+01    0.8280601    0.5073574 -48.22   0.00164878    1.888    0.470
       106 -13.2398     97.9652     49.9761   3.5118110685e+01   5.3270043303e+01    0.6475464    0.3859777 -38.36  0.001986608    1.760    0.432
       107 -12.1996    135.9742     50.6479   2.5671835174e+01   4.4597476793e+01    0.4560478    0.4280308 -17.02  0.001887592    1.193    0.162
       108 -10.4619     23.5349     49.9437   6.3416159546e+01   6.4731216278e+01    0.1727868    0.1032099 -47.51 0.0003884127    1.468    0.319
       109 -11.8699    114.1091     79.7740   4.0110028456e+01   4.4610185019e+01     0.459031    0.3406833 -48.25   0.00224861    1.387    0.279
       110 -12.0112    151.9675     46.7740   2.1279231053e+01   4.1300383894e+01    0.4576218    0.1898947  57.90  0.001827253    2.175    0.540
       111 -12.5663    158.5187     43.1740   1.9065400673e+01   4.0206912684e+01    0.5801165    0.4094475  56.14  0.003006842    1.345    0.256
       112 -12.1133     38.7160     59.7456   5.9938481542e+01   6.1295312680e+01    0.3092722    0.2349846 -84.11   0.00169072    2.149    0.535
       113 -13.2490      5.9270     42.9596   6.9492396792e+01   6.7404189912e+01    0.7887566    0.3832924  16.92  0.004468878    2.211    0.548
       114 -12.8733     28.6115    245.7418   9.0393866573e+01   1.9180267138e+01    0.4544374    0.2786768  76.24  0.002802186    1.360    0.265
       115 -10.7644     41.6500    250.2990   8.8235667064e+01   1.6715542208e+01    0.1302378   0.06555197  61.68 0.0007036545    1.688    0.408
       116 -13.1053    204.9957     39.8739   1.1534580018e+01   2.9514238979e+01     1.197324    0.4845071  87.72  0.003717828    4.815    0.792
       117 -12.5723    212.5527     43.0964   1.1399062891e+01   2.7341709101e+01    0.4607099    0.2594529  62.08  0.001934667    1.769    0.435
       118 -13.3693    219.4487     41.5074   1.0275104823e+01   2.6014172788e+01    0.6323492    0.3756061  85.89  0.002034701    1.691    0.409
       119 -13.4445    171.6618    242.2567   6.0972611751e+01  -1.1560233342e+00    0.5207944    0.4037596  30.59  0.003214289    1.110    0.099
       120 -11.6395    134.8509     39.5538   2.2472997621e+01   4.6429486006e+01    0.4649923    0.2543669  69.28  0.001589155    1.942    0.485
       121 -12.0359    109.8744     41.9408   2.9048023301e+01   5.1886268085e+01    0.4396471    0.1861932  53.76 0.0009900091    2.175    0.540
       122 -12.8663    113.9438     37.7710   2.6600424381e+01   5.1540132161e+01    0.3763578    0.3274058  35.46  0.001147952    1.124    0.111
       123 -13.9543     92.3165    230.4408   7.6112511353e+01   1.3743609911e+01    0.5840825    0.5080972  59.91  0.003686257    1.042    0.040
       124 -12.6727    131.3572     33.5110   2.1290050730e+01   4.8040286999e+01    0.4505418    0.3961412  11.98  0.001451707    1.328    0.247
       125 -12.5509     23.5523    216.2852   8.9432075891e+01   2.5956087080e+01    0.7654808    0.3985654  50.84  0.004262826    1.641    0.391
       126 -12.1039     40.4726     40.3111   5.2447215795e+01   6.4600415832e+01    0.4873684    0.2587087  32.73  0.002494822    1.902    0.474
       127 -12.4785     33.1034     40.1615   5.5674558069e+01   6.5510344967e+01    0.3125684     0.227862  -6.50 0.0005440477    1.300    0.231
       128 -12.5431     75.9807     37.0145   3.7335215026e+01   5.9527126052e+01    0.4317216    0.2493026  35.04  0.001230529    1.675    0.403
       129 -11.7323     70.9748     36.4481   3.8848830975e+01   6.0518168886e+01    0.3079344    0.2617796  56.02  0.001146601    1.422    0.297
       130 -12.5607    242.3272     36.1459   6.9086330311e+00   2.1838564651e+01    0.5092783    0.2659808  79.31  0.002054682    1.914    0.478
       131 -11.1012    104.7507     36.5596   2.8520886867e+01   5.3746856130e+01    0.2462792    0.1906021 -28.34  0.001389894    1.400    0.286
       132 -13.6354     26.6537    225.8745   8.9473752919e+01   2.3524833175e+01    0.7842779    0.3754503 -55.26  0.003943507    2.639    0.621
       133 -13.7408     20.7052    224.0669   9.0541180767e+01   2.4569292476e+01    0.5601099     0.506987  89.61  0.002694744    1.319    0.242
       134 -12.5807    140.1213     21.4248   1.5870050208e+01   4.7352731330e+01    0.7422329    0.2807186  62.61  0.001617397    2.245    0.555
       135 -11.1094    194.7690     23.3761   8.8073252507e+00   3.4004834585e+01    0.2806417    0.2052177  57.62    0.0016403    1.469    0.319
       136 -13.5009     65.5644    223.1420   8.1110560930e+01   1.9219724811e+01    0.8192412    0.6456626  46.72  0.005027371    1.210    0.174
       137 -13.8336     64.2735    214.1407   8.0466504934e+01   2.1392866706e+01    0.6196884    0.4332503  52.44  0.003227225    1.259    0.206
       138 -12.8666    216.9762     28.6743   7.6978782234e+00   2.8264702529e+01    0.3554648    0.2194599 -59.08  0.001773019    1.436    0.304
       139 -12.6496     59.4983    212.5182   8.1362715439e+01   2.2413895751e+01     0.261322    0.2338489 -36.16  0.001011218    1.542    0.352
       140 -13.3354     57.7164     26.8334   3.9870397577e+01   6.4113977585e+01    0.9944227    0.3289697  41.04  0.003720097    2.816    0.645
       141 -12.3042     30.8450     25.3676   5.0844271914e+01   6.8130685503e+01    0.3613741    0.2200917   9.36   0.00168367    1.712    0.416
       142 -12.7123     35.3111     23.3841   4.7897157258e+01   6.7866172426e+01    0.2799087    0.2021548   8.26 0.0007106291    1.247    0.198
       143 -10.6628      5.5911    219.2387   9.3231763379e+01   2.7155346735e+01    0.1577555   0.09007201 -73.67 0.0007278789    1.604    0.377
       144 -11.8872    147.3202    238.9941   6.5488602143e+01   3.2878881026e+00    0.1755646    0.1683675  41.19 0.0007734312    1.115    0.103
       145 -11.5154    223.8131     20.7664   5.3598467370e+00   2.7736212808e+01    0.2193353    0.1770683  58.39  0.001038899    1.535    0.348
       146 -11.1133     51.2075     20.4152   3.9695278614e+01   6.5989541296e+01    0.2769537    0.1432161  45.91  0.001452819    2.032    0.508
       147 -12.0198     46.1773     20.3488   4.1747758273e+01   6.6768289398e+01    0.3409332    0.1962081  16.94  0.001180544    1.929    0.481
       148 -12.6534      4.7146    211.8813   9.2984088069e+01   2.8836978413e+01    0.4551946    0.1978203 -68.64   0.00241012    2.085    0.520
       149 -12.1900     72.6042    206.9083   7.7767651113e+01   2.1854326114e+01    0.3113241    0.2332741 -83.60  0.001747147    1.289    0.224
       150 -12.7578    219.0039     15.4984   4.6590658203e+00   2.9415555396e+01    0.2867106    0.1859525  86.42  0.001298986    1.337    0.252
       151 -12.1696     57.4381    203.2419   8.0852381426e+01   2.4822439644e+01    0.5082614    0.2390043 -86.60  0.002097947    2.615    0.618
       152 -13.4394     15.9390    198.2180   8.9733023749e+01   3.0825291740e+01    0.9468916    0.2058579 -59.93  0.003386457    4.214    0.763
       153 -13.4959     29.9541    169.2192   8.3814401818e+01   3.6331565680e+01     1.163027    0.6235229 -40.40  0.005248667    2.674    0.626
       154 -13.0886     22.1766    166.1114   8.5461274412e+01   3.7872643315e+01    0.3916692    0.3066528  -0.27  0.001647806    1.833    0.455
       155 -13.6712     22.1397    180.7904   8.6886397769e+01   3.4310604361e+01    0.9032965    0.3669986 -63.32  0.004169679    2.161    0.537
       156 -15.3064      8.6417    183.1106   9.0225050270e+01   3.5027286378e+01     1.392175     1.065969 -74.51  0.009108029    1.216    0.178
       157 -15.3252     15.2554    174.9331   8.8007645377e+01   3.6377111850e+01     2.197631    0.9843521  62.04   0.01011104    2.361    0.576
       158 -13.5772     39.7506    195.5234   8.4145024374e+01   2.8869952484e+01    0.7576066    0.3949286  57.53  0.003731392    1.834    0.455
       159 -11.8198    201.0401    191.3164   4.6307300971e+01   2.9600763355e+00    0.3081638    0.2459745  24.83  0.001430192    1.246    0.197
       160 -11.1451    155.6714    184.6659   5.4697797226e+01   1.2604417040e+01    0.1517731     0.116633  -5.48 0.0007051905    1.722    0.419
       161 -11.9358    198.6978    181.4864   4.4861273641e+01   5.2179311771e+00    0.2882589    0.2492186 -76.07  0.001592561    1.493    0.330
       162 -10.9643    122.5175    181.5282   6.1970884084e+01   1.9539522916e+01    0.3487476    0.2115286  89.43  0.001267713    2.948    0.661
