#   1 NUMBER                 Running object number                                     
#   2 MAG_AUTO               Kron-like elliptical aperture magnitude                    [mag]
#   3 X_IMAGE                Object position along x                                    [pixel]
#   4 Y_IMAGE                Object position along y                                    [pixel]
#   5 X_WORLD                Barycenter position along world x axis                     [deg]
#   6 Y_WORLD                Barycenter position along world y axis                     [deg]
#   7 A_WORLD                Profile RMS along major axis (world units)                 [deg]
#   8 B_WORLD                Profile RMS along minor axis (world units)                 [deg]
#   9 THETA_WORLD            Position angle (CCW/world-x)                               [deg]
#  10 FWHM_WORLD             FWHM assuming a gaussian core                              [deg]
#  11 ELONGATION             A_IMAGE/B_IMAGE                                           
#  12 ELLIPTICITY            1 - B_IMAGE/A_IMAGE                                       
         1 -14.8006     68.4654    144.3970   1.0499468224e+02   3.7390443963e+01      5.14153     2.580106  67.98  0.007307904    3.781    0.736
         2 -14.3435    214.4051     25.4135   4.0250461971e+01   2.8940578038e+01     1.197919    0.9225557  31.81  0.006824703    1.759    0.432
         3 -14.5436    201.9319     37.8450   4.4827968229e+01   3.0347340101e+01     2.167735     1.517478  31.00  0.008165807    1.954    0.488
         4 -11.0083      1.8734      3.3525   9.2565706415e+01   7.4027546066e+01    0.4310511   0.09760741 -45.73  0.001878312    3.375    0.704
         5 -11.0648     57.9725      6.6986   6.5817104970e+01   6.6685916385e+01    0.2075176    0.1942524 -30.07 0.0007131092    1.494    0.331
         6 -12.5607    239.2458      2.8158   3.2994106154e+01   2.5899839747e+01    0.7182859    0.2956208  76.78  0.003546948    2.295    0.564
         7 -11.9223    194.8195    197.1237   8.4234463356e+01   4.0626430911e+00     1.196632    0.7649127 -70.95  0.004421753    4.318    0.768
         8 -10.7381    139.9826    249.5205   1.0356166779e+02   4.2977435349e+00    0.2117515     0.172584  83.90  0.001380711    1.603    0.376
         9 -14.4525     86.9025    224.1191   1.1130735897e+02   1.6771436005e+01     2.098669     1.119445  53.87 0.0004870202    1.739    0.425
        10 -15.9243      6.7757    169.7707   1.2362872767e+02   3.7704362675e+01      6.17054     1.439959 -73.92   0.02431664    3.278    0.695
        11 -13.4129     27.7255    214.8512   1.2243760567e+02   2.5984483861e+01    0.9744428    0.4027982  78.01  0.002930097    2.756    0.637
        12 -14.9693     41.5577    201.6746   1.1862507882e+02   2.7269040645e+01     2.175915     1.062813  73.72  0.006288589    2.272    0.560
        13 -14.8180     50.8191    192.3569   1.1574608764e+02   2.8248767989e+01      2.16566     1.246668  75.92   0.01120627    1.839    0.456
        14 -15.4278      9.5045    207.8609   1.2551861280e+02   2.9196874664e+01     2.262274     1.172002 -49.84   0.00372968    2.809    0.644
        15 -10.2143    111.7558    197.8735   1.0256209649e+02   1.8367888617e+01    0.2719932    0.1591677  59.76  0.001170972    2.003    0.501
        16  -9.3283     82.0153    194.5084   1.0891977214e+02   2.3668505333e+01    0.2028227    0.1220036  39.64  0.000906947    1.581    0.367
        17  -9.2952     91.6982    183.9056   1.0520649397e+02   2.4608933100e+01    0.1925988    0.1699038 -78.39 0.0009706218    1.115    0.103
        18 -10.9630    144.8833    180.3095   9.1947795815e+01   1.6318952726e+01    0.3331371    0.2895022  48.76  0.001296193    1.142    0.124
        19 -12.3472     66.5163    176.5436   1.1027372152e+02   2.9903771713e+01     0.502566    0.2893428 -48.41  0.001613832    1.964    0.491
        20 -12.1833     71.1498    171.3139   1.0843038413e+02   3.0512041365e+01     0.325955    0.2756287 -48.92 0.0008529578    1.310    0.237
        21  -9.7537    150.1529    178.5921   9.0403803207e+01   1.5699858160e+01    0.2421588    0.1987552 -64.74 0.0007040999    1.413    0.292
        22  -9.6788    204.0824    176.5907   7.8328749149e+01   6.0042560277e+00    0.2511033    0.1890541 -43.54  0.001326906    1.432    0.302
        23  -9.5533    197.2035    176.0688   7.9613577702e+01   7.3570821748e+00    0.2249517    0.1728847 -67.48  0.001100726    1.970    0.492
        24 -10.0467     99.3968    180.6866   1.0286738419e+02   2.4137121352e+01    0.2403384    0.2315199  55.87 0.0006385748    1.081    0.075
        25  -9.3011    188.5091    174.9819   8.1194991036e+01   9.1763971739e+00    0.2133998    0.1391958 -40.79 0.0007083736    1.555    0.357
        26 -12.9114     87.2168    155.0867   1.0173952976e+02   3.2068775055e+01      1.82118    0.8885152 -63.19  0.002297797    2.078    0.519
        27 -12.4634     80.2515    161.9416   1.0471548487e+02   3.1462163821e+01    0.6218143    0.4165335  65.22 0.0003915194    1.692    0.409
        28 -13.6945     67.8096    157.6397   1.0729579554e+02   3.4241142346e+01     0.571007    0.4976758 -50.02  0.001266873    1.224    0.183
        29 -13.9009     58.4352    242.5922   1.1858805321e+02   1.7018997088e+01    0.4865369     0.348907  67.83  0.002049389    1.158    0.136
        30 -10.8663    134.1361    146.8298   8.7776101335e+01   2.5720718460e+01    0.7710134    0.2160547 -52.84  0.002096801    4.199    0.762
        31 -10.9401    133.0000    140.9875   8.6760156320e+01   2.7275020340e+01     0.602784    0.2109142 -52.79  0.001865888    3.174    0.685
        32 -11.9011     54.3602    146.7929   1.0926297297e+02   3.8586129750e+01    0.8418174    0.2882717 -61.73   0.00326425    2.487    0.598
        33 -10.3081     49.2021    145.1706   1.1043258744e+02   3.9579809209e+01    0.3172778    0.1038776  25.25  0.001112569    3.937    0.746
        34 -10.6685    174.2645    148.6734   7.8598943375e+01   1.7156569899e+01    0.3546188    0.2900379 -73.26  0.001441466    1.592    0.372
        35 -11.3894     29.6233    144.1166   1.1558669018e+02   4.1826207218e+01    0.4316798    0.2386802  27.06  0.002248987    2.109    0.526
        36 -10.9064    101.7411    140.0644   9.4912191502e+01   3.3327547923e+01    0.5994227    0.3619071 -23.39  0.002228125    2.847    0.649
        37 -12.3528     88.7038    140.1797   9.8562587097e+01   3.5458847452e+01    0.2955366    0.2516409 -48.46   0.00040074    1.162    0.139
        38 -10.8072     81.3863    141.3286   1.0083601623e+02   3.6306196101e+01    0.3033859    0.2265841  67.13  0.000575433    1.532    0.347
        39  -9.3508     33.0654    138.5175   1.1394393175e+02   4.2869355657e+01    0.1749881    0.1261279  35.93  0.001010007    1.556    0.357
        40 -11.1827     26.0164    137.5200   1.1575397808e+02   4.3742337312e+01    0.3335418    0.1908758  44.53  0.001259741    1.893    0.472
        41 -11.0618    138.9127    170.6334   9.1517001649e+01   1.9494791304e+01    0.4333138    0.2417606  48.06  0.001488809    1.837    0.456
        42 -10.2025    110.8146    130.6747   9.0335449592e+01   3.3948111526e+01    0.3425287    0.2632489   3.24  0.001021703    1.716    0.417
        43 -10.4894    105.8971    130.6619   9.1706802906e+01   3.4848597898e+01    0.3592671    0.3159891  87.40  0.001222177    1.265    0.210
        44 -11.3202    135.6635    127.6328   8.2914481454e+01   2.9764064949e+01    0.8571201    0.1570428 -47.44  0.001955367    5.527    0.819
        45 -11.3053     44.8824    129.1203   1.0920123115e+02   4.3999045326e+01    0.3128911    0.2453081  18.49  0.001799081    1.537    0.349
        46 -10.2263    160.3539    127.2608   7.6696831319e+01   2.4581498330e+01    0.4014909    0.2663528 -76.89  0.001478344    2.724    0.633
        47 -10.3970     34.6494    171.6382   1.1736878866e+02   3.4781146907e+01    0.2443081    0.1845279  73.65 0.0007779968    1.200    0.167
        48 -10.8210     98.2018    126.6195   9.2981194605e+01   3.7174021656e+01    0.3061238     0.250041 -10.44 0.0006093527    1.494    0.331
        49  -9.7567    116.8740    124.6932   8.7240293882e+01   3.4206841392e+01    0.2437789    0.1939959  11.40  0.001145225    1.522    0.343
        50  -9.9322     89.5274    122.6020   9.4608617942e+01   3.9600906613e+01     0.533695    0.2832093  65.88  0.001629506    4.316    0.768
        51  -9.9395    107.4806    119.2144   8.8553737020e+01   3.7269244690e+01    0.2356511    0.2078393  32.55 0.0003394298    1.180    0.152
        52 -14.1939     24.9856    225.7396   1.2365503047e+02   2.4076863025e+01     1.348653    0.4289608  55.04  0.006387975    2.709    0.631
        53 -10.5321    135.1256    112.8178   7.9272202548e+01   3.3174013778e+01    0.4000027     0.100617 -42.82  0.001052492    4.002    0.750
        54  -9.6816    168.0879    113.0318   7.1273431320e+01   2.5815130373e+01    0.2549977    0.1968041 -78.95   0.00113069    1.768    0.434
        55 -10.2047    205.4249    110.2049   6.2923500049e+01   1.7975015976e+01    0.3027683    0.2438796  44.04 0.0009305707    1.317    0.241
        56  -9.9361    157.7757    160.3456   8.4947822061e+01   1.8064344370e+01    0.2810915    0.2358725 -83.01  0.001396977    1.527    0.345
        57  -9.9361    134.5534    104.7917   7.7252517986e+01   3.5038383120e+01    0.3893014    0.1515928 -45.28  0.001293812    2.550    0.608
        58  -9.8303    119.6886    103.6491   8.0997283841e+01   3.8431057829e+01    0.1625506     0.122365  -8.06 0.0007045247    1.721    0.419
        59 -11.6420    247.0948    101.8236   5.4212988941e+01   1.0755474168e+01    0.2646852    0.2214896 -60.72  0.001558788    1.268    0.211
        60 -16.6985      8.7800    240.8995   1.2731405154e+02   2.2798529058e+01     5.796007     2.290836  25.88   0.02855032    3.901    0.744
        61  -9.9197     41.5140     98.5113   1.0463381575e+02   5.1790992144e+01      0.22999    0.1104332  39.92   0.00102971    2.424    0.588
        62 -13.3151      9.6965    188.0901   1.2427201113e+02   3.3385219580e+01    0.3987505    0.3377184  52.65  0.001692796    1.290    0.225
        63  -8.8280    164.6923     97.3205   6.7813440030e+01   2.9722419221e+01     0.158115    0.1238325 -75.81 0.0003626541    1.640    0.390
        64  -9.9484    127.7227     94.8462   7.6275745311e+01   3.8628946064e+01    0.2939346    0.2046371  71.77 0.0009024671    2.106    0.525
        65 -10.3895     53.0591     90.9712   9.8913077557e+01   5.2309287989e+01    0.2997836    0.1759819 -48.79  0.001466526    1.474    0.321
        66 -10.3193     41.6058     91.8054   1.0314543251e+02   5.3365593659e+01    0.2192364    0.2108504  73.78 0.0004003563    1.215    0.177
        67  -9.2314    156.8994     88.9137   6.7216698149e+01   3.3174666075e+01    0.2481729    0.1912234 -76.77  0.001113217    1.710    0.415
        68  -9.3329     74.8956     85.0748   8.9716275041e+01   5.0682103217e+01    0.2016952    0.1908741 -88.25 0.0003840771    1.256    0.204
        69  -9.0463    115.3488     84.6747   7.6729378614e+01   4.3368125362e+01    0.1550483    0.1244162 -87.78 0.0007049215    1.752    0.429
        70  -9.9640    158.8200     81.8252   6.4731211773e+01   3.4044471800e+01    0.2138563    0.1851852 -78.30 0.0005080918    1.327    0.247
        71  -9.4371     69.5392     81.5086   9.0549514864e+01   5.2272116182e+01    0.2094193    0.1318542  44.84 0.0005270077    1.866    0.464
        72 -10.7537    243.1644     78.0924   4.9340576352e+01   1.5285178051e+01    0.2039992     0.181357 -19.69  0.001237741    1.238    0.192
        73  -8.9007    184.4916     77.4308   5.8241275599e+01   2.8638072595e+01    0.1470723    0.1440586  15.68 0.0002265649    1.077    0.072
        74 -10.6927     13.4825     59.7823   1.0639887563e+02   6.2822244663e+01    0.2314398    0.1891758 -58.80 0.0004054017    1.185    0.156
        75  -8.7129     71.5021     58.4628   8.2454271217e+01   5.6702095325e+01    0.1386427    0.1244569 -14.63 0.0001003903    1.039    0.037
        76  -9.9079    172.4981    239.7576   9.5855479256e+01   8.0111331110e-01    0.3217643    0.1270094 -48.73  0.001422393    3.213    0.689
        77 -12.6238    192.9999     44.2756   4.7749455399e+01   3.1653191223e+01    0.6982324    0.5565568  38.66  0.001054975    1.448    0.310
        78 -15.9408     44.1913    249.6183   1.2166409544e+02   1.7443772849e+01     9.452547     2.708988  27.68   0.01964714   17.467    0.943
        79 -10.4880    143.8633     40.9578   5.5312363654e+01   4.4257148501e+01    0.2433733    0.2319022 -75.20 0.0003124735    1.124    0.110
        80  -9.7980     12.8204     52.8152   1.0488049807e+02   6.4330858526e+01    0.1471625    0.1390495 -67.89  0.001063075    1.321    0.243
        81 -11.3297      2.3045     24.8121   1.0132515253e+02   7.0401625921e+01    0.2543609    0.2086785 -50.94  0.001000433    1.339    0.253
        82 -11.2337    140.7210     46.2229   5.7716184152e+01   4.4289539340e+01    0.3596756     0.274899 -84.70 0.0007787956    1.696    0.410
        83 -11.2263    205.0055    199.8122   8.2699152754e+01   1.8750224911e+00    0.3039745    0.1776102  22.76  0.001461076    1.812    0.448
        84  -9.5035    151.8118    196.8158   9.3341238009e+01   1.1723055191e+01    0.1929528    0.1681329  74.74  0.001080373    1.377    0.274
