#   1 NUMBER                 Running object number                                     
#   2 MAG_AUTO               Kron-like elliptical aperture magnitude                    [mag]
#   3 X_IMAGE                Object position along x                                    [pixel]
#   4 Y_IMAGE                Object position along y                                    [pixel]
#   5 X_WORLD                Barycenter position along world x axis                     [deg]
#   6 Y_WORLD                Barycenter position along world y axis                     [deg]
#   7 A_WORLD                Profile RMS along major axis (world units)                 [deg]
#   8 B_WORLD                Profile RMS along minor axis (world units)                 [deg]
#   9 THETA_WORLD            Position angle (CCW/world-x)                               [deg]
#  10 FWHM_WORLD             FWHM assuming a gaussian core                              [deg]
#  11 ELONGATION             A_IMAGE/B_IMAGE                                           
#  12 ELLIPTICITY            1 - B_IMAGE/A_IMAGE                                       
         1 -13.8031    185.9760     45.4953   4.7605085453e+01   3.2940935647e+01     1.238005    0.9290198  35.56  0.003935322    1.589    0.371
         2 -13.7354    209.4159     15.3033   3.6915341154e+01   3.0949384116e+01    0.8736776    0.7959446 -76.77  0.003906926    1.104    0.094
         3  -9.6152     60.4822     20.9762   7.0616362348e+01   6.4642068028e+01    0.1809795    0.1158371 -25.87 0.0004031814    1.519    0.342
         4 -13.7216    246.4472    240.1095   8.0250339665e+01  -1.0333986107e+01     1.556792    0.6334212 -29.37   0.00800349    2.431    0.589
         5 -17.1787     39.8822    230.4578   1.2028463635e+02   2.1504760186e+01     8.738092     7.758821  56.31   0.05934988    1.259    0.206
         6 -12.8867     11.2478    206.1487   1.2432611614e+02   2.9416231183e+01    0.4579744    0.2364655  37.31  0.002744629    1.885    0.470
         7 -10.7477     57.2400    200.7411   1.1418165137e+02   2.5624949428e+01    0.1576354    0.1432408 -36.01  0.000484706    1.459    0.315
         8 -10.4823    192.7025    194.4438   8.2402669241e+01   4.6092792450e+00    0.7087306    0.3622516 -61.96  0.001926863    7.090    0.859
         9  -9.6951     82.2264    194.5178   1.0772483862e+02   2.3618784786e+01    0.3644328    0.1741292  51.49  0.001595406    2.090    0.522
        10 -12.6642     62.3024    236.9799   1.1641180614e+02   1.7515812010e+01    0.2342041    0.1699017  82.41 0.0009581316    1.306    0.234
        11 -10.9329     64.0596    189.9338   1.1145007062e+02   2.7168917333e+01    0.3210775    0.2096899 -42.75  0.001360414    1.992    0.498
        12 -10.8789    161.1664    225.6657   9.4461563909e+01   4.6061337376e+00    0.2647759    0.2137095  79.61  0.001499667    1.825    0.452
        13 -12.9068    147.3538    185.2155   9.0724271577e+01   1.4681068134e+01    0.5734577    0.4270812 -78.75  0.002731981    1.911    0.477
        14 -10.9351     15.4524    187.3325   1.2224627023e+02   3.3096583862e+01    0.1391125   0.09701117 -84.15 0.0002615688    1.203    0.169
        15  -9.7343     82.8201    186.0391   1.0646175525e+02   2.5447665338e+01    0.2082484    0.1616163  74.41 0.0005333631    1.300    0.231
        16 -10.1726    184.6161    181.7233   8.1638872747e+01   8.3861138551e+00    0.3725623    0.2359397 -57.90  0.001364573    2.227    0.551
        17  -9.5687    180.5019    175.9636   8.1372285150e+01   1.0257435564e+01    0.2137756    0.1436343 -42.74  0.001015204    1.552    0.356
        18 -12.2357    137.5103    173.3739   9.0857320495e+01   1.9039430273e+01     0.391473    0.2980776 -47.90  0.001951774    1.379    0.275
        19 -10.9561    147.7289    174.0153   8.8508987115e+01   1.6960554481e+01    0.2542697    0.2450253  77.81 0.0003627653    1.137    0.120
        20 -11.0452    145.5054    170.5286   8.8356591075e+01   1.8133976815e+01    0.2820486    0.2469236  76.44  0.001301034    1.342    0.255
        21  -9.6688    167.0862    223.8326   9.2931354312e+01   3.9354508497e+00    0.1933621    0.1681445  45.97 0.0005184063    1.236    0.191
        22  -9.5980    185.5437    171.0227   7.9253901727e+01   1.0238947633e+01    0.2211434    0.1424344 -41.13 0.0004646421    1.586    0.369
        23 -10.8073    118.7130    168.5776   9.4646165455e+01   2.3583838820e+01    0.2742026    0.2322749  89.62 0.0008338582    1.333    0.250
        24 -10.0332    191.6850    168.1749   7.7338661544e+01   9.5962447031e+00      0.28513    0.2043859  62.44  0.001314914    1.967    0.492
        25  -9.9396      3.4034    162.1468   1.2313849097e+02   3.9760392788e+01    0.1643475    0.1465558 -76.85 0.0006098464    1.206    0.171
        26 -12.5134     75.5593    247.3698   1.1469999351e+02   1.3837246550e+01    0.3587108    0.1508238 -59.68  0.001830078    2.710    0.631
        27 -10.9420     93.3012    154.3806   9.8729916946e+01   3.1313921004e+01     0.263554    0.2526493 -41.29 0.0003132899    1.111    0.100
        28 -12.2519     98.5241    148.5591   9.6193430983e+01   3.1855492537e+01    0.6455444    0.4535586 -27.67  0.002921413    1.851    0.460
        29 -11.4531    133.6714    145.4105   8.6044992756e+01   2.6058582406e+01     1.272922    0.3135525 -54.46  0.002742775    6.725    0.851
        30 -10.0312    113.0429    151.1884   9.2753344877e+01   2.8668490301e+01    0.2985596    0.2043722 -89.22  0.001233023    2.176    0.540
        31  -9.7279    174.7911    148.8182   7.6792733418e+01   1.6812342931e+01    0.2091066    0.1875756 -79.37 0.0009687725    1.365    0.268
        32 -10.2348    108.8124    147.0361   9.3052601799e+01   3.0422885930e+01    0.2274374    0.1987309  81.69 0.0004263358    1.255    0.203
        33 -12.2916     97.4964    135.6765   9.3852925450e+01   3.5154448724e+01    0.5577189    0.3922856 -50.63  0.001557798    1.387    0.279
        34 -11.1585    109.1479    135.6065   9.0511997553e+01   3.3093473887e+01    0.4561818    0.2935594 -30.04  0.001892771    1.983    0.496
        35 -10.8614    105.7788    130.6817   9.0364055359e+01   3.4889352566e+01    0.3941419    0.3362705 -63.75  0.001140362    1.207    0.171
        36  -9.5440     83.3242    130.3029   9.6882909164e+01   3.8793035393e+01    0.1503064    0.1132822 -22.97 0.0007030668    1.638    0.389
        37 -19.0562     24.0545     99.0677   1.0990481448e+02   5.3312013102e+01     15.74172    0.9174241 -66.24   0.02703942   13.955    0.928
        38  -9.8874    115.7019    127.7033   8.6838463212e+01   3.3724477378e+01    0.2699568    0.2354411  -7.51  0.000749601    1.290    0.225
        39 -10.3250    235.6633    122.8958   5.8922000940e+01   9.1897958195e+00    0.3959167    0.2090905 -52.66  0.001107319    2.323    0.569
        40 -10.3908    103.6719    122.9993   8.9189431524e+01   3.7107752033e+01    0.2691847    0.2222507  17.30 0.0006774448    1.350    0.259
        41  -9.2707    110.7989    117.2191   8.5679652020e+01   3.7126170881e+01    0.2052917    0.1775801  -3.85 0.0002913643    1.296    0.229
        42 -10.3687    167.8042    116.1453   7.0456362010e+01   2.5065648423e+01    0.2438306    0.2141903 -73.90  0.001101729    1.319    0.242
        43 -10.1081    205.5341    110.3091   6.1175229664e+01   1.7662802902e+01    0.2501905    0.2408816  74.82 0.0006027246    1.119    0.106
        44 -10.6940    118.6691    110.5211   8.1663766081e+01   3.7094848450e+01    0.3857667    0.2963926  70.91  0.001298911    1.696    0.410
        45 -10.0314     10.7092    216.3856   1.2500317299e+02   2.7355202066e+01    0.1256327    0.1017048  36.05 0.0009193136    1.487    0.327
        46 -12.2245     65.6770    205.7406   1.1281517769e+02   2.3448181546e+01     0.390287    0.1993386 -83.23  0.001796643    2.285    0.562
        47 -13.0024    170.7454     58.8624   5.3972213428e+01   3.4795382307e+01    0.5916117    0.5598344 -62.03 0.0007976281    1.071    0.066
        48 -11.1696     68.0183    245.2375   1.1597588831e+02   1.5225240381e+01    0.1720542    0.1222204  67.22 0.0005950769    1.230    0.187
        49 -12.4551    191.5411     38.6691   4.4945154588e+01   3.2477755298e+01    0.5733807    0.4400774  45.34   0.00147575    1.436    0.304
        50 -10.1333     67.4219    239.6733   1.1563085046e+02   1.6340788343e+01    0.1482224    0.1025238  85.89 0.0008380056    1.451    0.311
