#   1 NUMBER                 Running object number                                     
#   2 MAG_AUTO               Kron-like elliptical aperture magnitude                    [mag]
#   3 X_IMAGE                Object position along x                                    [pixel]
#   4 Y_IMAGE                Object position along y                                    [pixel]
#   5 X_WORLD                Barycenter position along world x axis                     [deg]
#   6 Y_WORLD                Barycenter position along world y axis                     [deg]
#   7 A_WORLD                Profile RMS along major axis (world units)                 [deg]
#   8 B_WORLD                Profile RMS along minor axis (world units)                 [deg]
#   9 THETA_WORLD            Position angle (CCW/world-x)                               [deg]
#  10 FWHM_WORLD             FWHM assuming a gaussian core                              [deg]
#  11 ELONGATION             A_IMAGE/B_IMAGE                                           
#  12 ELLIPTICITY            1 - B_IMAGE/A_IMAGE                                       
         1 -10.2432    212.1243     30.1744   5.8576306634e+01   2.7654844382e+01     0.614118    0.4258864  37.26 0.0007687289    1.505    0.336
         2 -12.2464    222.9242     39.1692   5.9821035649e+01   2.3925838398e+01     1.814709    0.9003945 -37.47  0.007663378    1.962    0.490
         3 -10.5981    244.3130     18.6800   5.1827512302e+01   2.0770646079e+01    0.7206458    0.3937492 -39.96  0.002551931    1.733    0.423
         4 -11.6232    239.9117      3.9261   4.8289881732e+01   2.3165329315e+01     1.061216    0.6080814  60.14   0.00473338    1.734    0.423
         5  -8.7142    249.5536      3.3162   4.7373283817e+01   2.0910589811e+01    0.2866078    0.1757851 -52.88 0.0007569886    1.641    0.391
         6 -10.0972    224.4674     16.2766   5.3110771155e+01   2.5891659048e+01    0.7479916    0.4640832 -67.38  0.003444802    1.955    0.488
         7 -10.5442    119.2756     10.1187   6.7204371284e+01   5.3812832238e+01    0.6823419    0.4256035  34.99  0.002853761    1.562    0.360
         8  -8.2517    249.2538     11.7877   4.9583134027e+01   2.0235291363e+01    0.2880373    0.1548503  31.86  0.001268793    2.418    0.586
         9  -9.3405    143.5850     10.1770   6.2254098507e+01   4.7778643792e+01    0.2809027    0.1791262  28.10 0.0006554776    1.634    0.388
        10  -9.1076    211.3358      2.9319   5.0572811969e+01   3.0459000188e+01    0.5272933    0.2086898 -45.85  0.001464942    2.748    0.636
        11  -9.8557    183.5823      6.0200   5.4642238698e+01   3.7558389853e+01    0.4809681    0.4222883  51.85  0.002125744    1.079    0.073
        12  -9.2346    183.7319      1.5914   5.3161898181e+01   3.7889583171e+01    0.4768656    0.1758466  66.75  0.001761657    2.447    0.591
        13  -9.6973    173.6787      2.9453   5.4887720010e+01   4.0476864959e+01    0.6382576    0.2719478  54.07  0.002219464    2.063    0.515
        14 -10.2877     34.2850    187.6313   1.2932866353e+02   3.4090264954e+01    0.3276829    0.2403326 -53.37  0.001256381    1.917    0.478
        15 -11.9310     43.2742    181.7717   1.2727863856e+02   3.4180743704e+01    0.8047296    0.6260309 -69.53   0.00636655    1.432    0.302
        16  -7.9231    192.6618    194.3405   1.0125809426e+02   9.8763237428e+00    0.1145169   0.09105165  69.64 0.0007050358    1.764    0.433
        17  -9.1798    247.6844    163.5872   8.6565098766e+01   3.6150075968e+00    0.2861876    0.1957112  41.17 0.0009406003    1.370    0.270
        18  -9.2073    103.8418    160.8565   1.1300995285e+02   3.0133490698e+01    0.2015419    0.1723738 -82.72 0.0002403946    1.181    0.153
        19  -9.2198    248.3298    158.7189   8.5498075230e+01   4.0198321117e+00    0.2284896     0.186882  18.30  0.000267364    1.057    0.054
        20  -8.4773    169.9185    156.9179   9.8947235667e+01   1.9209174076e+01    0.1939474    0.1703579  36.19 0.0003688551    1.008    0.008
        21  -9.2205    248.3045    153.6732   8.4481454432e+01   4.5714915167e+00     0.238975    0.1903074  13.06 0.0004114279    1.030    0.029
        22 -10.1858    216.4550    151.9655   8.9390165974e+01   1.0811872759e+01    0.2353971    0.2113533  22.53  0.000319212    1.113    0.102
        23 -10.5031    241.3546    142.5039   8.3249358657e+01   7.1337736203e+00     0.369375    0.2045529  40.30  0.001885124    1.619    0.382
        24  -8.7181    102.2643    145.9230   1.1107762608e+02   3.3154560245e+01    0.1946464    0.1629993  53.26 0.0003948021    1.118    0.106
        25  -9.3420     66.9231    144.0640   1.1864632271e+02   3.8511187235e+01    0.3459966    0.2383409  70.97  0.001817634    1.437    0.304
        26 -11.8008    244.5778    126.6796   7.9262984723e+01   8.3650599792e+00     1.217324     0.507944 -38.15   0.00506494    2.727    0.633
        27  -8.3738    221.5958    134.3045   8.4733565671e+01   1.2063770905e+01    0.3259371    0.1864969 -34.85  0.001240049    1.867    0.464
        28  -8.8847    235.5350    134.0254   8.2345579857e+01   9.2828870593e+00    0.2479075    0.1855781  45.46  0.001403948    1.345    0.256
        29  -8.2271    163.8942    133.9275   9.5534751017e+01   2.4084940359e+01    0.2011212    0.1724558  24.61            0    1.163    0.140
        30  -8.6483    196.5205    129.4949   8.8142261685e+01   1.7965094390e+01    0.1418222     0.126038  23.42 0.0008103126    1.005    0.005
        31  -7.4656    168.3008    129.3766   9.3640310549e+01   2.3931765958e+01    0.1463639     0.106322   9.45 0.0007026945    1.760    0.432
        32  -9.0508    185.7735    122.0065   8.8468264066e+01   2.1398986142e+01    0.3830427    0.1531497  40.62  0.001421078    2.509    0.601
        33 -11.6356    243.5854    105.7527   7.4530268443e+01   1.1088150377e+01     1.014058    0.3474306 -34.88  0.003829565    2.844    0.648
        34  -7.9473      7.4873    115.5507   1.2924128254e+02   5.0082679303e+01    0.1077477   0.08145399  88.29 9.525679e-05    1.058    0.055
        35  -8.7400    167.7173    113.7195   9.0130011255e+01   2.6659235808e+01    0.2911913    0.2164009 -81.84  0.001338672    2.124    0.529
        36  -9.0806    190.6824    109.9540   8.4609266855e+01   2.2173805307e+01     0.254456    0.1823195  37.59 0.0005583591    1.329    0.248
        37 -10.1421    187.5571    103.3299   8.3536890196e+01   2.3900541169e+01    0.3994069    0.2679889 -39.70  0.001901479    1.581    0.368
        38  -9.9308    242.3484     88.4476   7.0443100956e+01   1.3466509572e+01    0.2787143    0.1632881 -27.60  0.001023898    1.602    0.376
        39  -8.7767    176.0003     87.7993   8.1672524666e+01   2.9027638383e+01    0.2288515    0.2068805 -22.93 0.0002750734    1.115    0.103
        40  -8.0129    138.5069     88.1428   8.9999615936e+01   3.7494419087e+01    0.2020441    0.1429081 -37.09 -0.000254678    1.421    0.296
        41  -9.2441    163.8609     84.9838   8.3396365421e+01   3.2337976752e+01    0.4528262    0.2985837 -63.39  0.001878327    2.294    0.564
        42  -8.4928    249.5623     85.0240   6.8562909315e+01   1.2301350915e+01    0.2142726    0.1253332 -22.65  0.000374137    1.586    0.369
        43  -8.2237    144.7394     84.6891   8.7565787661e+01   3.6751711098e+01    0.2541671    0.2371523 -72.70 0.0008343476    1.210    0.173
        44  -9.8910    232.0804     78.7187   6.9438343038e+01   1.6985088906e+01    0.3182197    0.2588516  40.48 0.0005603961    1.213    0.175
        45 -10.5991    236.6690     74.6748   6.7711159583e+01   1.6427605260e+01    0.5329463      0.39155  55.47  0.002053167    1.428    0.300
        46  -8.2343    163.4679     78.4981   8.1611808944e+01   3.3493310782e+01    0.1502597     0.143706  14.02 2.270503e-05    1.011    0.011
        47  -9.8884    160.4429     75.7028   8.1432744849e+01   3.4665882584e+01    0.4033556      0.29984  -5.43  0.001268847    1.563    0.360
        48 -10.9936    179.0369     74.3899   7.7241953788e+01   3.0378533711e+01    0.8919854    0.7206995  60.43  0.003332015    1.313    0.238
        49 -10.1239    167.2890     73.8093   7.9425769137e+01   3.3328758246e+01    0.5803102    0.3550488  59.81  0.002392416    1.771    0.435
        50  -8.4562    147.2217     76.5081   8.4609649800e+01   3.7614790379e+01    0.2702245    0.2026834 -34.14 0.0006943091    1.332    0.249
        51  -8.4105    118.2098     70.7788   9.0010368423e+01   4.4933682863e+01    0.2536137    0.2089658  77.37  0.001035799    1.543    0.352
        52 -10.1700    234.4983     30.6255   5.6055057896e+01   2.1968278633e+01    0.4813224    0.2670243  38.55  0.001242009    2.026    0.506
        53 -12.1387    234.4394     65.2161   6.5511214762e+01   1.8093070392e+01     1.845979    0.4769373 -32.26  0.006029359    3.268    0.694
        54  -7.5877    103.4874    248.5273   1.2241459369e+02   1.6675757760e+01   0.09948833   0.07081131  52.84 0.0001870503    1.030    0.029
        55 -11.9772    242.5539    241.2917   1.0028782967e+02  -2.7124878105e+00    0.2159082    0.1550693  33.55 0.0003648019    1.187    0.158
        56  -8.8811    187.1661     67.2251   7.3595105852e+01   2.9420668831e+01    0.2519998    0.2381098 -23.89 0.0003143707    1.089    0.082
        57  -9.6356    163.5231     63.0748   7.6920174135e+01   3.5914547437e+01    0.3707723    0.2731219 -11.44  0.001262882    1.477    0.323
        58  -8.3058    209.4973     63.1342   6.8608674878e+01   2.4399995148e+01    0.4273938    0.1928114 -53.07  0.001336674    3.849    0.740
        59 -10.0847    175.2532     61.0107   7.3938495253e+01   3.3301695654e+01    0.4077577    0.2526693  54.41  0.001197697    1.587    0.370
        60  -9.4642    183.5005     58.4993   7.1625839958e+01   3.1573805817e+01    0.3863018    0.2612782  -7.41  0.001261469    1.678    0.404
        61 -11.0893    180.1721     55.8021   7.1396195726e+01   3.2794254551e+01    0.6297245    0.4105501  -6.05  0.002178063    1.807    0.447
        62  -9.4937    198.0837     58.6120   6.9134346006e+01   2.7856688210e+01    0.3208124    0.2639661  43.49 0.0008342892    1.184    0.156
        63  -9.3809    203.6135     54.6252   6.7060163421e+01   2.6971982426e+01    0.4600412    0.2747856  37.71  0.001847112    1.768    0.434
        64  -7.7054    190.5526     51.7618   6.8321304859e+01   3.0679264732e+01    0.2087499     0.136573 -37.12 0.0005338036    1.554    0.356
        65  -7.8214    148.2906     51.7239   7.6476941767e+01   4.1368936317e+01    0.2133525    0.1658892  22.98 0.0001700327    1.362    0.266
        66  -8.2285    150.3077     49.6954   7.5349811248e+01   4.1177957871e+01    0.2180488    0.1722453  14.51 0.0004408041    1.358    0.264
        67 -10.3139    130.7464     48.4765   7.9427907488e+01   4.6024059440e+01    0.2645924    0.2433155  -8.22 0.0002351004    1.040    0.038
        68 -10.1614    151.0973     45.2509   7.3660208770e+01   4.1626211359e+01    0.4008065    0.3561776 -64.15  0.002106335    1.322    0.243
        69  -9.9996    225.8642     30.7703   5.7073837509e+01   2.4094324637e+01    0.4835224    0.3062283 -21.17  0.001594821    1.540    0.351
        70  -9.3028    142.1852     44.6225   7.5387172990e+01   4.3903703211e+01    0.2527115    0.1722188  18.87 0.0006912634    1.743    0.426
        71  -9.5722    184.0896     40.1261   6.5744209807e+01   3.3833383202e+01     0.332409    0.2738209   2.66 0.0005379106    1.255    0.203
        72  -9.9459    185.7191     35.9699   6.4144046607e+01   3.3907832557e+01    0.3404883    0.2699998  47.64 0.0005707476    1.216    0.178
        73  -9.4816    236.2680     38.9020   5.8128270770e+01   2.0664024888e+01    0.4050786    0.2382298  -3.02  0.001242319    2.000    0.500
        74  -9.5551    203.5677     38.2159   6.2147936909e+01   2.8977319996e+01    0.2921531    0.2492993   3.39 0.0005947864    1.193    0.162
        75  -7.4660    243.4607     40.5687   5.7758424360e+01   1.8762116131e+01     0.136702    0.1285187 -25.01 4.081455e-05    1.034    0.033
        76  -9.5482    249.5280     26.8554   5.3490434230e+01   1.8742575370e+01    0.4390175    0.1937694 -42.26  0.001859731    2.213    0.548
        77  -8.6684      7.4179    236.1567   1.3594403841e+02   2.8988761605e+01    0.1306818    0.1074917  73.89 0.0005375788    1.387    0.279
        78  -7.1145    120.3144    227.3276   1.1787981934e+02   1.7150148150e+01    0.0966832   0.07652799  23.34  0.000704385    1.671    0.402
        79  -8.2212      5.8914    222.4786   1.3568709686e+02   3.1127747068e+01    0.1222176   0.06693118  46.63 0.0004859905    1.515    0.340
        80  -9.2646    231.0661     24.7127   5.4789378007e+01   2.3415740054e+01    0.3966513    0.2867132 -56.72  0.001661651    1.507    0.336
        81  -7.8557    146.0543     26.7473   6.8076881616e+01   4.5334408889e+01    0.1928196    0.1258045  59.79 0.0008755681    1.538    0.350
        82  -8.1637    250.5570     21.2782   5.1936613280e+01   1.9044330252e+01    0.2503265    0.1130695 -28.12 0.0008627694    1.962    0.490
        83  -8.9618    128.5006     22.4948   7.0201485992e+01   5.0193794455e+01     0.306976    0.1369925  56.22  0.001209712    2.175    0.540
        84 -10.1850    155.0440    219.0685   1.1117689256e+02   1.3018526028e+01    0.1919471    0.1595558  42.74 0.0002867063    1.091    0.084
        85  -8.5658    202.2506     17.2601   5.5904766329e+01   3.1551361159e+01    0.3061001    0.1697793 -77.63  0.001183905    2.606    0.616
        86  -8.0157    190.1202     15.5891   5.6920851788e+01   3.4932707395e+01    0.2423092    0.1753695  -8.43  0.000834982    1.457    0.314
        87  -9.4554      1.7737    216.0823   1.3607136077e+02   3.2451218722e+01    0.3358346    0.1003152 -79.93  0.002073427    2.952    0.661
        88 -11.4271     31.6564    210.7383   1.3117450621e+02   3.0537143788e+01    0.5610927    0.4029109  70.97  0.002608896    1.037    0.036
        89  -7.8316    156.5649    204.4988   1.0904546283e+02   1.4679408302e+01    0.1167771   0.09343527  43.70 7.519108e-05    1.010    0.010
        90  -8.2684    195.4764    199.5084   1.0158921154e+02   8.7701243496e+00    0.1204952    0.0952853  35.62 7.451516e-06    1.034    0.033
        91 -10.9211     51.6059    191.4726   1.2651425047e+02   3.1591994881e+01    0.4634247    0.2961015  49.51  0.003385329    1.341    0.255
        92 -11.5802     25.6827    194.0625   1.3122842611e+02   3.3840609269e+01    0.5620599    0.3816524  67.98  0.003167312    1.095    0.087
