#   1 NUMBER                 Running object number                                     
#   2 MAG_AUTO               Kron-like elliptical aperture magnitude                    [mag]
#   3 X_IMAGE                Object position along x                                    [pixel]
#   4 Y_IMAGE                Object position along y                                    [pixel]
#   5 X_WORLD                Barycenter position along world x axis                     [deg]
#   6 Y_WORLD                Barycenter position along world y axis                     [deg]
#   7 A_WORLD                Profile RMS along major axis (world units)                 [deg]
#   8 B_WORLD                Profile RMS along minor axis (world units)                 [deg]
#   9 THETA_WORLD            Position angle (CCW/world-x)                               [deg]
#  10 FWHM_WORLD             FWHM assuming a gaussian core                              [deg]
#  11 ELONGATION             A_IMAGE/B_IMAGE                                           
#  12 ELLIPTICITY            1 - B_IMAGE/A_IMAGE                                       
         1 -14.1097    182.9049     23.4653   7.4048232753e+01   3.6054890422e+01     1.867777      1.21728  -9.24  0.005729157    1.737    0.424
         2 -14.3089    190.3796     16.5985   7.0941303231e+01   3.4847483647e+01     1.584939     1.438838   7.78  0.007032149    1.185    0.156
         3 -13.9025    196.0298      8.6842   6.7887134302e+01   3.4172076056e+01      1.58496     0.665854  49.95  0.001276166    2.506    0.601
         4 -11.0729     32.7561     12.0168   1.1340737743e+02   7.1384806423e+01    0.2630842   0.09131243 -50.05  0.001060649    2.762    0.638
         5 -11.6524    146.0429    240.3566   1.2838699814e+02   1.0318913702e+01     0.357785    0.1454988  45.81  0.001193484    2.050    0.512
         6 -12.3487    247.4202    248.8619   1.1305569873e+02  -3.8264682372e+00    0.4531758    0.2936537   0.36   0.00369035    1.364    0.267
         7 -11.2537    249.4149    242.1911   1.1186660118e+02  -3.5431626891e+00    0.1782649    0.1298977 -25.75  0.001455458    1.865    0.464
         8 -11.6833    245.4996    240.0000   1.1214504341e+02  -2.8902411838e+00    0.2770809    0.1057687  32.03  0.001665086    1.940    0.484
         9 -11.6263    143.8241    249.3318   1.2967593671e+02   9.5387460329e+00    0.3470586    0.2934586   2.88  0.002903724    1.468    0.319
        10 -11.3046    134.3333    249.1657   1.3127653712e+02   1.0810917992e+01    0.4018147    0.1716802  44.61  0.002085311    1.774    0.436
        11 -12.0680    141.2219    244.3719   1.2963138532e+02   1.0480189239e+01    0.4883879    0.1264076  39.84  0.002274053    2.723    0.633
        12 -11.9623    135.8226    241.1660   1.3025031908e+02   1.1602939513e+01    0.3358002    0.1693729  42.96  0.001560106    1.477    0.323
        13 -17.3498     25.2051    247.7231   1.4968751756e+02   2.3647850516e+01     4.715359     2.626174  25.31   0.03101914    2.258    0.557
        14 -12.5196    134.4310    229.9502   1.2935342115e+02   1.3248650192e+01    0.5414262    0.2909434  23.29  0.003006423    2.292    0.564
        15  -9.6114    225.3085    236.3681   1.1472402764e+02  -2.1093867650e-02     0.110697   0.06117574  13.10 0.0007036203    1.758    0.431
        16 -11.6342    155.7040    231.5684   1.2573208800e+02   1.0061806106e+01    0.2605403    0.2143753 -24.13 0.0005872736    1.558    0.358
        17 -10.8041    122.7781    231.2408   1.3159295565e+02   1.4674175134e+01    0.1923282    0.1485108  29.57  0.001317528    1.245    0.197
        18 -10.1543    150.1227    228.9496   1.2642358938e+02   1.1178596725e+01    0.1702862    0.1247588  47.10 0.0006625651    1.260    0.206
        19 -11.4560    142.5677    228.4533   1.2772375446e+02   1.2309285323e+01     0.291833    0.2004078 -77.27  0.001503047    2.494    0.599
        20 -11.9256    142.5950    221.4060   1.2692287357e+02   1.3246055561e+01    0.3309647     0.219338  38.45 0.0007418091    1.154    0.134
        21 -10.5218    140.0419    217.5157   1.2694339493e+02   1.4150119481e+01    0.2369078    0.1248579  53.07  0.001091536    2.026    0.506
        22 -10.0074    190.8484    228.0223   1.1921056103e+02   5.5018354554e+00    0.1536666    0.1220686  35.99 0.0003170459    1.250    0.200
        23 -10.9720    245.0133    226.7585   1.1034818733e+02  -1.7152067376e+00    0.1689763    0.1308991 -46.43  0.001189494    2.712    0.631
        24 -10.6103    164.3865    225.8346   1.2351651026e+02   9.5339964253e+00    0.2008686    0.1237777  35.83 0.0003238784    1.225    0.184
        25 -18.6921      2.6738    132.2564   1.4940186719e+02   4.6675859418e+01     16.59081     1.151098 -80.81   0.03359221   14.108    0.929
        26 -11.0431    132.7346    224.0890   1.2903697439e+02   1.4282461986e+01    0.2651738    0.1301492  27.15  0.001140034    2.273    0.560
        27  -9.8757    122.5635    223.5051   1.3085494889e+02   1.5786428626e+01    0.2001572   0.07559208  45.64  0.000635114    2.132    0.531
        28  -9.9009    163.7927    221.1694   1.2304284044e+02   1.0201426877e+01    0.1543906    0.1107338  21.58 0.0005680987    1.307    0.235
        29  -9.9653    126.1607    220.7226   1.2989324451e+02   1.5681610874e+01     0.223254    0.1340529  27.65  0.001128758    1.669    0.401
        30 -10.3218    177.1966    217.9623   1.2023825785e+02   8.6331463169e+00    0.1623037    0.1304134  72.90   0.00108265    2.060    0.515
        31 -10.9319    152.2965    242.8328   1.2756667899e+02   9.1701501874e+00    0.1839482    0.1485581  71.09  0.001417736    1.744    0.426
        32  -9.5122    133.9937    217.8035   1.2810648344e+02   1.4983376955e+01    0.1895405    0.1038929  54.69   0.00100164    1.973    0.493
        33  -9.6390    233.1408    216.1914   1.1061372055e+02   8.1910274710e-01    0.1628579    0.1109091  15.29  0.000506226    1.131    0.116
        34  -9.0364    128.6441    215.2970   1.2883140605e+02   1.6112541150e+01    0.1179127   0.07345484  56.86 0.0004253911    1.698    0.411
        35  -9.9941    151.2387    213.5927   1.2438222282e+02   1.3047130191e+01    0.2483259    0.1618944 -34.92  0.001144496    1.989    0.497
        36 -11.5676    101.8262    212.0701   1.3364363403e+02   2.0356835675e+01    0.4018044    0.2375946  48.69  0.001872791    1.369    0.269
        37 -10.2522    181.5731    213.5285   1.1885901082e+02   8.5244337793e+00    0.2472172   0.09042584  39.51  0.001205254    2.154    0.536
        38 -10.1500    141.2500    212.5985   1.2613101921e+02   1.4665499701e+01    0.2214728    0.1200966  39.70  0.000965358    1.440    0.306
        39  -9.9314    109.4959    210.4869   1.3199160134e+02   1.9552100828e+01    0.1390689    0.1096487 -44.66 0.0009678822    1.669    0.401
        40 -10.2686    107.4904    205.8481   1.3189820274e+02   2.0568366638e+01    0.2395493    0.1378286  70.31  0.001273473    2.455    0.593
        41  -9.4623     80.5337    210.0791   1.3761729583e+02   2.3469920834e+01    0.1407395     0.105185 -80.26 0.0004945663    1.510    0.338
        42  -9.8577    134.6155    208.2035   1.2686290219e+02   1.6284226404e+01    0.2652001    0.1736353 -12.57  0.001416159    2.815    0.645
        43 -11.1346    243.2613    207.6802   1.0772768582e+02   2.5270273509e-01    0.2907427    0.1172761  28.89  0.001525525    2.177    0.541
        44 -10.4968    165.3485    206.2792   1.2079536067e+02   1.1908310420e+01    0.3572823    0.1530669  51.00  0.001607468    2.870    0.652
        45 -10.5922    125.8627    205.2792   1.2821283948e+02   1.8017889122e+01    0.2015179    0.1803069 -67.70  0.001100296    1.383    0.277
        46 -10.7057    121.0305    204.9527   1.2912386031e+02   1.8775439198e+01    0.1839587    0.1608929 -61.51  0.001339264    1.411    0.291
        47 -10.4961    150.9713    238.7521   1.2735997848e+02   9.8401525143e+00    0.1980787    0.1231101  36.17 0.0005001888    1.182    0.154
        48  -9.3106     85.2979    206.0619   1.3632675524e+02   2.3529443307e+01    0.1656292    0.1160106 -21.54 0.0009416367    2.791    0.642
        49 -11.2985     93.4080    204.7391   1.3458681773e+02   2.2681006806e+01     0.319228    0.2940697  62.95  0.002104753    1.185    0.156
        50 -10.1322     89.0160    204.5182   1.3544320713e+02   2.3301856192e+01    0.2553094     0.131783  42.54 0.0006398482    1.524    0.344
        51  -9.1142    174.7143    205.3188   1.1893668498e+02   1.0597162942e+01    0.1070336   0.08587079  57.79 0.0001755881    1.591    0.371
        52  -9.2946    148.4850    205.4912   1.2386191156e+02   1.4595903219e+01    0.1196639   0.09521925  34.91 -1.789394e-05    1.021    0.020
        53 -10.9243    102.9343    203.2753   1.3253394365e+02   2.1622185327e+01    0.2359324    0.2065473  12.19  0.001172191    1.437    0.304
        54  -9.9588    166.8059    202.7774   1.2003437252e+02   1.2156454244e+01    0.1792026    0.1467469  35.64 0.0005236987    1.087    0.080
        55  -9.0615    169.5277    200.4492   1.1919329897e+02   1.2048394414e+01    0.1204796   0.09631086  33.02 0.0001186434    1.040    0.038
        56 -10.6823    196.8584    200.0436   1.1417878377e+02   7.8466155638e+00     0.319993    0.1914089  33.09  0.001394156    1.346    0.257
        57 -10.0302    122.5970    200.6535   1.2830697648e+02   1.9222193778e+01    0.2372898    0.1205711  40.73 0.0006808662    1.579    0.367
        58  -9.9041    250.6472    199.2005   1.0523650909e+02   5.1407901657e-02    0.1542372   0.08530948 -11.30  0.000953308    1.763    0.433
        59  -9.3932    158.9629    199.2804   1.2101808253e+02   1.3864475047e+01    0.1744637    0.1225544  35.29 0.0003902795    1.152    0.132
        60  -9.9092    141.3750    198.3137   1.2429090301e+02   1.6743962470e+01    0.2330506     0.167529   9.52  0.001322265    1.797    0.444
        61  -9.0351    130.7222    199.3039   1.2652392864e+02   1.8219419228e+01    0.1149344   0.08205905  61.10 0.0001681042    1.547    0.354
        62 -10.1751     62.5901    194.7620   1.3996208802e+02   2.8321753248e+01    0.3336649    0.1648156  69.18  0.001785535    2.274    0.560
        63 -10.4998     52.8904    197.5769   1.4215650167e+02   2.8934627639e+01    0.2545226     0.209652 -18.69  0.001789238    1.997    0.499
        64  -9.6627     58.4538    199.2560   1.4115208255e+02   2.8002064101e+01    0.2073159    0.1407525  78.11 0.0009435344    1.411    0.291
        65 -10.6202     56.9955    193.2553   1.4099966164e+02   2.9248718313e+01    0.3104478    0.1901835 -70.97  0.001951204    1.752    0.429
        66  -8.9522    210.6349    197.2267   1.1135044581e+02   6.0681552006e+00    0.1065988   0.08135834  46.87 0.0004665078    1.583    0.368
        67  -9.8612    172.9982    239.0587   1.2360916281e+02   6.7703141529e+00    0.1592375    0.1387191  12.63 0.0006858869    1.262    0.208
        68 -10.4375     79.0533    182.0154   1.3530605518e+02   2.8605495904e+01    0.2501452    0.1628127  45.38 0.0006749457    1.288    0.224
        69 -12.2282     77.5770    194.1497   1.3680593405e+02   2.6582659206e+01    0.4759227    0.3451207  29.57  0.002200844    1.478    0.324
        70 -12.1089     81.3946    187.3636   1.3534648152e+02   2.7309562811e+01    0.4613608    0.3026928  69.40  0.000767432    1.563    0.360
        71  -9.3765     67.7251    196.8638   1.3907743968e+02   2.7328713573e+01    0.2453198    0.1024794  36.24 0.0007926463    2.039    0.510
        72 -10.8777    113.5614    195.9381   1.2956777994e+02   2.1316718300e+01    0.2498681    0.1274717  47.97   0.00134252    1.691    0.409
        73  -8.8841    217.7796    194.9347   1.0977282090e+02   5.2442689997e+00    0.1285296   0.08767392 -19.56 0.0002763181    1.520    0.342
        74 -11.3766    160.0388    193.8052   1.2002394192e+02   1.4479399153e+01    0.2826549    0.2512871  38.41  0.000423964    1.139    0.122
        75  -9.1727    135.5295    195.0358   1.2501356686e+02   1.8151830097e+01    0.1472286    0.1221293 -51.17 0.0003837068    1.470    0.320
        76 -10.0610    179.1669    192.7983   1.1625120558e+02   1.1556789266e+01    0.1742983    0.1438462  37.37 0.0003438951    1.161    0.139
        77  -9.7471    102.5535    192.1711   1.3140033999e+02   2.3545342132e+01    0.3528544    0.1281961  52.02  0.001222399    2.997    0.666
        78 -10.8336    191.5833    191.2868   1.1373882638e+02   9.7682395918e+00    0.2345436    0.1947912  14.72 0.0006072418    1.083    0.076
        79  -9.7352    175.0345    190.9637   1.1673814958e+02   1.2472069051e+01    0.1855694    0.1500689  31.34   0.00039461    1.037    0.036
        80  -9.2370    197.8311    189.6577   1.1235435713e+02   8.9784239466e+00     0.161994   0.09634206  44.18  0.000344741    1.609    0.379
        81  -9.9171     53.9845    188.6296   1.4127430302e+02   3.0443782521e+01    0.1599952    0.1146395  49.10 0.0004633918    1.152    0.132
        82 -10.8973    250.3965    187.1098   1.0324341584e+02   1.2695089940e+00    0.2647014    0.1198256 -22.57  0.001462498    2.175    0.540
        83 -11.1366     89.3350    184.8249   1.3337873509e+02   2.6702376353e+01    0.3798243    0.2259085  61.28            0    1.717    0.417
        84  -9.7382    125.8930    186.9830   1.2590061210e+02   2.0946479983e+01    0.2451386    0.1386916  58.14  0.001244032    2.075    0.518
        85 -11.2779     67.9935    185.9990   1.3808079552e+02   2.9272976151e+01    0.2210122    0.1657312  40.53 0.0003892564    1.238    0.192
        86  -9.2423     59.7342    187.5938   1.3997814848e+02   2.9971687093e+01    0.1502341   0.08504982  47.75 0.0002919797    1.431    0.301
        87  -9.4417    200.8190    184.8295   1.1102097659e+02   9.1090764349e+00    0.1548387    0.1304026  37.66 0.0006379469    1.275    0.216
        88  -9.0352    137.7030    187.9666   1.2360980577e+02   1.8931717472e+01    0.1276846    0.1135999 -45.57 0.0004492998    1.346    0.257
        89 -10.1567    144.7806    180.8970   1.2113312101e+02   1.8926159111e+01    0.2525232    0.1501556  58.91  0.001257119    2.150    0.535
        90 -10.7488     47.1427    179.9904   1.4207833117e+02   3.2840282955e+01    0.2674378    0.1914446  10.46  0.001664228    2.116    0.527
        91  -9.8281    134.7745    180.5474   1.2315063446e+02   2.0613318185e+01    0.1833559    0.1021177  47.65  0.000652615    1.629    0.386
        92 -10.6327    129.1060    179.1989   1.2414588105e+02   2.1752312783e+01    0.2065777    0.1980681 -21.54 0.0002866492    1.224    0.183
        93  -9.6013     84.1235    177.8914   1.3375156238e+02   2.8701325765e+01    0.1822072     0.158187  55.12 0.0004795303    1.057    0.054
        94 -11.8319     88.9245    175.5378   1.3241681833e+02   2.8483381713e+01    0.2783402      0.25365  -0.37 0.0003421417    1.436    0.304
        95  -9.5872    210.1712    177.0641   1.0803295335e+02   8.5666187622e+00    0.1916853    0.1384455  12.46 0.0006788923    1.269    0.212
        96 -10.7333    181.6474    176.8636   1.1318879466e+02   1.3354693493e+01    0.3618315    0.1878352  31.39  0.001803783    1.819    0.450
        97 -11.2218    128.2040    229.7944   1.3046457028e+02   1.4130337875e+01    0.3534891    0.1800281  62.80  0.001745937    3.289    0.696
        98  -9.6757     95.8587    175.3000   1.3084485045e+02   2.7541573699e+01    0.2238676    0.1823016  37.60 0.0009766538    1.187    0.157
        99  -9.0955    144.6612    175.3069   1.2029604763e+02   1.9856943700e+01    0.1277005   0.09352051  64.29 0.0007042085    1.680    0.405
       100 -10.8581     75.5359    174.3796   1.3528449513e+02   3.0518628871e+01    0.2616059    0.2286286  59.81 0.0008882643    1.063    0.059
       101 -10.1685    177.3371    173.8069   1.1348837219e+02   1.4529808240e+01    0.2940645    0.1355643  52.69  0.001235193    2.807    0.644
       102  -9.1371     67.5807    174.0656   1.3704063755e+02   3.1597344993e+01    0.1646694    0.1096677 -78.19 0.0006519782    1.555    0.357
       103 -11.4121    249.0988    171.6885   1.0070427337e+02   3.0541990106e+00    0.3212175    0.2265589  40.79  0.002104248    1.559    0.358
       104  -9.1558    213.7937    170.8815   1.0629226603e+02   8.7453090230e+00    0.1497782    0.1356157  28.41 0.0003334332    1.284    0.221
       105 -12.7044     94.6721    166.7719   1.3002908909e+02   2.9337568606e+01    0.5992028    0.5531779 -33.69  0.002241375    1.351    0.260
       106 -11.2082     96.5973    159.2305   1.2855633736e+02   3.0527886346e+01    0.3184981    0.2141496 -38.76  0.001389064    1.974    0.493
       107 -10.0197    112.8843    169.3314   1.2625386792e+02   2.6083130436e+01    0.3936835    0.1373609  48.17  0.001355147    2.828    0.646
       108 -10.4229    107.7462    168.1465   1.2723894202e+02   2.7104785169e+01    0.2458293    0.1705138  32.93 0.0003222246    1.413    0.292
       109 -10.1962     58.7298    167.1241   1.3837924421e+02   3.4052017492e+01    0.2224925    0.1600109  59.49 0.0006887307    1.197    0.164
       110  -9.0636     69.5163    167.4530   1.3591800324e+02   3.2656567226e+01    0.1228982    0.1015195  62.24 0.0001256674    1.026    0.026
       111 -10.0010    174.8702    166.0247   1.1259853177e+02   1.6118692059e+01    0.4028153     0.148118  53.98  0.001197663    5.386    0.814
       112 -10.4722    128.9065    165.6864   1.2214975714e+02   2.4148838320e+01    0.1986926    0.1857295 -84.61 0.0003457754    1.202    0.168
       113  -9.3601    150.9743    165.1630   1.1731104492e+02   2.0461979623e+01    0.2130621    0.1364135  20.04 0.0005746429    1.924    0.480
       114  -9.2573    124.4751    165.0025   1.2302270331e+02   2.5008511339e+01    0.1744968    0.1297719 -52.49 0.0003095252    1.520    0.342
       115 -11.4107    245.0302    162.1757   9.9554766389e+01   4.7184280356e+00    0.2798238    0.1479432 -24.49  0.001555857    1.790    0.441
       116  -9.2626     79.8150    164.2061   1.3315280187e+02   3.1945820432e+01    0.2269753    0.1073632  63.95 0.0009563495    2.885    0.653
       117  -9.2858     70.5927    162.7510   1.3515134503e+02   3.3463148389e+01    0.1693368    0.1082146 -88.58 0.0009455939    1.698    0.411
       118  -9.9690     63.9189    163.0201   1.3675451866e+02   3.4252348069e+01     0.177207    0.1535307  63.71            0    1.045    0.043
       119 -11.0123     44.1566    162.0344   1.4131108204e+02   3.6734305597e+01    0.2778156    0.1221164  48.16  0.001414055    1.945    0.486
       120 -12.6427     47.1921    151.3464   1.3960635583e+02   3.8636136857e+01    0.4739047    0.3187009 -85.86  0.002902308    1.401    0.286
       121 -12.3587     46.5496    142.9043   1.3891541793e+02   4.0520285407e+01    0.4096516    0.2758532  52.06   0.00158383    1.350    0.259
       122 -11.7416     46.5040    158.0481   1.4040435909e+02   3.7303777455e+01    0.3307961    0.2209787 -80.84  0.001641545    1.423    0.297
       123 -11.2977     43.0072    156.4557   1.4110062903e+02   3.8011628738e+01    0.2760109    0.1685611  68.27 0.0005417319    1.524    0.344
       124  -9.1562    146.8169    160.8281   1.1744500740e+02   2.1926382254e+01    0.1743121    0.1437503  56.58 0.0003339632    1.276    0.216
       125 -10.3737    249.4865    160.5058   9.8556890443e+01   4.2070643175e+00    0.1924679    0.1420718 -18.79  0.001268075    1.285    0.221
       126 -11.0274    247.5708    157.1419   9.8201552669e+01   4.8818748160e+00    0.3408127    0.1539191  40.03  0.001753469    2.081    0.519
       127 -11.8620    243.3727    154.7548   9.8380626065e+01   5.8252875316e+00    0.3027467    0.2078442  38.22  0.001872183    1.445    0.308
       128 -10.8652     82.6697    159.0935   1.3184415244e+02   3.2579200849e+01    0.2163171    0.1734358  47.56 0.0002480815    1.128    0.113
       129  -9.6378    171.4662    159.0728   1.1200371806e+02   1.7801582242e+01    0.1935515    0.1584052  33.62 0.0003495507    1.079    0.074
       130  -9.5353    115.8686    157.5253   1.2379622871e+02   2.7822103186e+01    0.1796623    0.1709435 -79.11 0.0003974526    1.141    0.124
       131 -10.8485     89.0411    156.9206   1.3003243968e+02   3.2109196085e+01      0.21884    0.1910231 -61.73  0.000277485    1.260    0.206
       132 -11.4975     35.9702    157.8746   1.4290079541e+02   3.8440630370e+01    0.3626042    0.1390015  31.49  0.001774519    2.519    0.603
       133 -10.9052     72.6028    156.3441   1.3392383815e+02   3.4510735157e+01    0.3113955    0.2091776  28.11  0.001202813    1.656    0.396
       134 -10.0719    134.5790    155.6518   1.1922543663e+02   2.4993732179e+01    0.2424201    0.2153378  53.34 0.0006677714    1.101    0.092
       135  -8.9993    121.4219    155.5238   1.2219094670e+02   2.7278715428e+01     0.131335    0.1189642  49.03 7.161007e-05    1.013    0.013
       136 -10.5235     62.3519    152.4729   1.3597810938e+02   3.6629139665e+01    0.2809418    0.1969337 -85.36  0.001038464    1.410    0.291
       137 -10.4441    113.4784    152.2626   1.2350645107e+02   2.9232205955e+01    0.3114275    0.2769722  58.64   0.00107927    1.062    0.058
       138 -10.7139     33.8801    153.0960   1.4302113312e+02   3.9646510573e+01    0.1922799    0.1335517  66.82  0.001240948    1.236    0.191
       139  -9.0293    161.7016    152.2916   1.1272849744e+02   2.0686875534e+01    0.1265328    0.1051916  72.54 0.0002246207    1.562    0.360
       140 -11.0949    104.8509    150.4871   1.2527811134e+02   3.0987482914e+01    0.4076367    0.3030249  -0.10  0.001565211    2.078    0.519
       141 -10.1367    107.8001    145.9758   1.2382836298e+02   3.1415169445e+01    0.2691953    0.2201781 -18.24  0.001034422    1.622    0.383
       142 -10.9184    143.1263    148.3843   1.1600273435e+02   2.4784596396e+01    0.3918149    0.3172173  75.98  0.001733636    1.560    0.359
       143 -11.1071     93.3744    150.4439   1.2805962656e+02   3.2783391982e+01    0.3325184    0.2170937  32.63  0.001076007    1.570    0.363
       144 -11.9505     56.6892    149.7452   1.3707939050e+02   3.7892504051e+01    0.4298476    0.3246817 -88.90  0.001552888    1.247    0.198
       145 -10.8557     59.5164    145.5216   1.3588416470e+02   3.8457115582e+01    0.2954611    0.1782332  52.63  0.001266862    1.537    0.349
       146 -11.0574    249.3775    149.3239   9.6397462118e+01   5.4764402439e+00    0.2598697    0.2140639  44.49  0.001729698    1.517    0.341
       147 -12.0275    134.7104    235.2525   1.2985261649e+02   1.2510912072e+01    0.3257962     0.186571  40.49  0.001699703    1.288    0.224
       148 -12.0004     58.6576    133.3479   1.3459400471e+02   4.1225721525e+01    0.4489597    0.2884146  41.25 0.0004288742    1.498    0.332
       149 -13.4751     50.7765    136.5701   1.3710752513e+02   4.1438797338e+01    0.6420966    0.5107874 -61.30  0.002510326    1.323    0.244
       150 -12.7142     45.3112    130.3342   1.3785328514e+02   4.3432462940e+01     0.535067    0.3582152  75.05  0.001844579    1.462    0.316
       151 -12.4258     34.5409    148.2408   1.4245828752e+02   4.0611722773e+01    0.5546025    0.1992105  53.93  0.002500514    2.690    0.628
       152 -11.6985    133.7405    142.3082   1.1698808617e+02   2.7623693979e+01    0.7647884    0.3648963 -50.31  0.003318055    2.309    0.567
       153 -11.5440    248.2703    140.9818   9.4882215105e+01   6.6182792641e+00    0.7595106    0.2159504  37.64  0.002834407    3.808    0.737
       154 -11.4455     26.5146    140.6458   1.4385169080e+02   4.3001674717e+01    0.3420093    0.1518461  77.21  0.001288834    2.449    0.592
       155 -11.2928     32.1975    140.5451   1.4238454077e+02   4.2499115021e+01    0.3086624    0.1266418 -86.05   0.00140776    2.560    0.609
       156 -10.6854     33.4817    135.9764   1.4163260035e+02   4.3378865034e+01    0.1772994    0.1680935  16.78 0.0007000134    1.346    0.257
       157  -8.7884    194.2873    140.3007   1.0381334974e+02   1.6435650304e+01    0.1365172   0.09673762  10.79 0.0002769248    1.558    0.358
       158  -9.4668    188.5665    139.5300   1.0474013851e+02   1.7649788101e+01     0.136252    0.1211712  15.48 7.147138e-05    1.007    0.007
       159  -8.8642    127.4799    139.5027   1.1792353668e+02   2.9299156787e+01    0.1376495    0.1273705  48.33 0.0001167428    1.016    0.016
       160 -11.2599    113.7233    135.9936   1.2060704539e+02   3.2437201373e+01    0.3923409    0.3133463  39.33  0.001553359    1.200    0.167
       161  -9.6692     82.5492    135.9212   1.2858815487e+02   3.7453778091e+01    0.1927444    0.1632021  49.74 0.0002848205    1.120    0.107
       162 -11.5427     41.2266    146.0094   1.4058282277e+02   4.0415422145e+01    0.2364015    0.2035552 -76.06  0.001626875    1.203    0.169
       163  -9.3703    102.3947    133.0681   1.2293567462e+02   3.4965811732e+01    0.2655558    0.1167769 -46.36  0.001077197    2.550    0.608
       164  -9.4161     97.9980    134.3401   1.2429617307e+02   3.5416483501e+01    0.1835236    0.1606079  48.73 0.0002876327    1.084    0.078
       165  -9.8721    188.7478    132.0262   1.0309033870e+02   1.8774916714e+01    0.1709319    0.1156373 -32.81 0.0003046283    1.515    0.340
       166  -9.4340    130.0916    132.0913   1.1583939315e+02   3.0265356925e+01    0.1991082    0.1814294  14.31 -0.0009232552    1.174    0.148
       167 -10.2214    120.8739    135.3763   1.1872622255e+02   3.1301137991e+01      0.22251    0.1865618 -75.12 0.0005730253    1.345    0.257
       168  -9.6622     34.3015    132.3200   1.4106064255e+02   4.4110883440e+01    0.1160182   0.08660695 -46.79 0.0003278914    1.626    0.385
       169 -12.5522     66.4031    127.4171   1.3164062332e+02   4.1570034183e+01    0.6119195    0.4263969  56.32  0.003424848    1.404    0.288
       170 -11.6917     26.4830    126.4592   1.4262792484e+02   4.6140785523e+01     0.326783    0.1623012  34.51  0.001746983    1.995    0.499
       171 -10.6427    159.9862    126.4923   1.0776874230e+02   2.5471828756e+01    0.2641714     0.205366 -57.86  0.001090463    1.561    0.359
       172 -12.0612     32.3664    126.2397   1.4097729827e+02   4.5657773281e+01    0.3988203    0.2111435  72.55  0.002037301    1.995    0.499
       173 -10.4361    209.8112    125.6617   9.7803425467e+01   1.5571909874e+01    0.2355088    0.1971727 -15.61  0.000476367    1.135    0.119
       174 -13.4966     67.7271    143.8713   1.3357932141e+02   3.7780199507e+01    0.9186773    0.6338619  82.15  0.004468229    1.517    0.341
       175 -12.7510     72.8363    139.6721   1.3169019106e+02   3.8009285830e+01    0.6514576    0.5189618  81.55  0.001038772    1.224    0.183
       176  -9.2721    147.6747    124.2933   1.1003500156e+02   2.8350500186e+01    0.1406337    0.1135187  80.04 0.0003421741    1.620    0.383
       177 -10.0854    243.6931    120.5396   9.1226013578e+01   9.8635338142e+00    0.3126616    0.1244616 -38.85  0.001324175    2.676    0.626
       178 -10.7520    249.5327    117.5015   8.9718116932e+01   9.1880992814e+00    0.2969471    0.1945267  -0.66  0.001168241    1.555    0.357
       179 -11.9652    248.4668    112.7009   8.8806703718e+01   9.9597561918e+00    0.6377599    0.3597912 -19.75  0.003314477    1.634    0.388
       180  -9.0830    238.6337    121.7028   9.2234415941e+01   1.0636537081e+01    0.1381797   0.08802981  15.11 0.0007031492    1.724    0.420
       181 -10.9330     50.5741    122.7696   1.3543244456e+02   4.4560756161e+01    0.2561654    0.1634289  71.44 0.0009203454    1.657    0.397
       182 -12.2713    248.4023    133.9250   9.3403022515e+01   7.4242015654e+00    0.6526536    0.3007987 -27.26  0.003216381    1.974    0.493
       183  -9.8070     85.4781    117.6929   1.2464543266e+02   4.1019788892e+01    0.2949007    0.1438924  49.75  0.001175234    2.159    0.537
       184 -11.7925     32.1005    116.7123   1.4002624380e+02   4.7852234573e+01    0.3564092     0.212452 -61.25  0.002003195    1.580    0.367
       185 -10.5741     70.5085    116.9471   1.2879536419e+02   4.3382491324e+01    0.2341343    0.2033046 -28.96 0.0006578666    1.410    0.291
       186 -10.1896    168.5162    113.3538   1.0287642432e+02   2.6005608858e+01    0.3037635    0.2500052  84.79  0.001439023    1.648    0.393
       187 -11.9391     60.6275    112.0727   1.3088472411e+02   4.5808284325e+01    0.4628033    0.3054309  60.56  0.002440296    1.614    0.380
       188 -11.2909     62.4422    106.3290   1.2934000090e+02   4.6903754258e+01    0.3818841    0.1672854 -58.28  0.001667094    2.095    0.523
       189 -10.3133    149.6781    111.5837   1.0661559013e+02   3.0312411824e+01    0.2425746    0.2382077  73.54 0.0003413939    1.093    0.085
       190 -11.4810     70.3270    110.4324   1.2769194653e+02   4.4894895991e+01    0.3911403    0.3015363  83.47  0.001155916    1.378    0.274
       191 -10.6211    114.9384    107.0447   1.1420529920e+02   3.8229313063e+01    0.2327967     0.224657  64.99 0.0002927791    1.024    0.023
       192 -10.1074    112.2538    103.9753   1.1420141594e+02   3.9387236858e+01     0.271211    0.2134082 -52.85  0.001404619    1.290    0.225
       193 -10.3858    134.2225    104.4391   1.0856559151e+02   3.4914376173e+01    0.3820317     0.252244 -60.20   0.00170938    1.866    0.464
       194 -11.3528    248.4317     99.6629   8.5857377553e+01   1.1554432887e+01    0.4981538    0.3302168   9.83  0.002672544    1.678    0.404
       195 -10.9321     31.3234    105.0707   1.3886052738e+02   5.0621905115e+01    0.2191899    0.1668281  48.01 0.0001857893    1.343    0.255
       196  -9.2781    131.1176    100.1689   1.0826403258e+02   3.6405762675e+01    0.1930014    0.1730846  87.33  0.000258969    1.265    0.209
       197  -9.2847     76.5236     99.0140   1.2352770396e+02   4.6614289563e+01     0.198205    0.1302194 -58.57 1.605426e-05    1.458    0.314
       198  -9.9773     63.6426     98.1055   1.2740988284e+02   4.8655996150e+01     0.225833    0.1737807  52.34 0.0004832364    1.340    0.254
       199  -8.9797     80.5186     97.5847   1.2197352995e+02   4.6326301680e+01    0.1379183     0.129824  87.13 7.857179e-05    1.038    0.036
       200 -10.8304    123.7645     89.3453   1.0729700027e+02   4.0112350589e+01    0.2538517    0.2509439 -59.59 0.0002912123    1.028    0.027
       201  -9.6788    102.0619     87.8653   1.1301218369e+02   4.4759139412e+01    0.2088005    0.1886218  88.77  0.000285864    1.200    0.167
       202  -8.9244     45.2773     82.3037   1.3047096357e+02   5.4605634809e+01    0.1306318   0.09206229 -40.04 0.0002287035    1.546    0.353
       203  -8.9581    113.6914     81.2717   1.0778580616e+02   4.3847828899e+01    0.1447853    0.1179528  86.39 0.0002922217    1.545    0.353
       204  -8.7143     97.6236     72.5061   1.0997307219e+02   4.8872676486e+01    0.1448804     0.136752 -46.45 9.446505e-05    1.033    0.032
       205  -9.7818     63.9484     57.4939   1.1703619649e+02   5.7897952916e+01    0.2023673     0.170256 -48.81 0.0007385683    1.094    0.086
       206  -9.9500    204.5544    249.4900   1.1967951197e+02   1.4732730920e+00    0.1050386   0.07199055  25.25 -0.0002096744    1.022    0.022
       207 -11.0995    154.1831    248.7780   1.2786612667e+02   8.2250717946e+00    0.3813015    0.1489455  50.91  0.001852099    3.221    0.690
       208  -8.8518    199.6701    245.6767   1.1999416347e+02   2.4752633987e+00    0.1082089   0.06232013  16.81 0.0007049777    1.698    0.411
