#   1 NUMBER                 Running object number                                     
#   2 MAG_AUTO               Kron-like elliptical aperture magnitude                    [mag]
#   3 X_IMAGE                Object position along x                                    [pixel]
#   4 Y_IMAGE                Object position along y                                    [pixel]
#   5 X_WORLD                Barycenter position along world x axis                     [deg]
#   6 Y_WORLD                Barycenter position along world y axis                     [deg]
#   7 A_WORLD                Profile RMS along major axis (world units)                 [deg]
#   8 B_WORLD                Profile RMS along minor axis (world units)                 [deg]
#   9 THETA_WORLD            Position angle (CCW/world-x)                               [deg]
#  10 FWHM_WORLD             FWHM assuming a gaussian core                              [deg]
#  11 ELONGATION             A_IMAGE/B_IMAGE                                           
#  12 ELLIPTICITY            1 - B_IMAGE/A_IMAGE                                       
         1 -10.8149     37.1878      9.3940   1.0175551397e+02   7.0144343751e+01    0.8636373    0.4047154 -38.24  0.002925341    2.008    0.502
         2 -10.3095     10.8247     18.2928   1.1941908442e+02   7.1391158188e+01     1.280721    0.4431433 -23.86  0.003977514    7.139    0.860
         3 -10.7819     18.9875      6.7353   1.0968468909e+02   7.2570309234e+01     1.007031    0.8132936  71.04  0.006176721    3.044    0.671
         4 -11.0079     23.7140     32.8221   1.1861631727e+02   6.7777367102e+01     1.516749    0.4452018 -39.77  0.003830485    3.050    0.672
         5  -9.4799      2.2293     14.5621   1.2258574232e+02   7.2598027965e+01    0.4178443    0.2007897 -64.53   0.00209316    2.822    0.646
         6 -10.3979      5.2622      4.6584   1.1646890316e+02   7.4042465680e+01    0.4541252    0.3386629 -17.92  0.001421012    1.106    0.096
         7 -10.1191      4.4778     42.2692   1.3049953052e+02   6.7269141317e+01    0.8899483    0.3265929 -65.13  0.004103196    2.433    0.589
         8 -10.1574      7.1714     28.4243   1.2507593070e+02   6.9806897553e+01    0.3156203    0.2830112  33.63 0.0009828649    1.515    0.340
         9  -9.5632     91.4290     24.6371   8.8175582957e+01   5.9031696982e+01    0.6883208    0.3060605 -30.73  0.002351338    2.234    0.552
        10  -8.7541     71.9090      8.5003   8.7140551412e+01   6.4769162013e+01    0.3178455    0.1817905  -6.50  0.001502481    1.964    0.491
        11 -10.3519     73.5319     17.3702   9.0794977008e+01   6.3427582951e+01     1.184288    0.3480226 -26.80  0.003784976    3.877    0.742
        12  -9.2971     78.0830      4.1840   8.3024739726e+01   6.4034734816e+01     0.570829    0.2839687  -5.04  0.002118445    2.529    0.605
        13 -10.3267     69.4043     40.5082   1.0230327936e+02   6.0708840217e+01     1.315485     0.390469 -40.60  0.004777207    3.155    0.683
        14  -8.5487    111.2846     21.1617   8.1218034181e+01   5.5138406440e+01    0.5339484    0.1879103 -26.51  0.001995286    2.962    0.662
        15  -9.7937     63.8532      3.0240   8.7236401229e+01   6.6812771957e+01    0.5401454    0.2499329 -31.86  0.002715885    2.190    0.543
        16  -9.8802     60.5256     31.7512   1.0210096664e+02   6.3551572455e+01    0.8986452    0.3653951 -31.32  0.002931766    2.586    0.613
        17  -8.0172     67.8026      9.1568   8.8899029661e+01   6.5445249842e+01    0.2025105    0.1331953  36.76 0.0002483628    1.403    0.287
        18  -9.5113     63.1181     21.3907   9.6492113645e+01   6.4698921625e+01    0.3824381    0.2531242 -46.73  0.001317622    1.904    0.475
        19 -10.0096     64.2618     13.6532   9.2396218103e+01   6.5530980830e+01    0.4010485    0.2834281   0.27  0.002375039    1.379    0.275
        20  -9.4074    100.8316     31.5958   8.8262397380e+01   5.6130709980e+01    0.7724841    0.2619735 -28.58  0.001963911    3.193    0.687
        21  -9.1722    102.9750     21.1841   8.3393327233e+01   5.7005830833e+01    0.4188548    0.1944568 -34.34 0.0005892699    2.214    0.548
        22  -8.5452    104.2634     15.4607   8.0664187743e+01   5.7370263832e+01     0.399342    0.2033211  17.83  0.001387799    3.056    0.673
        23  -8.9597     46.9363     19.8248   1.0242997687e+02   6.7361460977e+01    0.5014229    0.2274547 -20.33  0.002063072    3.207    0.688
        24 -10.0139     52.4874     13.3586   9.6929734732e+01   6.7468626189e+01    0.6258615    0.3386927  18.21  0.003107243    2.276    0.561
        25 -10.3147     46.1859     29.5452   1.0709922242e+02   6.5930879439e+01    0.5568498    0.3372969 -56.56   0.00249483    2.392    0.582
        26  -9.6244    119.2148     19.9683   7.8834752427e+01   5.3422383903e+01    0.7053136     0.330854  -8.66  0.001807262    3.253    0.693
        27  -9.3446     96.2372     15.0114   8.2624512558e+01   5.9179054892e+01    0.9704966     0.290558 -22.56  0.003299223    3.930    0.746
        28  -8.2943     97.6519      5.7094   7.8181569150e+01   5.9814372462e+01    0.2920284    0.1708999  37.55 0.0007017645    1.580    0.367
        29  -8.3322     95.7021      2.6973   7.7347664000e+01   6.0512110554e+01     0.300735     0.182301  22.67 0.0008490583    1.738    0.425
        30  -9.4401     85.2109     13.0148   8.4958395178e+01   6.1695775965e+01    0.3862877    0.2413327 -50.70  0.001664317    2.362    0.577
        31  -8.8301     84.9636      5.8167   8.1714894012e+01   6.2495984829e+01     0.496798    0.2556574  -1.94  0.002240269    2.498    0.600
        32  -8.5229     88.8981      2.6323   7.9120360001e+01   6.1976733578e+01    0.2395629    0.1814505 -11.64 0.0007076733    1.334    0.250
        33  -8.1902    141.4322     12.2489   7.1445667734e+01   4.8756136472e+01    0.2425312    0.1411565 -14.89  0.000980794    2.001    0.500
        34  -9.1345    131.1625      5.9793   7.1011310076e+01   5.1917378717e+01    0.4405444    0.1587724  42.81  0.001631595    2.853    0.650
        35  -8.5553    125.1043     12.9409   7.4824197472e+01   5.2751101243e+01    0.3023363     0.193475 -38.08 0.0005912986    1.717    0.418
        36  -8.7237    120.8544      5.8775   7.2956798005e+01   5.4446149245e+01    0.3426474    0.1834082  58.83  0.001233058    1.638    0.389
        37  -8.6537    126.8482      9.1588   7.3027690793e+01   5.2691169093e+01    0.2622965    0.1668507  43.10 0.0005236471    1.469    0.319
        38  -8.6503    125.7474      5.3463   7.1786891594e+01   5.3305886915e+01    0.3680821    0.2330213  24.29  0.001831256    1.783    0.439
        39  -7.9240     80.4837     12.4247   8.6168208118e+01   6.2700378168e+01    0.2557624       0.1671 -42.35  0.001366763    1.874    0.466
        40  -9.0967    133.3364     10.8802   7.2424671341e+01   5.0924669468e+01    0.4088022    0.2172574 -47.97  0.001792477    2.307    0.566
        41  -9.0217    115.3009      4.3255   7.3487340451e+01   5.5907653446e+01    0.2944973    0.2214925 -44.28 0.0007480067    1.560    0.359
        42  -9.5240    114.0463      9.9661   7.6039017093e+01   5.5687496861e+01    0.5168516    0.2198896  46.23 0.0004039668    2.098    0.523
        43  -7.5497    110.2714      7.6726   7.5958778537e+01   5.6784831638e+01    0.2188944    0.1763752 -31.37 0.0006706828    1.369    0.270
        44  -8.3897    111.3195      4.3244   7.4344141681e+01   5.6842760399e+01     0.215714    0.1618226  33.20 0.0007267173    1.248    0.199
        45  -9.4540    234.0595      8.0197   5.9140876153e+01   2.5662693878e+01    0.3306982    0.2304706 -44.64  0.001209572    1.316    0.240
        46  -8.6950    101.9355      8.3932   7.8260134187e+01   5.8613180890e+01    0.2591351    0.1810527 -24.68 0.0007951632    1.505    0.336
        47  -7.4434    206.5705      3.1311   6.0271427151e+01   3.2867608548e+01    0.1561315    0.1316214  -3.27 0.0004286319    1.518    0.341
        48  -8.5506    104.2048      2.0481   7.4995496477e+01   5.8674726607e+01    0.2852083    0.1791171  42.11  0.001437704    1.408    0.290
        49  -8.3821    135.7636      1.6453   6.8611819493e+01   5.1140875039e+01    0.2978969     0.160564  74.00 0.0009293653    1.846    0.458
        50  -9.9575     91.8417    112.9711   1.1706394632e+02   4.1882035181e+01    0.5962021    0.3986727  86.09  0.001693712    2.195    0.544
        51  -9.0276    212.5776    250.1176   1.1536446213e+02  -5.5659636768e+00    0.2066677    0.1098383  34.21   0.00122235    1.471    0.320
        52 -10.2481    198.4925    248.7465   1.1761218593e+02  -3.2488280589e+00    0.3683368    0.2257225  48.80  0.002234317    1.648    0.393
        53  -7.9884     53.5643    250.7251   1.4341663309e+02   1.8154572306e+01    0.1682208     0.072781  43.91  0.000673847    1.832    0.454
        54  -8.6504     92.4230    103.9313   1.1471314350e+02   4.3871643504e+01    0.6407443    0.4136947   9.92  0.002564943    2.772    0.639
        55  -7.4419    167.0301    114.0046   9.7931634178e+01   2.5905959268e+01    0.1897989    0.1764925 -43.14 0.0004251275    1.078    0.073
        56  -8.7496    250.6376    112.9559   8.2352488630e+01   7.2745194593e+00    0.2001292    0.1191396 -33.06 0.0009648565    1.509    0.337
        57 -10.5348     62.9734     96.1761   1.2190591722e+02   5.0185697863e+01    0.8856056    0.5057914 -87.51  0.001764449    3.301    0.697
        58 -10.2349     65.5391    110.6822   1.2430149213e+02   4.6447397071e+01    0.7266518    0.4827139 -81.58   0.00181688    1.722    0.419
        59  -9.6323     59.0179    109.3320   1.2599080506e+02   4.7620020187e+01    0.2911709    0.2078331 -73.71 0.0006012478    1.350    0.259
        60  -9.8418     14.1203    111.6557   1.3972292691e+02   5.1457301967e+01     0.376397    0.1990094  80.52  0.001536665    2.133    0.531
        61  -9.1254     13.8721    105.1727   1.3894927464e+02   5.2967366990e+01    0.2461697     0.144711 -39.92 0.0006379869    1.944    0.486
        62  -8.4547    158.8271    111.9645   9.9262426205e+01   2.8237887397e+01    0.2632101    0.2280307  57.22 0.0005827271    1.163    0.140
        63  -8.3224    150.0928    110.8184   1.0101834190e+02   3.0495858393e+01    0.3191919    0.2072863 -47.43 0.0005879716    1.552    0.356
        64  -9.1935     24.0759    112.1770   1.3691545885e+02   5.0573287104e+01    0.1882262    0.1471999 -54.52  0.000611836    1.249    0.199
        65  -7.2721    184.3099    111.7351   9.3642734048e+01   2.2270741893e+01    0.1513302    0.1222156 -83.26 0.0001884268    1.536    0.349
        66  -8.4292    153.0417    115.3718   1.0150165541e+02   2.8868966679e+01     0.218659    0.2005584  64.79 0.0005535152    1.104    0.095
        67  -9.6585     31.9971    108.0000   1.3393498113e+02   5.0863553790e+01    0.2560803    0.1864281   7.01  0.001515367    1.876    0.467
        68  -9.6977     36.3612    105.1584   1.3213060682e+02   5.1121122200e+01    0.3505205    0.1741916 -60.25  0.001711375    1.640    0.390
        69 -10.8153     44.6588    102.2794   1.2902621268e+02   5.0954657315e+01    0.8489181    0.4529206  77.30  0.002970866    3.451    0.710
        70  -8.7741     40.0028    107.1169   1.3135810203e+02   5.0302880371e+01    0.1971742     0.165286 -68.27 0.0004986417    1.011    0.011
        71 -10.7041     20.7852    101.2624   1.3629191402e+02   5.3367278985e+01    0.9979682    0.4338302  76.06  0.003381642    5.156    0.806
        72 -10.3761     31.6243     64.8012   1.2515993521e+02   6.0683867406e+01     1.111856     0.424569 -35.84  0.004399629    3.323    0.699
        73 -10.0294     34.4644     90.8664   1.3008234496e+02   5.4618605663e+01    0.5458196    0.2727962 -81.55  0.001461778    2.669    0.625
        74 -10.2321     36.4072     81.3892   1.2741684032e+02   5.6593880875e+01    0.7923211     0.396355 -19.47  0.003077068    4.013    0.751
        75 -10.3387     19.6322     84.8459   1.3392125323e+02   5.7209506824e+01     1.146391    0.1862707 -59.68  0.004124889    3.464    0.711
        76 -10.0628    139.3145    104.0302   1.0184937071e+02   3.4377675384e+01    0.8062371    0.4154633 -45.71  0.001670639    1.935    0.483
        77  -8.5163    139.9449     75.5800   9.3372901962e+01   3.9939154112e+01    0.3615101     0.256714 -76.88 0.0005192803    2.033    0.508
        78  -9.3195    140.5293     82.2382   9.5275006631e+01   3.8529089294e+01    0.6620309    0.2736314 -39.21  0.001991715    2.425    0.588
        79  -9.5591    138.6139     92.6257   9.8828600530e+01   3.6906920208e+01    0.5433389    0.3999103 -41.00  0.001545502    1.356    0.262
        80  -8.3582    139.4796     87.5163   9.7117272211e+01   3.7736899207e+01    0.3323874    0.2247984  33.21 0.0009222435    1.716    0.417
        81  -8.4759    166.0264    104.2220   9.5567380048e+01   2.8095631113e+01    0.2971128    0.2230275 -50.57 0.0004642024    1.369    0.270
        82  -9.9071    149.3492    103.1559   9.9140006148e+01   3.2257224718e+01    0.8047569    0.3289846 -51.11  0.002598053    2.880    0.653
        83  -9.6278      5.5593    103.6627   1.4121648121e+02   5.3847985562e+01    0.3750145    0.2609077  60.43  0.001689873    1.585    0.369
        84  -7.9572     73.6946    102.9355   1.2012028664e+02   4.7112522146e+01    0.2026044    0.1624106 -62.88 0.0003839297    1.156    0.135
        85  -8.8031    159.1957    101.5517   9.6384581255e+01   3.0259906672e+01    0.3190019    0.2432299 -73.86 0.0007793769    1.644    0.392
        86  -9.4803     81.4522    100.2908   1.1710560280e+02   4.6534576003e+01     0.431139    0.2673503 -72.20 0.0008169527    2.015    0.504
        87  -7.7920     82.9451     93.5414   1.1492128700e+02   4.7832661129e+01     0.309802     0.188984 -10.44  0.001085164    3.719    0.731
        88  -8.9560    164.8870     94.9056   9.3256886530e+01   3.0194244195e+01    0.6427066    0.2510999 -48.93  0.002029703    2.974    0.664
        89  -9.3853     94.3888     97.3427   1.1242981990e+02   4.5022223935e+01    0.3318165    0.2697712 -88.94 0.0006762402    1.473    0.321
        90  -8.7214    239.4154     96.7824   8.0194007297e+01   1.2174839541e+01    0.1916123    0.1300336 -23.03  0.000217572    1.541    0.351
        91  -9.5055      6.2015     78.6582   1.3745123254e+02   5.9444340155e+01    0.6230065    0.2047041 -38.63  0.002592276    3.655    0.726
        92 -10.2189      4.3978     89.9037   1.3976774239e+02   5.7028615381e+01    0.6704698    0.2861252  86.92  0.001810688    3.236    0.691
        93  -8.3216    157.9344     91.9184   9.3975728873e+01   3.2465371714e+01    0.2481751    0.1907557 -77.27 0.0006483755    1.643    0.391
        94  -8.6216     96.1435     90.8129   1.1012030002e+02   4.6157763741e+01    0.4370845    0.2862099  -5.11  0.001686642    2.893    0.654
        95 -10.3536     25.6968     78.0449   1.3047507071e+02   5.8279688957e+01    0.6312539    0.3705763  82.16   0.00191621    2.629    0.620
        96  -7.4993    205.0406     91.0000   8.4251438534e+01   2.1061119116e+01    0.1728513    0.1670344  72.37 0.0009377692    1.061    0.057
        97  -8.9862    110.7472     89.8332   1.0553543669e+02   4.3553359163e+01    0.6935889    0.3617992  25.55  0.002302522    3.429    0.708
        98 -10.2357     85.2645     86.5290   1.1228216641e+02   4.9011111997e+01    0.5833514    0.4203425  77.27 0.0008647059    2.048    0.512
        99  -9.5226     87.3896     78.4850   1.0925849780e+02   5.0383910538e+01    0.5283433    0.3533958  13.74  0.001666812    2.145    0.534
       100  -9.0712    150.3194     88.8792   9.4872287895e+01   3.4898255476e+01    0.4195728     0.253042 -30.76   0.00134145    1.852    0.460
       101 -10.2897     47.8273     84.3926   1.2414869355e+02   5.4735783516e+01    0.6105797    0.3666956 -79.66  0.001593959    2.203    0.546
       102  -8.9874     49.2280     76.8886   1.2179169188e+02   5.6255112305e+01    0.4921399    0.2813993 -28.12  0.002304267    2.266    0.559
       103  -7.1777     78.2806     89.6280   1.1535513804e+02   4.9459700632e+01    0.1432953    0.1091591 -86.92 0.0003605999    1.698    0.411
       104  -8.7621     64.8495     86.0101   1.1878571515e+02   5.2250802047e+01    0.5275556     0.304236  -9.73  0.001886736    4.047    0.753
       105  -8.9946    163.5535     86.4875   9.1153277650e+01   3.2127134571e+01    0.3729774    0.2718826 -32.18  0.001258565    1.427    0.299
       106  -9.2330    157.9502     82.8367   9.1331740096e+01   3.4196516076e+01    0.5521603    0.2984883 -26.62  0.001657672    2.308    0.567
       107  -8.8135    156.8817     76.3721   8.9637265300e+01   3.5654362080e+01    0.3779361    0.2228647 -41.15 0.0007502658    1.692    0.409
       108 -10.2294    103.9169     82.5533   1.0537894317e+02   4.6457998579e+01    0.5382109     0.303292 -53.77 0.0008924028    1.904    0.475
       109  -9.3607    105.3693     71.4111   1.0145296468e+02   4.8435127956e+01     0.717339    0.4278963 -28.45  0.002740581    1.956    0.489
       110  -8.7661    170.3680     83.4897   8.8823406672e+01   3.0987061439e+01    0.3089228    0.1890418 -40.73 0.0009578032    1.619    0.382
       111  -8.5299    149.8874     80.3978   9.2457388196e+01   3.6632795009e+01    0.4004036    0.2097962 -40.32   0.00150875    1.899    0.473
       112  -9.1919    115.2774     72.4781   9.8917410293e+01   4.6153416829e+01    0.5823355    0.2888042 -40.45  0.001100003    1.985    0.496
       113  -8.8275    119.0040     80.5175   1.0041023428e+02   4.3758222679e+01    0.3500231    0.2107356 -51.25 0.0006005437    1.763    0.433
       114  -8.0425    119.7547     76.0182   9.8795907165e+01   4.4489854509e+01    0.3010884    0.2098116  30.40  0.000791467    1.654    0.395
       115  -8.9845     74.1986     80.2900   1.1410472071e+02   5.2158148307e+01    0.3437791    0.2291564 -69.00 0.0008549936    1.857    0.462
       116  -7.7047     75.0460     74.4568   1.1210653122e+02   5.3280752234e+01    0.2988897     0.192675  -4.56  0.001272195    2.584    0.613
       117  -8.3258     68.6675     79.3616   1.1570009532e+02   5.3185924645e+01    0.3083247    0.1477534 -46.25   0.00134218    1.888    0.470
       118  -8.6824    166.2610     78.5472   8.8246277076e+01   3.2913547688e+01    0.2784969    0.2110796 -39.28 0.0005035346    1.318    0.241
       119  -8.1195    184.0865     78.0093   8.4512368165e+01   2.8505630650e+01    0.2333438    0.2318023  35.84  0.000628129    1.053    0.050
       120  -7.8913     63.2459     82.1733   1.1831315775e+02   5.3327153127e+01    0.1830586    0.1528157 -78.03 0.0006558943    1.341    0.254
       121  -9.3172    127.3320     75.2499   9.6498775205e+01   4.2946345685e+01    0.4020011     0.268328 -58.82 0.0008184721    1.820    0.451
       122  -8.8172    129.5986     68.7860   9.3828109179e+01   4.3640969862e+01    0.5116802    0.2802677  25.23  0.001702974    3.284    0.696
       123  -8.7123    130.5575     64.7973   9.2271954671e+01   4.4139386985e+01    0.4016764    0.2172046 -38.11  0.001067073    1.848    0.459
       124  -9.4718    223.8183    248.9219   1.1327363694e+02  -7.1053086887e+00    0.2787288     0.148648  25.40   0.00134726    1.676    0.403
       125 -11.0675    189.3331    246.3013   1.1888715661e+02  -1.5068838880e+00     0.548393    0.2614747  43.14  0.002974292    1.700    0.412
       126  -7.5121     78.5173    248.5301   1.3901206374e+02   1.5254463344e+01    0.1144325   0.08363265  60.55 0.0004484609    1.004    0.004
       127 -10.7342     16.1490     66.9609   1.3161182836e+02   6.1419238516e+01     1.516513    0.4287559 -61.69  0.004914893    2.604    0.616
       128 -10.7655     21.8352     53.5781   1.2606945086e+02   6.3857332645e+01    0.7607484    0.4201823 -85.21  0.002739662    3.662    0.727
       129  -9.5416      8.7824     47.3248   1.2993032599e+02   6.6011964069e+01    0.4144742    0.2337995  20.07  0.001781212    2.134    0.531
       130  -9.8152     14.8691     44.4394   1.2647342482e+02   6.6216649539e+01    0.4549044    0.2359269 -37.89  0.001244294    1.677    0.404
       131 -10.9628    166.0845    245.2739   1.2292370655e+02   2.3555884332e+00    0.4401593    0.2116315  45.66  0.002352573    1.687    0.407
       132  -7.5190    121.1574    240.2219   1.3056397442e+02   1.0330974637e+01    0.1631932    0.1143496  62.83  0.000381101    1.323    0.244
       133  -7.6231     46.1431    235.8324   1.4372858252e+02   2.1658508600e+01    0.1338361    0.1156033  69.29 0.0004842214    1.322    0.244
       134  -9.6520    187.9605    233.7970   1.1735250956e+02   3.6964984563e-01    0.2722481    0.1824768 -54.16  0.001602537    2.123    0.529
       135  -9.3691      6.7130     32.5770   1.2665548613e+02   6.9048527764e+01    0.2174315    0.1907704   1.78 0.0005290704    1.343    0.255
       136  -7.1137    247.6949    231.3065   1.0651887211e+02  -8.6415593886e+00   0.09646248   0.08881184  38.85  0.000296275    1.605    0.377
       137  -9.0104     83.4854     64.3758   1.0604916452e+02   5.3953108802e+01    0.4844005    0.3138721 -12.40  0.002130173    2.256    0.557
       138 -10.5174     55.1245     70.9341   1.1804722829e+02   5.6843875702e+01    0.6215302    0.4029917  62.34  0.001219727    2.438    0.590
       139  -9.0104     55.1644     63.0260   1.1567118091e+02   5.8505243865e+01    0.4800179    0.2361442  25.72  0.002185032    2.477    0.596
       140 -10.2458     62.4427     60.8189   1.1226538538e+02   5.7977316801e+01    0.8606872    0.2952321  32.46  0.003218747    3.431    0.709
       141  -8.3287    162.5812     72.8764   8.7334352923e+01   3.4850549699e+01    0.2946893    0.2144153 -59.68  0.000936765    1.565    0.361
       142  -8.4596    169.2735     70.6799   8.5279783715e+01   3.3534305007e+01    0.2955503    0.1692228 -44.28  0.000690542    1.768    0.434
       143  -9.2742    146.9435     69.3048   8.9720532958e+01   3.9387724320e+01    0.4207999    0.2728883 -55.42  0.001062754    1.804    0.446
       144  -8.1393    147.1851     63.9363   8.7954127353e+01   4.0265658512e+01    0.3403426    0.2267306  29.55  0.001072327    1.871    0.466
       145  -8.4690    149.8208     48.0933   8.2186558595e+01   4.2151639801e+01    0.3094836    0.2217191 -33.74 0.0007800585    1.433    0.302
       146 -10.5347    151.7926     42.1687   7.9806103601e+01   4.2511488244e+01    0.6193166    0.4624801  63.98  0.002183639    1.309    0.236
       147  -8.7117    147.5177     53.9074   8.4610740122e+01   4.1837387692e+01    0.4425689     0.215112 -24.84  0.001628571    2.493    0.599
       148  -8.5321    156.6626     69.6278   8.7621610076e+01   3.6911452248e+01    0.3592036    0.1945705 -22.56  0.001314917    2.447    0.591
       149  -7.6957     94.6932     53.4940   9.8576091299e+01   5.3922477913e+01     0.335381    0.1184206 -41.34  0.001197912    2.758    0.637
       150  -9.6401     94.7411     68.3494   1.0371231324e+02   5.1124546389e+01    0.3988594    0.2557817 -53.55 0.0008329761    1.702    0.412
       151  -9.3867     96.8787     58.9807   9.9849011566e+01   5.2502260949e+01    0.7343956    0.4244167  -7.94   0.00249381    3.757    0.734
       152  -7.8910     23.0037     68.9788   1.2947063785e+02   6.0492075274e+01    0.1860006    0.1155654 -39.40 0.0003453064    1.509    0.337
       153  -9.2194    121.2887     66.1874   9.5182994974e+01   4.6019317051e+01    0.3860466    0.2669214 -56.44 0.0006495074    1.706    0.414
       154  -7.8942    122.2270     61.2121   9.3255510406e+01   4.6704301077e+01    0.2376628    0.1874257  -5.37 0.0006605253    1.494    0.331
       155  -9.3830    137.9952     65.5523   9.0656056739e+01   4.2234484345e+01    0.4930269     0.270112 -39.26  0.001346993    1.825    0.452
       156  -7.5023    171.2805     65.3192   8.3267692163e+01   3.3923909464e+01    0.1531655    0.1206139  18.96 0.0002365559    1.582    0.368
       157  -9.2990    109.6997     63.9960   9.7709672107e+01   4.8956009316e+01    0.3694241    0.2810354 -57.16 0.0008576387    1.514    0.339
       158  -8.8609    110.6899     58.1667   9.5412293652e+01   4.9802296510e+01    0.4157039    0.3040203  10.38  0.001370089    1.742    0.426
       159  -8.7264    157.5539     63.1516   8.5409453977e+01   3.7793588639e+01    0.3268502    0.2506215 -60.18 0.0008163278    1.460    0.315
       160  -9.8852     72.9190     59.0174   1.0787238995e+02   5.6762913989e+01    0.5943557    0.2478857 -51.12  0.001020889    2.550    0.608
       161  -9.1633     75.5979     50.6264   1.0393343186e+02   5.7908276970e+01    0.4653144    0.2905417  15.83  0.002157405    2.157    0.536
       162  -8.2651    164.4150     60.2682   8.3086315754e+01   3.6514932586e+01    0.2151617    0.1396159 -45.17 0.0008463906    1.580    0.367
       163  -7.6903    152.4735     60.5254   8.5674091520e+01   3.9516327193e+01    0.1529505    0.1471139 -85.81 0.0008088351    1.059    0.056
       164  -8.9826    129.9845     57.1461   8.9847204518e+01   4.5601747651e+01    0.5057333    0.2241365 -35.15  0.001254838    2.282    0.562
       165  -8.6671     87.5183     58.4472   1.0267239736e+02   5.4376005564e+01    0.2845611    0.2331419 -57.52 0.0006817249    1.400    0.286
       166 -10.3263     89.6942     38.2533   9.4357135425e+01   5.7436069501e+01    0.8313483    0.3230382  36.21  0.002776753    3.123    0.680
       167  -8.4335     89.2115     52.7033   1.0005395967e+02   5.5114414436e+01    0.4247447     0.279934   1.64  0.001889105    2.216    0.549
       168 -10.2737     85.1145     48.0906   9.9697777685e+01   5.6687643282e+01    0.3931563    0.3055839 -65.31  0.001010675    1.785    0.440
       169  -9.8621     49.9719     54.5962   1.1495521132e+02   6.0865496228e+01    0.4523128    0.3090532 -48.15  0.001676831    1.306    0.234
       170  -8.8013     48.6676     48.5756   1.1342181532e+02   6.2203175351e+01     0.238894    0.2297427   5.85 0.0007011706    1.215    0.177
       171  -9.8608    244.1030     56.5938   6.9832293323e+01   1.7214540878e+01    0.2701164    0.2315559  55.60   0.00044295    1.314    0.239
       172  -9.1287    248.2407     52.1839   6.8314044638e+01   1.6898922581e+01    0.2911892    0.2409892 -15.87  0.001022001    1.418    0.295
       173  -8.4222    122.7350     41.0278   8.5972196606e+01   4.9857617698e+01    0.4385769    0.2419831  15.81  0.001479345    3.593    0.722
       174  -9.3931    118.2563     54.7763   9.2101788829e+01   4.8719112796e+01    0.5754628    0.3340136 -40.56  0.001221538    1.739    0.425
       175  -9.1539    121.0567     46.9819   8.8572150186e+01   4.9347703955e+01    0.3763181    0.2379389 -31.28  0.000503418    1.612    0.380
       176  -8.9322    162.5206     54.0231   8.1508584886e+01   3.7991816378e+01     0.308754    0.1973559 -54.95 0.0009089073    1.798    0.444
       177  -8.9805     80.3388     46.8298   1.0084739323e+02   5.7767862143e+01    0.3146462    0.1923996 -37.31 0.0009154892    1.549    0.354
       178 -10.0092     44.1662     52.8474   1.1668532148e+02   6.1897419914e+01    0.6619778    0.4618106 -82.08  0.003370212    2.450    0.592
       179  -9.9594     37.4856     41.9692   1.1574138871e+02   6.4742334818e+01     0.405395    0.2953665 -84.33  0.001658942    2.525    0.604
       180 -10.4879     35.8681     37.9840   1.1499283563e+02   6.5657831316e+01    0.5549178    0.2859984 -26.03 0.0003760543    2.225    0.551
       181  -7.7928    152.6769     53.5506   8.3376626017e+01   4.0588516327e+01    0.2615456    0.1401903 -33.15 0.0006716983    1.908    0.476
       182  -8.9227    105.3054     52.2650   9.4878072869e+01   5.1977251394e+01    0.4609831    0.2307382 -37.49  0.001524193    1.969    0.492
       183  -9.4011    142.0088     47.8394   8.3801027371e+01   4.4158691062e+01    0.5705788    0.2445496 -28.42  0.001287697    2.577    0.612
       184  -8.6231    157.4226     49.2437   8.0997366890e+01   4.0034087609e+01    0.2138828    0.1358059 -44.60 0.0008873636    1.640    0.390
       185  -9.6585    130.6084     45.9678   8.5806535589e+01   4.7243158537e+01      0.87598    0.3686129 -22.00  0.002261611    3.439    0.709
       186  -8.7253    132.6942     35.9459   8.1736376487e+01   4.8177070272e+01    0.2938066    0.2607369 -17.62 0.0005828687    1.175    0.149
       187 -10.3503    133.9650     31.1088   7.9706430609e+01   4.8501796085e+01    0.3765998    0.2812947   2.28            0    1.581    0.367
       188  -8.6397    112.5269     45.1958   9.0211122286e+01   5.1567236677e+01    0.7706434    0.3394856 -19.90  0.002448721    3.867    0.741
       189  -8.9514    118.8011     35.0379   8.4735177542e+01   5.1631877360e+01    0.4237587    0.2182039 -23.58  0.001199497    2.164    0.538
       190  -8.9431    146.6477     59.1309   8.6520473204e+01   4.1209077464e+01    0.3464901    0.2546636 -46.63 0.0009108302    1.418    0.295
       191  -8.5174     31.5573    229.4644   1.4586417038e+02   2.4516154695e+01    0.1774194    0.1333834  73.20 0.0001721121    1.095    0.087
       192  -7.5361     28.8584    216.2299   1.4555153513e+02   2.7304899516e+01    0.1349187     0.111048 -85.89 0.0003552338    1.331    0.248
       193  -9.0236      7.0235    208.2440   1.4902406327e+02   3.1061605693e+01    0.2019734    0.1189294  48.16  0.001073233    1.518    0.341
       194  -9.8770     11.5205    207.2017   1.4816582088e+02   3.0838692410e+01    0.2849288    0.1983332  54.47  0.001327765    1.297    0.229
       195  -7.6029     50.9790    206.7242   1.4070754819e+02   2.6600811144e+01    0.1632787    0.1252153  64.79 0.0003519919    1.080    0.074
       196 -10.1557     76.0523     31.7220   9.6275184559e+01   6.0985312558e+01    0.4416706    0.3790814 -89.88  0.001148591    1.805    0.446
       197  -9.8834     79.3092     24.1679   9.1878175119e+01   6.1471010655e+01     0.560715    0.2757396  29.83   0.00162999    2.426    0.588
       198  -9.2502     84.7196     21.9857   8.9130242212e+01   6.0719561446e+01    0.2932875    0.2405026  30.73 0.0008617872    1.133    0.117
       199  -9.1282    138.8668     56.7230   8.7528623005e+01   4.3530538631e+01    0.3205034    0.2095858 -44.13 0.0007148869    1.590    0.371
       200  -9.3847    105.1210     39.4700   9.0132792843e+01   5.4071829058e+01    0.6235914    0.3094645 -24.47  0.002407643    2.305    0.566
       201  -8.7067    112.2920     15.7164   7.8773312136e+01   5.5513283688e+01    0.2308941    0.2230951 -17.80 0.0006238253    1.141    0.124
       202 -10.0771    176.1438    202.2394   1.1464173139e+02   7.1947218445e+00    0.2139829    0.1968644  41.42 0.0002119863    1.085    0.078
       203  -9.1075    110.1288     32.9035   8.6181784949e+01   5.3911682275e+01    0.4034802    0.2366375 -42.40  0.001001688    1.882    0.469
       204  -7.7553    110.2457     26.7560   8.3724130106e+01   5.4695928119e+01    0.2862042    0.1816477  -6.46  0.001025254    1.909    0.476
       205  -9.3933     55.9078     43.3403   1.0860358929e+02   6.2238795754e+01    0.7003607    0.3756388 -10.18  0.002618591    3.870    0.742
       206  -8.7823    139.5140     39.6669   8.1534812877e+01   4.5973789586e+01    0.4451175    0.2346553 -28.87  0.001866469    1.995    0.499
       207  -8.7585     53.4201     38.7137   1.0781467179e+02   6.3405893808e+01     0.549006    0.2138129 -29.55  0.001950807    3.767    0.735
       208  -9.0081    192.4434    195.0467   1.1018642932e+02   5.3688736578e+00    0.9152085    0.4877242 -65.64  0.002500481    7.880    0.873
       209  -7.5320    176.5917    187.4721   1.1196744669e+02   9.6282981238e+00    0.1361273    0.1248142  45.77 0.0002022386    1.080    0.074
       210  -8.2694    230.5849    167.7943   9.7741617553e+01   2.5685046914e+00    0.1913706    0.1210088 -43.47  0.000955903    1.755    0.430
       211  -8.7532    133.6559    146.5597   1.1348095872e+02   2.6321623162e+01    0.5638809    0.1708812 -54.08  0.001656914    3.890    0.743
       212  -7.0176      6.6952    149.2697   1.4540672989e+02   4.3445347968e+01    0.1160622   0.06845815  69.17            0    1.534    0.348
       213  -7.8005    229.0928     38.5398   6.7079216002e+01   2.3200023496e+01    0.2097943     0.131275  72.10  0.001035013    1.606    0.377
       214  -8.6769    144.1205     36.5803   7.9478949762e+01   4.5238692972e+01    0.2621323    0.2047903 -42.49 0.0005338066    1.349    0.259
       215  -8.4124    141.0088     33.1575   7.8933669586e+01   4.6477815102e+01     0.234895    0.2146166 -12.95 0.0006028897    1.158    0.136
       216  -9.0299    122.1039    147.5932   1.1650579144e+02   2.8367602198e+01    0.2363599    0.2021447 -53.58  0.000352731    1.202    0.168
       217  -8.2835     97.3047     31.7885   8.9378449528e+01   5.6849847934e+01    0.3748897    0.1632573 -23.44 0.0009115308    2.744    0.636
       218  -9.6094     66.8422    144.4484   1.2999412068e+02   3.8259335243e+01    0.4852935    0.2868559  67.59  0.002302106    1.976    0.494
       219  -8.4298    187.3457    139.0625   9.9714550939e+01   1.6348449743e+01    0.2249368    0.1958539  29.01 0.0002468774    1.165    0.142
       220  -8.8162    153.4214     34.7180   7.6996426516e+01   4.3106286289e+01    0.2479777    0.1934339 -12.64   0.00077641    1.458    0.314
       221  -8.8055     45.0549     15.6515   1.0126830515e+02   6.8226907623e+01    0.1959407    0.1655578   4.41 0.0008637699    1.120    0.107
       222  -8.4327    112.2471    134.0378   1.1618611762e+02   3.3319517929e+01    0.3408996     0.228871  87.52  0.001099972    2.121    0.528
       223 -10.4341    233.4613    131.5934   8.9347536614e+01   7.7824432178e+00    0.2949792    0.2635148 -41.52 0.0001778374    1.156    0.135
       224  -8.2952    135.0314    132.2850   1.1001215676e+02   2.9177329514e+01    0.3320811    0.3085259 -17.00  0.001762574    1.220    0.181
       225  -8.2586     41.9062     28.1686   1.0839214331e+02   6.6696998081e+01    0.1656681    0.1211559 -12.71  0.001027491    1.282    0.220
       226  -9.8523     81.6027     72.3283   1.0925335239e+02   5.2664241225e+01    0.4486208    0.3068125 -72.48 0.0009114715    2.151    0.535
       227  -9.8622    152.9965     27.2913   7.4580902134e+01   4.4147946045e+01    0.5459123    0.3669504  68.14   0.00264613    1.438    0.305
       228  -8.5357    144.1422     25.3615   7.5570748557e+01   4.6649972598e+01    0.3778621    0.2170452 -17.44   0.00126063    2.040    0.510
       229  -8.5797    128.4475     25.8846   7.9001815315e+01   5.0508184472e+01    0.2787102    0.2117432 -63.68 0.0006736113    1.642    0.391
       230  -7.8847    129.5236     21.5376   7.7146998093e+01   5.0753098696e+01     0.244059    0.1679429  15.79  0.000865621    1.740    0.425
       231 -10.4302    131.8037    119.9198   1.0787963064e+02   3.2585722429e+01     0.815994    0.5135831  84.13  0.002863525    3.070    0.674
       232  -8.0820    139.3264     22.0484   7.5333102454e+01   4.8253331926e+01     0.264843    0.1954553 -81.33  0.001224564    1.666    0.400
       233  -8.9802     40.9543     20.5672   1.0544890688e+02   6.8035622742e+01    0.2217096     0.151041 -31.43 0.0001129669    1.268    0.211
       234  -8.1591    139.5466     17.9769   7.3833356532e+01   4.8645879570e+01    0.1970231    0.1398403 -23.56 0.0003437732    1.521    0.343
       235  -8.8798    131.7655     17.4274   7.5153112524e+01   5.0651735106e+01    0.4271987    0.2278666  66.73  0.001703165    1.867    0.464
       236  -8.7668    126.2051     83.7993   9.9447747759e+01   4.1514614299e+01    0.5492219    0.3395183  15.01  0.001903813    3.165    0.684
       237  -8.5589    119.9737    132.2668   1.1380492960e+02   3.2237181452e+01    0.2868013    0.2080269 -41.83 0.0005880542    1.478    0.323
       238 -10.0476    117.7335    124.1088   1.1253339959e+02   3.4531071934e+01     1.081881    0.5734761 -53.90  0.002873652    1.898    0.473
       239 -10.3091    123.4502     91.3267   1.0242405558e+02   4.0571262967e+01    0.7719995    0.5291465 -43.54  0.002490215    1.436    0.304
       240 -10.7872    133.4168    109.3450   1.0477213526e+02   3.4551119511e+01     1.531157    0.5043101 -51.41  0.004483681    3.543    0.718
       241 -10.4129    127.8070    102.4334   1.0438202949e+02   3.7264359635e+01    0.8427351    0.6267577  53.17  0.002371266    1.385    0.278
       242 -10.9389    120.9017    111.0528   1.0850008075e+02   3.6832993108e+01       1.3391    0.6526923 -59.13  0.003340161    2.566    0.610
       243 -10.7142    107.9366     99.2841   1.0898813192e+02   4.2054858334e+01     1.156414    0.7091404 -65.16  0.002028162    2.060    0.515
       244  -9.6882     98.6964    128.9817   1.1869895449e+02   3.6955738611e+01    0.6410381    0.3642383  68.97  0.002413944    2.812    0.644
       245  -9.4808     66.2892    128.7067   1.2753633452e+02   4.2064036092e+01     0.392529    0.2642801 -45.75  0.001316436    1.608    0.378
       246  -9.9048     71.1111    125.8978   1.2568228208e+02   4.2063476122e+01    0.5133428    0.3146223 -84.73  0.001533446    1.997    0.499
       247  -7.9155    160.5743    128.6978   1.0307448806e+02   2.4387916567e+01    0.2972862    0.1514152 -39.72  0.001137371    2.054    0.513
       248 -10.0116     58.1247    124.6136   1.2910119134e+02   4.4104249391e+01    0.5854027    0.3278254  82.19   0.00209606    2.600    0.615
       249  -9.3515     41.2333    121.9646   1.3343966246e+02   4.6672884108e+01    0.4991852    0.2278934 -83.94   0.00170296    2.818    0.645
       250  -9.6527     27.3849    122.9603   1.3745283514e+02   4.7772826554e+01    0.5402627    0.2583816  72.64  0.002276141    2.892    0.654
       251  -9.9768    140.5310    118.3955   1.0530549388e+02   3.1033388516e+01    0.4956903     0.326204 -65.90  0.001117452    1.925    0.480
       252 -10.0401    108.6490    114.7015   1.1274202818e+02   3.8441363248e+01    0.5910084    0.3901245 -85.35  0.001467687    2.336    0.572
       253  -7.6786    180.0238    116.5129   9.5759461794e+01   2.2361167675e+01    0.2204764    0.1522417  49.65  0.000313912    1.449    0.310
       254 -10.1697     78.0795    112.4923   1.2096080550e+02   4.4216587380e+01    0.7371334    0.3509427 -65.66  0.001954264    2.334    0.572
       255  -7.7714    157.9981    122.4938   1.0214503315e+02   2.6255429052e+01    0.2425629    0.1524111  50.38  0.001027181    1.589    0.371
       256  -7.7643      1.3055    115.8842   1.4377741350e+02   5.1326326451e+01    0.1762089   0.07419664 -67.21 0.0007966028    1.772    0.436
       257  -8.6804    237.4072    112.9551   8.4363238598e+01   1.0002633442e+01    0.4029339    0.1856089 -45.51  0.001618768    2.227    0.551
