#   1 NUMBER                 Running object number                                     
#   2 MAG_AUTO               Kron-like elliptical aperture magnitude                    [mag]
#   3 X_IMAGE                Object position along x                                    [pixel]
#   4 Y_IMAGE                Object position along y                                    [pixel]
#   5 X_WORLD                Barycenter position along world x axis                     [deg]
#   6 Y_WORLD                Barycenter position along world y axis                     [deg]
#   7 A_WORLD                Profile RMS along major axis (world units)                 [deg]
#   8 B_WORLD                Profile RMS along minor axis (world units)                 [deg]
#   9 THETA_WORLD            Position angle (CCW/world-x)                               [deg]
#  10 FWHM_WORLD             FWHM assuming a gaussian core                              [deg]
#  11 ELONGATION             A_IMAGE/B_IMAGE                                           
#  12 ELLIPTICITY            1 - B_IMAGE/A_IMAGE                                       
         1 -13.1358    243.3067     24.0488   3.5895163887e+02   2.2696160684e+01    0.8513631    0.6387606 -55.10  0.004277361    1.018    0.018
         2  -9.8825    112.2944     13.9419   1.0505597589e+01   5.5148101978e+01    0.4912266    0.2378813 -75.38  0.001623596    4.008    0.750
         3 -11.1392      2.0000      6.5077   5.7995323506e+01   7.7501209996e+01    0.8091367    0.1091789 -54.00  0.002373755    6.609    0.849
         4 -17.0765      5.6515    220.0382   8.8854838907e+01   2.6220728533e+01     1.916537     1.405713  44.41  0.008121829    1.202    0.168
         5  -8.7555    101.0094    250.5232   7.0399289932e+01   9.3432705926e+00     0.172767   0.09640598  33.27 9.815671e-05    1.413    0.292
         6 -10.0077     75.9788    245.9758   7.5282824474e+01   1.3365044588e+01    0.3987113    0.1521766 -60.62  0.001680419    3.055    0.673
         7 -15.4215     55.5610    233.0353   7.8693344003e+01   1.8318984196e+01     5.064381     3.163232 -26.52   0.02473882    3.162    0.684
         8 -10.4734    103.1109    238.6910   6.8758771535e+01   1.1109436193e+01    0.2990012    0.2033033 -34.21  0.001099089    1.994    0.498
         9  -9.7462    106.6780    235.1466   6.7598083933e+01   1.1253223203e+01    0.1944928    0.1468111  -1.30 0.0003772419    1.685    0.406
        10 -10.3117     72.9064    232.6683   7.4828620231e+01   1.6239994390e+01    0.2434126    0.1781408  47.92 0.0006862712    1.118    0.105
        11 -12.2634    127.2389    230.0148   6.2485641818e+01   9.2611051039e+00    0.4497665    0.3488454  17.84  0.002770589    1.225    0.183
        12 -12.5867    133.2165    229.2631   6.1088750897e+01   8.5320867415e+00    0.6949456    0.2531886  29.49  0.002830761    2.566    0.610
        13 -10.7020    148.2415    228.4103   5.7753494287e+01   6.5113546072e+00     0.220264    0.1496577 -30.70   0.00105674    1.687    0.407
        14  -9.2255    215.5406    229.5997   4.4796237789e+01  -2.7528822549e+00     0.183503    0.1042564 -45.30  0.001025662    2.448    0.592
        15 -11.9508     97.7234    222.7872   6.8227061361e+01   1.4816328083e+01    0.5536735    0.3723297 -55.28   0.00177091    1.737    0.424
        16 -11.7297     89.8039    223.7427   7.0148043169e+01   1.5733764089e+01    0.7594146    0.4307297  62.02  0.003199773    2.114    0.527
        17 -11.1488     80.9663    220.7112   7.1872610178e+01   1.7544312523e+01    0.5265778    0.2608971  53.31   0.00133873    2.020    0.505
        18 -10.5676     72.3575    225.1613   7.4283301651e+01   1.7788168009e+01    0.2595939    0.1971298  47.62 0.0005812024    1.086    0.079
        19 -10.7242    173.6155    223.9709   5.1855531402e+01   3.5975267219e+00    0.3873074    0.1446623  24.50  0.001479803    3.241    0.691
        20  -9.8232     90.2423    217.5622   6.9374634761e+01   1.6904160532e+01    0.2482047    0.1937799  57.81 0.0007167535    1.238    0.192
        21 -15.7424      6.5171    140.7700   8.4504993546e+01   4.4874580345e+01     10.40524     1.641466 -80.37   0.02630441    6.266    0.840
        22  -9.4768    102.2532    210.9682   6.5759482566e+01   1.6513440381e+01    0.1721958    0.1648402  57.98            0    1.118    0.105
        23  -9.7361    210.9774    198.7317   4.0464603386e+01   2.1684342250e+00    0.2022036    0.1568178 -16.56 0.0005032978    1.128    0.114
        24 -11.6039     68.2768    192.5103   7.1968735206e+01   2.5376992008e+01    0.4502438    0.2599831  81.21  0.001295931    2.186    0.542
        25 -15.1808      2.4057    209.9820   8.9196071537e+01   2.8628659466e+01    0.9357532    0.2575045 -84.81  0.003202124    3.470    0.712
        26 -10.0278     74.5786    191.0518   7.0169758984e+01   2.4848081260e+01    0.3792976    0.2003678 -72.97  0.001698274    2.135    0.532
        27  -9.7429    134.4062    191.2053   5.5200530376e+01   1.5492991130e+01    0.1827778    0.1390411 -65.16 0.0006668433    1.626    0.385
        28  -9.6374    208.4394    188.8113   3.9136802782e+01   4.0520529301e+00    0.1816154    0.1063057 -24.24 0.0004688358    1.670    0.401
        29  -8.8727     78.4956    183.9672   6.8254225899e+01   2.5941538274e+01    0.1927374    0.1385779 -68.00  0.000410842    1.463    0.317
        30 -10.5103     63.6845    182.5889   7.2042228314e+01   2.8329248737e+01    0.3313752    0.2188678  86.25  0.000808207    1.662    0.398
        31  -9.7711    146.8761    243.1095   5.9997641196e+01   4.3513458112e+00    0.1809301    0.1444711  37.61 0.0004716655    1.229    0.186
        32 -10.6927    172.8654    176.3496   4.3817473092e+01   1.1862214330e+01    0.3183429    0.2228221 -52.50   0.00136398    1.697    0.411
        33  -8.7706     96.8011    174.8703   6.2040952387e+01   2.5284285593e+01    0.1982928    0.1596094  60.89 0.0004387181    1.272    0.214
        34 -10.4625    104.3635    170.8650   5.9356146319e+01   2.4980503518e+01    0.4248983    0.2653903 -78.75  0.001784209    2.227    0.551
        35  -9.2739     80.5177    171.3471   6.5955509232e+01   2.8668389482e+01     0.238183     0.130525  33.48 0.0005029467    1.743    0.426
        36 -11.3176    179.7254    169.0559   4.0942910167e+01   1.2028451770e+01    0.4474701    0.3070893  24.97  0.002281867    1.492    0.330
        37  -9.3588    118.3996    170.2459   5.5545636507e+01   2.2717387522e+01    0.1917699    0.1446088 -70.03 0.0002720951    1.561    0.360
        38  -8.9567     72.4792    169.2986   6.7914032084e+01   3.0355205686e+01    0.1938296     0.136258 -87.59 0.0009319494    1.562    0.360
        39 -10.2820     90.2070    166.4684   6.2499748251e+01   2.8353092051e+01     0.355264    0.2049073 -66.01  0.001532739    1.884    0.469
        40 -10.2207    185.2125    239.1173   5.1831155088e+01  -1.9618379645e-01    0.3034014   0.08808285 -40.52  0.001274907    3.758    0.734
        41 -11.8754     59.6968    128.0873   6.5269760523e+01   4.2843448329e+01     0.806696    0.5163172 -75.57  0.002485296    1.637    0.389
        42 -11.4726     64.9301    124.8746   6.2869385445e+01   4.2947888067e+01    0.6084997    0.3764637  55.39  0.001424273    1.828    0.453
        43 -10.8404     75.1774    162.3996   6.6134400767e+01   3.1681883999e+01    0.5160551    0.4436339 -54.20 0.0005239485    1.234    0.190
        44 -11.4069     78.9986    150.3919   6.3058375997e+01   3.4145150593e+01    0.4162416     0.368408  30.04  0.001260712    1.176    0.150
        45 -13.5910     68.9527    144.8687   6.5200595128e+01   3.7094656261e+01     1.404049    0.8774003  70.37   0.00351536    2.010    0.502
        46 -11.6187     64.4761    161.7327   6.9153571634e+01   3.3382526002e+01    0.5283836    0.3560345   0.64  0.002112349    2.221    0.550
        47 -10.5006    239.0142    161.7005   2.8783472126e+01   3.7240617940e+00    0.1738919    0.1455432  -6.63 0.0006960802    1.096    0.088
        48  -9.4782     90.7136    152.6637   5.9982793451e+01   3.1677632661e+01    0.2932029    0.2110955 -79.21  0.001349679    1.595    0.373
        49 -10.1721     94.1212    157.6294   5.9891410149e+01   2.9876810109e+01    0.4998804    0.2900563  86.54  0.001688645    3.170    0.685
        50  -9.2399     90.6968    157.2938   6.0813484034e+01   3.0527754005e+01    0.4195661    0.2572907 -87.83  0.001652851    2.394    0.582
        51 -10.1662     53.7276    158.6678   7.1914588053e+01   3.5588324763e+01    0.4427654    0.2675457  80.87  0.001499929    1.908    0.476
        52 -10.7386     45.8187    150.8964   7.3309867308e+01   3.8572948520e+01     0.651827    0.2441524  59.82  0.001938455    4.307    0.768
        53  -9.3529     41.6949    154.2879   7.4988569964e+01   3.8163072028e+01    0.2175854    0.1708411  56.53  0.000291577    1.205    0.170
        54 -10.9431    133.6396    145.3784   4.6619743530e+01   2.5530956003e+01     1.094459    0.2709154 -54.03  0.002483762    6.187    0.838
        55 -11.6024     69.2828    157.8626   6.7174107508e+01   3.3691982534e+01    0.4869508    0.3706425   2.56   0.00130313    1.727    0.421
        56 -11.6930     29.9961    161.4533   7.9216952976e+01   3.7558741050e+01    0.4667722    0.2154695  54.31  0.001453533    2.141    0.533
        57 -11.2084     84.3105    146.3284   6.0726899432e+01   3.4334220087e+01     0.610819    0.3872895  12.44  0.001043783    2.256    0.557
        58 -11.2853     83.5211    142.5120   6.0253245713e+01   3.5439011845e+01    0.4778204    0.3067191  33.18 0.0009458794    1.575    0.365
        59 -10.5389    109.0239    145.3116   5.3267477357e+01   3.0264615373e+01    0.2951797    0.2865039  70.82 0.0006614827    1.029    0.028
        60 -11.1517     45.8661    158.3965   7.4222637172e+01   3.6618149388e+01    0.4938192    0.2549798  65.74  0.001593708    2.276    0.561
        61  -9.4872    148.0243    144.4879   4.2835356704e+01   2.2880283308e+01    0.2212745    0.1484806  39.86 0.0002017018    1.486    0.327
        62 -10.2293     36.9670    142.4006   7.5021789183e+01   4.1802973884e+01      0.29925    0.1905808 -75.26 0.0009285197    1.461    0.316
        63 -16.0925     13.4879    242.0290   8.8036592533e+01   2.1114903724e+01     1.354216     1.163149  30.48  0.009446027    1.399    0.285
        64 -10.2962     56.1374    141.8585   6.8777623436e+01   3.9668698223e+01    0.2410503     0.187893  67.12  0.001221929    1.303    0.232
        65 -11.6250    104.0082    131.5432   5.1741427123e+01   3.4575015217e+01    0.8322933    0.5449859   5.97  0.002892127    2.594    0.614
        66  -9.1807    241.4850    134.5201   2.2958035962e+01   7.4687645180e+00     0.128055     0.104425 -30.03 0.0002344562    1.043    0.041
        67 -10.6982    127.8148    159.7959   5.1132087107e+01   2.3385767043e+01    0.4933204     0.286977 -66.74  0.001921326    2.413    0.586
        68 -11.5344     87.6902    132.2558   5.6899636210e+01   3.7363488092e+01     0.292829    0.2712551 -55.58 0.0003836166    1.086    0.079
        69  -9.7781     40.2695    132.1775   7.2559933335e+01   4.4168414497e+01    0.2543888    0.1899152  45.21  0.000446248    1.349    0.259
        70 -10.0946     44.5711    130.1772   7.0796233912e+01   4.4215817793e+01    0.2898287    0.2397075 -84.02   0.00123927    1.144    0.126
        71  -9.4731    110.1147    126.5178   4.8768892074e+01   3.4620158395e+01    0.2477689    0.2180012 -14.06 0.0006843309    1.297    0.229
        72  -9.2380    101.1481    128.0996   5.1815960679e+01   3.5968935455e+01    0.2446286    0.2095382  86.98  0.000484936    1.304    0.233
        73  -9.2651    127.2970    122.3094   4.2887549318e+01   3.2092766602e+01     0.158267    0.1265134  -6.44 0.0002167841    1.594    0.373
        74  -9.8685     97.2902    121.5405   5.1466588068e+01   3.8330833809e+01    0.2791434    0.2434024 -20.07  0.000644021    1.307    0.235
        75  -8.6509    107.6136    121.7166   4.8349310445e+01   3.6280974715e+01    0.1636746    0.1268394  -2.38 0.0005310287    1.740    0.425
        76  -8.7546    142.9941    118.4714   3.7842858344e+01   2.9576191675e+01     0.202829    0.1387196  73.74 0.0004300378    2.161    0.537
        77 -15.2489     10.3729    206.1326   8.7249378222e+01   2.8766512419e+01    0.8802482    0.6658056  21.88  0.002940897    1.552    0.356
        78  -9.6282    106.9381    116.0700   4.7140841124e+01   3.7783627511e+01    0.2331778    0.2282669 -81.31 0.0003068059    1.019    0.018
        79  -9.1279     24.2515    115.9465   7.5920600526e+01   5.0091278520e+01    0.1958079    0.1686498 -82.15 0.0004817462    1.047    0.045
        80  -8.9129     46.9148    115.4532   6.7463376127e+01   4.7881762930e+01     0.204678    0.1454544  29.95 0.0003439469    1.488    0.328
        81  -9.2144    139.5450    113.1075   3.7312986271e+01   3.1498513638e+01    0.2311473     0.153404 -45.02 0.0003064835    1.488    0.328
        82  -9.5595    127.6282    110.1893   3.9651467332e+01   3.4774558706e+01    0.2299897    0.1479693 -36.15  0.000699785    1.673    0.402
        83 -10.4420     53.4516    109.2905   6.3807998436e+01   4.8688099720e+01    0.3468756    0.2144632 -66.10  0.001086117    1.567    0.362
        84 -10.2378     50.8711    105.7035   6.4026076545e+01   4.9975384014e+01    0.3717217    0.1893679 -56.75  0.001414911    1.787    0.440
        85 -10.9600     30.0145    108.5153   7.2625350531e+01   5.1561743902e+01    0.5553542    0.2092828  40.96  0.002096395    2.769    0.639
        86 -10.8152     24.3066    105.0267   7.4289858509e+01   5.3001366323e+01    0.3345475    0.3011768  79.69  0.001061219    1.120    0.107
        87  -9.9969     35.0330    115.9128   7.1932563312e+01   4.9088443833e+01    0.2185681    0.1996201 -83.80 0.0004271039    1.026    0.025
        88  -9.6343     20.0275    108.4843   7.6469425228e+01   5.2427970014e+01    0.1952483    0.1362826  25.76 0.0008797977    1.578    0.366
        89  -9.5261    112.6596    103.3272   4.2013764590e+01   3.9599274253e+01    0.1666639    0.1277686  85.85 0.0007051481    1.734    0.423
        90  -9.3799     59.9561     99.9741   5.9208147081e+01   5.0210562415e+01    0.2484913    0.1794487  69.85 0.0007125756    1.745    0.427
        91  -9.1173     48.3498     96.7124   6.3015357243e+01   5.2656026523e+01    0.1520755    0.1100344  64.16 0.0007023531    1.662    0.398
        92  -8.7939    134.7465     95.6763   3.3725812999e+01   3.6317390382e+01    0.1538774    0.1256955  -5.47 0.0002362315    1.543    0.352
        93  -9.0829     57.7022     94.3505   5.8684633168e+01   5.1983996648e+01    0.1546503    0.1160021  75.59 0.0007035442    1.687    0.407
        94  -9.3606     27.1753     93.8673   7.1192817422e+01   5.5703161691e+01    0.2101975    0.1778999  67.88 0.0005631408    1.282    0.220
        95 -10.4310     52.6813     90.7741   5.9798629674e+01   5.3608197581e+01    0.2460904    0.2195383  36.34  0.000571975    1.182    0.154
        96  -9.9124     57.0351     86.9894   5.6999542046e+01   5.3939665800e+01    0.2364327    0.1792525  69.83 0.0006949923    1.677    0.404
        97  -9.7732     45.8154     86.2166   6.1512539273e+01   5.5675180438e+01     0.233769    0.2120386  76.79 0.0007097431    1.218    0.179
        98  -9.7287     41.9945     84.3009   6.2680419572e+01   5.6631683880e+01    0.2095135    0.1916308  75.96 0.0002787755    1.207    0.172
        99  -8.8551     70.6563     85.3143   5.1059614499e+01   5.2160822463e+01    0.1568945    0.1206337  74.57 0.0006423584    1.710    0.415
       100 -10.6831     36.1605     82.2970   6.4767844892e+01   5.7806741564e+01    0.3628199    0.3351665  33.07  0.001164137    1.177    0.150
       101  -9.9259     26.0434     83.9702   6.9707091991e+01   5.8375241119e+01    0.2198233    0.2005402  17.50 0.0005318396    1.207    0.172
       102  -9.7671     53.5010     83.5165   5.7509198497e+01   5.5317028993e+01     0.147923    0.1393813 -42.47  5.01805e-05    1.003    0.003
       103  -8.7660     65.7520     81.3345   5.1796365075e+01   5.3950080045e+01    0.1462409    0.1186577  89.45 0.0003522997    1.555    0.357
       104 -15.9817     33.1587    185.2275   8.0401270712e+01   3.1345216334e+01     5.323552     2.485373 -89.02    0.0236996    2.266    0.559
       105 -10.2174     31.4036     79.0091   6.6132627199e+01   5.9135582324e+01    0.2430971    0.2077506  15.41 0.0003435941    1.267    0.211
       106  -9.2794    172.3062     76.2878   2.0036151625e+01   3.1053740647e+01    0.2032893    0.1595036 -65.60 0.0006423391    1.335    0.251
       107  -9.7043    128.6251     73.3998   2.8485970478e+01   4.2244696375e+01     0.313982    0.1810929 -62.92  0.001132547    2.541    0.606
       108  -9.6920     34.8488     73.6148   6.3134692564e+01   6.0122082387e+01    0.1965053    0.1260458  36.59 0.0009503698    1.690    0.408
       109 -11.2232      1.7812     63.3530   7.7367361199e+01   6.5144977856e+01    0.4962933    0.1357523 -71.22  0.001820477    3.057    0.673
       110 -11.7222    193.4207     62.1023   1.2857160509e+01   2.8369485156e+01    0.4633439    0.4074101  41.31  0.001176104    1.359    0.264
       111 -12.7185    205.7826     53.5467   9.0906364771e+00   2.6810003862e+01    0.8691717     0.732466 -42.84  0.003287788    1.124    0.111
       112 -12.8614    215.1820     46.6869   6.3779690589e+00   2.5683192337e+01    0.6128965    0.5854198 -70.04  0.001324437    1.186    0.157
       113  -9.5470    134.8117     61.2145   2.3011966590e+01   4.2907550344e+01    0.2705466    0.1579493 -70.46 0.0009526671    2.840    0.648
       114 -11.0220     13.6435     60.0221   7.0326190865e+01   6.5315025172e+01    0.2191174    0.2169011 -73.23 0.0005127729    1.166    0.142
       115 -10.4032     20.5907     52.2650   6.4294628747e+01   6.6612920917e+01    0.2346493     0.200704 -19.15 0.0005489056    1.119    0.107
       116 -10.4179      2.9849     40.0093   7.1262225648e+01   7.0605936086e+01    0.2003965    0.1594343 -40.42 0.0005375876    1.043    0.041
       117 -10.2780     27.1730     35.3948   5.4060946437e+01   6.9602564314e+01    0.1789334    0.1157409  36.00 0.0009439553    1.710    0.415
       118 -12.3227    107.7358    228.7734   6.6644769963e+01   1.2266787415e+01     0.509922    0.4262392  25.08  0.003259083    1.130    0.115
       119 -11.3707      2.2659     24.3952   6.6486135889e+01   7.4024740158e+01    0.3718587    0.1981079 -62.81  0.001479985    1.846    0.458
       120  -9.4845     60.7163     21.1450   2.9088574413e+01   6.6538911250e+01     0.225171    0.1786592  53.66 0.0006768059    1.341    0.254
       121  -9.9052    220.0835    245.2204   4.6382257800e+01  -5.2370377580e+00    0.1772304    0.1336024 -15.27 0.0004219433    1.270    0.213
       122 -10.5705     82.9837    245.6615   7.3765723939e+01   1.2530862109e+01    0.1836925    0.1666488  73.61 0.0003170227    1.236    0.191
