#   1 NUMBER                 Running object number                                     
#   2 MAG_AUTO               Kron-like elliptical aperture magnitude                    [mag]
#   3 X_IMAGE                Object position along x                                    [pixel]
#   4 Y_IMAGE                Object position along y                                    [pixel]
#   5 X_WORLD                Barycenter position along world x axis                     [deg]
#   6 Y_WORLD                Barycenter position along world y axis                     [deg]
#   7 A_WORLD                Profile RMS along major axis (world units)                 [deg]
#   8 B_WORLD                Profile RMS along minor axis (world units)                 [deg]
#   9 THETA_WORLD            Position angle (CCW/world-x)                               [deg]
#  10 FWHM_WORLD             FWHM assuming a gaussian core                              [deg]
#  11 ELONGATION             A_IMAGE/B_IMAGE                                           
#  12 ELLIPTICITY            1 - B_IMAGE/A_IMAGE                                       
         1 -13.3508      1.9614    187.4857   1.1123125435e+02   3.3269866825e+01      11.9119          nan -75.86   0.02126906   13.295    0.925
         2 -13.6196     28.5707    187.0862   1.0388475017e+02   3.1094915056e+01     3.871425     1.760227  68.02    0.0146499    2.879    0.653
         3 -10.9166      2.4687     58.2005   9.4288597390e+01   6.5981149399e+01    0.7359806    0.2105567 -63.68  0.002786687    3.258    0.693
         4 -12.5802    225.7975     41.0095   2.7361612892e+01   2.5978041201e+01     1.021352    0.7902414  45.90  0.006911024    1.925    0.480
         5 -11.6577    245.2459     26.2274   2.3218489513e+01   2.4282769569e+01    0.6143201     0.411794 -56.98  0.002663928    1.109    0.098
         6 -10.6025      2.3138     23.2347   8.2666619535e+01   7.2894677051e+01    0.3922778     0.230628 -54.73  0.002253325    1.966    0.491
         7 -10.6931     49.2882    171.8240   9.6066073434e+01   3.2843257152e+01    0.5957072    0.3596773 -21.76  0.002138121    2.395    0.583
         8  -8.1296     24.1225    250.5423   1.0967331278e+02   1.6758432310e+01    0.1758245    0.1032238  31.16 0.0003430062    1.504    0.335
         9 -10.3211     15.7543    249.1537   1.1142179971e+02   1.7857430390e+01    0.2856635    0.2149385  64.02 0.0008141965    1.145    0.127
        10 -13.3392     12.3225    239.7995   1.1169593338e+02   2.0151504660e+01     2.768862     1.342324  11.56   0.01283058    2.882    0.653
        11 -10.6550     71.1818    226.8767   9.6652101306e+01   1.6584660883e+01    0.7647092    0.2754829  19.85  0.002543346    3.702    0.730
        12 -11.7178     82.8347    222.7272   9.3253049456e+01   1.6009261882e+01    0.9845341     0.701045  42.53  0.005263722    1.303    0.233
        13 -11.0664     72.5075    219.4147   9.5487403163e+01   1.8102615647e+01    0.7076236     0.305818  32.09  0.002825812    2.027    0.507
        14 -10.2737    102.5191    222.8372   8.8336213497e+01   1.3319764082e+01    0.2855858    0.2153665  -6.96   0.00150077    1.531    0.347
        15  -9.9097     12.3858    217.9598   1.1046773029e+02   2.5033406087e+01     0.393397    0.2003058  55.21  0.001468403    1.786    0.440
        16  -8.0430     70.4501    248.1163   9.8965731787e+01   1.2143589438e+01    0.1713815    0.1274708 -69.81  0.001011535    1.542    0.352
        17 -10.2676     55.7708    166.6775   9.3353411478e+01   3.3412852613e+01    0.3674169    0.2894529 -19.30 0.0005500202    1.492    0.330
        18 -12.2831      8.9069    207.4639   1.1068519376e+02   2.7814911531e+01     1.051315    0.8147522 -15.84  0.003656218    1.704    0.413
        19 -11.4248     17.0673    196.2114   1.0781245375e+02   2.9859826292e+01    0.4973975    0.4020753 -19.59  0.001014371    1.551    0.355
        20  -9.3088    240.3588    169.8333   5.0384171845e+01   3.8279953297e+00     0.192239    0.1647084  87.73 0.0008408537    1.928    0.481
        21  -8.1721    110.8072    167.3962   7.7160089319e+01   2.4944164370e+01    0.2556018    0.2121334 -69.06 0.0007123651    1.345    0.256
        22 -11.9727     75.4142    152.3170   8.4781442830e+01   3.4490929292e+01     1.760143      1.11141  65.34  0.003635817    2.198    0.545
        23 -11.0640     67.5317    142.5191   8.5479226841e+01   3.8232320221e+01    0.7637804    0.3375974  38.67  0.001834975    2.242    0.554
        24  -9.6459     67.4656    158.0072   8.8313351170e+01   3.4151439812e+01    0.3156407    0.2605381 -43.74 0.0003991273    1.232    0.188
        25 -11.6589     53.2352    153.8357   9.2187711890e+01   3.7154313782e+01    0.5594427    0.3644823 -27.12  0.001132339    1.918    0.479
        26  -9.6644      8.5297    193.2470   1.0986444080e+02   3.1322839387e+01    0.2942926     0.120124 -87.01  0.001205898    2.498    0.600
        27  -7.2601     52.3094    247.3244   1.0310381123e+02   1.4427965991e+01    0.1202787   0.09513897 -21.81 0.0007037831    1.653    0.395
        28  -8.6062     92.4414    139.6975   7.6872207499e+01   3.4983329932e+01    0.3737803    0.2800511   0.94  0.001457697    1.672    0.402
        29  -8.0579     95.9792    136.6874   7.5115773180e+01   3.5117889596e+01     0.282116    0.1947143 -13.48  0.001147329    2.041    0.510
        30 -10.5529     79.6959    137.6259   8.0482566037e+01   3.7641315311e+01    0.3373481    0.3106723  -7.36 0.0002540807    1.130    0.115
        31  -8.0981     70.9577    212.4530   9.5076906097e+01   1.9917951698e+01    0.2104616    0.1263032  32.24 0.0004694179    1.520    0.342
        32  -9.0462    105.8263    129.9833   7.0597044902e+01   3.4956981874e+01      0.36039    0.3077733  -5.12  0.001188288    1.321    0.243
        33  -9.6276     56.2979    127.8805   8.6456866545e+01   4.3663428075e+01    0.2441495    0.1913148 -85.70  0.001172351    1.478    0.323
        34  -7.5364     91.8337    125.3483   7.3799188392e+01   3.8661872000e+01    0.2172411    0.1468223  23.49 0.0003833997    1.649    0.394
        35 -10.7231     70.0021    145.4950   8.5235586344e+01   3.7087549509e+01     0.657607    0.3483145  26.78  0.001510083    1.973    0.493
        36  -9.0418     53.7637    119.9649   8.5732369176e+01   4.6067429699e+01    0.3143766    0.1056984 -56.86  0.001043156    2.700    0.630
        37  -8.1601    103.8196    118.3638   6.8365864773e+01   3.8095772120e+01    0.2604989    0.1934913  27.36 0.0004151746    1.441    0.306
        38  -8.2859    230.8466    114.1287   4.1236438089e+01   1.4377448036e+01    0.1924971    0.1478722 -59.65 0.0006503597    1.271    0.213
        39  -8.1973    205.4183    110.2977   4.4021321677e+01   1.9386737657e+01    0.2130337     0.161555  40.05  0.000832937    1.606    0.377
        40  -9.4224     51.7349    108.8395   8.4023502792e+01   4.9181855703e+01    0.3652686    0.2388845  89.67  0.001495031    2.361    0.576
        41  -9.2479     53.5132     91.9653   7.9071905486e+01   5.3044738323e+01     0.402788    0.2549945 -70.33  0.001367329    2.093    0.522
        42  -9.2883      1.8010     87.2756   1.0074691849e+02   5.9233746584e+01    0.3020823    0.1604111 -66.46  0.001437037    1.671    0.402
        43  -9.0270      1.9930     80.1496   9.9371088091e+01   6.0954959705e+01    0.4222401    0.1462914 -73.81  0.001556533    3.196    0.687
        44  -9.5273      2.3618     72.9788   9.7765672686e+01   6.2635904646e+01    0.3224298    0.1437665 -66.04  0.001261362    2.070    0.517
        45  -9.4340     79.9601    242.6528   9.6188848220e+01   1.2097095710e+01     0.393741    0.2721366  74.78  0.002118126    1.829    0.453
        46 -11.7446    213.8303     48.8520   3.0003288601e+01   2.7234261855e+01    0.4524066    0.3829353 -51.93  0.002261648    1.190    0.160
        47  -8.6352    247.5080    235.4792   6.0319795598e+01  -6.8783258097e+00    0.1122246   0.08003288 -15.59 0.0003353763    1.010    0.010
        48 -10.0468     13.0448     60.7055   8.9206451280e+01   6.4710811808e+01    0.4015518     0.191951 -38.16  0.001466408    1.901    0.474
        49  -9.6088      1.7716     38.8907   8.9019996188e+01   7.0040910632e+01    0.2716109      0.12225 -51.76  0.001369191    1.944    0.486
        50  -9.3516    114.8980    229.2343   8.6182702807e+01   1.0264970745e+01     0.313328    0.1613703 -43.78  0.001428398    2.121    0.528
        51 -11.7751     55.5392    233.0656   1.0112117712e+02   1.7108141251e+01     1.018049     0.757639  74.78  0.002114682    1.427    0.299
        52  -9.1938     16.4340     46.2181   8.2720742748e+01   6.7408226603e+01    0.2287883    0.1901297  28.43 0.0007060126    1.363    0.266
