#   1 NUMBER                 Running object number                                     
#   2 MAG_AUTO               Kron-like elliptical aperture magnitude                    [mag]
#   3 X_IMAGE                Object position along x                                    [pixel]
#   4 Y_IMAGE                Object position along y                                    [pixel]
#   5 X_WORLD                Barycenter position along world x axis                     [deg]
#   6 Y_WORLD                Barycenter position along world y axis                     [deg]
#   7 A_WORLD                Profile RMS along major axis (world units)                 [deg]
#   8 B_WORLD                Profile RMS along minor axis (world units)                 [deg]
#   9 THETA_WORLD            Position angle (CCW/world-x)                               [deg]
#  10 FWHM_WORLD             FWHM assuming a gaussian core                              [deg]
#  11 ELONGATION             A_IMAGE/B_IMAGE                                           
#  12 ELLIPTICITY            1 - B_IMAGE/A_IMAGE                                       
         1 -10.7300     47.4532     23.4291   2.9149472302e+02   7.2415336745e+00    0.1011923     0.033702 -51.91  0.004668625    2.955    0.662
         2 -10.2574     10.4161     18.7720   2.9193301459e+02   7.5061335478e+00   0.08308748   0.03508786 -25.69  0.004143213    7.339    0.864
         3 -11.4091     24.5813     30.5506   2.9181961377e+02   7.2888849002e+00    0.1457216   0.02160015 -51.62   0.00796013    5.513    0.819
         4 -10.6967     37.1175      9.4748   2.9154827493e+02   7.4623836448e+00   0.04945137    0.0235239 -76.00  0.002674491    2.781    0.640
         5 -10.5454     19.3320      6.7728   2.9175625974e+02   7.5948451723e+00   0.06276906   0.03213663  57.08  0.004252885    2.647    0.622
         6 -10.1910      4.5243     42.1088   2.9213330679e+02   7.2684766875e+00   0.04766065   0.02051668 -66.54  0.003906363    2.539    0.606
         7  -9.3534      2.2123     14.7481   2.9201389834e+02   7.5994102036e+00   0.02396292   0.01314727 -83.59  0.002038785    2.553    0.608
         8 -10.3852      5.2626      4.5400   2.9192031341e+02   7.7006358669e+00    0.0277771   0.02562294  22.24  0.001492784    1.017    0.017
         9 -10.5948     35.8734     37.9696   2.9171856728e+02   7.1385121230e+00   0.02941161   0.01835975 -32.26 0.0003736452    1.899    0.473
        10 -10.0815     79.0531     24.2013   2.9110358075e+02   7.0525058052e+00   0.03678562    0.0195994   0.96  0.002445685    2.690    0.628
        11  -8.5564    103.6707      2.4155   2.9067712801e+02   7.1648725329e+00   0.01678551   0.01012254 -37.46  0.001433134    1.899    0.473
        12  -9.5074    100.9218     32.3154   2.9087424232e+02   6.8334397939e+00   0.02953636   0.01213103 -63.33  0.001615093    2.529    0.605
        13  -9.5881    103.2737     20.3146   2.9077953873e+02   6.9593604780e+00    0.0469747   0.01103339 -57.32  0.002570358    3.716    0.731
        14  -8.7076    102.0545      8.4564   2.9073023415e+02   7.1039920622e+00   0.01600247   0.01165788  70.73  0.001063357    1.664    0.399
        15  -8.8821     95.8488     16.5417   2.9085185136e+02   7.0455799276e+00   0.01947405  0.009148201 -62.48  0.001269051    2.207    0.547
        16  -7.9594     97.5948     11.2653   2.9080129851e+02   7.0968635804e+00   0.01210242  0.008182485 -51.86 0.0007274039    1.535    0.348
        17  -9.2854    151.2883     26.1544   2.9021128430e+02   6.6168261190e+00   0.02366671  0.008379909  41.51  0.001750518    2.772    0.639
        18 -10.0025     63.6272      3.2508   2.9118264146e+02   7.3837094351e+00   0.03559759   0.02128093 -56.22   0.00349109    1.718    0.418
        19  -9.6413     63.0712     21.3522   2.9128801840e+02   7.1767097571e+00   0.02231593   0.01508191  85.14  0.001535554    1.924    0.480
        20 -10.0035     64.3795     13.5996   2.9122950444e+02   7.2592764904e+00   0.02153308   0.01846289 -35.47  0.002500049    1.229    0.186
        21  -9.6005    133.4114     10.8887   2.9035146353e+02   6.8964124527e+00   0.02577065   0.01314428 -83.53  0.002038302    2.967    0.663
        22  -8.3275    120.8793      5.6874   2.9047977279e+02   7.0285007193e+00   0.01608818  0.009055804  33.97  0.001130389    1.624    0.384
        23  -9.2163    134.6833      2.4137   2.9028938105e+02   6.9874836199e+00    0.0222048   0.01477849 -29.13  0.002193231    1.769    0.435
        24  -9.6287    119.1750     20.2566   2.9058042837e+02   6.8691320735e+00   0.03607118   0.01315858 -55.43  0.002226039    2.662    0.624
        25  -8.6976    125.0261     13.0536   2.9046806225e+02   6.9192774622e+00   0.01867425    0.0134724  78.49  0.001704803    1.726    0.421
        26  -9.6275    126.0933      7.3957   2.9042390010e+02   6.9788405058e+00   0.02611113   0.01612546 -68.41  0.002562833    1.777    0.437
        27  -9.9950     73.3886     18.1516   2.9114154082e+02   7.1550634477e+00   0.04262433   0.01669929 -67.71  0.003282659    2.893    0.654
        28  -8.2585     72.0572      8.5370   2.9110590716e+02   7.2742871170e+00   0.01255927   0.01105991  77.41  0.000678057    1.259    0.206
        29  -8.7384     76.9719      6.6946   2.9103439406e+02   7.2676445054e+00    0.0173886   0.01110866 -56.87  0.001598025    1.617    0.382
        30  -8.8051     78.8275      3.1335   2.9099180135e+02   7.2983966153e+00   0.01511831   0.01193121  57.28 0.0008404374    1.370    0.270
        31  -8.9403    110.6141      5.7580   2.9060850305e+02   7.0863898779e+00   0.03522658  0.008744577 -52.04  0.002318145    3.774    0.735
        32  -8.9015    115.2528      4.2845   2.9054247556e+02   7.0769660416e+00   0.01558074   0.01179801  73.36 0.0006315535    1.577    0.366
        33  -9.2044    113.8523     10.1924   2.9059216409e+02   7.0164041376e+00   0.02026218   0.01255556 -17.73 0.0003722144    2.134    0.531
        34  -9.4792     85.1418     13.0126   2.9096656233e+02   7.1476814863e+00   0.02375264   0.01391675  69.50  0.001355888    2.488    0.598
        35  -8.2609     85.5019      6.2907   2.9092548093e+02   7.2236615309e+00   0.01901638    0.0133898 -11.04  0.001922295    1.679    0.404
        36  -8.9329     88.7274      3.0236   2.9086734889e+02   7.2431719179e+00    0.0202468   0.01528514  30.69  0.001535574    1.230    0.187
        37  -7.8155     80.4808     12.3156   2.9102107596e+02   7.1823712083e+00   0.01220263  0.007033997 -76.62   0.00110641    2.120    0.528
        38  -8.7420     97.6721      5.7023   2.9077004804e+02   7.1609973743e+00   0.01984585   0.01218128   7.35  0.001443485    1.858    0.462
        39  -8.3812     95.6932      3.2975   2.9078170741e+02   7.2002141486e+00    0.0131694   0.01177038 -29.53  0.000622655    1.172    0.147
        40  -9.5688    235.4801      4.1870   2.8904080956e+02   6.3881504768e+00   0.01908517   0.01380563 -72.47  0.001303238    1.536    0.349
        41  -7.2499    142.6844      5.2625   2.9020491699e+02   6.9086007775e+00   0.00698821  0.004814383  50.99 0.0001611516    1.543    0.352
        42 -10.5927    133.5529    109.1727   2.9088436705e+02   5.7538415968e+00   0.03767862   0.01961485 -69.89  0.002555119    2.182    0.542
        43 -11.0966    201.2314    249.0086   2.9079929691e+02   3.7408543976e+00   0.04742406   0.01289502  25.15  0.003132001    3.390    0.705
        44 -10.1209    172.4718    248.6671   2.9115544842e+02   3.9092148655e+00   0.02039143   0.01171873  45.37  0.001913036    1.777    0.437
        45  -9.3549    139.3833    104.6389   2.9078696393e+02   5.7732063692e+00   0.01842218   0.01322585  65.94 0.0006735458    1.660    0.398
        46  -9.1594    140.4410     82.1973   2.9065178795e+02   6.0279878089e+00   0.02640524   0.01160888 -57.09  0.001210574    2.268    0.559
        47  -9.0622    139.9858     75.0093   2.9061838438e+02   6.1141187332e+00   0.02560766   0.01361172 -56.94   0.00147294    1.915    0.478
        48  -9.3124     41.1977    121.8464   2.9210652327e+02   6.1331131548e+00   0.02560738   0.01409204 -89.10   0.00179807    2.766    0.638
        49  -7.3573    158.5174    122.4984   2.9064522922e+02   5.4561200995e+00  0.006825888  0.006418054  17.75 0.0004404206    1.016    0.016
        50  -9.9298    140.6286    118.7106   2.9084785568e+02   5.6024968759e+00   0.02371713   0.01639098  79.95  0.001181184    1.861    0.463
        51  -7.6780    165.7457    119.7873   2.9054033194e+02   5.4462585587e+00  0.009247928  0.007412684  48.91 0.0006805173    1.271    0.213
        52  -8.3893    125.7152     84.1978   2.9084653945e+02   6.0889602436e+00    0.0215925   0.01160279 -27.64   0.00176614    2.635    0.620
        53  -9.9914    108.6453    114.6018   2.9122479746e+02   5.8330306689e+00   0.02847043   0.01610473  65.49  0.001492059    2.554    0.608
        54 -10.0539    123.4985     91.4175   2.9091345141e+02   6.0177176793e+00   0.02471727   0.02268083   8.91  0.001245908    1.065    0.061
        55 -10.9421    121.2028    109.0447   2.9103784853e+02   5.8259192705e+00   0.06367287   0.02934548 -66.79  0.005394129    2.376    0.579
        56 -10.6468    108.5429    100.6326   2.9115026270e+02   5.9960368758e+00   0.04709321   0.03133438  73.85  0.004555642    1.973    0.493
        57  -9.4878    127.7275    102.5759   2.9092126046e+02   5.8638346153e+00   0.01784424   0.01628527  64.61 0.0009493746    1.168    0.143
        58  -7.9671      1.4346    115.9854   2.9257172538e+02   6.4271001681e+00   0.01013287  0.006755149 -64.56  0.001025249    1.594    0.373
        59 -10.0342     91.8945    113.0448   2.9142553498e+02   5.9467330778e+00   0.02888461   0.01625984  56.28   0.00168004    2.198    0.545
        60 -10.1308     78.0888    113.0367   2.9159793075e+02   6.0255496334e+00   0.02435453   0.01525704  76.84  0.001788696    2.239    0.553
        61  -7.2652    167.4253    114.4638   2.9049044837e+02   5.4985195422e+00  0.006812206  0.006337201  36.21   0.00013542    1.046    0.044
        62  -7.8503     63.4373     82.2544   2.9161410915e+02   6.4669604270e+00  0.008997299   0.00671528 -87.92 0.0008352912    1.595    0.373
        63 -10.4540     62.7268     95.6674   2.9169571693e+02   6.3150568429e+00    0.0357204   0.01991942  89.14  0.001541307    2.753    0.637
        64  -9.2306     64.7946     86.0220   2.9161757705e+02   6.4154262603e+00   0.03193939   0.01572349 -23.75  0.002263531    3.588    0.721
        65 -10.0600     65.8844    110.9908   2.9173930828e+02   6.1188796937e+00   0.03155601   0.02010397  79.67  0.001407809    2.168    0.539
        66  -9.6907     59.7441    109.7994   2.9180957077e+02   6.1677020873e+00   0.02398001   0.01394196  55.43  0.001691773    2.058    0.514
        67  -9.7659     14.0144    111.3653   2.9238952406e+02   6.4094654520e+00   0.02747396   0.01683503  72.10  0.001777697    2.297    0.565
        68  -8.5705     14.1277    105.0993   2.9235422286e+02   6.4817023354e+00   0.01235668  0.008768142 -34.25 0.0007301972    1.563    0.360
        69  -7.1401    182.5385    113.4670   2.9029653739e+02   5.4235332330e+00  0.006811838  0.006401033  20.48 0.0001732387    1.009    0.009
        70  -9.5542    239.5821    109.7925   2.8956565560e+02   5.1389791496e+00   0.01989232   0.01210056 -81.72  0.001093575    2.092    0.522
        71  -8.1217    158.8059    112.0243   2.9058471711e+02   5.5762228838e+00   0.01046639  0.008744546  57.65 0.0005613418    1.275    0.215
        72  -8.8504     35.7897    111.2898   2.9211697160e+02   6.2866491569e+00   0.01146974  0.007823437  42.75 0.0008281088    1.439    0.305
        73  -9.6891     30.0541    108.7726   2.9217502876e+02   6.3485257862e+00   0.01696908   0.01277909  26.60  0.001847688    1.238    0.192
        74  -7.5707    186.5606    108.4952   2.9021934109e+02   5.4582605649e+00  0.006779854  0.006416306  13.29 9.166954e-05    1.027    0.026
        75 -10.8773     44.7694    102.6062   2.9195773672e+02   6.3365776350e+00   0.04739615   0.02174223  58.26  0.003141631    3.507    0.715
        76  -8.6355     39.9219    107.1351   2.9204284147e+02   6.3114768088e+00   0.01067258  0.008577576  51.07 0.0005552825    1.286    0.223
        77  -7.9152     77.6094    105.7047   2.9156417334e+02   6.1135461029e+00   0.01095119  0.007434204 -28.10   0.00108102    1.724    0.420
        78 -10.8450     20.5194    100.8860   2.9225153143e+02   6.4944136313e+00    0.0597671   0.03230454  76.66  0.004142825    3.225    0.690
        79 -10.3724     31.7563     64.6031   2.9191452544e+02   6.8524209488e+00     0.064972   0.03256513 -31.41  0.003654133    2.821    0.646
        80  -9.9672     20.2062     84.1619   2.9216492780e+02   6.6906682981e+00   0.03078197   0.01319108 -58.53  0.002587867    2.326    0.570
        81 -10.6061     25.5901     77.9964   2.9206421541e+02   6.7317697978e+00   0.04308455   0.02839765  77.09  0.004132289    2.024    0.506
        82  -9.9415     34.3914     90.7358   2.9202317014e+02   6.5336303520e+00   0.02949433   0.01525963 -86.18  0.001616544    3.029    0.670
        83 -10.2087     36.7195     81.1320   2.9194203770e+02   6.6320588392e+00   0.05146143   0.02489764 -10.60  0.003230116    4.615    0.783
        84  -9.5661    149.4741    103.3110   2.9065380539e+02   5.7309118707e+00   0.01875704   0.01324533 -89.55  0.001003815    1.750    0.429
        85  -8.2002    149.9798     97.0142   2.9061326865e+02   5.8012049761e+00   0.01389627  0.008569392 -12.18  0.001027065    2.169    0.539
        86  -8.6914     92.1721    103.9480   2.9137272727e+02   6.0509294724e+00   0.02091627   0.01186645 -15.56  0.001395968    2.617    0.618
        87  -9.3110     36.2222    104.7083   2.9207594252e+02   6.3607359809e+00   0.01629097   0.00871447 -48.34   0.00119983    1.958    0.489
        88  -9.4560      6.2221    103.9089   2.9244660914e+02   6.5404096835e+00   0.02212392    0.0138457  51.36   0.00147982    1.748    0.428
        89  -9.5857     81.4686     99.4816   2.9148221192e+02   6.1639075917e+00   0.03108622   0.01343104 -67.29  0.002132542    2.568    0.611
        90  -7.5403     73.8436    102.8785   2.9159589836e+02   6.1678740620e+00  0.009107297  0.007677272  66.17 0.0004436241    1.307    0.235
        91  -8.4458    159.0798    101.4506   2.9052382483e+02   5.6975529480e+00   0.01248896  0.009582205  58.90 0.0004963746    1.436    0.304
        92  -9.2069     94.3226     97.2910   2.9130974501e+02   6.1160611180e+00   0.01461116    0.0117968  76.72 0.0006514704    1.432    0.302
        93  -8.6713     95.7248     91.0715   2.9125847266e+02   6.1803675920e+00   0.02345085   0.01231521 -25.20  0.001838597    2.894    0.654
        94  -8.9065    130.1245     96.8600   2.9086028348e+02   5.9165764076e+00   0.01928371  0.009905893   9.49  0.001581595    2.412    0.585
        95 -10.2574      4.7698     90.4083   2.9239175280e+02   6.7056523570e+00   0.04109612   0.02287344  81.97  0.002481061    2.943    0.660
        96  -9.6207      6.0102     78.8485   2.9231369364e+02   6.8330258799e+00   0.03973153   0.02062547  -8.95  0.002913571    3.343    0.701
        97 -10.2262    186.3487    250.1615   2.9099077794e+02   3.8125363906e+00   0.01555884   0.01233317  22.87  0.001732915    1.188    0.159
        98  -9.2095     57.4028    250.0436   2.9259649737e+02   4.5492485042e+00   0.01213624   0.00947538  20.00  0.000390247    1.222    0.182
        99 -10.6551    158.7956    247.5740   2.9131983391e+02   4.0000505439e+00   0.02798983   0.01871366  -8.79  0.002720694    1.832    0.454
       100  -7.7012     82.6930    246.6671   2.9226308623e+02   4.4446200883e+00   0.00716291  0.004998202 -26.41 0.0007040165    1.667    0.400
       101 -10.2214    166.8382    248.6743   2.9122563422e+02   3.9413169538e+00   0.02011751   0.01691094  53.38  0.001573804    1.237    0.192
       102 -10.2096     15.8209     70.9775   2.9214837545e+02   6.8688515514e+00   0.05620574    0.0132978 -61.08  0.003677457    3.870    0.742
       103 -10.8559     21.6827     53.7221   2.9198155297e+02   7.0361252434e+00   0.04312762   0.03085609  80.66  0.002771996    1.750    0.429
       104  -9.8729     14.8768     44.4678   2.9201654143e+02   7.1823147784e+00   0.02472841    0.0189012 -22.17  0.001255633    1.463    0.316
       105  -9.4726      8.9608     47.3226   2.9210604435e+02   7.1827223734e+00   0.03059708   0.01266862  25.28  0.001957423    2.238    0.553
       106  -9.5775    187.3338    233.6828   2.9088927259e+02   3.9984948397e+00   0.02212809   0.01273472  41.14  0.002102943    1.681    0.405
       107  -8.1878     50.3078    234.3548   2.9260040080e+02   4.7721616644e+00   0.01072631  0.007445855 -24.46 0.0007417875    1.693    0.409
       108  -7.7951    130.1364    232.2074   2.9159373822e+02   4.3423943438e+00  0.009211169  0.007635964  59.15 0.0004897646    1.297    0.229
       109  -9.3465      6.8631     32.5119   2.9205201267e+02   7.3667047770e+00   0.01409099   0.01066335  23.73 0.0004985667    1.241    0.194
       110 -10.0877      7.1562     28.4489   2.9202631378e+02   7.4122393968e+00   0.02355075   0.01581953  42.13  0.001064384    1.455    0.313
       111  -7.6094    239.6410     96.6862   2.8949353586e+02   5.2908472720e+00  0.007303372  0.005008426 -22.19 0.0007043173    1.748    0.428
       112  -8.7246    164.7103     94.1660   2.9041395702e+02   5.7499675605e+00   0.02086321   0.00937826 -71.21  0.001477172    2.678    0.627
       113  -8.2906    242.2209     94.0407   2.8944699065e+02   5.3067443462e+00  0.009054616  0.005632997 -63.57 0.0008800686    1.700    0.412
       114  -7.1350    149.3276     93.2825   2.9060112229e+02   5.8483078906e+00  0.006993365   0.00506296 -20.31 0.0001815318    1.603    0.376
       115  -8.8884    157.4929     91.3754   2.9048884416e+02   5.8237285524e+00   0.01523367   0.01110124 -76.00  0.001047023    1.554    0.356
       116  -9.2012    111.1680     89.9065   2.9105923714e+02   6.1057371114e+00     0.031079   0.01560955   3.49  0.002365561    2.944    0.660
       117  -8.3587    150.4682     88.6446   2.9056166804e+02   5.8956790626e+00   0.01689334   0.01116487 -62.38  0.001293958    1.593    0.372
       118  -9.9009     81.6094     72.3454   2.9133320254e+02   6.4785736342e+00   0.02225872   0.01449862  72.46 0.0009408542    2.041    0.510
       119  -8.9544     83.5667     64.3317   2.9126522367e+02   6.5605474217e+00   0.02535031   0.01455381 -29.60  0.002237906    2.245    0.555
       120 -10.2656     85.2170     86.6151   2.9136557281e+02   6.2921243206e+00   0.02783816   0.01688811  53.29 0.0009236961    1.871    0.466
       121  -9.4025     87.7661     78.4178   2.9128922504e+02   6.3728741937e+00   0.02698736   0.01629942  -0.99  0.001700035    2.111    0.526
       122 -10.4166     48.0537     83.0363   2.9181065381e+02   6.5454500462e+00   0.04997749   0.02508868 -57.54  0.002646292    2.016    0.504
       123 -10.6837     54.7743     70.9104   2.9166088083e+02   6.6481635724e+00   0.04124876   0.01927148  48.22   0.00113174    2.417    0.586
       124  -9.2780     55.4739     63.0014   2.9160922632e+02   6.7361083307e+00   0.02558882   0.01324615   8.39  0.001765077    2.430    0.589
       125 -10.1605     62.8103     60.8197   2.9150565143e+02   6.7196819086e+00   0.04379978    0.0144028  20.90  0.002991072    3.257    0.693
       126  -7.5162    174.2958     88.6671   2.9026444869e+02   5.7589478980e+00   0.00713874   0.00493985  57.70 0.0003252114    1.642    0.391
       127  -8.2320    165.9903    104.0937   2.9045197349e+02   5.6272636735e+00   0.01129354  0.009800387 -75.76 0.0005605164    1.258    0.205
       128  -7.0758    207.2706     87.7355   2.8984814120e+02   5.5806662133e+00  0.006691867  0.004901645  53.74 0.0002058562    1.467    0.318
       129  -8.1345    163.5407     86.7449   2.9038818683e+02   5.8429007994e+00   0.01243357  0.006425314 -59.18 0.0009379647    1.976    0.494
       130  -8.6257    157.5134     83.5997   2.9044629810e+02   5.9139669631e+00   0.01363519   0.01217972 -58.49 0.0008158578    1.185    0.156
       131  -8.8994    157.3615     77.2130   2.9041344914e+02   5.9890443749e+00   0.02296885   0.01286137 -88.51  0.001505442    2.654    0.623
       132 -10.2710    103.8929     82.6230   2.9111055847e+02   6.2319498145e+00    0.0233401   0.01506184 -85.05 0.0009096967    1.966    0.491
       133  -9.3936    105.4342     70.9741   2.9102802158e+02   6.3585375214e+00   0.03612119   0.01626515 -53.13  0.002924322    2.235    0.553
       134  -9.0872    109.7659     63.9605   2.9093578213e+02   6.4152959723e+00   0.01537466   0.01233644  69.63 0.0007959531    1.422    0.297
       135  -8.7310    110.5518     58.1787   2.9089453187e+02   6.4779859266e+00   0.01933974   0.01258045 -19.44  0.001839392    1.931    0.482
       136  -7.6108    170.2399     83.2760   2.9028571812e+02   5.8448271613e+00  0.009523522  0.007451444  55.50  0.001033117    1.368    0.269
       137  -8.5602    149.9110     80.1506   2.9052243178e+02   5.9975724161e+00   0.01964352  0.009898422 -65.83  0.001349567    2.138    0.532
       138  -8.7761    118.9663     80.4687   2.9091056399e+02   6.1708796029e+00   0.01491695   0.01008076 -80.53 0.0006140523    1.769    0.435
       139  -8.0800    119.5147     76.0383   2.9087963685e+02   6.2192342505e+00   0.01322595  0.008727719  -9.73 0.0008072977    1.883    0.469
       140  -9.1624     74.2292     79.1672   2.9146247177e+02   6.4413569610e+00   0.03117596   0.01351038 -60.32  0.001733783    2.329    0.571
       141  -8.6654     68.4080    102.6054   2.9166233269e+02   6.2020207545e+00   0.01939524   0.01453685 -10.88  0.002052117    1.510    0.338
       142  -7.6867    173.8166     79.1427   2.9021859692e+02   5.8723497925e+00  0.009679084  0.007760952 -17.45  0.000658661    1.368    0.269
       143  -8.3510    166.2510     78.6025   2.9031006392e+02   5.9219800100e+00    0.0129472   0.01001461  66.26  0.000719096    1.482    0.325
       144  -8.0657    184.3616     78.1585   2.9008168225e+02   5.8233297321e+00   0.01141159  0.009149247   4.68 0.0006970091    1.288    0.224
       145  -9.3064    127.2962     75.1850   2.9077780599e+02   6.1846644408e+00   0.01630289   0.01227835  80.31 0.0006864315    1.607    0.378
       146  -8.8848    129.5071     68.6663   2.9071475007e+02   6.2477682509e+00   0.02317671   0.01237476 -14.79  0.001757754    3.119    0.679
       147  -8.5275    130.4886     64.5041   2.9067985633e+02   6.2905149758e+00   0.01665113   0.01066446 -62.35  0.001024084    1.642    0.391
       148  -8.2579    162.5473     72.9408   2.9032547614e+02   6.0089754941e+00   0.01358383   0.01017535  66.41 0.0007997671    1.558    0.358
       149  -9.0579    115.2224     72.0115   2.9091136944e+02   6.2905616381e+00   0.02607589   0.01243605 -63.72  0.001663298    2.202    0.546
       150  -8.4001    169.3343     71.3761   2.9023225512e+02   5.9882628847e+00   0.02094821  0.006954679 -68.43  0.001434715    3.618    0.724
       151  -9.3076    146.9163     69.3856   2.9050126001e+02   6.1397946775e+00   0.01820452   0.01262415  66.78 0.0008627024    1.766    0.434
       152  -8.0856    156.5378     69.7924   2.9038335385e+02   6.0799751265e+00    0.0124124  0.006489285 -59.87    0.0011143    1.962    0.490
       153  -9.6504     94.6764     68.1588   2.9114715586e+02   6.4526781889e+00    0.0188177   0.01278765 -76.81  0.000969313    1.705    0.413
       154  -9.2993     96.8507     58.7966   2.9106911430e+02   6.5490607196e+00   0.04092579   0.01615578 -35.18  0.002583619    4.397    0.773
       155  -9.0853    121.2459     66.2029   2.9080454655e+02   6.3236311470e+00   0.01628829   0.01158555  73.12 0.0006265291    1.747    0.428
       156  -8.2232    122.3177     61.1454   2.9076365665e+02   6.3762659247e+00   0.01406316  0.009944823 -14.33  0.001255248    1.674    0.403
       157  -8.9965    138.1002     65.7831   2.9059174838e+02   6.2321074961e+00   0.02101582    0.0103072 -59.35  0.000904054    2.074    0.518
       158  -8.5697    190.7825     65.8964   2.8993480966e+02   5.9289219839e+00   0.01057862  0.008966069  16.89 0.0003435997    1.133    0.117
       159  -7.8620    171.1707     65.3621   2.9017659750e+02   6.0475947724e+00   0.01043733  0.005504483  35.39 0.0009446694    1.735    0.424
       160  -8.5530    157.5984     63.1497   2.9033396103e+02   6.1510655483e+00   0.01446739   0.01039026  69.95 0.0009187686    1.697    0.411
       161  -8.2725    152.2116     60.4810   2.9038668794e+02   6.2129194083e+00   0.01171595  0.009820576 -67.68 0.0007608369    1.282    0.220
       162  -8.9337     79.9912     46.7145   2.9121422301e+02   6.7856498458e+00   0.01929716   0.01494831 -28.96  0.002103998    1.416    0.294
       163  -9.9001     72.9555     58.9315   2.9136855137e+02   6.6838126001e+00   0.02855423   0.01444687 -75.26  0.001778061    2.489    0.598
       164  -8.7751     75.5557     50.8251   2.9129201500e+02   6.7631845562e+00   0.02321265   0.01301947  -2.64  0.001927072    2.519    0.603
       165  -8.0937      9.4934     60.4105   2.9217029149e+02   7.0275978493e+00   0.01350429   0.00678274 -64.42  0.001193781    2.107    0.525
       166  -8.6701    146.4770     58.9904   2.9045018100e+02   6.2630720264e+00   0.01444142  0.009828449  56.19 0.0006777052    1.655    0.396
       167  -8.9661    147.9190     53.4365   2.9040194516e+02   6.3193278483e+00   0.01841454  0.009648316 -57.45  0.001240658    1.942    0.485
       168  -9.0684    130.1242     56.6122   2.9064147968e+02   6.3842856199e+00   0.02661008   0.01187737 -62.67  0.001431165    2.319    0.569
       169  -8.6843     87.3557     58.3312   2.9118526645e+02   6.6086618258e+00   0.01570978   0.01122772  76.53 0.0008535056    1.748    0.428
       170  -8.3686     89.1675     53.0817   2.9113409571e+02   6.6593200586e+00   0.02110748     0.011355 -21.99  0.001667194    2.858    0.650
       171 -10.1919     85.1285     47.9810   2.9115687263e+02   6.7416292772e+00   0.02155489   0.01574264  65.74 0.0009518404    1.614    0.381
       172 -10.3737     89.6945     38.0970   2.9104605815e+02   6.8303949894e+00   0.04805749   0.02136762   6.68  0.002713863    3.677    0.728
       173 -10.1692     49.8139     53.5575   2.9162876543e+02   6.8780821234e+00   0.03565838   0.02062189 -73.95  0.002568641    2.033    0.508
       174  -9.4416     56.1731     43.3094   2.9149359712e+02   6.9609554123e+00   0.03766435   0.01852686 -23.90  0.002674775    3.583    0.721
       175  -9.2627    138.8636     55.9646   2.9052879429e+02   6.3418019269e+00   0.02371559   0.01030878 -67.94  0.001572865    2.590    0.614
       176  -9.0467    141.9497     48.6917   2.9045066684e+02   6.4086158796e+00   0.01282347   0.01006585 -63.18 0.0003691353    1.353    0.261
       177  -8.2934    122.6892     41.3003   2.9065105787e+02   6.6046714656e+00   0.02454892  0.009952725 -34.54  0.001572385    4.242    0.764
       178  -9.2540    118.2331     54.6354   2.9077928435e+02   6.4752521205e+00   0.02325146   0.01458398 -70.99   0.00134857    1.787    0.440
       179  -9.0632    121.1178     47.0618   2.9070204342e+02   6.5467379465e+00   0.01574892   0.01138337 -67.89 0.0005131768    1.498    0.332
       180  -9.9248    246.0508     52.7687   2.8917427279e+02   5.7638098767e+00   0.01503146   0.01255419  -1.48 0.0004468538    1.249    0.200
       181  -9.2126    249.5594     48.5101   2.8910733422e+02   5.7930398685e+00   0.01595824   0.01110347 -49.01  0.001011529    1.502    0.334
       182  -9.4687    157.2799     48.3487   2.9025735503e+02   6.3247986637e+00   0.02132748   0.01379727 -54.98  0.001896577    1.597    0.374
       183  -7.9452     94.7275     54.1492   2.9107039537e+02   6.6151813135e+00   0.01664077  0.007306696 -58.24  0.001404123    2.277    0.561
       184  -9.5891     43.9294     52.9533   2.9169908882e+02   6.9185891074e+00   0.01895487   0.01848396 -38.26  0.001412847    1.080    0.074
       185  -8.5436    105.0905     53.0656   2.9093498144e+02   6.5685933647e+00   0.01515956   0.01079179  72.06  0.000756358    1.738    0.425
       186  -8.2581    105.3216     49.3465   2.9091187170e+02   6.6104800437e+00   0.01313233   0.01094356   2.42 0.0008701249    1.232    0.188
       187  -9.6362    130.5844     46.3676   2.9057998819e+02   6.5006549716e+00   0.04015942   0.01098996 -54.36  0.001755709    3.370    0.703
       188  -8.4675    144.0164     25.7171   2.9029974057e+02   6.6635602747e+00   0.01234209  0.008212055 -47.76 0.0008822829    1.576    0.366
       189  -8.8162    139.4483     39.6580   2.9043273168e+02   6.5278498947e+00   0.02428976   0.01568363 -65.19  0.001689565    1.656    0.396
       190  -8.9244    144.0549     36.5457   2.9035824153e+02   6.5376142937e+00   0.01724051   0.01072997  63.79 0.0006053713    2.072    0.517
       191  -9.9768    141.3429     30.7847   2.9036074437e+02   6.6200359764e+00    0.0153942   0.01252207 -72.61 0.0002658722    1.345    0.256
       192  -8.5894    153.2004     40.9701   2.9026811184e+02   6.4338555496e+00   0.01271591   0.01017242 -88.47  0.000859151    1.444    0.307
       193  -8.1950    149.8388     48.0721   2.9034876606e+02   6.3706365777e+00   0.01147899  0.009551474 -85.21 0.0005292699    1.356    0.262
       194  -9.6601    150.0019     43.8183   2.9032356759e+02   6.4191034337e+00   0.02965636   0.01725481  53.54  0.002724427    1.992    0.498
       195  -7.0396    118.7079    230.7335   2.9172818998e+02   4.4247447942e+00  0.006725939  0.005059157 -20.56 0.0006911397    1.506    0.336
       196  -8.3794    111.9022     46.7633   2.9081558018e+02   6.6028876136e+00   0.01177287  0.009840371 -84.64 0.0004346016    1.346    0.257
       197  -8.7839    113.8061     41.4643   2.9076296098e+02   6.6535569700e+00   0.03045445   0.01250835 -31.98  0.001842861    4.827    0.793
       198  -8.9611    118.8088     34.8286   2.9066433167e+02   6.7020236070e+00    0.0186611   0.01013605 -65.71 0.0009442759    1.979    0.495
       199  -9.0807     69.7784     25.9999   2.9122937294e+02   7.0845066533e+00   0.02077665   0.01456382  57.85  0.001673127    1.616    0.381
       200 -10.2336     69.1966     40.5131   2.9131551863e+02   6.9192443692e+00   0.04239924   0.02241825 -63.80  0.002153123    1.994    0.499
       201  -9.3076     60.0116     33.8252   2.9139407258e+02   7.0492729898e+00   0.01808458   0.01393157 -89.90  0.001008816    1.532    0.347
       202  -8.6285     62.6178     26.9847   2.9132430237e+02   7.1138794611e+00    0.0307411   0.01503193  10.36  0.002449403    2.571    0.611
       203 -10.0506     76.2149     31.7539   2.9118014107e+02   6.9809774705e+00   0.02529099   0.01384948  50.26  0.001338583    2.045    0.511
       204  -8.5960     35.3546    228.1930   2.9275365076e+02   4.9288556019e+00    0.0111219  0.009583711 -15.50 0.0004168242    1.226    0.184
       205  -9.0406     84.8383     21.8762   2.9101857732e+02   7.0464974117e+00   0.01350407    0.0128652  79.02 0.0006947552    1.128    0.114
       206 -10.1541     37.7400     42.1388   2.9171783721e+02   7.0794583886e+00   0.03113044   0.01763366  71.97  0.002013577    2.755    0.637
       207  -7.2602    240.4482     42.5458   2.8918829823e+02   5.9146562840e+00  0.006873992  0.006293602  -7.79  0.000107221    1.116    0.104
       208  -9.1270    110.2783     33.0406   2.9076122250e+02   6.7715570384e+00    0.0171289   0.01216878 -88.10 0.0008366096    1.723    0.420
       209  -8.1398    110.2987     26.5769   2.9072579262e+02   6.8465006844e+00   0.02152702   0.01547961  87.04  0.002216629    1.721    0.419
       210  -8.4204    111.8390     22.5153   2.9068442972e+02   6.8848557465e+00    0.0177072   0.01219243  57.12  0.001176109    1.645    0.392
       211  -9.1045    104.9037     41.2210   2.9087290696e+02   6.7072568918e+00   0.01906781   0.01352568  84.79 0.0007295613    1.770    0.435
       212  -8.4559    105.9980     36.4917   2.9083350330e+02   6.7559356308e+00   0.01564904   0.01011937  -8.20  0.000952221    1.947    0.486
       213  -9.3901    162.8569     53.5275   2.9021592839e+02   6.2326978681e+00   0.02090627   0.01945626 -77.57  0.002088516    1.161    0.139
       214  -8.6722     53.3964     39.2200   2.9150612559e+02   7.0242765095e+00   0.01696803  0.008889261 -44.36  0.001510623    2.084    0.520
       215  -8.7417     54.6590     35.6532   2.9147096060e+02   7.0585235875e+00   0.01467814  0.009823775 -14.46  0.001409562    1.842    0.457
       216  -7.5343    187.4777     39.4553   2.8983195917e+02   6.2548894127e+00  0.006822898  0.006384126  21.18 0.0001550545    1.008    0.008
       217  -8.3994    160.3576     39.1861   2.9016902097e+02   6.4135577568e+00  0.009479891  0.006545094 -84.70 0.0005622973    1.768    0.434
       218  -8.3492    136.0564     26.9808   2.9040607377e+02   6.6944682670e+00   0.01130775  0.009958391 -63.61 0.0004891494    1.210    0.174
       219  -8.5984    132.6481     35.8210   2.9049679727e+02   6.6113307953e+00   0.01289424   0.01048601  79.54 0.0006403411    1.422    0.297
       220 -10.0859    134.0176     31.1296   2.9045414271e+02   6.6579678438e+00   0.01361096   0.01218324 -38.78   0.00160966    1.170    0.146
       221  -7.5244     33.2676    214.7118   2.9270703545e+02   5.0976054575e+00  0.006764113  0.004947584  56.32            0    1.501    0.334
       222  -9.8679     10.0463    207.5508   2.9295813148e+02   5.3127794594e+00   0.03322448   0.01652326  14.09  0.002778448    2.270    0.559
       223  -8.4182    123.9631    206.0161   2.9152900934e+02   4.6823049290e+00  0.009577028  0.009033932  24.18  0.001155063    1.007    0.007
       224  -7.6012     54.8004    205.1952   2.9238711045e+02   5.0859513179e+00  0.009208412  0.007602527 -28.73 0.0003546299    1.299    0.230
       225  -8.4806    152.7214     34.8669   2.9024085062e+02   6.5074654308e+00   0.01201826  0.009081268   7.97 0.0008712925    1.370    0.270
       226 -10.0908    179.6074    199.2956   2.9079913107e+02   4.4425181550e+00   0.01201806   0.01105961  27.91 0.0002796031    1.023    0.022
       227  -8.6701    191.2379    192.8219   2.9061913726e+02   4.4512415488e+00   0.03253742   0.01546734  83.52  0.001928003    5.490    0.818
       228  -9.0869     91.1018     26.1143   2.9096329673e+02   6.9615316500e+00   0.01827651   0.01221783  74.85  0.001151853    1.964    0.491
       229  -8.6563     92.2799     20.9718   2.9092058843e+02   7.0145210929e+00   0.01891784   0.01068693 -18.08   0.00150453    2.617    0.618
       230  -7.6488    179.9913    184.5329   2.9071428043e+02   4.6119770955e+00  0.009608098  0.004730607  46.98 0.0003496247    2.191    0.544
       231  -7.6366    130.0084     21.5073   2.9045183822e+02   6.7926322063e+00   0.01304391  0.006638827 -27.69 0.0009924263    2.985    0.665
       232  -8.9374    139.3078     22.5057   2.9034107399e+02   6.7278060431e+00   0.01740518  0.007279248  45.52  0.001351245    2.585    0.613
       233  -7.7443    248.5055    176.7495   2.8981887642e+02   4.3099431955e+00   0.01495312  0.005888218  10.02 0.0008874673    4.506    0.778
       234  -7.5641      8.5472    171.0827   2.9278030219e+02   5.7456996139e+00  0.009707452  0.005682922  75.76 0.0008076675    2.586    0.613
       235  -7.9193    229.6162    167.4229   2.9000328279e+02   4.5266293056e+00   0.01297534  0.006503016 -86.56 0.0009581258    3.337    0.700
       236  -9.1369     40.9119     20.8884   2.9156278188e+02   7.3082634536e+00   0.01733649  0.009539167 -59.96 0.0005745191    1.871    0.466
       237  -8.5106    128.4228     25.8451   2.9049527669e+02   6.7513442099e+00   0.01258671    0.0106155  65.46 0.0006292584    1.303    0.233
       238  -9.1501    131.8670     17.4196   2.9040634609e+02   6.8294480505e+00    0.0226622   0.01024799  35.43  0.001912783    1.995    0.499
       239  -7.4610     54.7906    164.3809   2.9216679438e+02   5.5609459200e+00  0.009185388  0.006277963   8.66  0.000296094    1.561    0.359
       240  -8.1852      8.0002    154.2358   2.9269624649e+02   5.9448442375e+00  0.009691441  0.008390904  21.42 0.0004458612    1.090    0.082
       241  -8.5337    133.6323    147.2176   2.9108987069e+02   5.3110137057e+00   0.01505397  0.007309366 -75.13   0.00122494    2.637    0.621
       242  -8.6828    238.8490    147.0269   2.8977743958e+02   4.7106641565e+00   0.01171477  0.007470882  67.11  0.001086718    2.050    0.512
       243  -9.7276     67.0314    144.6333   2.9190715986e+02   5.7210246147e+00   0.02737965   0.01596852  57.57   0.00247292    2.121    0.528
       244  -8.5870    190.0447    135.9829   2.9032536082e+02   5.1188361989e+00  0.009903261  0.009403449  24.48  0.001199579    1.014    0.014
       245  -7.4252     95.9938    136.4884   2.9150143933e+02   5.6506979695e+00  0.009955743  0.004636139  46.12 0.0006287743    2.301    0.565
       246  -8.4775    135.8747    132.3170   2.9098104683e+02   5.4714744339e+00   0.02451603  0.007769905 -68.53  0.001631575    3.846    0.740
       247  -8.2391    112.2755    134.1514   2.9128552009e+02   5.5849609275e+00   0.01570057  0.007796235  51.81  0.001187622    2.430    0.588
       248  -9.3519    125.1180    145.1060   2.9118465010e+02   5.3842169855e+00   0.01032482  0.009676661  12.84 0.0002819978    1.033    0.032
       249  -7.7077    140.0678     18.1357   2.9030776892e+02   6.7741823475e+00  0.009672102  0.007706246  54.64 0.0005998911    1.330    0.248
       250  -9.6374     98.7391    128.9347   2.9142622080e+02   5.7228913825e+00   0.02963625   0.01313442  53.15  0.002196212    3.079    0.675
       251  -7.6724    161.4864    130.0122   2.9064901117e+02   5.3517780663e+00   0.01012374  0.006814149 -64.12  0.001028427    1.578    0.366
       252  -8.5157    112.2377     15.5380   2.9064145963e+02   6.9635816996e+00   0.01202874   0.01031975  83.31 0.0005535937    1.313    0.238
       253  -8.3373    122.2959    129.6767   2.9113617808e+02   5.5797721963e+00   0.01364995   0.01017195  64.13  0.000803414    1.549    0.354
       254  -9.6316    117.0734    125.4375   2.9117836614e+02   5.6589001602e+00   0.02390028   0.01273855  55.76  0.001537495    2.381    0.580
       255 -10.1792     70.3832    125.9855   2.9176434103e+02   5.9188552243e+00   0.02966579   0.02870221  46.45  0.002051215    1.064    0.060
       256 -10.1221     58.4187    124.9386   2.9190811951e+02   5.9991658427e+00   0.03526442   0.01737629  59.32  0.002564915    3.046    0.672
       257 -10.5543    236.2289    128.0645   2.8970688769e+02   4.9459935336e+00   0.01477196   0.01196987  27.71 0.0003818932    1.151    0.131
       258  -7.8974    141.2918     12.5528   2.9026205398e+02   6.8319725800e+00  0.009468857  0.006447223  10.67 0.0009443525    1.542    0.352
       259  -9.6719     27.5481    123.1398   2.9228406538e+02   6.1956494385e+00   0.03041656    0.0150803  58.47  0.002356749    2.927    0.658
       260 -10.2420    131.7416    119.9014   2.9096523263e+02   5.6394620273e+00    0.0403032   0.01980953  58.31   0.00290918    2.975    0.664
       261  -9.9547    138.5685     91.9815   2.9072835349e+02   5.9249896342e+00   0.04498896   0.01894808 -67.75  0.002873608    2.670    0.626
