#   1 NUMBER                 Running object number                                     
#   2 MAG_AUTO               Kron-like elliptical aperture magnitude                    [mag]
#   3 X_IMAGE                Object position along x                                    [pixel]
#   4 Y_IMAGE                Object position along y                                    [pixel]
#   5 X_WORLD                Barycenter position along world x axis                     [deg]
#   6 Y_WORLD                Barycenter position along world y axis                     [deg]
#   7 A_WORLD                Profile RMS along major axis (world units)                 [deg]
#   8 B_WORLD                Profile RMS along minor axis (world units)                 [deg]
#   9 THETA_WORLD            Position angle (CCW/world-x)                               [deg]
#  10 FWHM_WORLD             FWHM assuming a gaussian core                              [deg]
#  11 ELONGATION             A_IMAGE/B_IMAGE                                           
#  12 ELLIPTICITY            1 - B_IMAGE/A_IMAGE                                       
         1 -11.2967     70.6724     20.9783   2.0695527570e+01   6.1485426662e+01    0.1645754    0.1537444  54.67 0.0005452213    1.130    0.115
         2 -11.1356    147.0629     11.9846   4.1506891155e+00   4.5894437341e+01    0.1675929    0.1342974 -87.88 0.0003209695    1.024    0.023
         3 -11.3962     92.2769      8.1544   1.0962692591e+01   5.8087389189e+01    0.1725855    0.1440488  56.39 0.0007898741    1.180    0.153
         4 -11.8239     72.5634      6.7925   1.4862238990e+01   6.2537896833e+01    0.1452514    0.1105912 -52.53 0.0004657921    1.586    0.369
         5 -11.1480     78.4987      6.5235   1.3323649562e+01   6.1268309080e+01    0.1230412   0.09766144  62.22 -4.656352e-05    1.033    0.032
         6 -11.1318     36.8456      4.8262   2.6107013502e+01   7.0093808412e+01    0.1752392    0.1321613  38.62 0.0003295139    1.086    0.079
         7 -11.1717     25.0128      2.0129   3.0506943291e+01   7.2557446061e+01    0.1853158    0.1412367  36.41 0.0007022034    1.024    0.023
         8 -10.5228    114.3298      1.6919   5.3918952405e+00   5.3807036700e+01    0.1207008   0.07389986 -74.84 0.0007039724    1.662    0.398
         9 -10.2205      4.4378      1.4571   4.3674239208e+01   7.5804174213e+01    0.1175617   0.09076119  18.22 0.0001244043    1.025    0.025
        10 -10.9418    222.7969    242.8596   3.6002487089e+01  -8.8261663214e-01    0.1302816    0.1076185 -24.79 0.0003385273    1.332    0.249
        11 -11.4817    237.7227    250.6585   3.4749053508e+01  -3.0365164549e+00    0.2223634   0.08278663  20.90  0.001314504    2.825    0.646
        12 -11.8478    190.1097    249.1640   4.2446936599e+01   8.1732573629e-01    0.1737343    0.1246306 -23.24 0.0003149201    1.117    0.105
        13 -11.3446    171.3197    249.9744   4.6116404916e+01   2.3323682430e+00    0.2174487    0.1272036  -9.26  0.001269165    1.620    0.383
        14 -12.3972    139.7176    248.1843   5.2441162806e+01   5.6279329404e+00    0.3760788    0.2772172 -55.24  0.002315127    1.693    0.409
        15 -12.1585    143.2459    242.5252   5.0927975131e+01   6.2851016607e+00    0.2983586    0.2496761 -15.66   0.00110696    1.099    0.090
        16 -11.2686    125.0936    249.3471   5.5855177437e+01   6.8755196251e+00    0.2079924    0.1524862 -27.23  0.000517572    1.298    0.230
        17 -11.6057    114.9037    249.4443   5.8218495445e+01   7.8856731240e+00    0.3302788    0.2092079  49.76  0.001710964    2.211    0.548
        18 -10.7853    105.8147    250.6600   6.0504135626e+01   8.5751220055e+00    0.1877313   0.09738534  28.54 0.0004736691    1.677    0.404
        19 -14.2103     30.0786    218.3736   7.7054832380e+01   2.3078236061e+01     1.189617    0.7185944 -61.09  0.005978186    1.742    0.426
        20 -13.6600     36.5994    229.2904   7.6119628348e+01   1.9949282248e+01     0.992495    0.3235483 -52.42  0.003775319    3.198    0.687
        21 -14.0419     34.3430    247.1743   7.8015341339e+01   1.6176795748e+01     1.952011    0.4113937  16.91  0.005622436    5.094    0.804
        22 -14.2598     14.0601    212.7903   8.1147535814e+01   2.5724247455e+01     1.969238    0.4259276 -54.58   0.00623267    4.414    0.773
        23 -14.4561      5.5278    183.8342   8.1736430321e+01   3.3621318766e+01     1.299991    0.8079689 -33.78   0.00533949    1.793    0.442
        24 -14.7633     10.7265    191.0372   8.0643165021e+01   3.1407444910e+01     1.280206    0.8339258 -18.39  0.005334147    1.765    0.434
        25 -14.5737     15.8089    167.5864   7.7083461549e+01   3.7181315847e+01     1.317438    0.7158439  56.40  0.003658315    2.081    0.519
        26 -14.6277      6.6820    164.3088   7.9879821935e+01   3.8689461361e+01     1.375116     0.947202 -43.20  0.006935694    1.478    0.323
        27 -13.2845     28.1072    239.6815   7.9113265678e+01   1.8341282054e+01    0.8039188     0.297711  38.96  0.003440114    2.267    0.559
        28 -12.8636     20.2719    203.4471   7.8709430548e+01   2.7542591474e+01    0.2845969    0.2501877 -64.91 0.0003067281    1.196    0.164
        29 -13.8229     21.7634    196.6533   7.7731903187e+01   2.9132233284e+01    0.8132907    0.5365447  -4.42  0.002583559    1.680    0.405
        30 -13.9418     24.8502    186.9862   7.5949127768e+01   3.1356247094e+01    0.7163196    0.5172824  -4.28  0.002624452    1.487    0.328
        31 -14.0491     31.2994    181.4153   7.3366396681e+01   3.2241366708e+01     1.129658    0.6822862  70.92   0.00321718    2.039    0.510
        32 -12.6153      1.8116    227.0460   8.5263442338e+01   2.3225572399e+01    0.3395171    0.1947294  60.16  0.001544997    1.732    0.423
        33 -13.6114     23.0983    242.3103   8.0569041677e+01   1.8175748748e+01      0.95131    0.3351941  14.41   0.00372539    2.839    0.648
        34 -14.5669      3.3174    216.7904   8.4356141908e+01   2.5532571864e+01     1.364095    0.4961055 -71.67  0.005648893    2.721    0.632
        35 -14.3462      4.8137    201.6476   8.3094628446e+01   2.9131173713e+01    0.8231023    0.5840427 -16.19  0.004377049    1.593    0.372
        36 -14.8560     15.0525    228.3268   8.1833016538e+01   2.1965208190e+01    0.8848546    0.8226957  89.70  0.005748807    1.158    0.136
        37 -15.4230      4.6481    247.0865   8.5445295832e+01   1.8554081455e+01     1.169158    0.8474022  63.86   0.00621457    1.364    0.267
        38 -13.4468     17.5510    237.6210   8.1718327384e+01   1.9658221275e+01    0.3215072    0.2480543   9.43 0.0007701854    1.273    0.214
        39 -14.7183     10.3310    239.1437   8.3652331055e+01   1.9872302645e+01    0.6329092    0.4343868 -44.16  0.003252333    1.695    0.410
        40 -14.4646      7.4035    235.3627   8.4212197041e+01   2.0933305112e+01    0.4788051    0.3659947  14.64  0.002442023    1.256    0.204
        41 -11.3296    126.9344    242.3440   5.4550649850e+01   7.9863391798e+00    0.2026881    0.1744182  50.88 0.0007799935    1.576    0.366
        42 -10.4863    186.3334    242.3304   4.2204690759e+01   2.2109730424e+00    0.1249604   0.06922832 -17.23 0.0007052094    1.725    0.420
        43 -12.2223    117.3127    241.4923   5.6678429899e+01   9.1507291967e+00    0.2486874    0.2003585  -4.73 0.0006358732    1.079    0.073
        44 -12.1131    170.2592    240.7078   4.5061431642e+01   3.9522354992e+00       0.3587    0.1604285   7.20  0.001278418    2.755    0.637
        45 -10.5172    180.5962    240.4465   4.3020136945e+01   3.0310565967e+00    0.1185803   0.08906252 -15.14 -7.189057e-06    1.040    0.039
        46 -11.1070     36.4674    239.2371   7.6908370742e+01   1.7720497729e+01    0.1682947    0.1215014  74.27 0.0004894496    1.601    0.375
        47 -12.1768     67.4673    240.4092   6.8940775960e+01   1.4540950330e+01    0.5141214     0.188751  33.81  0.001949243    2.280    0.561
        48 -11.1549    210.5021    236.6012   3.7140957308e+01   1.0116240394e+00    0.1850449    0.1569909 -69.43  0.001300438    2.228    0.551
        49 -11.4074    137.7907    236.2668   5.1289955664e+01   7.9880450055e+00    0.1853177    0.1721428 -39.07 0.0005755532    1.324    0.245
        50 -11.6590     69.1935    235.7901   6.8033460782e+01   1.5360812218e+01    0.2593782    0.2231717   6.65 0.0005972855    1.060    0.056
        51 -12.1823     73.0313    231.6593   6.6597932258e+01   1.5865315124e+01    0.5186576    0.2694583 -49.18  0.002441297    2.021    0.505
        52 -11.4256     47.8130    235.8764   7.3663963888e+01   1.7434612773e+01    0.2008912    0.1717496 -14.09 0.0006137025    1.221    0.181
        53 -12.2698    165.6950    234.3444   4.5083048924e+01   5.4744072284e+00    0.2160942    0.1843769  -9.49 0.0002478648    1.128    0.113
        54 -11.8638    243.2729    233.1745   3.1578384183e+01  -1.0569989748e+00    0.1584169    0.1241371 -20.78 0.0003154639    1.204    0.169
        55 -12.5281    158.5233    233.5458   4.6440003968e+01   6.3347370147e+00    0.2400645    0.1914488 -21.63 0.0005365477    1.096    0.088
        56 -11.9031     57.5218    233.8627   7.0915580774e+01   1.6950180271e+01     0.363414    0.2291094  21.14  0.001880848    1.389    0.280
        57 -11.3604     56.3183    230.3094   7.0901420202e+01   1.7861746102e+01    0.2696101    0.1818893  -3.36 0.0009086496    1.584    0.369
        58 -11.0197    111.3002    233.6438   5.7121992180e+01   1.1336289874e+01    0.1288069   0.09856641  52.40 0.0007037089    1.706    0.414
        59 -10.8380    101.0103    234.0000   5.9695890809e+01   1.2381388622e+01    0.2278799   0.06807832  23.44 0.0008062135    2.969    0.663
        60 -11.6903     26.5273    232.3621   7.9038581431e+01   2.0117503408e+01    0.3699413    0.1631231 -50.08 0.0009294226    2.527    0.604
        61 -11.4350    222.5677    231.9661   3.4529658942e+01   7.0743506620e-01    0.1628022   0.08183929 -39.35 0.0006182865    1.590    0.371
        62 -11.9383    181.7765    230.9196   4.1447237721e+01   4.4819917604e+00     0.381573    0.2653989  60.48  0.001815054    3.624    0.724
        63 -12.9586    149.5353    229.0256   4.7702932497e+01   8.0838504616e+00     0.477596    0.3386952  48.63  0.002104347    2.063    0.515
        64 -12.1761    148.1570    224.1949   4.7308056694e+01   9.1271502416e+00    0.2551834    0.1740419 -50.72 0.0007263396    1.594    0.373
        65 -11.0897    216.8037    231.1879   3.5341664932e+01   1.2957744775e+00      0.15245    0.1203947 -23.49 0.0004367283    1.155    0.134
        66 -11.2494     61.6911    231.3415   6.9566243653e+01   1.7096240219e+01    0.2431619    0.1740259  32.08 0.0008682978    1.259    0.206
        67 -10.3265     61.6591    228.3214   6.9274649304e+01   1.7775211068e+01    0.2245601    0.1470889  58.05 0.0009051973    1.833    0.454
        68 -12.8152    194.3282    227.9789   3.8711404320e+01   3.7751775186e+00    0.3191366    0.2233508 -26.67 0.0007743687    1.144    0.126
        69 -10.5772    211.3646    228.2329   3.5812407773e+01   2.2037808556e+00    0.1347867   0.08843953 -42.15 0.0001800456    1.449    0.310
        70 -11.6092    174.2445    228.0448   4.2480429463e+01   5.7037810668e+00    0.1676883    0.1310544 -25.80 0.0003397934    1.110    0.099
        71 -13.2576    117.1625    225.6460   5.4647105981e+01   1.2301985910e+01    0.5735371    0.4007108  71.00  0.001611605    2.576    0.612
        72 -13.1051    117.1933    214.7181   5.3117736509e+01   1.4551718436e+01    0.5216758    0.2980881   4.99 0.0005220711    1.993    0.498
        73 -13.1241    125.7251    222.1957   5.2119788384e+01   1.2026326958e+01    0.6210755    0.2335822  33.09  0.002574124    2.495    0.599
        74 -11.8015    122.4951    217.4926   5.2223585958e+01   1.3352318440e+01    0.2347214    0.1844698  37.28 0.0007942911    1.398    0.285
        75 -12.3075     80.8010    226.1875   6.3942425092e+01   1.6239932759e+01    0.3484923    0.3240959 -48.51  0.001671642    1.203    0.169
        76 -12.4555    106.0866    225.8188   5.7394211061e+01   1.3514981515e+01     0.318864    0.1730523  12.68  0.001475642    1.842    0.457
        77 -11.8259     92.5484    223.8800   6.0592008006e+01   1.5448536522e+01    0.4076348    0.2365845 -16.08  0.001827843    2.127    0.530
        78 -12.9061    161.0490    222.9021   4.4382161200e+01   7.9706423515e+00    0.3402691    0.2139844  28.21  0.001086278    1.611    0.379
        79 -11.5689    100.9468    224.3405   5.8496210384e+01   1.4405369534e+01    0.2004683    0.1537215  13.89  0.000545637    1.163    0.140
        80 -13.6990     49.8756    217.4285   7.1429109445e+01   2.1468425396e+01     1.002695    0.4824979 -73.94  0.004275228    2.446    0.591
        81 -12.2225     32.7970    209.4769   7.5555895779e+01   2.4990718235e+01    0.2934001    0.2830987 -58.02 0.0008171303    1.112    0.100
        82 -13.4260     36.3045    205.3949   7.4174508341e+01   2.5677596276e+01     0.522884    0.4086746  75.32  0.001532947    1.422    0.297
        83 -12.5068     34.0603    200.1031   7.4347984183e+01   2.7201281524e+01    0.3789397    0.2291454  18.26 0.0004472405    1.568    0.362
        84 -10.4354    179.3166    222.3182   4.0660532866e+01   6.1714540839e+00    0.1274484   0.07615922 -17.81 0.0002988522    1.655    0.396
        85 -12.9756    173.5370    220.0672   4.1445476169e+01   7.1545253626e+00    0.3493925     0.197402 -42.84 0.0009574115    1.610    0.379
        86 -11.6366    246.8655    221.1593   2.9411220021e+01   3.3620065657e-01    0.1458791    0.1151638 -31.83  0.001215196    1.279    0.218
        87 -12.9107    190.7238    219.8542   3.8169914150e+01   5.4459903863e+00    0.3783401    0.2063624 -16.25 0.0007219497    2.022    0.505
        88 -10.4368     85.2457    221.3223   6.2189137980e+01   1.6825010840e+01    0.1377973   0.09606308 -25.49 0.0001322746    1.529    0.346
        89 -11.3864     56.6143    220.0119   6.9810875026e+01   2.0188496615e+01    0.2994584    0.2259432 -77.08  0.000884164    1.537    0.349
        90 -10.7813    197.2279    219.9650   3.7023978228e+01   4.7953075951e+00    0.1594173    0.1190164 -25.46 0.0003301134    1.064    0.061
        91 -12.8477     76.7819    219.1623   6.4194614755e+01   1.8247084241e+01     0.543348    0.2491795  27.73   0.00157828    1.899    0.473
        92 -12.4338    145.1613    216.6965   4.6864533232e+01   1.0883014650e+01    0.2941501    0.2788291 -70.91  0.001922453    1.430    0.301
        93 -12.5501    141.4456    213.7557   4.7254865899e+01   1.1882507531e+01    0.3606902    0.2375053 -58.95  0.001442562    1.848    0.459
        94 -13.3641    128.5670    215.7962   5.0529977053e+01   1.2985722319e+01    0.5380551    0.3923966  80.63  0.002638047    2.544    0.607
        95 -12.2651     93.2439    217.0774   5.9543865492e+01   1.6856146525e+01    0.4523242    0.2373227  32.59  0.001448771    1.753    0.429
        96 -11.1373    138.4683    217.0560   4.8419821931e+01   1.1581855578e+01    0.1893594    0.1226567 -47.38 0.0005995411    1.551    0.355
        97 -11.7496     61.6382    215.9966   6.7994981650e+01   2.0607687521e+01    0.3685106    0.2283916  67.23  0.001031237    2.205    0.546
        98 -12.8733     22.3876    215.6432   7.9002884659e+01   2.4379520136e+01    0.4523679    0.3251334 -63.33  0.001881597    1.475    0.322
        99 -10.3801    226.3288    216.2949   3.1710037692e+01   2.7101231044e+00    0.1116445    0.0642525 -19.11  0.000416798    1.631    0.387
       100 -12.6075    107.8534    213.8311   5.5328122957e+01   1.5850462156e+01    0.4137501    0.2655442 -53.58  0.002105689    1.646    0.392
       101 -11.2745    233.2100    214.2825   3.0388594986e+01   2.4191532069e+00    0.2109429    0.1187211 -24.21  0.001163588    1.534    0.348
       102 -11.7873     84.5687    214.1327   6.1475150696e+01   1.8512373830e+01    0.4397963    0.2710229  36.17  0.002141441    1.560    0.359
       103 -11.8169    156.7074    213.4399   4.3874578967e+01   1.0185567549e+01    0.2965311    0.2208411 -71.75  0.000494146    2.132    0.531
       104 -11.6336     65.9957    217.0215   6.6898457026e+01   1.9907562474e+01    0.2155291    0.1912706   0.75 0.0003188864    1.073    0.068
       105 -11.0624     73.4849    212.2353   6.4271141949e+01   2.0202561223e+01    0.3035372    0.1605291   6.63  0.001095375    2.174    0.540
       106 -12.6862    161.6222    207.9514   4.2002210851e+01   1.0647747056e+01    0.3983057    0.2800265 -61.09 0.0008087674    1.877    0.467
       107 -11.0869     96.9681    209.4052   5.7534637537e+01   1.8121684543e+01    0.3105425    0.1822978 -69.90  0.001390903    2.240    0.554
       108 -12.8548     43.0811    211.1456   7.2749630872e+01   2.3632865527e+01    0.6340202    0.3015187  13.10  0.001503235    2.152    0.535
       109 -11.8245    180.1097    207.4234   3.8253337171e+01   8.6678363224e+00    0.2395405    0.1896891  16.81 0.0007878555    1.297    0.229
       110 -12.7068     26.7282    206.6755   7.7079007089e+01   2.6208223291e+01    0.4125317    0.3013041 -42.77 0.0009583044    1.476    0.323
       111 -11.5836    103.8177    205.6132   5.5200040503e+01   1.8133310009e+01    0.2290106    0.2064532 -59.90 0.0006616622    1.272    0.214
       112 -10.8755     89.1739    204.6590   5.8975482685e+01   2.0134874322e+01    0.2984024    0.2145059 -88.54 0.0009240785    1.967    0.492
       113 -11.5540     86.5893    193.6861   5.8147606611e+01   2.3014204402e+01    0.3611676    0.2161498  21.38  0.001650505    1.597    0.374
       114 -12.9582     82.9842    201.5694   6.0262156949e+01   2.1597189096e+01     0.529821    0.3650118  -6.85  0.001743135    1.607    0.378
       115 -12.2465     82.7362    196.6340   5.9653084735e+01   2.2792240434e+01    0.4574621    0.2648134  39.56  0.001169938    1.730    0.422
       116 -12.6841     90.8419    198.9259   5.7716832574e+01   2.1255836293e+01    0.5777698    0.3835519  16.20  0.002295747    1.459    0.314
       117 -12.6763     92.3099    193.2663   5.6488465920e+01   2.2390018797e+01    0.4649113    0.3440174 -82.11   0.00220448    1.795    0.443
       118 -10.3718     62.3157    205.6509   6.6640542950e+01   2.2993688675e+01    0.1516739    0.1007897  54.20 0.0007047414    1.727    0.421
       119 -13.2161    145.6073    200.9790   4.4348186888e+01   1.3901358471e+01    0.6781275    0.4268513  55.86  0.003123249    2.718    0.632
       120 -11.0502    137.2845    200.6884   4.6192853086e+01   1.4996610805e+01    0.2191881    0.1929102 -66.09 0.0004331174    1.427    0.299
       121 -11.9505    135.3334    197.6730   4.6167747791e+01   1.5861089959e+01    0.3138262    0.1833736  31.61 0.0009079165    1.694    0.410
       122 -12.8400     36.3911    196.1135   7.3266346466e+01   2.7991721028e+01     0.828016    0.3313998  24.16  0.003240568    2.220    0.550
       123 -11.4087    214.1706    200.8589   3.1310085150e+01   6.2149298538e+00    0.2454988    0.1483913  32.67   0.00157275    1.972    0.493
       124 -13.1061    121.9291    197.2927   4.9332831040e+01   1.7663057963e+01    0.5261677    0.2656492 -49.02  0.002372083    1.933    0.483
       125 -12.8661    172.7431    195.7410   3.7824968727e+01   1.1602762408e+01    0.2585575    0.2222484  -6.36 0.0003562857    1.087    0.080
       126 -12.0868    105.3903    195.6924   5.3314851465e+01   2.0153184649e+01    0.4906436    0.2103292  17.92  0.001803564    2.726    0.633
       127 -12.6086    192.4516    194.7250   3.3994674967e+01   9.5128201312e+00    0.3058632    0.2525505  -7.50 0.0007416225    1.139    0.122
       128 -12.7534    132.9095    191.7489   4.5781451420e+01   1.7405966494e+01    0.4224597    0.2498721 -29.99   0.00199994    1.820    0.451
       129 -11.4165    164.5463    191.9962   3.8851794761e+01   1.3294291590e+01    0.1853234    0.1607195   0.90 0.0003920575    1.111    0.100
       130 -12.7414    110.5825    188.6300   5.0843898686e+01   2.1059862950e+01    0.4273974    0.3065225 -79.20   0.00201064    1.986    0.497
       131 -11.0923     50.1404    190.2027   6.8441333315e+01   2.8122571776e+01    0.2064236    0.1882048 -18.48 0.0003885484    1.110    0.099
       132 -12.3107    151.8156    188.4901   4.0948057901e+01   1.5590375711e+01     0.338065    0.1962893  -5.07  0.001029729    2.535    0.605
       133 -12.4301    155.8470    185.2252   3.9534894290e+01   1.5707247567e+01    0.3653038    0.1846116 -38.76  0.001722702    1.880    0.468
       134 -11.6593    198.0189    188.1137   3.1972313135e+01   1.0018569741e+01    0.1775417    0.1455339 -25.08  0.000353573    1.021    0.021
       135 -11.7331    186.1682    187.1912   3.3903932311e+01   1.1549015226e+01    0.2026317    0.1615414 -26.88 0.0004220337    1.058    0.055
       136 -12.0828    149.4937    196.9746   4.2847378504e+01   1.4209758854e+01    0.2889154    0.1301841 -56.74  0.001204692    2.669    0.625
       137 -11.3187    227.5136    186.4963   2.7087650832e+01   7.1394071568e+00    0.2188627    0.1201964 -35.51  0.001381864    1.442    0.306
       138 -13.7435    125.3974    184.8430   4.6456000862e+01   1.9885100856e+01    0.7133945     0.354825  45.73  0.002940908    2.504    0.601
       139 -10.9992    209.4490    186.4383   2.9821763092e+01   9.0333795890e+00    0.1150585   0.09150223 -29.36 4.286853e-05    1.008    0.008
       140 -10.7206    163.7999    184.8123   3.7810335920e+01   1.4754075493e+01    0.1620398    0.1547754 -75.20 0.0006290763    1.349    0.259
       141 -11.3586    136.4644    174.4921   4.2012386345e+01   2.0545975777e+01    0.2417827    0.1299528 -50.08  0.001103252    1.811    0.448
       142 -12.7654    134.2924    182.0791   4.3839071529e+01   1.9252235616e+01    0.2873328     0.245843 -45.90 0.0003403808    1.189    0.159
       143 -12.3851    138.0256    178.0372   4.2267354368e+01   1.9581740757e+01    0.2957467    0.1960544  24.24 0.0008429136    1.543    0.352
       144 -10.7622    101.4504    183.4710   5.2455317273e+01   2.3470086551e+01    0.1457232    0.1328638  -6.58  0.000235698    1.032    0.031
       145 -12.7479    105.0706    182.8528   5.1372624319e+01   2.3119507169e+01    0.3812398    0.2465218 -38.39 0.0008941626    1.577    0.366
       146 -12.2603    108.5580    181.4843   5.0213203170e+01   2.2952960994e+01    0.2631153    0.2185799 -30.25 5.341018e-05    1.182    0.154
       147  -9.9433     54.4943    184.4404   6.6396999974e+01   2.9116109534e+01    0.1468957    0.1370046   1.56 7.616397e-05    1.038    0.037
       148 -10.7172    150.1273    183.1163   4.0410586168e+01   1.6883092882e+01    0.1680009    0.1611414  88.29 0.0005422583    1.328    0.247
       149 -12.1782     94.8861    181.3911   5.3939618224e+01   2.4846110636e+01    0.4360742     0.313637 -57.37  0.001924257    1.465    0.317
       150 -10.6070    249.2800    181.2930   2.3354575834e+01   5.8194608364e+00    0.1015553   0.06206242 -24.67 0.0001681666    1.530    0.347
       151 -13.4684    115.8674    178.5203   4.7795806967e+01   2.2601297318e+01    0.4897297    0.3318977  -4.89  0.002307373    1.789    0.441
       152 -12.2692    156.2614    178.8260   3.8356140845e+01   1.6909037849e+01    0.3072122    0.2338704  64.77 0.0008023964    2.011    0.503
       153 -12.2419    154.8136    175.3799   3.8065494892e+01   1.7786838952e+01    0.2535312    0.1644462  27.12  0.001299719    1.620    0.383
       154 -11.3176     49.7082    178.6740   6.7168306731e+01   3.1119365520e+01    0.3666762    0.2090321  -8.98  0.001457557    2.297    0.565
       155 -10.9095    171.5006    178.1007   3.5139213423e+01   1.5026183673e+01    0.1835711    0.1127628 -44.60 0.0004144578    1.468    0.319
       156 -11.1779    214.0715    176.6533   2.7540975005e+01   1.0122075516e+01    0.1497993    0.1272698 -18.56 0.0003952614    1.128    0.113
       157 -10.5812    191.2889    177.6370   3.1417892520e+01   1.2615592710e+01    0.1131521   0.09295373 -70.78 0.0007024847    1.696    0.410
       158 -12.4644    127.5353    166.3934   4.2708837718e+01   2.3581379813e+01    0.3934666    0.2265258 -42.95  0.001416313    1.692    0.409
       159 -12.2539    132.9682    169.3143   4.1919216171e+01   2.2148887309e+01     0.380905    0.2467414 -36.57  0.001102371    1.540    0.350
       160 -13.5339    129.1792    176.1470   4.4043385198e+01   2.1233060563e+01    0.4734878    0.3178576  40.36 0.0008323923    1.588    0.370
       161 -12.4252     64.2471    176.4703   6.2285833152e+01   3.0013701966e+01    0.5215707    0.2874375   2.43  0.001636538    2.342    0.573
       162 -12.1421    106.5880    175.2578   4.9695650857e+01   2.4656088249e+01    0.2768989    0.1941717  27.52 0.0008881582    1.383    0.277
       163 -12.2342    128.8224    171.3747   4.3289458051e+01   2.2313279893e+01    0.2656159    0.1917018   1.01 0.0006977555    1.602    0.376
       164 -12.7179     80.6614    172.7209   5.6684400041e+01   2.8857148252e+01    0.6649002     0.303307  21.49  0.002507063    2.291    0.563
       165 -11.8151    145.1143    173.5148   3.9856279506e+01   1.9518241919e+01    0.2019487    0.1307068  30.60  0.001031728    1.588    0.370
       166 -12.9983     90.7150    171.1986   5.3462777029e+01   2.7852977231e+01    0.4655908    0.3108461 -36.50  0.002104618    1.580    0.367
       167 -12.2150     87.7899    168.4204   5.3852901737e+01   2.8934146574e+01     0.280252    0.2011528   2.73  0.001090351    1.557    0.358
       168 -12.4218     44.2538    172.1670   6.8102461753e+01   3.3394383152e+01    0.2658976    0.2412256  75.89 0.0003472418    1.192    0.161
       169 -12.0120    198.2062    170.5456   2.9061313962e+01   1.2998845012e+01    0.2370617    0.2146597  47.34 0.0009598894    1.422    0.297
       170 -11.0325    158.2978    171.6456   3.6676781008e+01   1.8040236000e+01    0.1253134    0.1052131 -88.29 6.814378e-05    1.696    0.410
       171 -12.0891    153.1872    170.2095   3.7501513357e+01   1.9041856382e+01    0.2203956    0.2087425  83.19 0.0006303061    1.314    0.239
       172 -12.3414    137.8963    170.6599   4.0997845428e+01   2.1145087706e+01    0.3654565    0.2032899  41.93  0.001343264    1.961    0.490
       173 -11.2859    138.9650    166.9969   4.0090305462e+01   2.1755973998e+01    0.2880864    0.1749124 -38.06 0.0004625984    1.626    0.385
       174 -12.1047     53.3992    170.6713   6.4919325635e+01   3.2780439312e+01    0.3195344    0.2290583 -43.73 0.0001769735    1.427    0.299
       175 -11.2797    145.4618    169.0979   3.8992361703e+01   2.0372602862e+01    0.1962553    0.1262575 -48.02 0.0003207842    1.487    0.328
       176 -12.4157     39.9954    168.7107   6.9073655968e+01   3.4742858250e+01    0.3533951    0.2460634  11.62 0.0006218014    1.447    0.309
       177 -12.8633    120.8704    167.3948   4.4559057307e+01   2.4355203380e+01    0.4810742    0.2391612  41.24  0.002025823    2.117    0.528
       178 -12.4937     98.3575    166.5745   5.0474124371e+01   2.7867668484e+01    0.4059288    0.2779511  85.41  0.001517948    2.371    0.578
       179 -12.3854     93.3533    163.1107   5.1302790045e+01   2.9421482789e+01    0.4116474    0.2266757  46.75  0.001692991    2.065    0.516
       180 -12.6928    152.2878    164.8229   3.6726760100e+01   2.0247221159e+01    0.3070218    0.2546512  53.31 0.0005413371    1.463    0.316
       181 -12.8491    110.8986    163.9105   4.6534941942e+01   2.6630822454e+01    0.4643831    0.2684417 -36.90  0.002031163    1.871    0.465
       182 -11.4774     44.7726    164.9987   6.6992040572e+01   3.5220988655e+01    0.3185728    0.1690139 -42.76  0.001299803    1.999    0.500
       183 -11.9767     49.1338    160.7388   6.4927344264e+01   3.5858198324e+01    0.4180681    0.2025944 -29.90  0.001460902    2.866    0.651
       184 -11.9299     62.6230    170.2523   6.1891285234e+01   3.1795791935e+01    0.2719952    0.1967547  24.22 0.0006157971    1.318    0.241
       185 -12.4035     26.0204    159.9612   7.2784406904e+01   3.8392170854e+01    0.3972978    0.3046325  54.42 0.0006982913    1.387    0.279
       186 -12.2840    191.4177    158.1286   2.8074857008e+01   1.6020234125e+01    0.4271021    0.1939026 -54.97  0.001171046    2.568    0.611
       187 -12.7587    104.9911    158.6622   4.7184012179e+01   2.8733812220e+01    0.4509806    0.2481642  50.84  0.001820143    2.303    0.566
       188 -12.3766    199.0649    164.3709   2.7882418835e+01   1.3949841370e+01    0.2201181    0.1806047 -49.52 0.0003268962    1.220    0.181
       189 -13.0228    132.2687    155.8993   3.9608200164e+01   2.5115950465e+01    0.4703408    0.3510987  52.29  0.001733593    1.570    0.363
       190 -12.3971    170.4524    160.6558   3.2287328817e+01   1.8444401409e+01      0.23122    0.2021366 -35.94  0.000777677    1.030    0.029
       191 -11.8361    213.2152    156.9646   2.4454121006e+01   1.3430524137e+01    0.1684487    0.1551353 -28.58 0.0003987531    1.153    0.133
       192 -12.4807    118.4788    157.0300   4.3259621441e+01   2.7022594091e+01    0.2832313    0.2028925   6.95  0.001366391    1.665    0.399
       193 -11.7639    141.1858    155.5553   3.7461540439e+01   2.3801544373e+01    0.2337413    0.1811379 -46.85 0.0003198873    1.239    0.193
       194 -10.7282     47.5953    155.8543   6.4738582799e+01   3.7315819309e+01    0.2059826     0.145799 -86.30 0.0009400802    1.689    0.408
       195 -13.9133     82.4535    152.6323   5.2701002629e+01   3.3561972550e+01    0.6843609    0.3766944 -35.74  0.002426114    2.141    0.533
       196 -13.4972     75.5142    151.1908   5.4631712693e+01   3.4921615723e+01    0.5757433    0.2787374  38.81  0.002266945    2.021    0.505
       197 -12.5620     67.1663    153.8421   5.7809265261e+01   3.5407537453e+01    0.2371495    0.2150967 -13.83 0.0004263924    1.103    0.093
       198 -11.5389     62.0887    154.8517   5.9660099947e+01   3.5817052185e+01    0.2448892    0.1965602  49.94  0.001218138    1.334    0.250
       199 -12.2227     19.7226    153.7614   7.4303989620e+01   4.0580972315e+01    0.3039054    0.2637943  74.22  0.001124728    1.227    0.185
       200 -13.7228      4.2868    151.2750   7.9593734250e+01   4.2325395112e+01    0.8762037    0.4614028 -81.20    0.0017708    1.951    0.487
       201 -14.2988     11.2152    143.6131   7.6300876482e+01   4.3940948103e+01    0.9353518    0.6334054  20.56  0.004473233    1.462    0.316
       202 -11.0294     69.3202    159.2965   5.8024743103e+01   3.3733784550e+01    0.1570134     0.111434 -21.67 0.0003183157    1.615    0.381
       203 -12.5965     20.2966    138.7698   7.2291277193e+01   4.4559254538e+01    0.3333598    0.2572766   5.80 0.0008011883    1.305    0.234
       204 -12.5737     27.4044    150.5177   7.1150091839e+01   4.0798891389e+01    0.3732056    0.2565791  -3.37 0.0007109607    1.569    0.363
       205 -10.3603    154.3237    150.7119   3.3679694073e+01   2.2747935353e+01    0.1267352    0.1055385  84.80 0.0003944597    1.606    0.377
       206 -11.8678    146.9170    149.0098   3.4935943208e+01   2.4243425387e+01    0.2668839    0.1758403 -46.77 0.0007055149    1.433    0.302
       207 -11.9468    109.1941    149.3227   4.4250066501e+01   3.0225157705e+01    0.3130645    0.2576964  47.19 0.0009463541    1.291    0.225
       208 -12.7602    103.4775    143.7332   4.4736815376e+01   3.2425702663e+01    0.5704126    0.3707167  80.25  0.002199683    2.915    0.657
       209 -11.0796    210.0764    148.2718   2.3452333504e+01   1.5245554801e+01     0.150691    0.1318009 -40.24 0.0002459035    1.076    0.071
       210 -10.5731    192.5274    147.4846   2.6021098585e+01   1.7724534411e+01    0.1211639    0.1032853 -39.79 4.012152e-05    1.005    0.005
       211 -10.5036    232.3019    145.3276   1.9948827225e+01   1.2972211839e+01     0.107086   0.07264211 -23.52 0.0003096327    1.643    0.391
       212 -11.3504    170.7869    145.5820   2.9462897199e+01   2.1215730167e+01     0.169875    0.1214507  53.24 0.0009531931    1.690    0.408
       213 -11.5375    157.6433    145.1121   3.1929808756e+01   2.3327086261e+01    0.2457912    0.1867453  26.41 0.0009435109    1.470    0.320
       214 -12.9333    143.0790    143.4295   3.4695400953e+01   2.5987771079e+01    0.3043524    0.2544591 -21.81 0.0004936313    1.262    0.208
       215 -10.2553    186.7074    143.7300   2.6308643917e+01   1.9202660366e+01    0.1160098   0.08911825 -16.41 0.0001682089    1.513    0.339
       216 -11.0328     37.8339    143.1681   6.6319504405e+01   4.1739036891e+01    0.2093866    0.1656462 -32.35 0.0004416101    1.292    0.226
       217 -11.4096    179.1118    141.3524   2.7172642819e+01   2.0739323182e+01    0.2435917    0.1510534 -27.63  0.001193508    1.901    0.474
       218 -14.0707     51.4913    139.5544   6.0753058389e+01   4.1115254796e+01    0.8889284    0.4372704 -35.78  0.003287243    2.490    0.598
       219 -10.4259    150.6581    141.6916   3.2712392304e+01   2.5107892288e+01    0.1367277    0.1026298 -10.88 0.0007043864    1.691    0.409
       220 -11.8125     93.5649    140.3942   4.6954130833e+01   3.4804295267e+01    0.3325732    0.1788172  46.63  0.001348223    2.040    0.510
       221 -11.9589     96.5124    138.4552   4.5684861490e+01   3.4781322525e+01    0.2610908    0.1441761  20.36 0.0007144235    2.248    0.555
       222 -12.4826     59.9562    140.0952   5.7841952737e+01   3.9882296648e+01    0.3367337     0.224804 -39.41 0.0008203551    1.574    0.365
       223 -13.0158     59.9862    135.9889   5.7077036449e+01   4.0923918367e+01    0.3793811    0.2778971  75.97 0.0003231533    1.804    0.446
       224 -13.0115     72.9283    139.2127   5.3247502042e+01   3.8278748390e+01    0.3387682    0.2638481  33.26 0.0003183607    1.244    0.196
       225 -13.0329     68.5100    137.0952   5.4327109015e+01   3.9449767101e+01    0.3815825    0.3427154  17.70 0.0005573343    1.077    0.072
       226 -10.8789    206.3396    139.2717   2.2450086053e+01   1.7216392892e+01    0.1104192   0.08414791 -14.41  0.000370432    1.607    0.378
       227 -12.5085     40.7019    137.4628   6.4363812992e+01   4.2933792677e+01    0.4305267    0.2455342  40.94 0.0006357223    1.795    0.443
       228 -11.3997    183.9440    137.0442   2.5548339003e+01   2.0784385407e+01    0.1815395    0.1580737 -43.64 0.0002987141    1.006    0.006
       229 -12.0523     45.3427    135.2227   6.2259426077e+01   4.2986996069e+01    0.3705533     0.235845 -84.98  0.001574795    2.045    0.511
       230 -11.5989     31.9843    136.3663   6.7485253876e+01   4.4141572433e+01    0.2763316    0.1833277 -36.80 0.0008107856    1.560    0.359
       231 -13.2721    124.4715    134.5402   3.7271058469e+01   3.0946296989e+01    0.5751237    0.3445095  28.74  0.001516971    1.892    0.471
       232 -11.6241    134.9067    135.1937   3.4898113294e+01   2.9029192778e+01     0.264606    0.1929499  32.22 0.0003173758    1.456    0.313
       233 -11.0409    110.8146    136.1569   4.1157860263e+01   3.2923271099e+01    0.2048428    0.1707122  -4.94 0.0005967556    1.360    0.265
       234 -11.4707    105.0044    135.9647   4.2723629470e+01   3.3946005882e+01    0.2016136    0.1742792  71.11  0.001060016    1.352    0.260
       235 -12.3421     95.8890    148.9778   4.7952938103e+01   3.2409486363e+01    0.2643197    0.2110932  28.54 0.0008312251    1.225    0.184
       236 -10.7981     25.9422    135.4841   6.9675827220e+01   4.4949959415e+01    0.2121512    0.1414598  18.21 0.0003694661    1.472    0.321
       237 -10.6017    196.4904    134.4635   2.3069072614e+01   1.9390872742e+01    0.1192269    0.1014283 -48.04 1.482521e-05    1.044    0.042
       238 -11.2916    174.5898    134.1995   2.6626211053e+01   2.2718133337e+01    0.1764619    0.1083602 -37.47 0.0004596812    1.574    0.365
       239 -12.7031     77.9878    133.0376   5.0351075484e+01   3.9028503977e+01    0.3507656    0.2677869 -24.55 0.0007943448    1.472    0.321
       240 -12.7764     81.9956    130.9400   4.8615059577e+01   3.8902503676e+01    0.3222156    0.2652563  74.47  0.001490795    1.488    0.328
       241 -12.2718     83.5474    127.4628   4.7383092299e+01   3.9477740699e+01    0.2641563    0.2345705 -12.90 0.0007356305    1.184    0.155
       242 -12.3674     19.9442    131.9543   7.1524306416e+01   4.6408052876e+01    0.3003908    0.2784383 -63.47 0.0006990024    1.093    0.085
       243 -12.6285     15.7711    131.4332   7.3104396230e+01   4.6876226364e+01    0.6245874    0.2115306 -39.19  0.002002466    3.421    0.708
       244 -10.8542      7.2878    134.6522   7.6824118089e+01   4.6602188750e+01    0.1498911    0.1012845  56.61 0.0002936231    1.658    0.397
       245 -11.0169    210.4792    133.5399   2.0866001593e+01   1.7587149646e+01    0.1149973   0.09458636 -43.31 0.0002119508    1.016    0.016
       246 -11.6911     31.5515    131.5803   6.6916191020e+01   4.5450064453e+01    0.2455662    0.2294352   3.28 0.0003775484    1.037    0.036
       247 -12.9441     49.5649    130.6832   5.9881736196e+01   4.3645394604e+01    0.4157495    0.2245298  22.32  0.001717429    1.829    0.453
       248 -11.3525    246.9638    130.0000   1.5790571393e+01   1.3525410552e+01    0.1345173   0.06051657  48.07  0.000806843    2.973    0.664
       249 -10.8937    187.8103    129.4176   2.3503544897e+01   2.1529008055e+01    0.1441906    0.1169933  27.38   0.00092176    1.508    0.337
       250 -10.2837    130.6693    128.2811   3.4454945520e+01   3.1179983945e+01    0.1374014     0.109427  79.29 0.0002612639    1.606    0.377
       251 -11.6108    122.8194    127.8799   3.6280319342e+01   3.2640240772e+01    0.2243529    0.1956142 -13.04  0.001241361    1.274    0.215
       252 -11.4298    109.8032    127.9992   3.9706700185e+01   3.4897043455e+01     0.229474    0.1711533 -87.60  0.001072912    1.886    0.470
       253 -12.0478     97.1959    127.0740   4.3089862399e+01   3.7284490702e+01    0.3371215      0.16733 -49.07  0.001368182    2.025    0.506
       254 -13.1984     58.3840    127.1687   5.5959086924e+01   4.3370176903e+01    0.4378218    0.2305675 -40.26   0.00174078    2.100    0.524
       255 -11.4392    183.0229    126.9334   2.3812515026e+01   2.2691546440e+01    0.1798036    0.1571547 -50.86  0.001200514    1.032    0.031
       256 -12.6766    177.6933    126.7609   2.4668270259e+01   2.3557632236e+01    0.3384388    0.2183184  35.49  0.001881517    1.879    0.468
       257 -11.5893     41.7555    126.7209   6.2132815258e+01   4.5613725023e+01    0.2974035    0.2023507 -57.23  0.001398347    1.468    0.319
       258 -10.9787     35.8337    127.1476   6.4517650314e+01   4.6167797051e+01     0.207908    0.1653675 -28.17 0.0004030913    1.280    0.219
       259 -12.2882     26.9106    125.3067   6.7767453358e+01   4.7552151499e+01    0.2893337    0.2245892 -60.58 0.0004955133    1.285    0.222
       260 -10.8143    121.6886    124.2961   3.5792346178e+01   3.3591408729e+01    0.1398393    0.1114753  80.56 0.0003704483    1.596    0.374
       261 -12.7146     75.9751    123.2041   4.8959068991e+01   4.1708821373e+01    0.2992627    0.2414175  28.78 0.0008611765    1.199    0.166
       262 -10.2885     49.3386    124.2500   5.8759825171e+01   4.5316200305e+01    0.1526495    0.1104529 -16.06 0.0003794458    1.566    0.362
       263 -14.1860     14.0730    119.8104   7.2222495809e+01   5.0080978311e+01    0.6110254     0.503958  48.25  0.002865534    1.318    0.241
       264 -13.1726      9.0495    117.9727   7.4086476684e+01   5.0915649429e+01    0.3564475    0.3001925  21.30 0.0007480881    1.201    0.168
       265 -10.3229     44.2958    123.2884   6.0517810394e+01   4.6192420278e+01    0.1532512    0.1087465 -24.78 0.0004287597    1.551    0.355
       266 -11.8677      3.2823    122.4464   7.7056514868e+01   5.0088151869e+01    0.2338004    0.1614949  70.81 0.0006449228    1.685    0.407
       267 -11.9472    193.1519    121.3750   2.1186397582e+01   2.2076291383e+01    0.2028213    0.1431703 -38.78 0.0003281505    1.307    0.235
       268 -11.6609    179.0244    121.9367   2.3518530907e+01   2.4189569432e+01    0.1842714     0.163716 -47.54 0.0003788171    1.022    0.022
       269 -10.7497    164.4158    122.5361   2.6189925183e+01   2.6478307052e+01    0.1272685    0.1155448 -43.97 5.441839e-05    1.046    0.044
       270 -10.6649    128.9968    121.9527   3.3499230221e+01   3.2767847283e+01    0.1727407    0.1479227 -48.65 0.0003964991    1.147    0.128
       271 -11.5461    189.0035    121.3258   2.1807438460e+01   2.2721662452e+01    0.1563524    0.1473866 -60.51 0.0003835674    1.096    0.088
       272 -11.6159    105.1146    121.1853   3.9510301661e+01   3.7211625606e+01     0.305858    0.1886518  49.94 0.0008890432    1.735    0.424
       273 -12.2637    100.9039    119.2998   4.0286796325e+01   3.8372447566e+01    0.3653994    0.2064002  36.33 0.0009669814    1.755    0.430
       274 -13.8194     82.1020    115.7904   4.5276791337e+01   4.2433192612e+01    0.6777308    0.4186337 -44.41  0.001609518    1.686    0.407
       275 -11.5534     29.0543    118.8103   6.5823656006e+01   4.9037827558e+01    0.4050435    0.1752875 -54.15  0.001226224    2.146    0.534
       276 -10.9661    211.2058    118.9876   1.8225199503e+01   1.9799699103e+01    0.1566934   0.07580554 -44.45 0.0004137103    1.699    0.411
       277 -11.8051     64.5406    118.5091   5.1933660263e+01   4.4612879565e+01    0.2512313    0.2400059   7.50  0.000149711    1.009    0.009
       278 -11.7940    100.7754    113.7958   3.9066995147e+01   3.9592074689e+01    0.2422032    0.1963132  35.84 0.0009097541    1.214    0.176
       279 -11.8599     96.5913    116.1749   4.0840541559e+01   3.9825771038e+01    0.2995051    0.2117891 -23.19 0.0005620745    1.817    0.450
       280 -12.0563     93.4966    116.4648   4.1836767484e+01   4.0309783686e+01    0.2637206    0.2415764  38.11  0.000556173    1.063    0.059
       281 -12.1665     62.7310    103.4504   4.9178998678e+01   4.8453425425e+01    0.4307234    0.2404479  58.07 0.0008594799    2.699    0.630
       282 -12.1918     67.9333    114.2058   4.9767013131e+01   4.5120168998e+01    0.2757329    0.2329083 -46.43 0.0007163985    1.216    0.178
       283 -13.4561     62.3996    110.9457   5.1045749145e+01   4.6750717397e+01    0.7009703    0.4190302 -51.79  0.003126438    1.706    0.414
       284 -12.6589     20.3854    109.9059   6.7980750932e+01   5.2143528022e+01    0.2970457    0.2680001  -4.09 0.0004143049    1.057    0.054
       285 -11.7188    201.8281    114.1268   1.8611658342e+01   2.1941501895e+01    0.1711202    0.1566047 -74.09 0.0003637345    1.150    0.130
       286 -10.5452    121.9522    114.1930   3.3493553796e+01   3.5622060967e+01    0.1853086    0.1074737  43.85  0.000530099    1.726    0.420
       287 -13.5215     10.7206    111.8984   7.2519504031e+01   5.2387659607e+01    0.4206607    0.3219244  28.48  0.001137961    1.329    0.248
       288 -12.0995      2.4129    109.6874   7.5866579173e+01   5.3477413527e+01    0.3611112    0.1968615  51.21  0.001565936    2.216    0.549
       289 -10.9255    210.3735    107.7821   1.6346655774e+01   2.1657435232e+01    0.1583297   0.09168591 -38.21 0.0005763159    1.607    0.378
       290 -10.3349     91.9893    108.0032   4.0317756818e+01   4.2434254720e+01    0.1656735    0.1637171 -37.41   -0.0106749    1.047    0.045
       291 -13.9143     74.7940    115.1475   4.7578635057e+01   4.3798487082e+01    0.5978755    0.5288211  87.21  0.001300681    1.321    0.243
       292 -11.4690     76.5973    107.8254   4.5260689631e+01   4.5178940109e+01    0.2010841    0.1442181 -69.80 0.0005313718    1.713    0.416
       293 -11.2003    139.6571    107.1564   2.7851918682e+01   3.3704642544e+01    0.2302178    0.1825371  62.31 0.0008411845    1.337    0.252
       294 -10.1627    121.7901    107.0200   3.1897007240e+01   3.7084843652e+01    0.1777727    0.1102776 -48.22 0.0008412359    1.618    0.382
       295 -12.0488     20.5724    113.5390   6.8506780773e+01   5.1192719011e+01    0.2745678    0.2119439 -46.67 5.996448e-05    1.247    0.198
       296 -12.1224     12.6867    104.2766   7.0469053976e+01   5.4205007285e+01     0.261274    0.2211077 -24.50  0.000402472    1.115    0.103
       297 -11.0112    104.7919    102.5563   3.5265790866e+01   4.1201798030e+01     0.200297    0.1313102  53.08 0.0004179742    1.587    0.370
       298 -11.7741     78.8049    101.9475   4.3085975779e+01   4.6105604874e+01    0.3032879    0.2033301  45.46  0.001433318    1.475    0.322
       299 -12.0163     56.0183    101.4687   5.1279316375e+01   4.9946513666e+01    0.2520431    0.2360141 -59.06 0.0004489583    1.159    0.137
       300 -12.0227     57.6679     97.5712   4.9690812639e+01   5.0592787366e+01    0.3064913    0.2389982  38.84 0.0009616252    1.246    0.197
       301 -10.8883     29.4016    102.3234   6.2610045738e+01   5.3181971675e+01    0.1917008    0.1428289 -77.95 0.0005652028    1.582    0.368
       302 -13.1941      5.6962     99.9275   7.2997163522e+01   5.5786450633e+01    0.4631723    0.4329952  12.81  0.001720215    1.109    0.098
       303 -12.5090      9.0034     96.9061   7.0959584521e+01   5.6330176726e+01    0.4593141    0.2916262  48.64 0.0003331176    1.858    0.462
       304 -12.0129    129.4954    100.4931   2.8571713478e+01   3.6872100432e+01    0.2225865    0.2106878  74.64 0.0001349542    1.037    0.035
       305 -10.8805    116.4246    100.1884   3.1620694153e+01   3.9446393302e+01    0.2075062     0.129223 -61.22 0.0009473474    1.902    0.474
       306 -12.2451     94.2019     98.4399   3.7305326843e+01   4.4045420966e+01    0.3349233    0.2499158  57.63   0.00098234    1.439    0.305
       307 -13.4981     74.5103     90.3045   4.1583730448e+01   4.9362562637e+01    0.6483663    0.4012517  67.46  0.002587599    2.684    0.627
       308 -10.5411     30.4537     96.4804   6.0925219673e+01   5.4498462557e+01    0.1426526    0.1344404  20.84 -2.649338e-05    1.088    0.081
       309 -12.9464    120.9954     91.6225   2.8434084842e+01   4.0175639525e+01    0.3935835    0.3216437  -8.93  0.001409799    1.648    0.393
       310 -10.8566      1.3245     94.0949   7.4182333866e+01   5.7507448083e+01    0.1800981    0.1259784 -86.57 0.0004973059    1.651    0.394
       311 -10.7662     98.9629     93.7534   3.4725334681e+01   4.4085651073e+01    0.1796331    0.1163156  42.72 0.0002518059    1.482    0.325
       312 -11.4266     25.7722     91.8609   6.2076311181e+01   5.6116534467e+01    0.2919388    0.1896899   2.66 0.0008982845    1.605    0.377
       313 -11.0815     57.9280     91.5156   4.8063488106e+01   5.1912431121e+01     0.222045    0.1370321  29.65 0.0007901108    1.545    0.353
       314 -10.6367     41.3251     91.7009   5.5006140895e+01   5.4303371119e+01    0.1461501    0.1081348  55.56 0.0004519394    1.632    0.387
       315 -11.1519    154.4774     90.4974   2.1275339467e+01   3.3875677033e+01    0.2222516    0.1150402  42.70  0.001036711    2.310    0.567
       316 -11.8235      2.9842     87.9248   7.2382235724e+01   5.8940267598e+01     0.427874     0.208144 -80.23  0.001784772    2.520    0.603
       317 -10.7917      6.5346     87.4346   7.0521922454e+01   5.8837294264e+01    0.2449703    0.2000412  28.15  0.001383848    1.277    0.217
       318 -12.1898     54.6018     85.4800   4.7810137109e+01   5.3761406731e+01    0.5103559    0.3969557   8.95  0.002649928    1.367    0.269
       319 -13.5178     94.8271     83.7721   3.3321905942e+01   4.6829743620e+01     0.329476    0.3099842  55.07 0.0007182174    1.014    0.014
       320 -10.9588    144.4909     82.8288   2.1374181922e+01   3.7071685429e+01     0.181877    0.1218668 -46.66  0.000589789    1.464    0.317
       321 -12.0527     89.5995     79.5962   3.3747382176e+01   4.8646957456e+01     0.388758    0.3249145   9.79  0.002019292    1.446    0.309
       322 -10.4235     79.3223     82.6803   3.7878120962e+01   5.0031241093e+01    0.1438795    0.1109005  74.75 0.0006673688    1.671    0.402
       323 -11.6946     65.5488     81.9909   4.2572182236e+01   5.2672655205e+01    0.2900605    0.1960757  21.33  0.001377754    1.636    0.389
       324 -11.9226      9.5374     78.4203   6.7242051092e+01   6.0779927100e+01    0.3907569    0.2479805 -72.85  0.001939811    1.820    0.451
       325 -11.6653      4.2297     79.5622   7.0250999543e+01   6.0882328164e+01    0.4340185    0.1902492  38.40   0.00179377    2.549    0.608
       326 -11.1162    230.0247     78.7409   9.1482470546e+00   2.2938291319e+01    0.1404786    0.1141886 -65.16 0.0004168905    1.096    0.087
       327 -11.8904    112.3768     79.0684   2.7360703369e+01   4.4164116066e+01    0.3223543    0.1918207  61.37 0.0007461509    1.817    0.450
       328 -11.5112    163.1904     78.1467   1.7125280532e+01   3.4218924986e+01    0.1744147    0.1335743 -78.03 0.0005466202    1.328    0.247
       329 -11.1137     74.9671     77.7212   3.7971217638e+01   5.1818830959e+01    0.1972359    0.1709089  39.52 0.0002079131    1.065    0.061
       330 -10.7329     55.8562     78.4503   4.5365527490e+01   5.5048517834e+01    0.1957142    0.1296839  20.46 0.0004924075    1.607    0.378
       331 -10.8758    192.1737     74.3970   1.2375118980e+01   2.9541882144e+01    0.1437036    0.1010522  82.97  0.000720721    1.520    0.342
       332 -12.2839      1.6742     73.4256   7.0434558965e+01   6.2485115568e+01    0.2877145    0.1645029 -43.52   0.00143117    1.589    0.371
       333 -11.2773    105.9083     73.1598   2.7422024934e+01   4.6514086455e+01    0.2134843    0.1766908  77.54 0.0007043006    1.276    0.217
       334 -10.7659     45.4936     73.4687   4.8342266009e+01   5.7723034362e+01     0.141203    0.1279806  25.08 0.0002074962    1.050    0.048
       335 -11.7402     70.8519     69.7600   3.7095017783e+01   5.4104055540e+01    0.5611671    0.3412397  -4.78  0.001953344    4.080    0.755
       336 -11.8858     52.1499     71.8078   4.4978829160e+01   5.7011945266e+01    0.2563279      0.23623  -9.13 0.0004184731    1.110    0.099
       337 -11.6738     55.0614     69.2191   4.2991678400e+01   5.7039976965e+01    0.2464918    0.1757124  24.07 0.0003826867    1.390    0.280
       338 -10.8978     79.6179     70.1751   3.4219709561e+01   5.2345277277e+01    0.1828837    0.1318565 -31.14  0.000377198    1.647    0.393
       339 -12.2390     60.0934     67.2914   4.0378437664e+01   5.6537151876e+01    0.4681667    0.3189053 -79.91  0.001864927    2.585    0.613
       340 -12.1328      7.7792     68.0733   6.5921744865e+01   6.3292608704e+01     0.354822    0.2515853 -66.21  0.001019444    1.570    0.363
       341 -10.0013    154.3220     68.3306   1.6350827463e+01   3.7419962774e+01    0.1161604   0.09901683  20.14 0.0003904744    1.697    0.411
       342 -10.8867    124.6984     66.9049   2.1417076657e+01   4.3648148286e+01    0.1754696    0.1588227 -73.15 0.0003625205    1.091    0.083
       343 -11.7674     49.0100     66.4982   4.4723318560e+01   5.8577076003e+01    0.2577446    0.2365171  -8.88 0.0006942692    1.115    0.103
       344 -11.5945     46.3014     62.7571   4.4753693551e+01   5.9741004264e+01    0.3055981    0.1638809  34.74 0.0006927542    1.677    0.404
       345 -12.8720     13.0680     59.7724   6.0847683527e+01   6.4656815106e+01    0.3875299    0.2693707  12.09  0.001060547    1.305    0.234
       346 -11.5619     21.1151     61.0731   5.6730730208e+01   6.3550229203e+01    0.1970985    0.1749966   1.87 0.0003973578    1.028    0.028
       347 -11.4074    183.7976     60.0428   1.0529124284e+01   3.3019805613e+01    0.1795706    0.1453538 -89.20 0.0003494253    1.148    0.129
       348 -13.1306     37.4177     54.1233   4.6100887294e+01   6.2765060408e+01    0.5392657    0.3753924 -39.13  0.002311569    1.553    0.356
       349 -11.3886    197.1560     58.1835   8.6892142226e+00   3.0904874624e+01    0.1513561    0.1362425 -67.30 0.0003768701    1.197    0.165
       350 -13.3162    153.3916     57.1105   1.3933217818e+01   3.9225527804e+01    0.2672848    0.2299778 -85.23 0.0006885926    1.018    0.017
       351 -10.9287    179.8161     56.1286   1.0200723512e+01   3.4273689038e+01    0.1717352    0.1281882 -70.67 0.0003353703    1.185    0.156
       352 -10.3567     54.3702     56.7280   3.9329655494e+01   5.9493620042e+01    0.1370673    0.1015253  61.81 0.0007000175    1.674    0.403
       353 -13.0830    106.8524     51.6145   2.1199049748e+01   4.9734129773e+01    0.4594082    0.2990506 -89.68  0.002252427    2.106    0.525
       354 -12.3211     24.4307     54.4025   5.2903401231e+01   6.4510705113e+01     0.324522    0.1552908  21.13  0.001433551    2.025    0.506
       355 -10.3170    195.4788     52.4478   7.7602751511e+00   3.1939604782e+01    0.1108243   0.08833261 -68.92 8.843023e-05    1.009    0.008
       356 -11.2827    173.9777     50.9289   9.8118691487e+00   3.6050713099e+01    0.1963409    0.1176331 -70.84  0.001133473    1.737    0.424
       357 -10.9541    150.8536     51.1472   1.2929482957e+01   4.0553734673e+01    0.1497108    0.1429575  54.79 0.0004368349    1.305    0.234
       358 -11.9636    113.2942     51.4150   1.9706525767e+01   4.8384522069e+01    0.2558302    0.1089046  52.92 0.0008681416    2.125    0.529
       359 -13.2685     29.6690     49.6519   4.8524788286e+01   6.4727782645e+01    0.3386731    0.3164037 -35.76  0.001253383    1.235    0.190
       360 -11.0467     16.2639     49.9728   5.6110822597e+01   6.6341391683e+01    0.1976867    0.1553199  13.30 0.0003158675    1.113    0.102
       361 -11.6487     99.4519     49.1872   2.2260029806e+01   5.1669325091e+01    0.2463985    0.1612376 -88.92  0.001183965    2.182    0.542
       362 -12.4681     89.3643     45.0934   2.3619778224e+01   5.4409485710e+01    0.2356239    0.2150184  57.29 0.0004841229    1.055    0.052
       363 -11.5759     40.4773     46.5384   4.1996982489e+01   6.3646016681e+01    0.2909292    0.1164546  37.20  0.001213576    2.187    0.543
       364 -11.9196     49.6653     44.0226   3.6923207777e+01   6.2491316629e+01    0.2382657      0.17094  39.45   0.00034747    1.210    0.173
       365 -13.3044     33.7974     40.2645   4.2997170935e+01   6.5779990872e+01    0.4493644    0.2711713  46.71  0.001587295    1.758    0.431
       366 -11.6886    154.9973     41.0439   1.0010497297e+01   4.1026438930e+01    0.1760899    0.1466272 -84.09 0.0003352804    1.010    0.010
       367 -12.4204    120.5942     39.4161   1.4948796004e+01   4.8437719195e+01    0.2549121    0.2099423  66.69 0.0005269628    1.102    0.092
       368 -10.3828      1.2968     40.2856   6.2488122491e+01   6.9658760210e+01    0.1311254   0.08084676 -21.17 0.0001752283    1.548    0.354
       369 -10.4559     83.9694     37.9764   2.2813482109e+01   5.6543243536e+01    0.1538443    0.1336486  58.04  0.000330906    1.010    0.010
       370 -12.0142     79.9911     36.2472   2.3364732865e+01   5.7620090779e+01    0.3354144    0.1913528 -42.31  0.001395547    2.018    0.504
       371 -12.4758      9.7346     36.8334   5.5739585745e+01   6.9547766374e+01    0.2200551     0.179637  17.39 0.0002819267    1.129    0.114
       372 -11.7290    140.7097     35.7712   1.0720956581e+01   4.4611653994e+01    0.1935008    0.1492974 -40.67  0.001089219    1.443    0.307
       373 -12.0885     42.2180     33.9462   3.6440221504e+01   6.5388446127e+01    0.2581671    0.2076432   6.00   0.00070491    1.343    0.255
       374 -12.5557     86.1229     34.0533   2.0940326956e+01   5.6596593014e+01    0.4147693    0.1654704  62.10  0.001702358    2.531    0.605
       375 -11.1044    127.3256     32.8546   1.2023522723e+01   4.7799127193e+01    0.1589788    0.1455936 -89.53 0.0005835282    1.126    0.112
       376 -11.0460     14.8178     33.3591   5.1190284439e+01   6.9600792147e+01    0.1865754    0.1038647  16.41 0.0005928508    1.702    0.412
       377 -12.6695     30.0093     31.2942   4.1469723891e+01   6.7828230742e+01    0.3756693    0.2099188  43.87  0.001758799    1.729    0.422
       378 -11.2933    137.8050     30.1517   9.7385667141e+00   4.5887243359e+01    0.1541483    0.1345223  53.03 0.0004780366    1.356    0.263
       379 -11.8611     96.7236     29.6553   1.6943308523e+01   5.4838318817e+01    0.2027611     0.161732 -13.69  0.001024309    1.700    0.412
       380 -11.8238     64.0173     30.0138   2.6183134851e+01   6.1769992859e+01     0.159836    0.1323667  48.47 0.0004334276    1.016    0.016
       381 -11.4769      2.8026     30.1585   5.8045601746e+01   7.1447429338e+01    0.2408319    0.1499079  19.80  0.001383764    1.389    0.280
       382 -12.1424      1.7303     25.6464   5.7125103938e+01   7.2353050518e+01    0.2021666    0.1686228 -47.41 0.0006824473    1.424    0.298
       383 -10.7902    116.5408     26.4275   1.2074422942e+01   5.0877777713e+01    0.1230364    0.1020807  79.09 8.533804e-05    1.011    0.011
       384 -11.4699     45.5652     25.7792   3.1641986513e+01   6.5947180176e+01    0.1589836    0.1228057 -52.48 0.0009523735    1.699    0.411
       385 -11.0242    124.9823     24.4971   1.0165313759e+01   4.9262785266e+01    0.1776141    0.1532308 -57.07 0.0006728751    1.245    0.197
       386 -12.5698     84.5739     24.1323   1.8026892685e+01   5.8134618455e+01    0.2865055    0.1855135 -75.84   0.00148613    2.173    0.540
       387 -10.8765     73.5188     24.9322   2.1303458206e+01   6.0420761042e+01    0.1590302    0.1283628 -33.21 0.0003478125    1.487    0.328
       388 -11.3564     66.9109     23.7600   2.2887116147e+01   6.1953886636e+01    0.2092066    0.1388582  81.01  0.001080575    2.066    0.516
       389 -10.6906     19.0486     23.4955   4.4481224179e+01   7.0670565464e+01    0.1799129    0.1042612  31.07 0.0003574842    1.446    0.308
       390 -10.8872     58.0069    248.9389   7.2141205477e+01   1.3657507026e+01    0.2168441     0.140811 -23.36  0.001135237    1.780    0.438
       391 -11.0003    141.3142     18.7115   6.4335321927e+00   4.6407857210e+01    0.1774715     0.133445 -87.72 0.0002890989    1.118    0.106
       392 -10.7711     35.0055     20.6783   3.4356348244e+01   6.8542485605e+01    0.1744601    0.1357153  36.23  0.001101419    1.059    0.056
       393 -11.6411     96.9879     15.7871   1.2507221675e+01   5.6310440810e+01    0.1780818    0.1622728 -89.62 0.0003232612    1.145    0.127
       394 -10.7538    127.4567     15.5434   7.4139122900e+00   4.9674480264e+01    0.1184263    0.0959015  85.65 7.750416e-05    1.002    0.002
       395 -11.0413    138.2788     19.6886   7.0537914560e+00   4.6943111193e+01    0.2004631    0.1210425  75.42 0.0002332454    1.424    0.298
       396 -11.8568     49.8687    247.1605   7.4061321156e+01   1.4792653809e+01    0.3056202    0.2278949  83.08   0.00123804    1.653    0.395
       397 -11.0758     50.3953    243.2740   7.3609084938e+01   1.5574691775e+01     0.193736    0.1699457 -14.87 0.0006787927    1.194    0.162
       398 -11.4925    178.1301    247.2916   4.4433339017e+01   2.1525812286e+00    0.1931913    0.1247469 -23.59 0.0005272388    1.293    0.227
       399 -11.4853     68.5440    247.1404   6.9311195539e+01   1.3017430206e+01    0.3060789    0.1970855  65.56  0.001555725    2.134    0.531
       400 -11.5063     99.3040    246.9081   6.1640030329e+01   9.9653742663e+00    0.2419927    0.1664647   8.78 0.0004941613    1.288    0.224
       401 -10.8755    132.0485    245.3298   5.3774013595e+01   6.9096608167e+00    0.1779945    0.1392629   4.39  0.001117277    1.066    0.062
       402 -10.7349     94.4612    243.4654   6.2435361108e+01   1.1149609423e+01    0.1977087    0.1342597 -80.26  0.001022762    2.184    0.542
