#   1 NUMBER                 Running object number                                     
#   2 MAG_AUTO               Kron-like elliptical aperture magnitude                    [mag]
#   3 X_IMAGE                Object position along x                                    [pixel]
#   4 Y_IMAGE                Object position along y                                    [pixel]
#   5 X_WORLD                Barycenter position along world x axis                     [deg]
#   6 Y_WORLD                Barycenter position along world y axis                     [deg]
#   7 A_WORLD                Profile RMS along major axis (world units)                 [deg]
#   8 B_WORLD                Profile RMS along minor axis (world units)                 [deg]
#   9 THETA_WORLD            Position angle (CCW/world-x)                               [deg]
#  10 FWHM_WORLD             FWHM assuming a gaussian core                              [deg]
#  11 ELONGATION             A_IMAGE/B_IMAGE                                           
#  12 ELLIPTICITY            1 - B_IMAGE/A_IMAGE                                       
         1 -15.4860    186.3697     36.9588   8.9437108731e+00   3.4132791915e+01    0.9923572    0.8181984 -69.21  0.003435183    1.051    0.049
         2 -13.9992    189.8636     15.2210   2.9103250678e+00   3.5962583366e+01    0.4505954    0.2459235 -71.09  0.001531243    1.659    0.397
         3 -11.7715     76.7297      2.0148   1.2199470433e+01   6.6230549666e+01    0.1902327    0.1721686  73.59 0.0004782223    1.033    0.032
         4 -11.0845    216.8206      1.3960   3.5808859347e+02   3.1606024488e+01    0.1494153   0.09868736  76.49 0.0009036627    1.663    0.399
         5 -12.6331    181.1464    194.6401   4.4721999530e+01   8.9937979320e+00    0.4598939     0.206945 -49.63  0.002146652    2.710    0.631
         6 -15.6876    192.0233    219.6981   4.6573200276e+01   3.9140766882e+00     1.147739     1.069704 -74.90  0.006186575    1.858    0.462
         7 -14.6852    168.1909    221.5184   5.1255823365e+01   6.5060091583e+00    0.7122147    0.6645197 -69.39  0.003315756    1.615    0.381
         8 -15.1467    175.7738    220.2925   4.9633327898e+01   5.7599478742e+00     1.071067    0.5657374 -37.50  0.006149156    1.943    0.485
         9 -15.2540    186.2375    247.1037   5.1327946059e+01   9.2925852840e-01     2.222669      1.04876  20.50   0.01318771    1.839    0.456
        10 -14.7934    183.4616    232.3823   4.9891141323e+01   3.1537845564e+00    0.8290793    0.5893052 -15.89  0.004695057    1.304    0.233
        11  99.0000     38.3496    156.2368   7.6114167004e+01   3.8292592478e+01     4.482275     1.886792 -60.76   0.01770118    2.398    0.583
        12 -19.4189     75.6439    199.5829   6.9640816484e+01   2.2997851835e+01     7.851615     6.650689 -39.00   0.04040056    1.436    0.304
        13 -12.4813    157.8765    218.6080   5.2888153727e+01   8.2499069250e+00    0.2708071    0.1639367 -36.76  0.001028163    1.758    0.431
        14 -12.3350    150.9760    193.1559   5.0555767466e+01   1.3487699242e+01    0.2096885    0.1846164 -33.24 0.0004847302    1.201    0.168
        15 -11.1275     17.9782    189.9569   8.4643853478e+01   3.1823444231e+01     0.188386    0.1501992 -38.47  0.001086976    1.670    0.401
        16 -19.0527     56.9893     72.8147   5.3053470900e+01   5.8261821559e+01     21.62127     1.036645 -56.16   0.02555976   22.367    0.955
        17 -12.6090    155.0440    170.3228   4.5829931904e+01   1.7082527608e+01    0.2645962    0.2218748 -15.05  0.001140994    1.216    0.178
        18 -13.6706    227.6754    163.7760   3.1622210179e+01   7.4544531598e+00    0.6489758    0.3565474 -48.47  0.003067897    2.158    0.537
        19 -14.5150    240.3342    160.9180   2.9340098950e+01   6.2471767035e+00    0.6971964    0.6420228  36.76   0.00358176    1.480    0.324
        20 -11.6111    113.9870    215.6233   6.2008699248e+01   1.4568438698e+01    0.2734167    0.1914178 -26.74  0.001102805    1.769    0.435
        21 -11.7325     29.2798    157.3721   7.9189710410e+01   3.8963549217e+01    0.2757348    0.2202093 -70.04 0.0009170381    1.313    0.238
        22 -12.1769    136.0389    227.8851   5.8632220472e+01   9.5388043685e+00    0.2605829     0.166201 -42.16 0.0007511308    1.785    0.440
        23 -11.8319     27.2182    146.2187   7.8931690619e+01   4.2162590621e+01    0.2959065    0.2583277  61.16  0.001487986    1.018    0.017
        24 -11.6685     20.3777    145.7492   8.1266234250e+01   4.2932914940e+01    0.1808529    0.1562474 -85.46 0.0005551805    1.142    0.124
        25 -11.2973     10.7407    144.5639   8.4529594152e+01   4.4050851326e+01    0.1601199    0.1276874 -21.86 0.0005971417    1.582    0.368
        26 -10.2875     38.8965    131.4718   7.3134876040e+01   4.4964779652e+01     0.201843    0.1426038  31.71  0.000290753    1.389    0.280
        27 -11.0289    186.1136    128.7578   3.1430723065e+01   1.9427932609e+01    0.3201565    0.2205752  74.91  0.001554387    2.299    0.565
        28 -12.2580    160.4318    128.2980   3.6224369679e+01   2.4302500626e+01    0.3586489      0.26647 -48.46  0.001856546    1.306    0.234
        29 -10.6255    152.6865    214.5333   5.3377620144e+01   9.5789712660e+00    0.1641432    0.1027131  36.70  0.000930346    1.500    0.333
        30 -11.5654    175.0439    118.8993   3.1245350001e+01   2.3262864500e+01     0.224943    0.1850226 -46.72 0.0003165377    1.132    0.117
        31 -11.4889    167.4839    112.8033   3.1256273456e+01   2.5892748043e+01    0.3272722    0.2283731 -72.65  0.001129456    1.911    0.477
        32 -10.5450    127.8630    223.5192   5.9854086528e+01   1.1320668384e+01    0.3051778    0.1454986 -39.97  0.001479042    2.539    0.606
        33 -11.8202    153.7030    105.3034   3.2190780583e+01   3.0211795841e+01    0.2892676    0.2391786 -70.20 0.0007533805    1.272    0.214
        34 -11.9911     24.1491    105.1938   7.5637224727e+01   5.3861160206e+01     0.294279    0.2660938 -47.01 0.0008696722    1.191    0.160
        35 -10.7955    146.9578    100.9474   3.2520549644e+01   3.2544057880e+01    0.2322343    0.1744758 -78.05 0.0004482575    1.588    0.370
        36 -11.5583     33.0986     99.5321   7.0743565784e+01   5.4537370155e+01     0.401348    0.3292447   9.72  0.001522139    1.375    0.273
        37 -10.1395      1.4985     99.5846   8.5290769914e+01   5.7003714162e+01    0.1377637    0.1261963 -81.22 0.0001331787    1.057    0.053
        38 -12.5708    128.3484     96.6295   3.5726782697e+01   3.7599475831e+01    0.4279024     0.378399  67.69  0.001429672    1.120    0.107
        39 -12.2958    111.9880     95.4497   3.9797101846e+01   4.1542813871e+01    0.3596362    0.2781529  44.35 0.0009357761    1.328    0.247
        40 -11.1936     27.3136     93.1515   7.2336316604e+01   5.6917826813e+01    0.2475004    0.2067308   1.11 0.0007421497    1.360    0.265
        41 -12.3410     83.0639     92.0845   4.8187420992e+01   4.8543052333e+01    0.3595362    0.2161086  46.99 0.0009128073    1.629    0.386
        42 -11.3770     33.0443     90.7267   6.9142588593e+01   5.6979071123e+01     0.261638    0.2116545 -71.11 0.0005681711    1.187    0.158
        43 -14.0809      5.4893     77.2454   8.1190507439e+01   6.2935924840e+01     1.252662    0.5173612 -68.95  0.004703125    2.105    0.525
        44 -14.9291     11.1547     63.5230   7.5770595896e+01   6.6282175083e+01     1.610729    0.6869407 -35.34  0.005719125    2.744    0.636
        45 -11.4647      9.4547     87.5403   8.0332960247e+01   5.9902891467e+01    0.3253476     0.199184  -6.84  0.001034588    1.953    0.488
        46 -11.9514    157.9921     87.0295   2.6597772467e+01   3.2761404521e+01    0.2357123    0.2014672 -69.49 0.0007135939    1.132    0.117
        47 -10.7016    146.0600    208.0036   5.3842494053e+01   1.1566919474e+01    0.1810245     0.160335   6.85 0.0004530935    1.055    0.052
        48 -12.3867    177.8777    203.0578   4.6673849108e+01   8.1045047341e+00    0.2338663    0.1517648 -43.50  0.001047696    1.664    0.399
        49 -10.1815    104.6415     83.2456   3.8378258844e+01   4.5933166308e+01     0.161403    0.1191496  79.59 0.0002044153    1.599    0.374
        50 -14.8592    157.1329     72.3206   2.2717633011e+01   3.5600018925e+01     1.192533       1.0547 -15.68  0.004038591    1.406    0.289
        51 -15.0706    169.5286     60.7607   1.7474648952e+01   3.4603699163e+01     1.149637    0.8855242 -45.86   0.00383929    1.191    0.160
        52 -14.0848    175.1016     53.6027   1.4729708434e+01   3.4402047904e+01    0.5518522    0.5015492 -58.35 0.0008325463    1.117    0.105
        53 -11.8579     72.9810     81.0124   4.8744854909e+01   5.3271666696e+01    0.3136491    0.2108605  43.14 0.0007753906    1.459    0.315
        54 -11.5656    137.6020     73.1686   2.6792144203e+01   4.0125875653e+01    0.2966824    0.2363736 -89.82 0.0006687858    1.303    0.232
        55 -13.0259    162.5383    200.7688   4.9331713616e+01   1.0532791290e+01    0.5136101    0.2189002 -48.10  0.002375763    2.586    0.613
        56 -10.7683    104.9834     73.4832   3.5171042516e+01   4.7955765835e+01    0.2411611    0.1511831  52.31 0.0009191143    1.560    0.359
        57 -11.9885      3.9144     90.1007   8.3371804218e+01   5.9501510314e+01     0.534169    0.3516067 -26.84  0.002653136    1.737    0.424
        58 -11.1129    121.7792    218.8155   6.0623376589e+01   1.2944703773e+01    0.3869224    0.2318239 -66.65  0.002019973    2.349    0.574
        59 -10.9845     11.2308    206.4373   8.7093820185e+01   2.8617201649e+01    0.5441108    0.2342353  17.84  0.002452614    2.468    0.595
        60 -11.0396     71.8404    239.1477   7.4116777324e+01   1.5482152500e+01    0.1641166    0.1348842 -16.26   0.00106578    1.574    0.365
        61 -13.6981    192.7550    195.1050   4.2668254810e+01   7.3871492764e+00    0.7978121    0.4489228 -61.36  0.003237472    4.723    0.788
