#   1 NUMBER                 Running object number                                     
#   2 MAG_AUTO               Kron-like elliptical aperture magnitude                    [mag]
#   3 X_IMAGE                Object position along x                                    [pixel]
#   4 Y_IMAGE                Object position along y                                    [pixel]
#   5 X_WORLD                Barycenter position along world x axis                     [deg]
#   6 Y_WORLD                Barycenter position along world y axis                     [deg]
#   7 A_WORLD                Profile RMS along major axis (world units)                 [deg]
#   8 B_WORLD                Profile RMS along minor axis (world units)                 [deg]
#   9 THETA_WORLD            Position angle (CCW/world-x)                               [deg]
#  10 FWHM_WORLD             FWHM assuming a gaussian core                              [deg]
#  11 ELONGATION             A_IMAGE/B_IMAGE                                           
#  12 ELLIPTICITY            1 - B_IMAGE/A_IMAGE                                       
         1 -11.9204    101.0743     58.4158   1.0340972320e+02   5.2103406760e+01     2.116225     1.412807  -5.10  0.006019673    2.593    0.614
         2 -10.6443     74.7852     55.8754   1.1209369215e+02   5.8010722686e+01     1.303788    0.8492802 -60.10  0.005386542    1.721    0.419
         3 -10.8305    107.7422     32.6602   9.1014167867e+01   5.5083268317e+01     1.561246     1.243847 -53.65  0.006453368    1.392    0.282
         4 -10.8573    167.0809     26.3613   7.6129924288e+01   3.9852558796e+01     1.025856    0.6193957  29.78   0.00422593    2.185    0.542
         5 -11.8087    122.0595     37.6118   8.9185661222e+01   5.0642713945e+01     2.183292     1.199019  -1.22  0.006777714    3.913    0.744
         6 -11.7885    132.3320     38.4215   8.7008081503e+01   4.7798254147e+01     2.199966     1.087525  -5.32  0.005863168    5.210    0.808
         7 -11.3219    143.9043     38.3982   8.4475392405e+01   4.4673221004e+01     1.758033    0.7499852  45.14  0.006100135    2.535    0.606
         8 -12.8726    109.2205     67.2098   1.0389012557e+02   4.8502709465e+01     3.068432     1.710248  35.26   0.01194338    2.121    0.529
         9 -12.3642    135.6986      5.2427   7.3005654077e+01   5.0876344691e+01     1.772729    0.7232984  77.07  0.006283361    2.582    0.613
        10 -12.0662    164.7268     10.4836   7.0947926045e+01   4.2220493922e+01      1.34445    0.8636702 -20.96   0.00628709    1.662    0.398
        11 -12.6393     71.2835     31.2302   1.0331505281e+02   6.3599782126e+01     2.176602    0.9085883  49.27   0.00832969    2.565    0.610
        12 -12.0208    111.7349     22.3285   8.5350364669e+01   5.5534898566e+01     1.134481    0.7713403 -86.46  0.004925615    1.988    0.497
        13 -12.0198    130.4526     20.0119   8.0061588222e+01   5.0780275618e+01     1.215619    0.4130656  59.21  0.004089257    2.537    0.606
        14 -11.9805     88.8604     27.3647   9.4612329756e+01   6.0477393466e+01     2.111063     1.051964 -30.03  0.008577727    2.121    0.528
        15 -12.1882     70.5415     19.8529   9.7873448204e+01   6.5687852996e+01     1.748522    0.6652787  42.93  0.006559071    2.657    0.624
        16 -12.0029    113.3642      9.1383   7.8900667346e+01   5.6663368392e+01     1.446465    0.7111808  49.94  0.005954454    1.877    0.467
        17 -11.7673    127.0524     15.3270   7.8781926858e+01   5.2258640647e+01     1.500081    0.3000163  51.02  0.004056176    4.195    0.762
        18 -10.9696    117.1828     15.5884   8.0999604427e+01   5.4921278570e+01    0.3647816    0.3316195 -70.96 0.0006459343    1.179    0.152
        19 -11.6959     93.2291      8.5635   8.3703517866e+01   6.1980295406e+01    0.5242423    0.4376546 -45.29 0.0007766553    1.325    0.245
        20 -13.0073     99.8153      6.4468   8.0809500433e+01   6.0530277557e+01    0.7598787    0.5137389 -31.56 0.0004383825    1.546    0.353
        21 -12.4272     87.0779     51.5856   1.0573203620e+02   5.6495311157e+01     2.148719     1.413598 -23.51  0.009352655    1.945    0.486
        22 -10.3477     54.7167     18.1908   1.0440946076e+02   6.9004800332e+01    0.5714983    0.3638813  -9.79  0.001807103    2.167    0.539
        23 -10.4071     55.8687     49.0497   1.1784261649e+02   6.2659391195e+01     1.259194    0.8175359 -15.27  0.005590241    2.309    0.567
        24 -12.2442     53.4708     32.9465   1.1249222075e+02   6.6443237287e+01     1.094835    0.8451237 -58.70  0.004892203    1.426    0.299
        25 -10.0877     31.4644     11.4974   1.1452842986e+02   7.3748948203e+01    0.3536148    0.2535055 -17.17  0.001549092    1.443    0.307
        26 -11.1476     27.6451      4.5157   1.1295564690e+02   7.5507293471e+01     1.218756    0.5528748  29.81  0.005253858    2.366    0.577
        27 -12.0728     28.8154     25.7633   1.2344034261e+02   7.1173744282e+01     1.242439    0.6057606 -48.40  0.005498203    1.769    0.435
        28 -11.6295     77.9267      7.5424   8.8061218156e+01   6.5796586397e+01    0.7771577    0.5196109  -2.15  0.003210015    1.736    0.424
        29 -12.4468     40.8369     16.1025   1.1106666107e+02   7.1616590339e+01      1.36767    0.6598263 -43.79  0.006394895    1.928    0.481
        30 -12.2760     50.5455     11.0464   1.0243537188e+02   7.0930137069e+01    0.4645692    0.3306629  28.72 0.0004975288    1.426    0.299
        31 -12.1469      9.4200     26.7080   1.3664930221e+02   7.2461752532e+01     1.229948    0.4379641   7.67  0.005187777    3.541    0.718
        32 -12.2309     18.8237     13.8688   1.2500682396e+02   7.4627482205e+01    0.6453721    0.4819031 -48.00  0.004048513    1.159    0.137
        33 -11.6159     67.8712      5.2015   9.0507789337e+01   6.8343417199e+01    0.8395414    0.4315074  34.87  0.003654245    2.122    0.529
        34 -12.2613     57.8984      4.0215   9.4164414389e+01   7.0580534812e+01     1.008371    0.4647805  58.17  0.004158982    2.711    0.631
        35 -11.4069     11.8063      7.5510   1.2752885052e+02   7.6488477925e+01    0.5287907     0.437723  85.54  0.003454378    1.616    0.381
        36 -11.4421      2.8785     18.7361   1.3901000342e+02   7.4551539932e+01    0.3836913    0.1948573 -63.93  0.001222994    1.580    0.367
        37 -13.0309      4.2154      8.7934   1.3457794335e+02   7.6677141889e+01     1.339951    0.6855896 -77.79  0.006846647    2.234    0.552
        38  -9.8483    185.1903     14.4536   6.9922616377e+01   3.6204787326e+01    0.5129329    0.3803922  46.17  0.002478511    1.467    0.319
        39  -9.5877    179.0891     14.7049   7.0674581145e+01   3.7833337178e+01    0.4293533    0.3223051  83.34  0.001677511    1.292    0.226
        40 -11.7434    184.6963     26.5574   7.3808150464e+01   3.5033169785e+01    0.6782912    0.4272571  23.52  0.001107803    2.192    0.544
        41 -10.9083    123.5302     10.0224   7.7186298159e+01   5.3799694390e+01    0.3990156    0.3811735  73.47  0.001366805    1.034    0.033
        42  -9.3480    221.7423     11.3607   6.5770228260e+01   2.7146202668e+01    0.4532369    0.1637718 -45.79  0.001347655    2.441    0.590
        43  -9.8445    216.8608     15.0522   6.7151243933e+01   2.7971276259e+01    0.6208836    0.3606458   2.48  0.002741284    2.478    0.596
        44 -10.6319    212.3518     15.4591   6.7638320063e+01   2.9045274587e+01    0.5792269     0.307034 -20.78  0.002647495    1.934    0.483
        45  -9.0296    226.6993      9.1173   6.4821906005e+01   2.6176709435e+01    0.4817423    0.2317113 -51.21  0.002240076    1.911    0.477
        46 -10.7811    243.9845     19.5111   6.6272893411e+01   2.1220353873e+01    0.6978605    0.3538803  86.91  0.003368267    2.284    0.562
        47  -9.9142    229.7083      3.1747   6.3080795218e+01   2.6019235858e+01    0.5994991    0.2230291  52.03  0.002378484    3.285    0.696
        48  -9.5431    236.7453     14.5594   6.5536246244e+01   2.3324376234e+01    0.3028715    0.2187198  83.71  0.001677474    1.446    0.308
        49 -10.2711    233.1011     11.6902   6.5053842247e+01   2.4435804804e+01    0.4046229    0.2387861 -39.08  0.001358739    1.449    0.310
        50  -9.8362    231.9525     17.9196   6.6739446942e+01   2.4088998908e+01    0.3750688    0.2012094 -45.49 0.0009011005    1.641    0.390
        51 -10.5033    220.7517      1.9711   6.3320041967e+01   2.8259146458e+01    0.2988821    0.2413788 -15.11  0.001213058    1.354    0.261
        52 -10.5180    224.0174      1.4829   6.2986117257e+01   2.7517212001e+01    0.2822481    0.2212697 -52.47 0.0003839112    1.113    0.101
        53 -10.5210    201.7138     19.4042   6.9741277459e+01   3.1337191100e+01    0.5219011    0.3689062  39.04  0.002048763    1.669    0.401
        54  -9.5513    198.2019     16.7950   6.9313366840e+01   3.2517138703e+01    0.2881596    0.2354323  61.04 0.0008552229    1.264    0.209
        55 -10.1610    243.0685     12.6378   6.4638340751e+01   2.2095245800e+01    0.4211468    0.2553635 -24.72  0.001495734    1.537    0.349
        56 -10.8879    247.8356      6.0895   6.2760249228e+01   2.1668292308e+01    0.5564612    0.3919037 -49.71  0.002993605    1.200    0.167
        57  -8.7084    192.4142     12.4847   6.8575110942e+01   3.4471559899e+01    0.2130671    0.1477605 -56.28 0.0005684548    1.397    0.284
        58  -9.9318    196.9678      3.1718   6.5358334926e+01   3.4148323320e+01    0.7374895    0.2758483 -32.67  0.002961597    2.328    0.570
        59  -9.7158    189.9891      8.3368   6.7529985987e+01   3.5516872197e+01    0.2694458    0.2279835  77.57 0.0003803601    1.145    0.127
        60  -9.3479    193.2975      6.0528   6.6532119443e+01   3.4851854891e+01    0.2509995    0.2094798 -85.75  0.000306758    1.127    0.112
        61 -11.5687    204.2648      6.5887   6.5779139606e+01   3.1947321453e+01    0.5846175    0.4452129  43.79  0.001088602    1.516    0.340
        62 -11.4980    209.1493      3.6146   6.4559397691e+01   3.0978561184e+01    0.5997237    0.3168407 -81.01  0.001489152    2.007    0.502
        63  -9.3266    180.4678      7.1794   6.8083166463e+01   3.8191735392e+01    0.4699974    0.1917633 -26.52  0.001844591    2.352    0.575
        64 -10.3430    173.6330      8.9004   6.9367339449e+01   3.9902560821e+01    0.2772499    0.2522024 -25.97  0.000561291    1.172    0.147
        65 -10.5400    174.9139      4.8311   6.7873898606e+01   3.9927415524e+01    0.4760196    0.3877313 -62.57  0.002570785    1.181    0.153
        66  -9.2729    157.7323      7.2154   7.0655613598e+01   4.4490935920e+01    0.3108203    0.1952222 -70.91  0.001138123    1.747    0.428
        67  -8.5796    241.9488      1.4961   6.1964136157e+01   2.3377782900e+01    0.1781938    0.1179128  87.29 0.0006418718    1.549    0.354
        68  -8.2967    189.5192      1.4299   6.5438161565e+01   3.6269819974e+01    0.1397331    0.1277027 -80.55  0.000106141    1.028    0.027
        69 -11.8363    149.5909     19.9226   7.6537902057e+01   4.5464521838e+01     1.706126      1.13506   3.94  0.006526388    1.947    0.486
        70  -8.4748    145.9709      1.2231   6.9917284296e+01   4.8337753506e+01    0.1855418     0.113681  74.85 0.0008310413    1.514    0.339
        71  -8.0397    110.3279      1.2276   7.5783477906e+01   5.8249879101e+01    0.1505215   0.09526769  44.38 0.0002100676    1.515    0.340
        72  -9.5956     40.7176    116.9975   1.3894832285e+02   4.8164025613e+01    0.4157555    0.1988245  69.58  0.001744975    2.558    0.609
        73  -8.9663    184.2578    250.2444   1.2238467073e+02   3.4998293004e+00    0.1743963   0.06262557  43.08 0.0008924095    2.421    0.587
        74  -8.3475    173.6825    250.3185   1.2420673118e+02   4.9119963993e+00    0.1016646   0.06887491  48.62 0.0002932503    1.657    0.397
        75  -9.4251     51.2209    117.0428   1.3554138854e+02   4.6967263910e+01    0.2608047     0.181642  31.94  0.001403894    1.494    0.331
        76  -8.8330     27.7256    115.9600   1.4305840134e+02   4.9672485255e+01     0.176785      0.13629 -84.93 0.0002918454    1.153    0.133
        77  -8.8520    118.5110    115.5178   1.1469898415e+02   3.6261939216e+01    0.1504409     0.140864  54.54 0.0008103228    1.002    0.002
        78 -10.6356    132.8423    110.4452   1.0965067973e+02   3.4320106407e+01    0.8281708    0.4349757 -37.17  0.003278956    2.211    0.548
        79  -8.6619     45.1148    113.1353   1.3699243280e+02   4.8620623564e+01    0.1910281    0.1395542  60.55  0.001059304    1.309    0.236
        80  -8.8367     92.5654    111.6561   1.2138300202e+02   4.2073732907e+01    0.3086364    0.1795345  41.88  0.001370411    1.640    0.390
        81  -9.2387     76.0185    102.5248   1.2471853989e+02   4.7010645552e+01    0.2925916    0.2348543  60.17  0.001049427    1.244    0.196
        82 -10.5121     67.4242    107.9625   1.2868979332e+02   4.7014880173e+01     0.746886     0.386589 -50.82  0.003274156    2.021    0.505
        83 -10.0300     74.1526    108.3116   1.2653308617e+02   4.5923463513e+01    0.3844357    0.3335136  34.14  0.001130753    1.218    0.179
        84  -9.2579     81.0678    102.3335   1.2299768948e+02   4.6232171505e+01    0.3325455    0.1967041  35.90  0.001073744    1.715    0.417
        85 -10.3410     86.8936    100.1524   1.2058613863e+02   4.5745042084e+01    0.4986839    0.3797371 -22.67  0.001376536    1.786    0.440
        86  -9.1956     91.7991     96.8400   1.1818972608e+02   4.5627742176e+01    0.3131715    0.2578632  72.93 0.0008653774    1.308    0.236
        87  -9.9230    105.4976    109.1864   1.1693343129e+02   4.0227658969e+01    0.3714572    0.2984528 -55.23  0.001256927    1.293    0.227
        88  -9.4932     34.7529    109.6792   1.4001832014e+02   5.0541920544e+01    0.2836531    0.2488952 -28.15  0.001515386    1.417    0.294
        89  -8.7432     38.7703    107.2558   1.3832958030e+02   5.0732386061e+01    0.1822137     0.140765 -51.42  0.001044016    1.400    0.286
        90  -9.4253    120.6379    109.0540   1.1257792188e+02   3.7203923088e+01    0.2928624     0.217618  37.01 0.0006483886    1.349    0.259
        91 -10.4476      3.8913    100.0251   1.4972223041e+02   5.5181383224e+01    0.4753999    0.2545029 -84.45  0.001214853    1.573    0.364
        92  -8.8038     97.5241    103.9148   1.1809800043e+02   4.2939825689e+01    0.3239532    0.1805526  55.19  0.001317849    2.005    0.501
        93  -9.0552    183.5009    102.0111   9.6006128402e+01   2.4414532815e+01      0.22669    0.1443707 -31.24  0.001033652    1.601    0.376
        94  -9.1988    151.2963    100.2832   1.0245455012e+02   3.2171329246e+01    0.3959832     0.244728 -60.04  0.001591729    2.208    0.547
        95  -9.3376    140.3533    101.1444   1.0534825182e+02   3.4518785750e+01    0.2708441    0.2056995  36.30 0.0007537875    1.339    0.253
        96 -10.5178    114.5183    100.4690   1.1214979612e+02   4.0324535627e+01    0.5034625    0.3242705 -61.73  0.002180508    1.823    0.452
        97 -10.8467    117.5047     98.4515   1.1076434374e+02   4.0127212399e+01    0.6780016    0.4431635  71.43  0.002305888    2.172    0.540
        98  -8.8647     56.0094    101.5025   1.3139743796e+02   5.0147890673e+01    0.1966439    0.1330643  35.73 0.0004297899    1.503    0.335
        99  -8.8675      9.8901     99.9117   1.4761976374e+02   5.4868520236e+01    0.2029804    0.1173498  64.32  0.001014377    1.634    0.388
       100  -9.9340    159.2717     96.7829   9.9681590792e+01   3.0952647905e+01    0.4030164    0.3469348  42.85  0.001251486    1.123    0.109
       101  -9.5358    187.8834     93.3848   9.2932412552e+01   2.4793231142e+01     0.348277    0.2557504 -48.25  0.001186973    1.484    0.326
       102  -8.7920    235.3304    249.6715   1.1404704546e+02  -2.9740784930e+00   0.08773373   0.06921043  35.24 0.0007051466    1.712    0.416
       103  -8.6616     25.7669    248.6580   1.5087409330e+02   2.3524334391e+01    0.1459359    0.0568136  42.00 0.0005575363    1.617    0.382
       104  -8.7973     34.3124    247.3164   1.4931068273e+02   2.2870703966e+01    0.1532529   0.05909758  42.65  0.000874938    1.631    0.387
       105  -9.7250    142.3687    243.5231   1.2905299211e+02   9.9985313194e+00    0.2390819    0.1402256  24.05 0.0007677192    1.677    0.404
       106  -9.0991    211.0032    240.4857   1.1670097151e+02   9.1305732245e-01    0.1553288    0.1203425   6.16  0.001242297    1.245    0.197
       107  -9.4984     12.5432    117.1021   1.4802772004e+02   5.0594157344e+01    0.2284901     0.179751  48.17 0.0008929399    1.239    0.193
       108  -9.1718     13.1725    238.6071   1.5284451449e+02   2.6282484594e+01    0.1276979   0.07942302  29.73 0.0009429493    1.659    0.397
       109 -10.8412    155.9138     24.7501   7.7285562282e+01   4.3139255751e+01    0.8392451    0.3750705  67.25  0.001822723    2.132    0.531
       110 -12.8308    103.6513     81.8909   1.1029780547e+02   4.6641740717e+01      3.11383     1.371708  50.45   0.01122229    2.383    0.580
       111  -8.9491     23.3251    236.3170   1.5093811572e+02   2.5686431947e+01   0.08181379   0.07733684  11.29 0.0007044408    1.672    0.402
       112  -9.6094     12.4600    232.4553   1.5282542990e+02   2.7335176811e+01     0.222928   0.09976273  53.29  0.001513425    1.471    0.320
       113  -8.5089    227.1480    231.6273   1.1288584200e+02  -3.6999744625e-01    0.1550294    0.0714649  28.10 0.0005704825    1.666    0.400
       114  -9.1447    136.7682    225.0713   1.2812863217e+02   1.3240383516e+01    0.1220922    0.1011093 -56.27 0.0008785489    1.644    0.392
       115  -8.1093    244.5414    204.4878   1.0607259943e+02  -1.0734640283e-01    0.1129278   0.08025258  12.83 0.0002685146    1.030    0.029
       116  -8.8023    234.4968    201.0003   1.0709024914e+02   1.6292848059e+00    0.1601324   0.08094396  -2.89 0.0008106566    2.592    0.614
       117 -10.3627     26.7296    191.7035   1.4855097024e+02   3.3212117746e+01    0.3431722    0.2204823  70.92    0.0021781    1.299    0.230
       118 -11.2764     17.8866    186.1760   1.5026977692e+02   3.5121154647e+01    0.4175201    0.3288432   3.93  0.001433627    1.899    0.473
       119 -10.1997     11.7561    184.5871   1.5157366093e+02   3.5974176823e+01    0.2620569     0.147467 -86.54  0.001678713    1.675    0.403
       120 -10.4572      5.2179    185.0455   1.5302929555e+02   3.6431010136e+01    0.4646374    0.1296401  48.87  0.002373054    2.309    0.567
       121  -9.8322     38.8175    176.7191   1.4493389867e+02   3.4951117286e+01    0.2892517    0.1579929 -86.41  0.001572754    1.820    0.450
       122  -9.2988      1.5285    177.9454   1.5365232690e+02   3.8116846732e+01    0.1610609   0.08784435  83.99  0.001020135    1.572    0.364
       123  -9.5049     62.8501    167.5846   1.3826966023e+02   3.4025340072e+01    0.2472682    0.1920844  78.24  0.001321045    1.213    0.175
       124  -8.8714    206.4021     92.2183   8.9409658738e+01   2.0740380166e+01    0.2088956    0.1235965 -40.20 0.0009537946    1.689    0.408
       125 -10.9284     89.1176     89.5258   1.1719931425e+02   4.7807577222e+01    0.6293411      0.52219 -33.10  0.002664436    1.368    0.269
       126  -9.7189     82.2516     90.4496   1.1977496800e+02   4.8827955380e+01    0.3580757    0.2555376  38.45  0.001747115    1.416    0.294
       127  -9.1912    194.2915     90.0642   9.0901695730e+01   2.3821458120e+01    0.3464698    0.2300588  -2.58  0.001332042    2.006    0.501
       128  -9.2247     74.5461     89.0922   1.2213919196e+02   5.0448202312e+01    0.2778743    0.2180704  30.50  0.001433113    1.370    0.270
       129 -10.0007    152.9675     87.2123   9.8449859738e+01   3.4200064331e+01    0.3561924    0.2964419  37.17 0.0009746249    1.214    0.176
       130  -9.8850    160.5642     81.7742   9.5177591096e+01   3.3309304159e+01    0.4431086    0.3967468 -62.85   0.00203135    1.208    0.172
       131 -11.4204     81.3906     69.2131   1.1404870911e+02   5.3862054046e+01     1.120556    0.7685516  15.18  0.003973554    2.083    0.520
       132 -10.5950     55.6109     61.3043   1.2203696372e+02   5.9908605011e+01    0.5682244    0.5453973 -74.08  0.003426948    1.047    0.045
       133 -11.2699     68.6460     76.0461   1.2093186647e+02   5.4488029691e+01    0.8093154    0.6631621 -15.15   0.00423399    1.514    0.340
       134  -9.9184     74.5935     75.6117   1.1853510883e+02   5.3611094285e+01    0.2625522    0.2316289  49.14 0.0003764833    1.150    0.130
       135  -9.7320     81.7796     75.0163   1.1569241131e+02   5.2481429015e+01    0.2605332    0.2119496  35.41 -0.000430966    1.275    0.215
       136 -10.3981     58.3178     76.9991   1.2525533022e+02   5.5805071208e+01    0.4846418    0.4056488  50.75  0.002280178    1.235    0.190
       137 -11.3506     59.1227     69.6222   1.2296404162e+02   5.7452075982e+01    0.5795203    0.4920192  88.66  0.002131616    1.276    0.216
       138  -8.5932     75.9941     83.2392   1.2012082801e+02   5.1592069923e+01    0.2977063    0.1819129 -83.45  0.001167439    2.548    0.607
       139  -9.6525    218.3493     77.9739   8.3938249112e+01   2.0069776190e+01    0.4722593    0.2418854  -5.97   0.00167243    3.405    0.706
       140  -9.8187    133.6704     82.6828   1.0186107713e+02   3.9702933101e+01    0.3319576     0.289406  73.03  0.000827982    1.223    0.182
       141 -10.5872    133.9953     78.7418   1.0058050772e+02   4.0388264341e+01    0.4522933    0.3935494 -85.47  0.001836883    1.301    0.231
       142  -9.6866     17.4535     82.3522   1.4298139286e+02   5.8666691592e+01    0.2862546    0.1624882   7.49  0.001462915    2.255    0.556
       143  -8.9108    135.5517     63.9464   9.5425503098e+01   4.2753484526e+01    0.3375401    0.1920052 -42.16 0.0009130784    1.799    0.444
       144 -10.7869    143.0481     77.3482   9.7873732707e+01   3.8439594019e+01    0.5940619     0.385273  28.65  0.002420755    1.991    0.498
       145 -10.3220    150.0314     75.4948   9.5651310908e+01   3.7038008497e+01    0.7275662    0.4490997 -16.87  0.002838802    2.265    0.558
       146 -10.1018    138.5830     74.2659   9.8017973322e+01   4.0113191072e+01    0.5014489    0.2627162 -44.37  0.001599578    1.984    0.496
       147  -9.8703    132.2643     68.2298   9.7687453014e+01   4.2798110728e+01    0.5433927    0.3169626  67.04  0.001666318    2.147    0.534
       148  -9.8149    155.7191     68.5623   9.2230007946e+01   3.6798067293e+01    0.6789777    0.2839743 -25.89  0.002161567    3.166    0.684
       149 -10.0898    150.8493     67.0418   9.2819114724e+01   3.8305650478e+01    0.4997813    0.3578824  43.80  0.001384146    1.410    0.291
       150  -9.7605    143.8143     70.8382   9.5655209483e+01   3.9431871235e+01    0.3280577    0.2704563 -55.26 0.0007421209    1.299    0.230
       151 -10.4166    139.8367     67.9742   9.5695350279e+01   4.0948572724e+01    0.5697038    0.4681796  14.03   0.00214676    1.455    0.313
       152 -11.4997     53.0992     87.1544   1.2965248573e+02   5.4033435337e+01     1.518997     1.145248 -11.73  0.007845351    1.802    0.445
       153  -8.6922     13.1993     77.0051   1.4406367448e+02   6.0245024269e+01    0.2345487    0.1458717  79.86  0.001148636    1.574    0.365
       154  -9.0758      9.2024    167.5504   1.5154633064e+02   3.9619991588e+01    0.2055768    0.1362652  81.78  0.001375528    1.282    0.220
       155  -9.5000     36.9064     75.3261   1.3373857336e+02   5.8783804664e+01    0.2830635    0.2038883 -80.45  0.001288798    1.346    0.257
       156  -9.3412     60.8211     54.4417   1.1749712641e+02   6.0700376453e+01    0.4855964    0.3348968 -50.35  0.002449087    1.376    0.273
       157 -10.0737     25.5253     66.6225   1.3704121233e+02   6.1943240100e+01     0.462162    0.2081946 -44.87  0.002054356    2.304    0.566
       158  -8.9651     13.3268    164.8682   1.5044228939e+02   3.9841007705e+01    0.2070638    0.1235793  46.36  0.001304687    1.368    0.269
       159 -10.5385      2.5028    159.6216   1.5288947418e+02   4.1788103784e+01    0.5690762    0.2036042  84.64   0.00230478    2.499    0.600
       160 -10.5523     31.9400     70.6866   1.3495403301e+02   6.0398932159e+01    0.6102285    0.3888271 -55.97    0.0032554    1.423    0.297
       161 -10.1952     45.0665     44.6450   1.2153582648e+02   6.5147186540e+01    0.3905472    0.2856544 -60.13 0.0005151855    1.334    0.250
       162 -11.2261     48.9129     25.5017   1.1136796524e+02   6.8626401055e+01    0.4792461    0.2309273  36.44  0.001545803    2.175    0.540
       163 -11.0444     34.5592     58.4496   1.3097575682e+02   6.3122157529e+01    0.9121953    0.4770407 -38.33  0.004155026    2.164    0.538
       164 -10.8500     30.8779     43.1011   1.2854589209e+02   6.7100819484e+01    0.4515188     0.366451  49.65  0.001386535    1.417    0.294
       165 -10.6630     44.4817     38.4886   1.1952980124e+02   6.6582835952e+01    0.5763108    0.3738962  -9.03  0.002690464    2.191    0.543
       166 -10.1710     21.4113    138.7535   1.4688244697e+02   4.4877690033e+01    0.3736517    0.1945807 -42.22  0.001788916    2.896    0.655
       167 -11.9474     46.3337     69.4105   1.2834754008e+02   5.9192165940e+01     1.192879     0.452113  40.77  0.004545385    2.741    0.635
       168 -11.3165     40.8065     63.2771   1.2926669180e+02   6.1307438154e+01    0.5587978     0.371705 -12.34  0.002650483    2.077    0.519
       169 -10.5526     26.2041     53.4588   1.3388093328e+02   6.5078442771e+01    0.3364538    0.2462892  -9.94  0.001156807    1.632    0.387
       170 -10.2899     28.9563     49.2851   1.3138558336e+02   6.5834454857e+01    0.2737693    0.2046259 -42.13 0.0003830373    1.282    0.220
       171 -11.6081     40.7521     49.7911   1.2545822973e+02   6.4501938913e+01     0.873776    0.3561739  23.66  0.003475999    2.958    0.662
       172 -11.2613     38.7657     44.8618   1.2487636861e+02   6.5863988572e+01    0.4884646    0.3607699  84.15  0.002146411    1.787    0.440
       173  -9.4092     18.2904     74.3709   1.4155172903e+02   6.0570982511e+01    0.2636938    0.1902048 -71.40  0.001379412    1.197    0.165
       174  -9.7017     21.5001     72.5351   1.3988031614e+02   6.0798564664e+01    0.3926348    0.2060561  51.54 0.0007765741    2.111    0.526
       175  -8.4701    192.6131     73.8081   8.6776279732e+01   2.6676467537e+01    0.2169529    0.1287013 -40.62 0.0009497698    1.665    0.400
       176  -9.4542    214.9642     71.5290   8.2739309049e+01   2.1705661081e+01    0.3455887    0.2000345 -23.51  0.001112569    1.723    0.420
       177 -10.2869     82.2617     81.8865   1.1749786149e+02   5.0818758929e+01    0.7634352      0.31111 -56.82  0.002738481    2.602    0.616
       178 -10.3094    250.1837     67.5393   7.7422022196e+01   1.4630953355e+01     0.544956    0.1832997 -21.93  0.002001178    3.190    0.687
       179  -8.6141    175.8515     48.2985   8.1978310557e+01   3.4642097488e+01    0.5843353    0.3293511 -35.41  0.002484081    1.725    0.420
       180 -11.6457    164.7546     62.5302   8.8473284772e+01   3.5447860079e+01    0.8121632    0.6634685  -7.45  0.002476139    1.401    0.286
       181 -10.4987    164.5337     56.8123   8.6701950276e+01   3.6394605639e+01    0.5325979    0.3959145  -4.91  0.001919381    1.661    0.398
       182  -9.4480    178.4565     60.4908   8.5312600506e+01   3.2206894370e+01    0.4094802     0.290973  -9.26 0.0005559954    1.699    0.411
       183 -10.9610    174.0602     57.1648   8.5062652363e+01   3.3840558615e+01    0.6312612    0.5021147  45.82  0.001734115    1.281    0.219
       184  -8.7650     66.3763     67.3784   1.1932673054e+02   5.6874660216e+01    0.2532419     0.182095  80.36 0.0008918496    1.893    0.472
       185  -8.8895    188.6121     64.5316   8.4797197882e+01   2.9028842589e+01    0.2674169    0.1483175  76.44  0.001027693    2.424    0.587
       186  -8.9180     61.8287     62.8219   1.1981554448e+02   5.8639212456e+01    0.1828194     0.160306  84.11 0.0003568759    1.263    0.208
       187 -10.5012    222.0279     48.6038   7.5757462694e+01   2.3004691682e+01     0.510229     0.310528 -42.73  0.002355426    1.532    0.347
       188 -10.3923    221.9993     57.1327   7.8022631813e+01   2.1960749403e+01    0.3715862    0.3306851 -43.63  0.001379085    1.068    0.064
       189  -9.7377    184.4229     59.3645   8.3965249651e+01   3.0838782879e+01     0.508717    0.3578752 -18.31  0.001846124    1.555    0.357
       190  -9.8641    186.5129     53.0125   8.1728255686e+01   3.1198756831e+01    0.3090633    0.2393034   8.28  0.001001127    1.570    0.363
       191  -9.6213    188.9275     49.2500   8.0230689433e+01   3.1087905716e+01    0.3804449    0.2638282 -56.05  0.001062069    1.551    0.355
       192 -10.0971    157.6485     50.5427   8.5978256467e+01   3.9175411999e+01    0.6029714     0.517972   8.10  0.002501491    1.331    0.248
       193  -8.5949    152.5430     56.5036   8.9010326340e+01   3.9608026547e+01     0.209089    0.2065419 -82.16 6.896133e-06    1.022    0.022
       194 -10.7218    149.4335     51.3897   8.7937971448e+01   4.1240254986e+01    0.5402154    0.4681664  22.54  0.001918594    1.279    0.218
       195 -11.6627    141.6107     51.5561   8.9711499255e+01   4.3290697834e+01    0.9184906    0.4091126  52.98   0.00107488    2.115    0.527
       196  -8.1322    239.3100     59.2743   7.6586157363e+01   1.7857929365e+01    0.1277979   0.09740803  21.18 0.0001978762    1.552    0.356
       197 -10.4438    201.3333     57.1929   8.0748792566e+01   2.6886018207e+01    0.5678568    0.3774845  13.25  0.002515186    2.087    0.521
       198  -9.3510    158.1334     58.7460   8.8588488354e+01   3.7778600466e+01    0.4940479    0.3152054  17.58  0.001897416    2.430    0.589
       199  -9.9853      2.9878     57.7204   1.4628024443e+02   6.5423277274e+01    0.3221318    0.2234889  75.84  0.001625515    1.426    0.299
       200  -8.7040    192.8322     54.0363   8.1072783798e+01   2.9440998853e+01    0.2225068    0.1863793 -61.63 0.0004434517    1.243    0.196
       201  -9.7022    236.9719     48.7635   7.4198754352e+01   1.9601559494e+01    0.2850736    0.1694751 -31.79 0.0004926067    1.472    0.320
       202  -8.9087     65.3722     49.7107   1.1377761708e+02   6.0997580008e+01    0.2147959    0.2003495  77.44  0.001194727    1.195    0.163
       203  -9.3805     67.6903     45.5209   1.1113573115e+02   6.1482252962e+01    0.4780133    0.3099425  33.25  0.002281437    1.645    0.392
       204  -9.7195    149.4008     59.3097   9.0621156782e+01   3.9978579958e+01    0.6434599    0.3037679 -38.20  0.002260473    2.113    0.527
       205  -9.0395    171.0282     48.5073   8.2855307082e+01   3.5894902279e+01     0.238824     0.196452 -30.57 0.0005315061    1.232    0.189
       206  -8.0617     12.3927     42.0621   1.3868017892e+02   6.8742077345e+01    0.5561893    0.3534774 -12.35  0.003127135    1.865    0.464
       207 -11.0971     22.2279     45.3380   1.3395032840e+02   6.7324914078e+01    0.4482982    0.3706842 -54.51  0.001768872    1.061    0.057
       208 -10.0630     19.1224     40.7062   1.3447817860e+02   6.8640387381e+01    0.3041778    0.1930086  33.53  0.001231485    1.765    0.433
       209 -10.7166     15.5083     33.8264   1.3474249152e+02   7.0480440538e+01    0.5731434    0.3821299 -88.58  0.002645211    1.719    0.418
       210 -10.2873    206.7904     43.7470   7.6215063466e+01   2.7266910709e+01      0.56036    0.4024414 -69.58  0.002356238    1.550    0.355
       211 -10.7768    202.4766     37.8479   7.5046739139e+01   2.9066009265e+01    0.5048383    0.4225164  48.95  0.001960426    1.276    0.216
       212 -10.3336    199.7671     31.2706   7.3441863159e+01   3.0532260661e+01    0.3578176    0.2693094 -70.24 0.0002458314    1.379    0.275
       213 -10.1349    194.6178     31.0276   7.3973571130e+01   3.1893367571e+01    0.3768648    0.3111814   4.61  0.001232544    1.414    0.293
       214  -8.9815    248.9566     44.9973   7.2122499085e+01   1.7460377089e+01    0.2009961    0.1746848 -36.19 0.0008075201    1.002    0.002
       215  -8.6206    229.3180     39.2693   7.2523966790e+01   2.2411157111e+01    0.2215494    0.1625466  67.52 0.0005016917    1.459    0.315
       216  -9.3664    232.3205     43.3391   7.3282572309e+01   2.1262937953e+01    0.2849922    0.1910875  27.99  0.001008882    1.940    0.485
       217 -10.0318    232.4914     40.4950   7.2532395620e+01   2.1548949027e+01    0.4754301    0.2123634  50.13  0.002049518    2.526    0.604
       218  -8.5608      1.5376     44.4138   1.4522282112e+02   6.8653993064e+01    0.1235251   0.09727879 -59.21 0.0001955651    1.103    0.093
       219  -9.0407    223.7927     41.8163   7.3756792931e+01   2.3398555451e+01    0.2003365    0.1450291 -52.98  0.001066179    1.353    0.261
       220  -8.9174    215.2491     41.9564   7.4723105416e+01   2.5413352184e+01    0.2278458    0.1550162  15.30  0.001071885    1.977    0.494
       221 -10.2752    191.6335     39.4113   7.6882569574e+01   3.1660016831e+01    0.5623632    0.4138363  -3.20  0.001032393    1.629    0.386
       222  -8.5537    196.4868     41.4645   7.6855849910e+01   3.0149511086e+01    0.2461634    0.1389926 -27.81  0.001077661    1.728    0.421
       223 -10.8779    162.2976     38.8542   8.1165104153e+01   3.9586411554e+01    0.6151465    0.3317899 -29.69  0.002521778    1.871    0.465
       224  -9.6732    180.3322     38.8436   7.8288259434e+01   3.4712774648e+01    0.5066907    0.2919235 -54.81  0.002116459    1.944    0.486
       225  -9.2775     77.0270     41.2527   1.0543084085e+02   6.0580763244e+01    0.3083081    0.1893461  52.34 0.0009608003    1.781    0.438
       226  -8.2989      4.6735     41.0529   1.4290446020e+02   6.9339231737e+01    0.1586326    0.1290568 -62.75 0.0005807258    1.033    0.032
       227  -9.1020    173.6157     39.0786   7.9379870884e+01   3.6484723719e+01     0.284649    0.2044373 -86.04  0.001253325    1.575    0.365
       228  -9.4822    168.6573     36.6570   7.9365811448e+01   3.8143785691e+01    0.3510164    0.2808774 -42.69  0.001366312    1.247    0.198
       229 -10.0264     25.3839     38.1803   1.3010634304e+02   6.8736623861e+01    0.1919698    0.1689011  -9.63 0.0003454166    1.217    0.178
       230  -9.9862    210.4681     33.1407   7.2793996608e+01   2.7614646857e+01    0.4302799    0.2214729 -25.13  0.001364529    1.890    0.471
       231  -7.4312     38.0868     33.8291   1.2118998752e+02   6.8400572808e+01    0.4594729    0.2940688 -17.21  0.002255873    2.020    0.505
       232  -9.8970    246.5549     33.5235   6.9527830957e+01   1.9216108997e+01    0.3792784    0.2550998  41.00  0.001660934    1.833    0.455
       233 -11.0401    237.7059     32.7551   7.0075718507e+01   2.1233893723e+01    0.5844604    0.3733944  65.21  0.002938762    1.688    0.408
       234 -10.4390     16.5981    158.7597   1.4934532433e+02   4.0861127385e+01    0.4033038    0.2715243 -41.52  0.002427443    2.188    0.543
       235 -11.7305     19.8094    148.2532   1.4793320390e+02   4.2878959886e+01    0.6573576    0.5629771 -70.33  0.003212615    1.328    0.247
       236 -10.8205     38.0044     27.3630   1.1847657369e+02   6.9783399208e+01    0.4043068    0.2731161  27.32  0.001373245    1.584    0.369
       237  -8.9217     10.5699    157.2539   1.5079650398e+02   4.1678161691e+01    0.1550328   0.09395992 -74.93  0.000771724    1.623    0.384
       238  -9.6190     33.8691    155.8381   1.4471011535e+02   3.9891902096e+01    0.1641456    0.1581274  72.80 0.0003478748    1.265    0.209
       239  -9.0859     53.0128    151.8614   1.3924654438e+02   3.8653807387e+01    0.2189432    0.1637007  35.02 0.0008256311    1.339    0.253
       240 -10.5275     34.7806    150.2264   1.4403684547e+02   4.1040108426e+01    0.3512409    0.2375928  59.37  0.001360619    1.254    0.203
       241  -9.9898     67.4319    148.9619   1.3498818630e+02   3.7451178322e+01    0.3769813    0.2144322  88.85  0.001508923    2.096    0.523
       242  -9.7244      7.0019    142.8685   1.5109515080e+02   4.5081544771e+01    0.3849721    0.1906058  54.81  0.002171878    1.667    0.400
       243  -9.4804      4.4665    147.7651   1.5197196798e+02   4.4186126644e+01    0.1929846    0.1657704  56.26 0.0006652839    1.172    0.147
       244 -10.6038     39.0043    145.9682   1.4252178124e+02   4.1559488312e+01    0.4376653    0.3150541 -86.62  0.001631171    1.294    0.227
       245  -9.4409     19.5080    119.1565   1.4598371544e+02   4.9593316283e+01    0.4027713    0.2440928 -57.13  0.002242928    1.735    0.424
       246 -10.5848     26.7289    128.0500   1.4450127796e+02   4.6889629267e+01    0.7183238    0.4888827 -68.92  0.004254239    1.427    0.299
       247 -10.3465      3.7075    135.3233   1.5166663308e+02   4.6991574608e+01     0.769609     0.297719 -73.74  0.003814436    2.299    0.565
       248 -10.1530    177.6457     19.9623   7.2562839894e+01   3.7674725797e+01    0.3495762    0.2585869 -46.84  0.001035116    1.325    0.245
       249 -10.2535     19.4677    128.7852   1.4674060238e+02   4.7334522066e+01    0.3170838    0.2316367 -44.02 0.0009606785    1.730    0.422
       250  -9.9373      9.2135    134.6258   1.5008628954e+02   4.6771158661e+01    0.2180392    0.2095683 -46.95  0.001065474    1.351    0.260
       251 -10.6515    177.4776     28.9362   7.5513516403e+01   3.6703208315e+01    0.5852881    0.4179144 -18.48  0.002432387    1.516    0.340
       252 -11.6184     13.8170    129.7160   1.4847655344e+02   4.7558133005e+01    0.7913017    0.4259704  81.67  0.004328291    1.651    0.394
       253 -10.5351    226.4151     28.6631   7.0006558390e+01   2.4260908107e+01    0.6545412     0.280521 -44.35  0.002813812    2.109    0.526
       254 -10.5751     54.6442    137.6464   1.3720672591e+02   4.1679307118e+01    0.3804586    0.3139218  45.83  0.002318998    1.162    0.139
       255  -9.8150    219.7159     25.1532   6.9668170934e+01   2.6233089720e+01    0.6033592    0.2295342 -52.90   0.00192966    2.924    0.658
       256 -11.1868     55.4209    129.3003   1.3592006243e+02   4.3530489400e+01    0.8565727    0.2814473 -60.55  0.002561971    2.841    0.648
       257  -9.5336    214.0204     20.9839   6.9035535975e+01   2.8065374316e+01    0.4707783    0.2153341  89.54  0.001853519    2.732    0.634
       258  -9.6106     64.1896    138.0886   1.3449760193e+02   4.0348728383e+01    0.2839637    0.1377722  54.86  0.001246107    2.096    0.523
       259 -10.5454     65.1904    130.2956   1.3311401092e+02   4.2018936290e+01    0.4197158    0.2470773  38.75  0.002080261    1.592    0.372
       260  -8.9924    193.3040     24.6342   7.2190666308e+01   3.2963631844e+01    0.3097053    0.1796884  13.26  0.001141726    2.718    0.632
       261  -8.5045    201.4380     25.5249   7.1566599442e+01   3.0750883397e+01    0.1416895    0.1306597 -59.24 0.0001285528    1.010    0.010
       262  -8.6558     78.4987    127.4910   1.2869206792e+02   4.0737681032e+01    0.2009612    0.1327532 -80.54 0.0001032483    1.689    0.408
       263  -9.3804    241.1842     23.3684   6.7433016016e+01   2.1447637356e+01    0.3391914      0.15352 -47.77  0.000973788    2.002    0.501
       264  -9.4658     74.6409    125.3887   1.2949710315e+02   4.1812155166e+01    0.4297468    0.1887901  42.63  0.001540301    2.085    0.520
       265  -9.4298     72.3130    132.3492   1.3130650693e+02   4.0537784045e+01    0.2837959    0.2206433 -11.80  0.001085696    1.917    0.478
       266 -10.2952     72.2832    128.9874   1.3079219648e+02   4.1321611591e+01    0.3955294    0.3315279  40.31  0.001253488    1.189    0.159
       267  -9.6502     95.8979    130.1371   1.2409671484e+02   3.7293466101e+01    0.2770674    0.2037387 -44.38  0.001407632    1.569    0.363
       268  -9.5654    230.5482     21.5924   6.7800496532e+01   2.4041230798e+01    0.4833106    0.2027573 -49.51  0.001760809    2.272    0.560
       269 -10.1993     37.9783    126.9813   1.4096895111e+02   4.6063062522e+01    0.2213672    0.2083498 -78.10 0.0009826623    1.188    0.158
       270 -10.3841     48.2404    125.6516   1.3764803371e+02   4.5257630772e+01    0.3009901    0.2458319  81.51  0.001810169    1.108    0.097
       271 -10.6554     67.3904    122.8008   1.3129285697e+02   4.3475446804e+01    0.6971633    0.3956218 -40.58  0.003053618    2.418    0.586
       272 -10.0178     67.1197    115.1289   1.3009146336e+02   4.5338813480e+01    0.7148139    0.1928049  43.59  0.001990734    3.445    0.710
       273  -9.5301     35.2169    130.0753   1.4212674024e+02   4.5613039110e+01    0.2704095    0.1488945  48.30  0.001410481    1.641    0.391
       274  99.0000      7.8011     50.6599   1.4284670810e+02   6.6922434678e+01    0.5438727     0.316297  52.39  0.002943236    1.975    0.494
       275 -11.0974     20.7868    109.5545   1.4472310664e+02   5.1789853545e+01      3.41392    0.9757869  10.98  0.008972147    8.827    0.887
       276 -11.7856     27.4773     85.1836   1.3935269746e+02   5.7216339179e+01     1.107737    0.8758495 -77.24  0.006703588    1.119    0.107
       277 -11.1362     41.8194     88.5959   1.3428428747e+02   5.5003148557e+01     1.669077    0.3945879 -55.86  0.005623326    3.475    0.712
       278 -11.1275      3.2626     89.1772   1.4918417212e+02   5.7813915512e+01    0.5990992    0.4224564 -89.37   0.00328247    1.187    0.158
       279 -12.0185     12.2281     87.7135   1.4565211957e+02   5.7685451476e+01    0.6381131    0.3525503  55.63   0.00265008    1.828    0.453
       280 -11.3738      4.9085     80.1364   1.4779906292e+02   5.9920009001e+01    0.9997154    0.3525775 -72.01  0.004501139    2.255    0.557
       281 -12.4324      5.7115    114.9109   1.5004531017e+02   5.1554070616e+01     1.160515    0.3303344 -62.60  0.004797882    3.166    0.684
       282 -11.7274     17.2077    102.4361   1.4527473000e+02   5.3776998309e+01    0.9430015    0.4356937  71.90  0.003912631    2.296    0.564
       283 -10.7426     27.5845    101.9111   1.4155797252e+02   5.3092359083e+01    0.5989567    0.3975172   6.40  0.003235164    1.984    0.496
       284 -10.9489     22.0944     96.4795   1.4289956287e+02   5.4867454361e+01    0.4389058    0.3935461  21.93  0.001450921    1.302    0.232
       285 -11.7775     15.8423     61.7775   1.4069073591e+02   6.3807911489e+01     1.092451    0.5495797 -14.75  0.004980707    2.867    0.651
       286 -10.8504     13.6195     56.7175   1.4090681974e+02   6.5166913700e+01    0.3176568    0.1997741  27.50  0.001796701    1.776    0.437
       287 -10.0841     92.2680    119.6583   1.2313628999e+02   4.0290033958e+01     0.435449    0.3154143 -27.64   0.00205786    1.942    0.485
       288  -9.7014     97.7425    114.9399   1.2052524720e+02   4.0391938293e+01      0.34209    0.2704636  23.96  0.001656183    1.458    0.314
       289 -10.4005    105.9196    116.5905   1.1848715002e+02   3.8499788511e+01    0.4966244    0.3216201  51.92  0.002292534    1.521    0.343
