#   1 NUMBER                 Running object number                                     
#   2 MAG_AUTO               Kron-like elliptical aperture magnitude                    [mag]
#   3 X_IMAGE                Object position along x                                    [pixel]
#   4 Y_IMAGE                Object position along y                                    [pixel]
#   5 X_WORLD                Barycenter position along world x axis                     [deg]
#   6 Y_WORLD                Barycenter position along world y axis                     [deg]
#   7 A_WORLD                Profile RMS along major axis (world units)                 [deg]
#   8 B_WORLD                Profile RMS along minor axis (world units)                 [deg]
#   9 THETA_WORLD            Position angle (CCW/world-x)                               [deg]
#  10 FWHM_WORLD             FWHM assuming a gaussian core                              [deg]
#  11 ELONGATION             A_IMAGE/B_IMAGE                                           
#  12 ELLIPTICITY            1 - B_IMAGE/A_IMAGE                                       
         1 -15.1833     22.6383    178.5842   1.1038422780e+02   3.3860907657e+01     8.564581     3.082282  86.23   0.02743516    4.319    0.768
         2 -12.8596    213.8747     49.6899   3.5272733916e+01   2.6421871248e+01     1.082391    0.9808878 -44.61  0.007328013    1.204    0.170
         3 -13.3115    233.0023     34.8581   3.0323033381e+01   2.4498314974e+01     1.036129    0.8076821  47.41  0.006904847    1.782    0.439
         4  -9.6160      2.3830     51.8104   9.8766101076e+01   6.6793076786e+01    0.1935079   0.08689867 -51.05 0.0009591001    1.731    0.422
         5 -10.8106      2.9049     13.1948   8.4219153786e+01   7.4179960683e+01    0.3171331    0.1567899 -52.66  0.001692545    2.332    0.571
         6  -9.8706      2.3909      3.0559   7.9127494586e+01   7.5792839655e+01    0.3188924   0.08597848 -41.41  0.001391084    3.294    0.696
         7 -12.7082      8.0292    228.6300   1.1716863148e+02   2.3661336059e+01     2.053542    0.8133763  89.56  0.009841174    2.558    0.609
         8 -10.6008     82.9633    216.1645   9.8937117880e+01   1.7875453873e+01    0.6356502    0.3946081  87.20  0.002222966    2.217    0.549
         9 -13.9484    103.5796    229.6663   9.5704509102e+01   1.2199200841e+01     3.953569    0.7778991  31.84   0.01176268    4.457    0.776
        10 -11.0402     41.7061    215.6657   1.0879531121e+02   2.3112929121e+01    0.2921589    0.2085571  71.21 0.0007514654    1.336    0.252
        11  -8.3609     66.9854    205.0404   1.0157793841e+02   2.2498515078e+01    0.1632005    0.1447202  48.26 0.0003639004    1.040    0.038
        12 -12.0522     68.5162    244.2628   1.0517371599e+02   1.3921426864e+01     1.139452    0.5596962  86.70  0.004947027    3.309    0.698
        13 -11.6091     42.7271    177.0360   1.0476752847e+02   3.2213991682e+01     0.393878     0.302605 -27.74  0.001209778    1.631    0.387
        14 -11.6055     50.3132    170.9668   1.0190503126e+02   3.2879946160e+01    0.3296916    0.2855315 -23.35 0.0004463447    1.358    0.264
        15 -10.7366     63.1942    161.4485   9.6813602452e+01   3.3700806549e+01    0.2774332    0.2645347   5.02 0.0004546026    1.140    0.123
        16 -12.1639     54.8977    125.3982   9.3174644700e+01   4.4161890054e+01     2.588134    0.8088781 -71.70  0.005043312    9.205    0.891
        17 -12.6256     68.0983    144.0091   9.2370419666e+01   3.7538425613e+01     1.018468    0.6427945  61.59  0.002761733    2.020    0.505
        18 -13.1982     33.0173    248.8444   1.1307075902e+02   1.7089999948e+01     3.072641    0.9081317  20.25  0.008032931    9.160    0.891
        19 -10.3547     89.0955    142.4878   8.5560064670e+01   3.4694729302e+01    0.3533599    0.3093987  -7.38 0.0009084149    1.264    0.209
        20  -9.2967     92.9815    139.0430   8.3652935751e+01   3.4905936913e+01    0.3069785    0.2322017   7.48 0.0007839214    1.613    0.380
        21 -11.7324     76.3477    140.0096   8.9003654444e+01   3.7355382408e+01    0.3842368    0.3211931 -66.16 0.0005584115    1.201    0.167
        22 -13.6777      9.1657    204.2779   1.1561159521e+02   2.8915239236e+01    0.9713752    0.6548766  68.43  0.001396088    1.292    0.226
        23 -12.9499     48.3703    157.5790   1.0067206034e+02   3.6553289860e+01    0.5763498    0.3635163 -31.37  0.001885163    2.040    0.510
        24 -10.4130    105.0779    130.9064   7.8192238363e+01   3.4750778610e+01    0.5004557    0.3456013  29.18  0.001609187    1.537    0.349
        25 -10.7904     66.7134    125.7291   8.9212124502e+01   4.2459096640e+01    0.4890358    0.2328524 -59.71  0.001893316    2.052    0.513
        26  -9.8475     90.2900    126.8137   8.1750087854e+01   3.8414600103e+01    0.2982552    0.2457158  -4.13 0.0006311702    1.407    0.289
        27 -12.6963     82.1682    239.7625   1.0172058859e+02   1.3081105555e+01    0.7729535    0.6283014  46.21  0.003367809    1.075    0.070
        28 -10.8695    245.1228    123.6705   4.7244622789e+01   9.4508405858e+00    0.2378298    0.1449792 -44.72  0.001337591    1.396    0.284
        29 -10.1722     23.4138    116.8945   1.0281342439e+02   4.9705263292e+01    0.2232489    0.1840068  39.22  0.000647289    1.340    0.254
        30  -9.3302    102.8420    119.1254   7.6000259935e+01   3.7995369836e+01    0.2222486    0.2159393 -20.12 0.0003001923    1.011    0.011
        31  -9.2688    204.1699    110.8123   5.0547313638e+01   1.8828085448e+01    0.2969827    0.1852151  40.90  0.001455254    1.885    0.469
        32 -12.1976     72.4879    154.9593   9.2972505080e+01   3.4083604979e+01    0.9521705    0.7290772  26.26  0.004754373    1.367    0.269
        33 -10.6083    241.8353    101.8529   4.3241120544e+01   1.3430822065e+01    0.2833767    0.1689961 -86.98   0.00127164    3.318    0.699
        34 -10.3374    165.3610     85.0830   5.1126949404e+01   3.1593811131e+01    0.2501142    0.2008893  42.43 0.0007406594    1.347    0.258
        35  -9.5609    184.4505     77.2898   4.5742421002e+01   2.8646943725e+01    0.2568689    0.1336406 -33.13 0.0008621519    1.986    0.496
        36 -10.9839     12.5059    242.4255   1.1690883655e+02   2.0415549723e+01    0.3678582    0.2204602 -88.56  0.001153856    1.598    0.374
        37  -8.9423     56.1454     67.2197   7.7522502224e+01   5.7877239399e+01    0.1845118    0.1696479  57.95 0.0006569962    1.350    0.259
        38  -9.8980      1.8239     62.4184   1.0166879067e+02   6.4469799074e+01     0.253641   0.08933453 -68.78  0.001021482    2.792    0.642
        39 -10.0646     13.3367     60.2312   9.5323529534e+01   6.4261226708e+01    0.2222534    0.2030306 -43.83  0.000515343    1.152    0.132
        40 -13.3716     88.2164    225.8773   9.8826321500e+01   1.5092096253e+01       2.1201    0.3355461  42.19   0.00583216    5.303    0.811
        41 -13.9784     16.4034    196.6357   1.1339764317e+02   3.0055035542e+01     1.660406    0.8250986  61.18  0.004700007    1.960    0.490
        42  -8.2468     94.5044     46.5062   5.6047200400e+01   5.4297511859e+01     0.140026    0.1314815  40.63 -0.0001298396    1.053    0.050
        43 -13.1689      9.3838    248.9202   1.1782451691e+02   1.9426534482e+01      2.76979     1.001332  18.19   0.01095051    4.730    0.789
        44 -12.2901     57.1680    239.8400   1.0728499639e+02   1.6175032468e+01    0.8542421    0.5253057  86.49  0.002986133    1.872    0.466
