#   1 NUMBER                 Running object number                                     
#   2 MAG_AUTO               Kron-like elliptical aperture magnitude                    [mag]
#   3 X_IMAGE                Object position along x                                    [pixel]
#   4 Y_IMAGE                Object position along y                                    [pixel]
#   5 X_WORLD                Barycenter position along world x axis                     [deg]
#   6 Y_WORLD                Barycenter position along world y axis                     [deg]
#   7 A_WORLD                Profile RMS along major axis (world units)                 [deg]
#   8 B_WORLD                Profile RMS along minor axis (world units)                 [deg]
#   9 THETA_WORLD            Position angle (CCW/world-x)                               [deg]
#  10 FWHM_WORLD             FWHM assuming a gaussian core                              [deg]
#  11 ELONGATION             A_IMAGE/B_IMAGE                                           
#  12 ELLIPTICITY            1 - B_IMAGE/A_IMAGE                                       
         1 -11.8647     80.1008     23.4245   6.6400602483e+01   6.0756718839e+01    0.6977682    0.2607698  39.21  0.002801409    2.595    0.615
         2  -8.4181    144.6559     23.5118   5.0191683268e+01   4.6047187954e+01    0.2254085    0.2063084   5.83 0.0003359045    1.184    0.156
         3  -8.8049     14.7000     10.9557   8.9362567256e+01   7.1887593373e+01    0.2838757      0.18343  10.42  0.000927696    1.484    0.326
         4  -8.9377     46.2113     20.8076   7.8350455338e+01   6.6798111152e+01    0.4455628    0.1700666 -36.93  0.002020051    2.455    0.593
         5  -9.5004     26.8324     21.1567   8.7700961099e+01   6.9119038099e+01    0.7437615    0.2838575 -34.26  0.003505802    2.332    0.571
         6  -9.1122     74.4940     13.5180   6.3848574635e+01   6.3000496856e+01    0.3773217    0.2322464  13.81  0.001389516    1.735    0.424
         7  -9.2512     78.8856     12.6892   6.2022881404e+01   6.2237749466e+01    0.3654305    0.2447375  50.49  0.001799165    1.491    0.329
         8  -9.4025     64.0210     14.1664   6.7883599314e+01   6.4844994817e+01     0.384073    0.2157079  16.39  0.001282187    2.030    0.507
         9  -9.7105    133.9046     13.5392   4.8773724719e+01   4.9746759647e+01    0.2482608     0.211966  39.13 0.0001721711    1.118    0.105
        10  -8.3204     88.0313     13.1280   5.9408465272e+01   6.0336681802e+01    0.2177268     0.179179  -2.87 0.0007847821    1.189    0.159
        11  -8.6353     97.1060     12.0870   5.6428560703e+01   5.8501868021e+01    0.2912325    0.1508987  27.58  0.001118054    2.163    0.538
        12  -9.5492     31.1583     11.0985   8.0715138994e+01   7.0133551005e+01     0.416391    0.2424334  30.21  0.002502873    1.734    0.423
        13  -9.0550     32.3004      6.1930   7.7602066291e+01   7.0643071746e+01     0.201996    0.1680294  -6.48 0.0002128541    1.217    0.178
        14  -8.5314    125.1337     10.4187   4.9340572447e+01   5.2176948971e+01    0.2411108    0.1708473  19.22 0.0007112046    1.560    0.359
        15  -8.6389      3.1518      7.9396   9.4580938735e+01   7.3271000484e+01    0.4699162    0.1550651 -26.88  0.001960213    3.690    0.729
        16  -9.0721     71.4556      8.8446   6.2694594432e+01   6.4073910837e+01    0.2299322    0.1744891  31.72  0.000410807    1.137    0.120
        17  -9.4900     20.5474      8.4668   8.4908144527e+01   7.1694112362e+01    0.2269902    0.1717387 -21.76 0.0003032503    1.152    0.132
        18  -7.6897    237.0525      7.7180   3.4785352520e+01   2.5211974411e+01    0.1691208    0.1381145 -83.38  0.000428446    1.087    0.080
        19  -9.9759    119.2362      6.7931   4.9175346406e+01   5.3910625016e+01    0.2560143    0.2069685  39.84 0.0002313714    1.114    0.102
        20  -8.4623    125.2478      4.0224   4.6987882380e+01   5.2699330051e+01    0.3077466    0.1663283  37.42  0.001135161    1.858    0.462
        21  -7.4095    156.3795      6.8247   4.2890057227e+01   4.4755847873e+01    0.1679579    0.1275059   6.05 0.0005051348    1.619    0.382
        22  -9.4591     76.4613      5.6872   5.9568833049e+01   6.3415028863e+01    0.3939782    0.2289418 -24.15  0.001406853    1.777    0.437
        23  -9.4365     46.7149      6.1903   7.0894651586e+01   6.8613231640e+01    0.3038335    0.1972832  13.71 0.0003640667    1.396    0.284
        24  -8.7804     41.2345      5.6673   7.3061073260e+01   6.9490350119e+01    0.3174322    0.1915987  -5.00  0.001356474    1.612    0.380
        25  -8.5444     91.9373      5.4950   5.4993161157e+01   6.0233505211e+01    0.3396943    0.1472078  51.64  0.001566679    1.930    0.482
        26  -9.8405     84.8856      5.4916   5.6942089834e+01   6.1725627891e+01    0.2552759    0.2096298  13.13  0.001611147    1.117    0.105
        27 -10.2256     13.5176      4.4381   8.6753680946e+01   7.2960350361e+01    0.2775055     0.198892   2.04  0.001160277    1.211    0.174
        28  -7.6351    131.4789      5.5098   4.6393450166e+01   5.1061929297e+01    0.1363632    0.1161331  50.69 0.0008099253    1.039    0.037
        29  -8.7016    110.7969      2.4006   4.9233532228e+01   5.6256671627e+01    0.2806743    0.2334274 -41.17  0.001712393    1.436    0.304
        30  -8.7084     57.5915      3.3868   6.5006237405e+01   6.7137737133e+01    0.2454976    0.1747298  20.13  0.000643919    1.176    0.150
        31  -7.3229    133.9920      3.0302   4.5094239194e+01   5.0649541847e+01    0.1539361    0.1436799  42.92 0.0003908854    1.092    0.084
        32  -8.3734    105.0060      2.2467   5.0433260511e+01   5.7602339598e+01    0.2516602    0.1525513  28.46  0.001306785    1.657    0.396
        33  -8.1914    248.9256      1.8900   3.2721520062e+01   2.3269269815e+01    0.1638574    0.1483909  83.50 0.0004801708    1.276    0.216
        34  -7.7961    142.9416      2.1246   4.3356374525e+01   4.8512470643e+01    0.1908914    0.1632676 -86.34 0.0004349673    1.216    0.178
        35  -7.6977      2.8743      1.3127   9.1486118504e+01   7.4308171815e+01    0.1461669   0.08146062   3.21 0.0004768744    1.736    0.424
        36  -7.9368    109.0309    106.9781   8.6102086851e+01   3.9685681347e+01    0.2582755    0.1920965  -9.56  0.001139652    1.792    0.442
        37 -10.0158    195.7779    249.2473   9.4069910825e+01  -4.2666402214e+00    0.3816647    0.2021804  24.66  0.002046194    1.785    0.440
        38  -9.9152    185.8972    249.4302   9.5945880498e+01  -2.7926515914e+00    0.3285729    0.1706871  48.18  0.001692172    2.110    0.526
        39  -7.7167    129.8512     97.3703   7.7556403727e+01   3.7466653129e+01    0.2327542    0.1445504  34.13 0.0009449681    1.788    0.441
        40  -8.6566    239.4717     96.5034   5.5081517904e+01   1.2423717500e+01    0.1406977    0.1250757 -37.76            0    1.010    0.010
        41  -9.7146     12.3551     94.1188   1.1454186780e+02   5.5176796878e+01    0.3662903     0.260958 -38.92  0.001755703    1.397    0.284
        42  -7.5454     82.8031     93.8140   9.0593529925e+01   4.7413698551e+01    0.2525366    0.1511269 -17.17 0.0009411126    2.813    0.644
        43  -8.8373     18.8853     93.6660   1.1227194129e+02   5.4854159020e+01    0.2712443    0.1157883 -49.82  0.001294886    1.917    0.478
        44  -8.7409     44.5308     92.0948   1.0312237611e+02   5.2982807834e+01    0.3142106    0.1973175 -17.76  0.001247545    2.103    0.525
        45  -8.3618     97.0244     90.0773   8.4984768909e+01   4.5756100608e+01    0.4127836    0.2705268  -1.10  0.001630206    2.491    0.599
        46  -8.0018    110.1692     90.6177   8.1142167026e+01   4.3080934757e+01    0.2285826    0.1429029  30.25 0.0009533063    1.827    0.453
        47  -9.1000     65.4149     85.0294   9.4020900138e+01   5.2047298238e+01    0.6121102    0.2836272 -30.07 0.0009224252    3.352    0.702
        48 -10.2453     37.4765     81.0165   1.0303098657e+02   5.6253474690e+01    0.6501877    0.3391554 -17.32   0.00273364    3.005    0.667
        49  -8.2390    126.3167     83.9901   7.4528741174e+01   4.1007430246e+01    0.3274188    0.1892574  23.16 0.0009914178    2.719    0.632
        50  -9.9357      7.8546     77.7827   1.1327167835e+02   5.9192660083e+01    0.5200346    0.1928871 -37.87  0.001804676    2.725    0.633
        51  -8.7355     88.1537     78.9804   8.4472815538e+01   4.9752426778e+01    0.5362314    0.3153789   5.81  0.001877686    3.383    0.704
        52  -8.8310     48.8391     77.4369   9.7896905030e+01   5.5859378516e+01    0.3859559    0.2104245 -21.43  0.001633334    2.621    0.618
        53  -7.9216    184.4810     78.0626   5.9421779838e+01   2.8134823783e+01    0.2260145    0.1484418 -34.52 0.0005795744    1.511    0.338
        54  -8.1362    108.9864     75.5117   7.6804166666e+01   4.6433833419e+01    0.2283119    0.1484172  43.10 0.0009578799    1.559    0.358
        55  -7.9626    118.5850     77.1676   7.4541498198e+01   4.4062659914e+01    0.4370978    0.1989717  26.64  0.001106905    5.384    0.814
        56  -7.5064    201.9760     75.9604   5.5755993155e+01   2.4233951512e+01    0.1794676    0.1651133 -45.34 0.0007774418    1.043    0.041
        57  -9.1995     28.3744     69.3144   1.0357136338e+02   5.9687849337e+01    0.5046871    0.2208423 -15.92  0.001744163    4.785    0.791
        58  -9.1459     24.0724     73.0365   1.0616475817e+02   5.9209073775e+01    0.5151557    0.1746263 -40.13  0.002068441    2.890    0.654
        59  -8.0683     23.4661     69.4510   1.0553740809e+02   6.0050034202e+01    0.2206769    0.1734874 -62.19 0.0005149902    1.211    0.174
        60  -8.1036     75.0695     74.1502   8.7406262896e+01   5.2973407895e+01    0.2167275    0.1788955 -13.75 0.0004272254    1.222    0.182
        61  -7.8683     80.2504     70.9406   8.4571850937e+01   5.2787471270e+01    0.2539313    0.1697863 -45.52 0.0006963591    1.441    0.306
        62  -8.8161     83.4253     64.6759   8.1378625884e+01   5.3484866935e+01    0.4938914    0.2981044   0.37  0.001905357    2.862    0.651
        63  -8.0559     49.4789     71.4943   9.5977974300e+01   5.7088441857e+01    0.2699512    0.1330484  27.79  0.001238665    2.262    0.558
        64  -8.2284    106.5435     67.1391   7.4765849036e+01   4.8550660913e+01    0.3100637    0.1879195  28.57  0.001286731    1.932    0.482
        65  -8.4353     16.4914     63.9983   1.0698849272e+02   6.1737695603e+01    0.2601223   0.08429237 -55.49  0.001147701    2.209    0.547
        66  -9.0334     19.7496     60.9858   1.0489159445e+02   6.2162256121e+01     0.255816    0.1650934 -27.80 0.0006021853    1.495    0.331
        67 -10.1004     61.6350     61.2686   8.8109092797e+01   5.7638403680e+01    0.6323163    0.2794859  24.76 0.0004427722    2.892    0.654
        68  -7.3956     25.2899     62.6497   1.0305360801e+02   6.1385682542e+01    0.1166458   0.09545339  87.49 0.0004537847    1.668    0.401
        69  -8.7785     11.5482     60.9706   1.0827573358e+02   6.2700804061e+01    0.2503976     0.177873 -62.72  0.001085519    1.265    0.209
        70  -9.8597     37.1666     59.0332   9.7117159058e+01   6.1073177679e+01    0.4417407    0.2578011 -10.69  0.001641572    2.190    0.543
        71  -8.6210     27.4810     59.7076   1.0133207805e+02   6.1830526112e+01    0.1954027     0.111953  18.22 0.0009109321    1.995    0.499
        72  -7.9472    111.0987     58.1585   7.0318350571e+01   4.9189971792e+01    0.2337429    0.1861744  18.01 0.0006951954    1.324    0.245
        73  -7.9333     99.7503     56.1921   7.3026056996e+01   5.1926849748e+01     0.211281    0.1635629  10.22 0.0009583321    1.399    0.285
        74  -9.9324     74.8757     50.4986   7.9300633936e+01   5.7596604224e+01    0.4379614    0.2731184 -11.87 0.0004135075    2.025    0.506
        75  -8.2302    118.5552     50.9061   6.5672196112e+01   4.8718356376e+01    0.2563619    0.1970679  47.15 0.0006058728    1.260    0.206
        76  -8.9304     45.3192     49.0583   9.0387531325e+01   6.2160296264e+01    0.4037352    0.2013604 -27.49  0.001569546    2.250    0.556
        77  -8.0452    106.7414     48.9271   6.8269176016e+01   5.1661422434e+01    0.3226825    0.1661494  27.07  0.001185231    2.770    0.639
        78  -9.1197     55.9781     43.7415   8.3979798423e+01   6.1742216042e+01    0.7418956    0.3426724 -18.71  0.002399526    4.608    0.783
        79  -8.7544     10.2121     47.3160   1.0529110347e+02   6.5639880378e+01     0.258815    0.1760561 -45.05  0.000943452    1.117    0.105
        80  -9.3667     13.7991     45.6282   1.0316939363e+02   6.5755736227e+01    0.2354904    0.2201926  23.14 0.0006184654    1.399    0.285
        81  -8.9796      3.5013     45.3856   1.0780347700e+02   6.6397884998e+01     0.398923     0.213391 -73.47  0.002112024    2.270    0.559
        82  -9.9154      3.8119     32.7779   1.0393254215e+02   6.8868963310e+01    0.3566939    0.3144362  67.90  0.001271297    1.754    0.430
        83  -8.2442      1.3031     28.6820   1.0385926314e+02   6.9775519037e+01    0.1817634    0.1032499 -62.04 0.0006588592    1.810    0.448
        84 -11.0000     83.1498     40.0205   7.2302292515e+01   5.7846466829e+01    0.3669163    0.2553031 -11.53 -0.0009232552    1.514    0.340
        85  -8.5406     87.5991     38.1810   7.0075649194e+01   5.7268683271e+01    0.2560458    0.2080949  15.15 0.0006332527    1.153    0.133
        86  -7.3327    124.4444     39.5144   6.0087338170e+01   4.9025767217e+01    0.1462569    0.1321494  28.19 0.0001883334    1.047    0.045
        87  -9.5051     67.7983     37.6764   7.6885674515e+01   6.0940111234e+01    0.4167977    0.2806547 -22.44  0.001870412    1.413    0.292
        88  -9.3478     71.3319     35.3198   7.4584001515e+01   6.0708420111e+01    0.4351008    0.2038426  27.35  0.001782492    2.636    0.621
        89  -7.8397     52.9799     38.6987   8.3216564326e+01   6.3039173935e+01    0.1809535    0.1486815  -1.23 0.0005653977    1.089    0.082
        90  -7.9558     92.3197     37.2445   6.8180830354e+01   5.6463311068e+01    0.2374476    0.1724631 -37.91 0.0007773816    1.484    0.326
        91  -8.8280     35.4251     37.3294   9.0344091788e+01   6.5460848696e+01    0.3036562    0.1762172 -40.14  0.001522189    1.463    0.316
        92  -8.4580     38.5331     35.5050   8.8212095995e+01   6.5435261410e+01    0.2456474    0.1588208   9.28  0.001163949    1.621    0.383
        93  -8.0617    105.4909     36.8739   6.4095267586e+01   5.3728181428e+01    0.3061416    0.1596309  36.18  0.001246761    1.989    0.497
        94  -8.7401     55.8557     34.9167   8.0468393127e+01   6.3254839703e+01    0.2846537    0.1690654 -39.82 0.0009818104    1.645    0.392
        95  -9.1854     22.0459     31.8586   9.4545650395e+01   6.7754945054e+01    0.2594452    0.1502266 -30.86 0.0003547757    1.441    0.306
        96  -9.3801     19.0411     35.9284   9.7517040913e+01   6.7258580198e+01    0.2266026    0.1448507  -9.75 0.0006380391    1.579    0.367
        97  -7.9948    133.5490     31.1162   5.5013622527e+01   4.7918753131e+01    0.2115821    0.1405569 -27.05 0.0008766128    1.602    0.376
        98  -9.3033     61.8094     26.8889   7.4596933972e+01   6.3557678801e+01    0.3656565    0.2128647  -1.91  0.001282054    2.220    0.550
        99  -7.9093     63.7948     22.9760   7.2065926244e+01   6.3772542766e+01    0.2489636    0.1608009  -6.02  0.001333705    1.612    0.380
       100  -9.0552     41.6244     26.8123   8.3145124227e+01   6.6506733089e+01    0.3436837    0.1723004 -45.70 0.0009407228    2.187    0.543
       101  -7.9100    109.7333     26.2576   5.8838179455e+01   5.4147784282e+01    0.2322975    0.1668512 -28.29 0.0006610482    1.469    0.319
       102  -9.4658     14.0492    105.6904   1.1578304416e+02   5.2344600452e+01     0.368576    0.1719677 -38.57  0.001764072    2.407    0.584
       103  -8.7555    157.4809    249.4960   1.0135757154e+02   1.6005365449e+00    0.1236421   0.09868381  34.11 0.0008103127    1.017    0.016
       104  -8.8575    130.4684     21.1677   5.2145345565e+01   4.9815832362e+01    0.3697707    0.2064341  37.59 0.0007683213    1.861    0.463
       105  -8.9536     92.6890     20.4360   6.1173349264e+01   5.8567154044e+01    0.2737321    0.1972197  30.33 0.0004974466    1.266    0.210
       106  -7.1512    156.3271     20.3426   4.7143247126e+01   4.3448424200e+01    0.1491165   0.09666695  35.36 0.0007051111    1.740    0.425
       107  -8.2921    140.2686     19.9854   4.9814245904e+01   4.7523481237e+01    0.2285661    0.1826915  60.88 0.0003902111    1.139    0.122
       108  -7.7904    142.6649    249.6678   1.0422272845e+02   3.8838386948e+00    0.1199607   0.08807118  11.13   0.00070522    1.733    0.423
       109  -9.2832      7.6786     19.5935   9.7098373055e+01   7.1031792998e+01    0.3389457     0.209842  17.54  0.001667415    1.754    0.430
       110  -8.9133     13.0227     18.0257   9.3529483962e+01   7.0900476496e+01    0.2063668    0.1333664 -14.09  0.000574381    1.355    0.262
       111  -8.4621    204.3590    248.2990   9.2337434186e+01  -5.4249695966e+00    0.1261697   0.07736286  12.40  0.000703552    1.710    0.415
       112  -7.3251    223.3307    247.3263   8.8733908737e+01  -8.0540038978e+00    0.1244819   0.07443029   8.71  0.000705098    1.708    0.414
       113  -8.2826     65.9815    104.9775   9.8913194539e+01   4.7330457243e+01    0.1758828    0.1569287 -51.52  0.000999973    1.009    0.009
       114  -9.8129    154.0344    244.6064   1.0137617457e+02   2.8823177613e+00    0.2451119    0.1601535  21.96  0.001384773    1.649    0.394
       115  -9.0913    248.1391    241.3421   8.3406511840e+01  -1.0748008897e+01    0.1912932     0.144219 -16.81 0.0005120694    1.326    0.246
       116  -8.3518    180.4696    241.4974   9.5820755762e+01  -8.3957664962e-01    0.1256322    0.1009893  26.56 1.915129e-05    1.006    0.006
       117  -8.6406    108.7621    238.0742   1.0946119067e+02   1.1042902340e+01    0.2300199    0.1379746  56.67 0.0007879541    1.574    0.365
       118  -7.4866    231.3802    243.2836   8.6651626099e+01  -8.6982412449e+00     0.125848   0.07271792  11.19 0.0007011642    1.725    0.420
       119  -9.6111    188.3246    234.0587   9.3174154604e+01  -1.0058514400e+00     0.245016     0.219269 -66.80  0.001013417    1.645    0.392
       120  -8.2577     11.3384    207.3377   1.2587241230e+02   2.9375080060e+01    0.1589257    0.1197298 -56.92  0.001112887    1.712    0.416
       121  -7.6390    236.9880    206.4871   7.9237548717e+01  -4.7263534629e+00    0.1783761    0.1129025  35.13 0.0004829377    1.533    0.348
       122  -6.9526    177.6620    205.2799   9.0534496983e+01   5.3678934707e+00    0.1308857    0.1046986  62.68 0.0002953134    1.620    0.383
       123  -8.8364    127.6865     16.7687   5.1135837065e+01   5.0950682485e+01    0.2314782    0.1869673  32.42 0.0004015932    1.207    0.172
       124  -7.5862    113.6583     10.7297   5.1859293844e+01   5.4878156871e+01    0.1437657   0.08590524  36.27 0.0002679043    1.608    0.378
       125  -8.8639    207.0070    203.1634   8.4236855476e+01   6.1742737161e-01    0.2024811    0.1735035  -5.24 0.0002970826    1.095    0.086
       126  -8.0820    207.5882    198.4487   8.3239126012e+01   1.2679730109e+00    0.2166213     0.152156 -28.36 0.0005790057    1.431    0.301
       127  -7.0369    217.2520    198.7075   8.1422198745e+01  -4.1379353087e-01    0.1106143     0.107342 -66.89 0.0002158584    1.484    0.326
       128 -10.3842    175.2011    193.8056   8.8976961994e+01   7.8449257202e+00    0.2589899    0.2464067 -21.82 0.0005123744    1.140    0.123
       129 -10.5333    100.9975    175.9977   1.0284040395e+02   2.4905558730e+01    0.1998007    0.1845719  72.12            0    1.005    0.005
       130  -7.4941    181.9825    175.4978   8.3959655577e+01   9.9648531771e+00    0.1957921    0.1263266  63.36 0.0005114927    2.394    0.582
       131  -9.1085     67.1267    144.2843   1.0635691323e+02   3.7580912137e+01    0.4565262    0.2815343  62.02  0.002128989    1.923    0.480
       132  -7.5106    139.0202    139.4848   8.6084309770e+01   2.6191870454e+01    0.2280026    0.1380562  18.91 0.0008104368    2.651    0.623
       133  -7.7162    108.0838    137.4474   9.3755551911e+01   3.2719503641e+01    0.2107178    0.1374441  10.18 0.0008073272    2.551    0.608
       134  -7.2987    126.6363    135.6819   8.8388618603e+01   2.9578062509e+01    0.1618371    0.1240746  -4.73 0.0007040757    1.773    0.436
       135  -8.3506     65.3631    128.8398   1.0411292197e+02   4.1609347041e+01    0.3814455    0.1642116 -33.48  0.001038425    5.727    0.825
       136  -8.1631     41.3418    129.0037   1.1113025192e+02   4.4406385540e+01    0.2476449    0.1521004   6.03  0.001187428    2.456    0.593
       137  -7.9808    143.4423    126.2317   8.1768382149e+01   2.8210893072e+01      0.24441    0.1862959  49.55 0.0004547834    1.347    0.258
       138  -9.1243    199.7444    124.3416   6.8640769600e+01   1.6083983539e+01    0.2641934    0.2488315 -15.47 0.0003206517    1.017    0.017
       139  -7.8518    131.8576    125.3693   8.4536700921e+01   3.0867150387e+01    0.2266862    0.1473802  31.54 0.0007278577    1.725    0.420
       140  -9.4855     15.1749    118.2988   1.1718676961e+02   4.9265929645e+01    0.2756868    0.1521248 -18.48  0.001342687    2.832    0.647
       141  -9.0989      2.3863    109.5085   1.1984088392e+02   5.2143668730e+01    0.3447991    0.1470753 -46.69  0.001718125    2.234    0.552
       142  -7.8842    133.9314    106.3937   7.9010965027e+01   3.4636116684e+01    0.3243777    0.2104325 -24.59  0.001302256    1.938    0.484
       143  -7.8366    123.8234    107.1968   8.1963889380e+01   3.6635158962e+01    0.3726749    0.1964541  20.87   0.00106621    4.184    0.761
