#   1 NUMBER                 Running object number                                     
#   2 MAG_AUTO               Kron-like elliptical aperture magnitude                    [mag]
#   3 X_IMAGE                Object position along x                                    [pixel]
#   4 Y_IMAGE                Object position along y                                    [pixel]
#   5 X_WORLD                Barycenter position along world x axis                     [deg]
#   6 Y_WORLD                Barycenter position along world y axis                     [deg]
#   7 A_WORLD                Profile RMS along major axis (world units)                 [deg]
#   8 B_WORLD                Profile RMS along minor axis (world units)                 [deg]
#   9 THETA_WORLD            Position angle (CCW/world-x)                               [deg]
#  10 FWHM_WORLD             FWHM assuming a gaussian core                              [deg]
#  11 ELONGATION             A_IMAGE/B_IMAGE                                           
#  12 ELLIPTICITY            1 - B_IMAGE/A_IMAGE                                       
         1 -12.5169    183.9322     31.9155   6.8572702748e+01   3.4932199154e+01    0.8719664    0.7772506  56.57  0.003482203    1.157    0.136
         2 -12.3177    190.9176     21.3306   6.4996933898e+01   3.4475514824e+01     0.637348    0.6170509 -84.85  0.001354651    1.185    0.156
         3  -9.5720     87.8550    241.2147   1.3474864595e+02   1.3622346296e+01    0.2256603    0.1620535  69.80 0.0003261472    1.265    0.209
         4 -13.2357    112.4352    229.1873   1.2841947328e+02   1.2036174346e+01      2.96687     0.563909  42.90   0.00912558    4.250    0.765
         5 -13.5196    124.5529    247.7071   1.2837962113e+02   6.5704546961e+00     2.769364    0.7458948  37.26  0.009346846    3.888    0.743
         6 -10.8835    106.6182    236.1018   1.3047812916e+02   1.1655846000e+01      0.31015    0.2596975 -67.88  0.001220751    1.322    0.243
         7 -10.1316    102.0204    234.1682   1.3116066722e+02   1.2770058138e+01    0.2415011    0.1850116 -88.70 0.0003934056    1.361    0.265
         8 -11.1281     96.1733    226.0650   1.3134930220e+02   1.5305105007e+01    0.4933822    0.2509364  45.50   0.00176988    1.723    0.420
         9 -11.7996    143.3565    228.3655   1.2191962334e+02   6.8526304338e+00    0.4623962    0.3856336 -13.79  0.002680284    1.564    0.361
        10 -10.1235     80.0965    219.8924   1.3389419333e+02   1.9047531318e+01    0.3136701    0.1990677  71.99  0.001199997    1.629    0.386
        11 -10.5526     47.2866    216.7536   1.4013871679e+02   2.4209837857e+01    0.3704412    0.1877753  51.52  0.001147501    1.771    0.435
        12 -12.0125     63.1802    210.2405   1.3626951442e+02   2.3510934111e+01    0.6874663    0.4990826  57.06  0.001503223    1.241    0.194
        13  -9.8368     59.4809    207.0248   1.3667797505e+02   2.4704118101e+01    0.2777565     0.191513 -74.27 0.0006472457    1.345    0.256
        14  -8.2207     83.5835    212.5388   1.3228022499e+02   2.0067394638e+01    0.1313482    0.1120942  74.28 9.040679e-05    1.013    0.013
        15  -8.0621     79.6425    211.2961   1.3295687686e+02   2.0926907268e+01    0.1406782   0.08656374  67.72  0.000569785    1.699    0.412
        16  -8.6853     52.4848    208.9442   1.3832317225e+02   2.5207241889e+01    0.1725871    0.1086994 -74.79 -6.585188e-05    1.455    0.313
        17 -11.7073     72.8671    196.8494   1.3259145338e+02   2.5075846324e+01    0.6849601    0.5508791  89.73   0.00307387    1.136    0.120
        18 -10.2166    197.5440    197.8833   1.0531809157e+02   2.4398672481e+00    0.6370398    0.3457784  56.15  0.002601431    2.533    0.605
        19  -9.2601     64.3027    192.7188   1.3395166339e+02   2.7204281566e+01    0.2303156    0.2250087  85.68 0.0009751493    1.248    0.199
        20  -9.4560    208.1153    186.1311   1.0085633278e+02   2.5635595528e+00    0.2270002    0.1874414   1.18  0.001234591    1.259    0.206
        21 -10.4616     82.7830    180.9677   1.2809792279e+02   2.7192342797e+01    0.4447214    0.2495194 -43.36  0.001481772    2.214    0.548
        22 -10.3335     86.1426    175.3601   1.2642113249e+02   2.7963695531e+01    0.3409749    0.2763795 -34.16 0.0008713948    1.539    0.350
        23  -8.4959     90.8846    183.9872   1.2666221536e+02   2.5228033947e+01    0.2252196    0.1538272  75.72 0.0007021048    1.692    0.409
        24  -8.8661     93.0837    178.0573   1.2519557102e+02   2.6229466532e+01    0.2197931    0.1948097  78.72 0.0008248533    1.064    0.061
        25  -8.9482    185.0197    168.4527   1.0195946167e+02   1.0537326598e+01    0.2814205    0.2088331 -64.37  0.001248906    1.701    0.412
        26 -10.5102     92.8299    165.8615   1.2318485860e+02   2.9098785821e+01    0.3069503    0.2711193 -51.24 0.0005688047    1.181    0.153
        27 -11.9182     81.8197    161.0708   1.2510263305e+02   3.1970965124e+01    0.5003052    0.3952539 -51.73  0.001195361    1.270    0.212
        28 -12.8207     69.2915    145.2021   1.2553864174e+02   3.7544206248e+01     1.290738    0.7326595 -81.88  0.004861682    2.493    0.599
        29 -11.7599     71.2098    134.3587   1.2297316995e+02   3.9816796920e+01    0.7303876    0.3922097  55.38   0.00309088    2.464    0.594
        30  -8.7796    134.2309    147.2609   1.0905883323e+02   2.5723867216e+01    0.2473558    0.1248908 -58.80 0.0008900339    2.410    0.585
        31 -10.6154     97.3106    142.6068   1.1756802118e+02   3.3789363782e+01    0.2857466     0.264553  -9.51 0.0007890607    1.225    0.184
        32 -10.1387    108.8264    142.0309   1.1440321211e+02   3.1872544973e+01    0.4447283    0.2502522 -37.68  0.001803072    2.097    0.523
        33  -8.6480     74.2880    162.3496   1.2720918717e+02   3.2795654557e+01    0.1383659    0.1030282 -35.21 0.0002962826    1.662    0.398
        34 -11.0625     98.0370    158.1456   1.2046470996e+02   3.0031095326e+01    0.6407042    0.3953854 -29.56  0.001982328    2.477    0.596
        35  -9.1496    115.3135    131.7851   1.1039110785e+02   3.2994805704e+01    0.2603035    0.2332968 -82.88 0.0007349484    1.208    0.172
        36 -10.0817    104.3507    129.1663   1.1272839200e+02   3.5647004575e+01    0.4663918    0.3524062  81.12  0.001222814    1.764    0.433
        37  -9.2432     63.5152    155.7010   1.2883832841e+02   3.5861109449e+01     0.241957     0.182715  88.94  0.001082273    1.386    0.278
        38  -9.1942    110.7162    120.0307   1.0882024347e+02   3.6514582205e+01    0.2093897    0.1901052 -47.04  0.000416378    1.081    0.075
        39  -8.5394    168.4151    113.2084   9.2710471133e+01   2.5485955026e+01    0.2205374     0.144545 -52.86 0.0009416317    1.648    0.393
        40 -19.2837     20.2468    129.1082   1.3603866872e+02   4.6675000196e+01     18.16755     1.294098 -66.56   0.03299633   13.865    0.928
        41 -11.9241    173.8159     41.6733   7.2681214677e+01   3.6169800318e+01     0.614894    0.3625411  53.20  0.002181383    1.563    0.360
        42 -11.5188     97.9116    247.8681   1.3354713899e+02   1.0829363604e+01    0.8278102    0.4842942  68.03  0.003171878    1.857    0.461
