#   1 NUMBER                 Running object number                                     
#   2 MAG_AUTO               Kron-like elliptical aperture magnitude                    [mag]
#   3 X_IMAGE                Object position along x                                    [pixel]
#   4 Y_IMAGE                Object position along y                                    [pixel]
#   5 X_WORLD                Barycenter position along world x axis                     [deg]
#   6 Y_WORLD                Barycenter position along world y axis                     [deg]
#   7 A_WORLD                Profile RMS along major axis (world units)                 [deg]
#   8 B_WORLD                Profile RMS along minor axis (world units)                 [deg]
#   9 THETA_WORLD            Position angle (CCW/world-x)                               [deg]
#  10 FWHM_WORLD             FWHM assuming a gaussian core                              [deg]
#  11 ELONGATION             A_IMAGE/B_IMAGE                                           
#  12 ELLIPTICITY            1 - B_IMAGE/A_IMAGE                                       
         1 -14.3129    149.4054     59.4092   8.8277736002e+01   4.0381725356e+01     1.258361    0.9513514 -17.66   0.00100619    1.497    0.332
         2 -14.8591    160.4953     44.4609   8.1068933261e+01   3.9859840746e+01     1.450882      1.06374 -23.82   0.00392087    1.469    0.319
         3 -13.7025    189.3884     13.4211   6.6838500139e+01   3.6076992531e+01     2.399483    0.9597688 -74.04  0.005849786    6.929    0.856
         4 -14.2235    171.0490     15.6410   6.9950435256e+01   4.0675779511e+01     1.188428    0.9044071 -39.93  0.005098729    1.373    0.272
         5 -14.0035    173.4926      9.9113   6.7807839102e+01   4.0617923126e+01    0.8960087    0.4955525  84.77  0.003160805    1.963    0.491
         6 -12.7025    198.4944      7.6420   6.4146748538e+01   3.4297783394e+01    0.2879081    0.2144991 -61.55  0.001371982    1.313    0.238
         7 -10.4549    150.8370    240.1036   1.2685157356e+02   6.1165245583e+00    0.1738323    0.1332651  61.19 0.0006352274    1.299    0.230
         8 -20.2098     79.6354    178.3011   1.3330372282e+02   2.8861620946e+01     15.98662     6.681796 -67.08   0.07128427    2.422    0.587
         9 -14.7205    134.4692    147.0411   1.1544629869e+02   2.6108589799e+01     1.820326    0.5609208 -56.68  0.005017291    4.758    0.790
        10 -15.1277    143.6227    143.8227   1.1262469376e+02   2.4922477023e+01     1.167236    0.7808164 -59.30  0.004753434    1.654    0.395
        11 -14.2273    135.8204    128.4045   1.1105497692e+02   2.9845826871e+01     2.088693    0.4139165 -50.60  0.004791371    6.120    0.837
        12 -12.4188     23.5055    218.2872   1.4781419029e+02   2.7836909376e+01    0.3080427    0.1472303 -68.40  0.001921329    2.110    0.526
        13 -11.3545     18.2140    221.2939   1.4887530682e+02   2.7834375359e+01     0.149049    0.1017503 -88.35 0.0005205356    1.280    0.219
        14 -12.4248    134.6550    109.1328   1.0660873553e+02   3.4246793451e+01     1.222695    0.1637814 -45.36  0.002460561    7.444    0.866
        15 -10.6756     14.3734    155.2708   1.4536734105e+02   4.1490251173e+01    0.1755725    0.1445674  77.43 0.0008096048    1.138    0.121
        16 -11.6029     18.0145    153.4924   1.4440694899e+02   4.1562708251e+01    0.2475774    0.1750349 -54.38  0.001092576    1.640    0.390
        17 -10.8566    218.4457    220.0100   1.1177036498e+02  -2.4354531758e+00    0.1631278    0.1169572 -30.13 0.0005631944    1.584    0.369
        18 -13.0745    173.7386    148.5177   1.0691571177e+02   1.7570170857e+01    0.4464142    0.3950168  80.21  0.001520198    1.283    0.221
        19 -10.1903      7.8773    149.2483   1.4633210899e+02   4.3330011518e+01    0.1462511    0.1129322 -63.71 0.0007074739    1.386    0.279
        20 -12.8199     27.4141    145.4832   1.4147143466e+02   4.2482283826e+01    0.3207646    0.2972394 -82.01  0.001253123    1.260    0.206
        21 -11.2006    130.5378    212.9903   1.2722463623e+02   1.3857461806e+01    0.3804162    0.2206425 -82.29  0.001753151    2.880    0.653
        22 -11.9836    173.1456    139.4890   1.0502626046e+02   1.9444934507e+01     0.244643    0.2125774 -76.35 0.0008679922    1.334    0.250
        23 -11.1245     28.3029    238.4347   1.4809059936e+02   2.3716893044e+01    0.1355848   0.09381191  84.80 0.0003060182    1.228    0.186
        24 -12.0085     21.6641    236.6736   1.4907037691e+02   2.4738560881e+01    0.1763934    0.1145774  83.48  0.001359085    1.230    0.187
        25 -10.8723     30.8443    206.2891   1.4578350036e+02   2.9322655993e+01    0.1835614    0.1517569  60.24 0.0007970986    1.289    0.224
        26 -13.1061     11.6172    205.9895   1.4921981366e+02   3.1348552910e+01    0.4178942    0.2326221  34.54  0.002765821    2.093    0.522
        27 -13.1817    160.7636    128.1261   1.0510404328e+02   2.4466412304e+01    0.5047472    0.4016193 -60.10  0.001831433    1.375    0.273
        28 -12.1324    139.9422    200.1727   1.2355001272e+02   1.4496278126e+01    0.3948733    0.2542357  43.39 0.0009161618    1.355    0.262
        29 -12.0074    140.7999    120.9266   1.0805661638e+02   3.0388846666e+01    0.4420033    0.2884202  83.55  0.001309485    2.626    0.619
        30 -11.2732    127.0890    249.5590   1.3214263039e+02   8.5122406212e+00    0.1585982    0.1440343  69.90  0.001221123    1.246    0.197
        31 -10.6736    226.3441    191.3080   1.0532805288e+02   2.6800883300e-02    0.1366151   0.08928258  13.52 0.0007043728    1.696    0.410
        32 -11.2640    167.3982    112.5500   9.9725683392e+01   2.6068910224e+01    0.3441541    0.2513338 -88.54  0.001355235    1.958    0.489
        33 -12.0375    146.4082    189.0059   1.2047853220e+02   1.5360563985e+01    0.3055938    0.2355156  -7.55 0.0009131608    1.967    0.492
        34 -10.8559    205.3271    110.2394   9.1409026221e+01   1.7520232429e+01    0.3181969    0.2072961  46.01 0.0009075905    1.558    0.358
        35 -11.5751     34.4822    187.5009   1.4373221079e+02   3.2680139345e+01    0.2825178     0.275086 -78.43  0.001171112    1.500    0.333
        36 -12.8140    199.0397    178.5182   1.0794930885e+02   7.0362171560e+00    0.6617475    0.4226596 -65.61  0.002835062    2.924    0.658
        37 -10.5142    180.9366    106.8900   9.5336676808e+01   2.3938860549e+01    0.2487342    0.1904479 -78.36  0.001102946    1.706    0.414
        38 -13.5492    195.3723    168.8335   1.0674851539e+02   9.3707598886e+00    0.5489439    0.4796683  66.01 0.0007296528    1.338    0.253
        39 -11.8906     26.8421     98.1173   1.3542024598e+02   5.3345078657e+01    0.3610808    0.3138489 -41.42  0.001810341    1.276    0.216
        40 -12.5336    193.3935    164.2107   1.0619693849e+02   1.0565420007e+01    0.3948154    0.3001419  44.82  0.001575826    1.247    0.198
        41 -13.2660    158.0039    179.4230   1.1641094157e+02   1.4931797421e+01    0.7232002    0.2584508  44.38  0.002695677    2.518    0.603
        42 -10.9926    218.3169    179.3134   1.0447857859e+02   3.2255925951e+00    0.1391212   0.09608075  11.59 0.0003204612    1.645    0.392
        43 -12.3242    187.7948    174.4709   1.0936924628e+02   9.9263997079e+00      0.36763    0.2162309 -61.35  0.001519109    2.801    0.643
        44 -10.4327     27.0284    173.0088   1.4409091201e+02   3.6495887903e+01    0.1731041    0.1364367  88.88  0.000432734    1.090    0.082
        45 -12.0618    165.4758    172.0056   1.1347007373e+02   1.4836410212e+01    0.2749305    0.1931611  59.13  0.001361137    1.523    0.343
        46 -10.5766    143.1562     80.8657   9.6503556069e+01   3.8066508861e+01    0.2362906    0.2135693 -77.16 0.0005170197    1.206    0.171
        47 -12.2876    230.3867    167.5160   9.9935224479e+01   2.7267171901e+00    0.3879596    0.1903462 -45.43  0.001676659    2.502    0.600
        48 -14.2231    162.2364    154.2507   1.1062757651e+02   1.8902749320e+01    0.7246822    0.5376537 -70.66  0.002636346    1.722    0.419
        49 -11.9903    191.8266    157.8711   1.0518531095e+02   1.2000242000e+01    0.3970489    0.2820081   9.08  0.001665382    1.869    0.465
        50 -10.7852     13.3973     59.8798   1.3269785568e+02   6.2772820367e+01    0.1620523    0.1561697 -89.83 0.0004318225    1.267    0.211
        51 -13.0912    164.4340     35.9172   7.7549409249e+01   4.0009902331e+01    0.4393389    0.4196236 -89.40 0.0008504502    1.046    0.044
        52 -11.8619     12.7340    241.6486   1.5069738190e+02   2.4813897582e+01    0.1648904    0.1169999  82.24  0.001206966    1.212    0.175
        53 -12.2902    168.2138    240.1424   1.2373216156e+02   3.2574757764e+00    0.2499035    0.1549688  41.05 0.0003736181    1.260    0.206
        54 -10.8975    161.1744    239.5086   1.2491436846e+02   4.5050289515e+00    0.2921988    0.1649839  40.04  0.001549447    1.415    0.293
