#   1 NUMBER                 Running object number                                     
#   2 MAG_AUTO               Kron-like elliptical aperture magnitude                    [mag]
#   3 X_IMAGE                Object position along x                                    [pixel]
#   4 Y_IMAGE                Object position along y                                    [pixel]
#   5 X_WORLD                Barycenter position along world x axis                     [deg]
#   6 Y_WORLD                Barycenter position along world y axis                     [deg]
#   7 A_WORLD                Profile RMS along major axis (world units)                 [deg]
#   8 B_WORLD                Profile RMS along minor axis (world units)                 [deg]
#   9 THETA_WORLD            Position angle (CCW/world-x)                               [deg]
#  10 FWHM_WORLD             FWHM assuming a gaussian core                              [deg]
#  11 ELONGATION             A_IMAGE/B_IMAGE                                           
#  12 ELLIPTICITY            1 - B_IMAGE/A_IMAGE                                       
         1 -14.3431    158.5101     52.6162   8.1583395078e+01   3.8958410725e+01     1.455296     1.215885   7.41  0.005354077    1.433    0.302
         2 -14.2844    170.7243     37.3701   7.4875667587e+01   3.8069924868e+01    0.9859377    0.9456077  -3.99  0.003621153    1.189    0.159
         3 -11.7985    189.8424     15.0741   6.5994441092e+01   3.5984250374e+01    0.3130145     0.209371 -72.83 0.0009302296    1.593    0.372
         4 -13.9745    187.2457      5.3890   6.3852145024e+01   3.7614541145e+01    0.9711018    0.6576425  69.15  0.004002224    1.254    0.203
         5 -11.4782    146.6501    238.1118   1.2580401203e+02   4.5216050187e+00    0.1688081    0.1558652  65.93 0.0004495276    1.125    0.111
         6 -19.3617     68.8503    240.9059   1.4071072720e+02   1.6516094837e+01       7.2266     5.443095  87.17   0.04011007    1.174    0.148
         7 -10.8764    163.5069    210.0765   1.1811289053e+02   6.5024845676e+00    0.1954883    0.1396782 -48.34 0.0009427984    1.557    0.358
         8  -9.9820     26.0495    207.1012   1.4557206203e+02   2.8673203791e+01    0.3885856    0.2266443  79.24    0.0017419    1.453    0.312
         9 -12.5184    158.8478    235.7381   1.2309421918e+02   2.7752674853e+00    0.3761154    0.2594008  36.37 0.0009383234    1.334    0.251
        10 -11.2008    158.7692    204.8524   1.1820966901e+02   8.4009593598e+00    0.3085897    0.1787983  52.92  0.001402299    1.717    0.417
        11 -11.7589    163.4562    204.0143   1.1708191596e+02   7.6617998267e+00    0.3005547     0.270774 -52.14  0.001023039    1.218    0.179
        12 -11.4106    160.8382    198.1303   1.1659632302e+02   9.3140026226e+00    0.3032625    0.2338607  78.83  0.001139303    1.611    0.379
        13 -12.2120    139.4843    200.9752   1.2164902065e+02   1.2843129492e+01    0.3427356    0.2947285   9.44  0.001570623    1.502    0.334
        14 -12.0157    136.0008    196.8145   1.2170934051e+02   1.4358284696e+01    0.3945537     0.262448  78.02  0.001798085    2.015    0.504
        15 -11.9602    208.1397    196.7985   1.0661709121e+02   3.7169808782e-01    0.2645007    0.2325515  85.88 0.0009380912    1.527    0.345
        16 -12.3333    168.0174    233.6539   1.2099244816e+02   1.4922065850e+00    0.3852503    0.2397534  58.38 0.0009353035    1.792    0.442
        17 -10.9836      5.0345    199.3716   1.4881444653e+02   3.2372996153e+01    0.1555619    0.1140205 -88.16 0.0002775319    1.097    0.088
        18 -11.9621    155.0444    196.8370   1.1760318581e+02   1.0700697668e+01    0.4306583    0.2820092 -85.95  0.001810217    2.537    0.606
        19 -10.6517    180.0454    192.3414   1.1147052722e+02   6.6512589045e+00    0.2464498    0.2037233 -85.84 0.0006255074    1.555    0.357
        20 -12.3026    167.5577    190.5572   1.1377520843e+02   9.4876839834e+00    0.3969314    0.2979681  33.32  0.001739103    1.350    0.259
        21 -10.8228    176.4892    233.9824   1.1939119961e+02  -7.2710839243e-02    0.1767696    0.1317586 -45.95 0.0006076053    1.576    0.365
        22 -12.0945    178.5570    226.4492   1.1778769487e+02   7.9968074406e-01    0.2582251    0.2205758  21.88 0.0009341101    1.178    0.151
        23 -11.1012    176.6207    187.7900   1.1131730938e+02   8.2170354874e+00    0.2500641    0.1862106 -54.91 0.0007740041    1.494    0.331
        24 -10.9885    184.2880    186.6203   1.0947469345e+02   6.9010895108e+00    0.2687144    0.1810396  35.20  0.001070404    1.475    0.322
        25 -10.8763     16.6926    249.9459   1.4999168487e+02   2.1340942366e+01    0.1664187    0.1563967   5.79  0.001353078    2.133    0.531
        26 -12.1882    205.5078    180.4788   1.0388898011e+02   3.8026292219e+00     0.518778    0.3279666  47.50  0.001845979    1.592    0.372
        27 -12.1420    208.6884    178.6584   1.0288009488e+02   3.5046152311e+00    0.4431429    0.3498769  22.24  0.002331314    1.321    0.243
        28 -11.7520    198.9646    222.2113   1.1307497093e+02  -2.1882300326e+00    0.3334741    0.2303204   8.77  0.001269981    1.821    0.451
        29 -12.5332    196.1059    171.7925   1.0399435191e+02   7.3532735152e+00    0.6729624    0.4165176 -50.84   0.00225498    1.784    0.439
        30 -10.6997    194.4051    166.1936   1.0315556717e+02   8.8010515593e+00    0.2841096     0.255984 -44.71  0.000771488    1.140    0.123
        31 -13.6451    137.6008    172.0047   1.1689709410e+02   1.9398930302e+01    0.7971203    0.5318507  61.00  0.002896486    1.639    0.390
        32 -11.1564      8.3692    217.9914   1.4945014299e+02   2.8283060288e+01    0.2513176    0.1284461 -56.20  0.001474618    2.540    0.606
        33 -11.8877    142.3605    166.1980   1.1465298591e+02   1.9732407321e+01     0.329374    0.2488471 -67.97  0.001584586    1.452    0.311
        34 -10.7876    122.8439    166.2750   1.1924963170e+02   2.3557757712e+01    0.2372365    0.1725975  62.02 0.0004078695    1.436    0.304
        35 -10.5147     25.1767    165.6319   1.4193247322e+02   3.7789706893e+01    0.2108246    0.1763957  12.46  0.001000944    1.758    0.431
        36 -10.0362    201.0201    164.9867   1.0153619817e+02   7.6484556395e+00    0.2316499    0.1851738 -83.09 0.0006207991    1.712    0.416
        37 -10.6904    223.7383    163.8513   9.6829603352e+01   3.2097927584e+00    0.2555598    0.1892728 -55.13 0.0005796548    1.577    0.366
        38 -11.2140    113.4699    160.1913   1.2033629600e+02   2.6712892845e+01    0.3036485    0.1802613  57.64  0.001305073    1.871    0.466
        39 -11.8928     24.8557    156.9156   1.4104651049e+02   3.9790785895e+01    0.5140864    0.2647905  52.21  0.002785824    2.078    0.519
        40 -12.1458    102.9623    159.1530   1.2269935586e+02   2.8836335703e+01    0.3957883    0.2724286  62.02 0.0005800716    1.567    0.362
        41 -11.1197    162.1456    154.1382   1.0754580553e+02   1.8226739214e+01    0.2378343    0.2177228   3.71  0.001131393    1.239    0.193
        42 -13.3657    134.0235    145.0090   1.1217633705e+02   2.6217522661e+01     1.204833    0.3517733 -54.76  0.003237189    4.317    0.768
        43 -10.7474    237.5195    159.4808   9.3351233650e+01   1.2851563887e+00    0.1399073    0.1297632 -19.92 7.926728e-05    1.024    0.023
        44 -11.1047    140.1533    156.7830   1.1323516971e+02   2.2288427963e+01    0.2275769    0.2002881  80.08 0.0003736594    1.179    0.152
        45 -10.6461    174.8761    149.1288   1.0356721528e+02   1.6512767363e+01    0.2426856    0.2135434  88.08 0.0006220306    1.275    0.216
        46 -12.3688    144.6587    145.6898   1.0975106532e+02   2.3844259906e+01    0.4458354    0.3186412  80.40   0.00190773    1.906    0.475
        47 -11.9004     32.5784    141.8342   1.3733995185e+02   4.2506501474e+01    0.4849342    0.2622105  17.01   0.00206802    2.836    0.647
        48 -13.3401    113.7186    138.8261   1.1591186901e+02   3.1649898134e+01    0.8553206     0.566231  12.03  0.003376208    2.681    0.627
        49 -12.4350    104.5346    138.1838   1.1814399171e+02   3.3487104880e+01    0.3034656    0.2783642  49.97 0.0003346741    1.137    0.120
        50 -10.4152      4.7155    215.8005   1.4992893660e+02   2.9072148427e+01   0.08421159   0.07256422 -84.27 0.0002430411    1.417    0.294
        51 -12.4230    106.0390    130.8383   1.1614912964e+02   3.4932645072e+01     0.428926    0.3648221 -71.04    0.0013742    1.178    0.151
        52 -11.4512    108.2676    125.2974   1.1429383457e+02   3.5806938521e+01    0.3033229    0.2563753 -32.88 0.0007087357    1.283    0.221
        53 -12.6824    119.3468    129.4394   1.1234341964e+02   3.2739236325e+01    0.4585562    0.3980668 -44.86  0.001318817    1.155    0.134
        54 -13.1455    125.3447    127.2924   1.1028812184e+02   3.2032416317e+01    0.7627762    0.4656991  75.44  0.002690007    3.019    0.669
        55 -10.9813      2.5269    125.8648   1.4273888147e+02   4.8523492103e+01    0.1931305    0.1332036 -50.68  0.001299516    1.414    0.293
        56 -12.8533    135.4466    122.0956   1.0644847494e+02   3.1097178683e+01    0.8665891    0.2614565 -52.21  0.002375511    3.993    0.750
        57 -10.9288    131.5194    120.5180   1.0705262688e+02   3.2280339410e+01     0.154307    0.1493893 -77.47  8.92616e-05    1.021    0.021
        58 -11.4267    113.6076    118.6065   1.1126814247e+02   3.6325810331e+01    0.2738655    0.2546814  82.90  0.000539817    1.125    0.111
        59 -11.1989     25.5427    119.1363   1.3584196576e+02   4.8336556827e+01       0.1948    0.1786313 -16.78 0.0005611502    1.350    0.259
        60 -10.5165    116.7994    115.5925   1.0966791422e+02   3.6382080025e+01    0.2187642    0.1417222  54.89  0.000950667    1.727    0.421
        61 -11.2820    160.6450    127.8379   1.0176395600e+02   2.4265206005e+01    0.3227807    0.2470835 -80.21   0.00143513    1.663    0.399
        62 -10.5372      2.4145    112.7045   1.4112120491e+02   5.1421637988e+01    0.1850539    0.1191864 -35.70  0.001183466    1.770    0.435
        63 -12.5895     85.4942    109.1367   1.1677946975e+02   4.3425167629e+01    0.5238011    0.2286768 -49.20  0.002108282    2.089    0.521
        64 -10.2982      8.7997    111.4270   1.3923093353e+02   5.1304447747e+01    0.2223105    0.1142351   0.57  0.001142466    3.214    0.689
        65 -10.6569    205.5113    110.1569   8.7881940869e+01   1.7372356557e+01    0.3347506    0.2218432  44.35 0.0009574244    1.607    0.378
        66 -11.0259    167.9954    113.2443   9.6408185366e+01   2.5646452661e+01    0.4295587    0.3075799 -89.77  0.001526617    2.001    0.500
        67 -10.6073    124.9582     81.3429   9.8098718497e+01   4.1860623130e+01    0.2141375    0.1908423  39.54 0.0007882494    1.117    0.105
        68  -9.8023    120.6748     79.2854   9.8631264739e+01   4.3161300230e+01    0.1443433    0.1187759 -88.76 0.0002447111    1.603    0.376
        69  -9.9083     93.5067     79.4805   1.0644324282e+02   4.8379958598e+01    0.1404083    0.1312597 -21.50 8.083771e-05    1.013    0.013
        70 -12.5197     13.3646    245.1135   1.5023606598e+02   2.2582283571e+01    0.4288073     0.109933 -68.34   0.00209992    3.365    0.703
        71 -10.5008      6.5544    247.6332   1.5140684813e+02   2.2837338646e+01    0.1004096   0.07167393  76.52   0.00076553    1.106    0.096
        72 -12.7968    174.8984     29.7383   7.2044825649e+01   3.7994859376e+01    0.4368253    0.3809746   4.87  0.001275136    1.409    0.290
        73 -10.9960     14.1853     58.9011   1.2744442185e+02   6.1906072470e+01    0.2896411    0.1572241 -34.50  0.001740661    1.616    0.381
        74 -10.4863    131.4173     28.7344   7.9875697664e+01   4.8592943836e+01      0.24451    0.1582402  68.05 0.0006477988    1.680    0.405
        75 -18.8358     53.5036     98.2304   1.2373778519e+02   5.0257670172e+01     16.76219     0.573069 -56.68   0.02120841   25.011    0.960
