#   1 NUMBER                 Running object number                                     
#   2 MAG_AUTO               Kron-like elliptical aperture magnitude                    [mag]
#   3 X_IMAGE                Object position along x                                    [pixel]
#   4 Y_IMAGE                Object position along y                                    [pixel]
#   5 X_WORLD                Barycenter position along world x axis                     [deg]
#   6 Y_WORLD                Barycenter position along world y axis                     [deg]
#   7 A_WORLD                Profile RMS along major axis (world units)                 [deg]
#   8 B_WORLD                Profile RMS along minor axis (world units)                 [deg]
#   9 THETA_WORLD            Position angle (CCW/world-x)                               [deg]
#  10 FWHM_WORLD             FWHM assuming a gaussian core                              [deg]
#  11 ELONGATION             A_IMAGE/B_IMAGE                                           
#  12 ELLIPTICITY            1 - B_IMAGE/A_IMAGE                                       
         1 -11.1985    179.7332     42.8941   5.5745191235e+01   3.4907919010e+01     1.110091    0.8341237   0.74  0.005325357    1.711    0.416
         2  -9.7218    199.2235     16.0097   4.5199212092e+01   3.3243100846e+01    0.5875446    0.3906297  86.11   0.00298586    1.488    0.328
         3  -9.8036    203.4770     10.7892   4.3306358392e+01   3.2733567017e+01    0.6045766    0.3120789 -32.06  0.002840086    1.940    0.485
         4  -8.2513    168.9952     11.5428   4.7769604863e+01   4.1494961253e+01     0.189089    0.1847901 -49.42 0.0001155478    1.112    0.101
         5  -8.9138    135.9844      9.6453   5.2507613725e+01   5.0088754096e+01    0.2301889    0.1920182   7.19 0.0003396896    1.295    0.228
         6  -9.0318    120.3485      8.7353   5.5296914838e+01   5.3976762857e+01    0.3446251    0.1818978  43.95  0.001607815    1.729    0.422
         7  -9.1988     67.8170      4.1627   6.7824613320e+01   6.5508785328e+01    0.1833182    0.1258842  15.91  0.001076294    1.349    0.258
         8  -8.5650     53.6821      4.3378   7.3272100834e+01   6.7869538742e+01     0.107737   0.09557948 -47.86 0.0004529054    1.704    0.413
         9  -8.9342     88.4779      2.5089   6.0505306280e+01   6.1671004287e+01    0.3567048    0.1546966  26.78  0.001414474    2.992    0.666
        10  -8.6185     79.2719      1.5836   6.2785892696e+01   6.3615042078e+01    0.1902206    0.0979994  41.54 0.0007175314    1.703    0.413
        11  -8.5809    232.6180    217.1900   8.7505577002e+01  -5.1406317340e+00    0.2188411    0.1448117  28.44 0.0004758612    1.275    0.216
        12 -10.1082    133.4907    248.9298   1.1019621175e+02   6.4342391109e+00      0.28721     0.267233  -2.11  0.001504075    1.442    0.307
        13 -13.4267     73.2367    248.5197   1.2079600500e+02   1.5277536188e+01     1.200808    0.4052324  42.38  0.003343663    2.319    0.569
        14 -14.4289     31.5422    222.4436   1.2622702121e+02   2.5051249531e+01    0.8003601     0.510578  28.33  0.005166638    2.211    0.548
        15 -17.6977     37.3494    240.7293   1.2632425330e+02   2.1074748007e+01     2.902987     2.242417  52.47   0.01027675    1.325    0.245
        16 -10.8827     94.8608    187.8141   1.1044623368e+02   2.3651190007e+01    0.9367357     0.493011  77.23  0.003763243    3.062    0.673
        17  -8.4457      1.5171    199.4669   1.3026109438e+02   3.2463691222e+01    0.1064639   0.07826468  81.88 5.068801e-05    1.083    0.076
        18  -9.7762     81.7189    195.0086   1.1415526742e+02   2.4129228497e+01    0.3934875    0.2625964  81.59  0.001111664    1.517    0.341
        19  -9.8096     96.3140    201.6924   1.1190062573e+02   2.0574125518e+01    0.6956854    0.1948923 -62.50   0.00252606    3.970    0.748
        20  -8.1290    128.3789    195.6918   1.0434206113e+02   1.6472841864e+01     0.211792    0.1474989  72.02   0.00109208    1.682    0.406
        21  -9.0990    219.2710    194.2701   8.5785122370e+01   2.1068710826e-01    0.2700001    0.1948714  41.29 0.0003942921    1.363    0.267
        22 -10.4257    250.0696    192.0205   7.9900523340e+01  -4.6305638311e+00    0.2119154    0.1690242 -15.21 0.0003249783    1.164    0.141
        23  -7.8376      1.9623    193.0883   1.2985672519e+02   3.3696205493e+01    0.1185571    0.1039319  73.93  0.000437624    1.337    0.252
        24  -9.7198     32.4322    188.6308   1.2370858242e+02   3.1696504280e+01    0.2629758    0.1717583  85.98 0.0006303344    1.257    0.204
        25  -9.0499    220.2124    189.6780   8.4741697570e+01   7.2831297925e-01    0.2295154    0.2125824  -4.84 0.0002978324    1.166    0.142
        26  -9.0868    107.3102    188.9600   1.0789116266e+02   2.1410671205e+01     0.393157    0.2238815  88.06  0.001650417    2.788    0.641
        27  -8.3019    103.1697    183.0034   1.0795133662e+02   2.3339190136e+01     0.254549    0.1771697  87.81  0.001328303    1.620    0.383
        28  -7.6755     37.7477    189.1902   1.2268222718e+02   3.1000604815e+01    0.1400361     0.117983 -76.10 0.0001888232    1.298    0.230
        29  -9.2236    129.9070    186.5056   1.0259224248e+02   1.8019910871e+01    0.3700046    0.2473761  85.94   0.00143053    2.123    0.529
        30  -8.0174     44.8424    187.0120   1.2104040177e+02   3.0656793044e+01    0.3826077    0.1698409 -74.37  0.001653082    2.047    0.511
        31 -11.4299    100.2064    200.6096   1.1095767848e+02   2.0183809789e+01     1.206322    0.6200508 -82.19  0.005061662    2.912    0.657
        32 -10.3060     95.8304    196.2413   1.1132762708e+02   2.1751218417e+01    0.6997843    0.3409844  72.20  0.002636429    3.575    0.720
        33  -9.1993     67.6311    173.5401   1.1466916008e+02   3.0738599902e+01    0.4460388     0.170082  41.95  0.001704167    2.434    0.589
        34 -10.1768     93.9430    178.2118   1.0933337474e+02   2.5850917711e+01    0.7204245    0.3532877  52.17  0.002596637    1.995    0.499
        35 -10.9382     73.6576    178.7493   1.1395735479e+02   2.8756554087e+01    0.5804706    0.5664015  47.72 0.0001999773    1.314    0.239
        36 -10.7758     80.8290    183.9429   1.1301651893e+02   2.6599919660e+01    0.7954128    0.5415584 -61.78  0.003013115    1.502    0.334
        37  -9.2770     76.4883    183.5097   1.1391464341e+02   2.7319535438e+01    0.2876032    0.2254094 -78.83 0.0009130014    1.202    0.168
        38 -10.2636     86.7683    172.5586   1.1016932616e+02   2.8205488934e+01     0.725117    0.4171723  34.51  0.003005448    1.908    0.476
        39  -9.1905     88.9654    168.9780   1.0914398021e+02   2.8666324239e+01    0.3348666    0.2763389 -44.04  0.001123309    1.473    0.321
        40  -9.1064     91.8675    164.2959   1.0775315168e+02   2.9265215406e+01    0.3635247    0.2883267 -32.54  0.001968324    1.706    0.414
        41  -7.4043    230.0205    184.9484   8.2036440706e+01  -2.9229861305e-01    0.1571214    0.1342811   7.85 0.0003759799    1.003    0.003
        42  -8.7774    220.2858    184.9883   8.3823049465e+01   1.4242607377e+00    0.2198608    0.1718366  30.44 0.0003801601    1.174    0.148
        43  -9.2412    115.3344    183.1421   1.0527054082e+02   2.1268253531e+01    0.2457777    0.1771077  35.71  0.001305358    1.445    0.308
        44  -8.5052     39.7541    182.9432   1.2173210414e+02   3.2107664364e+01    0.2479992    0.1560003  33.38 0.0008604723    1.852    0.460
        45 -10.0198     25.3444    182.7018   1.2467835372e+02   3.3682960454e+01    0.3101853    0.1946602  27.69  0.001289451    2.087    0.521
        46 -10.2916    188.4355    180.7209   8.9164671776e+01   8.0610774315e+00    0.3844642    0.2568295 -30.69 0.0004528507    1.647    0.393
        47  -9.0587    141.1114    181.8719   9.9376441867e+01   1.6901315681e+01    0.2519028    0.2131959  65.15 0.0004076079    1.189    0.159
        48  -8.8265    246.5557    179.8673   7.8130135619e+01  -2.3908376757e+00    0.2156511    0.1709519  29.04 0.0005686217    1.229    0.186
        49  -7.3287     15.8387    178.2747   1.2627911733e+02   3.5534821385e+01    0.2426102    0.1263789  83.83  0.001408389    1.645    0.392
        50  -8.2435      2.3299    177.5886   1.2892639934e+02   3.6846455187e+01    0.1270596    0.1024163 -76.44 0.0009622975    1.319    0.242
        51  -9.3221     24.6536    173.8277   1.2412141440e+02   3.5658428854e+01    0.4946253    0.1786827  37.14  0.002457382    2.680    0.627
        52  -9.3602     35.4783    171.7595   1.2162399599e+02   3.5010094880e+01    0.4939092    0.2248916 -67.93  0.001724562    1.901    0.474
        53  -8.4492    104.8783    172.3801   1.0596684210e+02   2.5345278274e+01    0.2362843    0.1819718 -82.10 0.0008830731    1.340    0.254
        54  -8.0620    142.5872    171.7845   9.7259144350e+01   1.8659703899e+01    0.1914708    0.1382567 -64.60 0.0004731533    1.586    0.369
        55 -13.6209     51.3518    245.5264   1.2428809421e+02   1.8583167535e+01    0.3164738    0.1889617 -69.76  0.001276595    1.834    0.455
        56  -8.6126     31.4308    168.3495   1.2219176638e+02   3.6185088795e+01    0.2030248    0.1754877 -76.74  0.000654166    1.241    0.194
        57  -8.5959    208.9222    164.8416   8.1896299506e+01   6.8061647302e+00    0.2153277    0.1885406 -16.86 0.0003033237    1.115    0.103
        58  -7.5914    194.5126    163.0396   8.4366385189e+01   9.9897607036e+00    0.1905344    0.1266243 -64.50 0.0006853918    2.385    0.581
        59  -7.7647     35.1059    163.4932   1.2091107536e+02   3.6889945906e+01    0.1606145    0.1147416  41.87 0.0008132284    1.510    0.338
        60  -7.5668    118.5407    162.2499   1.0106849254e+02   2.5186651223e+01    0.1911907    0.1348033 -44.72  0.000635643    1.572    0.364
        61  -8.7889     26.1392    162.2464   1.2280255200e+02   3.8066032850e+01    0.2031692    0.1111304 -52.77  0.001107432    2.087    0.521
        62  -9.8521     28.9148    157.1296   1.2169116979e+02   3.8947773426e+01    0.3594024    0.3324048   7.30  0.002093088    1.539    0.350
        63  -9.2105     22.6967    156.9016   1.2308807889e+02   3.9585424385e+01    0.2647124    0.2107802 -76.97 0.0007621014    1.158    0.136
        64  -8.8999     13.6905    160.4261   1.2539354277e+02   3.9594088461e+01    0.2092419    0.1681757 -78.45 0.0007810361    1.186    0.157
        65  -8.3169     41.5625    158.7316   1.1893122136e+02   3.7278968298e+01    0.2954055    0.1204121  24.93  0.001237116    3.591    0.722
        66 -10.2632    123.8212    205.8259   1.0674835142e+02   1.5311406978e+01    0.2769962    0.1880434  68.51  0.001488997    1.628    0.386
        67  -8.3819     97.6772    156.2338   1.0504161971e+02   3.0159725363e+01    0.2407187    0.2153169  54.69 0.0005726006    1.120    0.107
        68  -9.1462    101.6025    151.7413   1.0328947623e+02   3.0532105983e+01    0.4728189    0.3066867 -37.12   0.00181602    2.015    0.504
        69  -8.6642    105.0566    147.4762   1.0164369310e+02   3.0918687239e+01     0.206797     0.187508  52.34 0.0008221677    1.116    0.104
        70  -8.4951    117.6724    154.5253   9.9856641997e+01   2.7059685237e+01    0.3155931    0.2080006  71.02 0.0009210744    1.944    0.485
        71  -7.4028    141.5261    154.5473   9.4171236182e+01   2.2477475662e+01    0.1472569    0.1408939  57.96 0.0001183051    1.007    0.007
        72  -9.4336     36.2116    154.1674   1.1968637763e+02   3.8890855872e+01    0.2696347    0.1898707  22.73   0.00141255    1.902    0.474
        73  -7.6307    236.4418    153.4819   7.4397896235e+01   3.3634772558e+00    0.1376758    0.1225863  -8.07 2.263524e-05    1.022    0.022
        74 -10.2394     87.0403    150.4349   1.0669787699e+02   3.3204572679e+01    0.3396459    0.2658347 -52.78 0.0007868184    1.327    0.246
        75  -8.7291    111.4940    151.4882   1.0079584455e+02   2.8863914436e+01    0.3214616     0.137793  41.77  0.001242683    2.291    0.564
        76  -8.6906    134.2922    148.4638   9.4637612282e+01   2.5232727068e+01    0.4184999    0.1777864 -58.85  0.001411434    3.040    0.671
        77  -8.0379      1.8082    150.4114   1.2724207812e+02   4.2733724840e+01    0.1227516    0.1122755  -8.77 0.0009405871    1.626    0.385
        78 -10.2422     69.0710    124.9872   1.0696516789e+02   4.1864376819e+01    0.4682245    0.2408759  46.41  0.002120154    2.094    0.523
        79 -12.3733     67.6850    140.8925   1.1007799709e+02   3.8264039353e+01     1.637364     0.959459 -82.82  0.005045773    1.923    0.480
        80 -10.5050     11.0393    143.0121   1.2452612865e+02   4.3698927946e+01    0.3033556    0.1786692 -63.61  0.001434665    1.498    0.332
        81 -10.6177      2.9887    135.6844   1.2579953432e+02   4.5932137753e+01    0.5169255    0.2733827  67.12  0.002900555    1.890    0.471
        82  -9.7661      2.9865    130.5064   1.2534541840e+02   4.7099581398e+01    0.3021492    0.1679849 -76.74 0.0009253279    1.369    0.269
        83 -10.6278     24.1613    143.4504   1.2142574223e+02   4.2510269892e+01    0.4106883    0.2039079  45.85  0.002220374    2.061    0.515
        84  -7.5233    166.0565    137.9380   8.4886640263e+01   2.0832069882e+01    0.1816412    0.1704946 -41.68 0.0003538944    1.082    0.076
        85  -8.6056    112.0416    136.4587   9.7676198350e+01   3.2207412120e+01    0.2992991    0.2217027 -54.52 0.0008462616    1.324    0.245
        86  -9.0100    100.7372    136.2714   1.0057660299e+02   3.4269549921e+01    0.2356476    0.2273322 -71.26  0.000312535    1.077    0.071
        87  -7.1988    175.3383    140.7210   8.3475112780e+01   1.8249710162e+01    0.1505449    0.1217197  84.73 0.0003949064    1.618    0.382
        88 -10.1999     32.3308    134.8598   1.1840005889e+02   4.3750421480e+01    0.5997729    0.2668797 -80.15  0.002394345    2.195    0.544
        89  -9.9007     36.4279    134.1664   1.1725110665e+02   4.3514585789e+01    0.4184711    0.2305641 -77.21  0.002189006    1.603    0.376
        90  -8.9596     49.9439    131.9454   1.1336938594e+02   4.2598822712e+01    0.2734894    0.1799352  41.06  0.001511312    1.645    0.392
        91  -9.8260     43.4585    130.7417   1.1492706580e+02   4.3599305799e+01    0.2860391       0.2321  20.94 0.0007782122    1.577    0.366
        92  -7.4557    117.5135    128.4726   9.4519962641e+01   3.3013059805e+01    0.1484636    0.1451857 -63.58 5.860542e-05    1.049    0.047
        93 -10.0589     75.9505    141.2301   1.0798271749e+02   3.7030083467e+01    0.6013197    0.3349325  61.67   0.00265763    2.200    0.546
        94  -7.9960    105.4526    124.3893   9.6806279684e+01   3.6210956334e+01    0.2541762    0.1375474 -48.55 0.0006331499    1.800    0.444
        95  -7.6874     50.3120    124.3194   1.1207689251e+02   4.4371472247e+01    0.1326043   0.09214877 -41.14 0.0007036588    1.647    0.393
        96 -10.4105      6.6715    144.7251   1.2569469930e+02   4.3642902136e+01    0.4510974     0.251393  77.12  0.002662909    1.638    0.390
        97  -8.5023     34.0372    119.0493   1.1580582822e+02   4.7308370395e+01    0.3132425    0.1790988 -65.50  0.001504111    1.429    0.300
        98  -8.3045    153.9719    114.0910   8.1832215370e+01   2.8489384002e+01    0.2223574     0.219683  -1.80 0.0002765176    1.027    0.026
        99  -9.6699    210.0820    110.4946   6.9082505074e+01   1.6178831001e+01    0.2739817    0.2544355  28.54 0.0003801659    1.112    0.101
       100  -7.1890    116.3748    110.2565   9.0459554475e+01   3.7387793353e+01     0.151426    0.1209439   3.75  0.000696937    1.652    0.395
       101  -7.8564    215.0012    106.9548   6.7307410076e+01   1.5685243011e+01    0.2287159    0.1764844 -66.52  0.000462351    1.590    0.371
       102  -8.2175     98.9020     90.9740   9.0308240594e+01   4.5044176245e+01     0.210453    0.2007508 -49.62 0.0002999654    1.027    0.026
       103  -7.4538    156.0463     88.0513   7.4168623081e+01   3.3295013688e+01     0.178339    0.1774162  10.70            0    1.009    0.009
       104  -7.1551     62.3167     87.7188   1.0099063129e+02   5.1533864261e+01    0.1307431    0.1044146  80.25 0.0004093631    1.578    0.366
       105 -10.2100    113.9157     70.0031   7.9497347568e+01   4.6444708281e+01    0.2401125    0.2197085 -36.41            0    1.074    0.069
       106  -7.1411    131.2854     68.2969   7.4191997640e+01   4.2919124833e+01    0.1520383    0.1191672   9.62 0.0006966654    1.547    0.354
       107  -9.0280    210.1625     62.1958   5.6389919027e+01   2.4305497833e+01    0.3786546    0.2468221 -28.61 0.0007824754    1.579    0.367
       108 -10.1957    164.6281     57.2257   6.2945463014e+01   3.6650912821e+01    0.4551262    0.4391302  22.67  0.001790579    1.072    0.067
       109  -7.5911    143.5581     59.5320   6.8287415133e+01   4.1547842877e+01    0.1505075    0.1476157  19.88 7.829111e-05    1.005    0.005
       110  -8.2569    184.2583     53.4130   5.8112965209e+01   3.2203960369e+01    0.2001156    0.1439087  76.30 0.0003474106    1.502    0.334
       111 -10.0139    247.3992    246.9131   8.9861168441e+01  -1.0712098824e+01    0.3072549     0.225733  31.72  0.002229654    1.320    0.242
       112  -9.5546    184.6469     35.9809   5.2886477236e+01   3.4575291930e+01    0.4148997    0.3017229  18.59 0.0009359427    1.827    0.453
       113  -7.1038    138.3062     21.7365   5.6414958049e+01   4.8238197646e+01    0.1363847    0.1084093 -74.26 0.0002182665    1.527    0.345
       114  -8.1177     30.2184     21.8084   9.2197627233e+01   6.8435970778e+01    0.2410252   0.07796293  35.48    0.0010463    3.596    0.722
       115  -9.5244    140.2339    249.0169   1.0899048390e+02   5.3701447782e+00    0.2551391    0.1679234  53.31   0.00161723    1.320    0.242
       116  -9.3510    142.5467    208.7791   1.0334051105e+02   1.1555742926e+01     0.258024    0.1666295  41.78  0.001393178    1.346    0.257
       117  -8.5533    185.7840    228.1117   9.7804086687e+01   1.0164952760e+00    0.4147811    0.1391453 -47.34    0.0016813    3.979    0.749
       118  -8.5597    244.8210    229.5795   8.7503727745e+01  -8.4713076107e+00    0.1500561   0.09650591  39.28 0.0005029911    1.546    0.353
       119  -9.3315    230.8926    199.5089   8.4650074368e+01  -2.5193933089e+00    0.2841686    0.2551804  88.98  0.001312153    1.859    0.462
       120 -10.5355    147.6486    223.9649   1.0447386416e+02   8.0782999032e+00    0.4988987    0.2879409 -74.99  0.002255373    3.269    0.694
       121 -11.0046    153.0161    217.5135   1.0251925355e+02   8.2332785596e+00    0.6616569    0.4392113  30.12  0.003657588    1.529    0.346
       122 -10.6749    141.4869    228.3402   1.0624337248e+02   8.3883614555e+00    0.4178903    0.3018254  27.58  0.001720275    1.502    0.334
