#   1 NUMBER                 Running object number                                     
#   2 MAG_AUTO               Kron-like elliptical aperture magnitude                    [mag]
#   3 X_IMAGE                Object position along x                                    [pixel]
#   4 Y_IMAGE                Object position along y                                    [pixel]
#   5 X_WORLD                Barycenter position along world x axis                     [deg]
#   6 Y_WORLD                Barycenter position along world y axis                     [deg]
#   7 A_WORLD                Profile RMS along major axis (world units)                 [deg]
#   8 B_WORLD                Profile RMS along minor axis (world units)                 [deg]
#   9 THETA_WORLD            Position angle (CCW/world-x)                               [deg]
#  10 FWHM_WORLD             FWHM assuming a gaussian core                              [deg]
#  11 ELONGATION             A_IMAGE/B_IMAGE                                           
#  12 ELLIPTICITY            1 - B_IMAGE/A_IMAGE                                       
         1 -13.3524    229.0649     24.6924   6.1860450186e+00   2.5266413143e+01    0.8498313    0.7037676 -44.18  0.004801984    1.079    0.073
         2 -10.7756     76.0408    244.2044   8.1216368075e+01   1.5366560117e+01     0.153073    0.1309405  57.36 0.0002841093    1.135    0.119
         3 -13.1099    113.4457    243.2175   7.3787542394e+01   1.0695144164e+01     1.192263    0.5847091  58.06  0.005842325    2.757    0.637
         4 -11.9461    100.2645    247.4770   7.6771580085e+01   1.1768212572e+01    0.6285204    0.3740882 -75.46  0.003834381    2.314    0.568
         5 -11.5889    102.9702    238.7161   7.5421113016e+01   1.2821760250e+01    0.3872994    0.2192479 -56.78   0.00196355    2.173    0.540
         6 -15.0011    128.0674    231.4514   6.9584984825e+01   1.0539506647e+01     1.913598     1.711712  62.51   0.01369467    1.280    0.219
         7 -13.9664    113.0936    229.2257   7.2387661860e+01   1.3015747631e+01     1.708508    0.7978999  39.48   0.00890656    1.704    0.413
         8 -10.6865     89.8241    222.8718   7.6575163936e+01   1.7320635083e+01    0.2420116    0.1778589  83.96 0.0007236538    1.561    0.359
         9 -18.7481     13.5393    192.3497   9.0858792743e+01   3.2132668206e+01     12.20355     2.916385 -81.07   0.04708778    3.991    0.749
        10  -8.9614    198.2901    216.6376   5.3735685210e+01   2.5500784011e+00    0.1044812   0.09642229  58.33 0.0007026317    1.697    0.411
        11  -9.4542     51.0000    200.9989   8.3071922338e+01   2.6489735376e+01    0.1770787   0.06560957 -72.67 0.0003879895    2.791    0.642
        12 -10.6203     37.2235    199.4244   8.6033938696e+01   2.8344437674e+01    0.2461714    0.1657466  48.64  0.001123499    1.246    0.197
        13 -11.6325     37.7301    191.5484   8.5359852754e+01   2.9961715926e+01     0.597096     0.319329 -68.47  0.003279676    1.866    0.464
        14 -12.6126     82.7804    193.7719   7.5051175314e+01   2.3958501001e+01     0.446804    0.3111458  64.16 0.0009762521    1.449    0.310
        15  -9.5659     69.0086    195.4663   7.8451456986e+01   2.5444723121e+01    0.3701586    0.1703214 -68.03  0.001767019    2.296    0.564
        16 -13.0389     52.4710    186.9304   8.1523913146e+01   2.9318479754e+01     1.179787    0.4602707  74.91  0.003713527    5.282    0.811
        17 -12.5881     49.0122    182.9885   8.1994787481e+01   3.0589865215e+01    0.4983842    0.3361754  66.72  0.001129124    1.369    0.270
        18 -10.7858     51.0278    247.6506   8.6235619967e+01   1.7718507453e+01    0.1715875    0.1031049  59.28 0.0007903248    1.373    0.272
        19 -11.6706     30.7927    186.5766   8.6609299677e+01   3.1756236392e+01    0.4472107     0.219051  52.58  0.001573526    1.758    0.431
        20  -9.4132     72.2183    186.3418   7.6721137389e+01   2.6973512860e+01    0.1785616    0.1035562  43.21  0.000495129    1.518    0.341
        21  -9.5369    210.9704    198.5376   4.8382927231e+01   3.1959789754e+00    0.1769736    0.1073323  32.09 0.0004612947    1.500    0.334
        22 -11.1390    241.8107    246.5707   5.0820314092e+01  -6.5379536112e+00    0.1827393      0.12898 -17.48 0.0007678622    1.412    0.292
        23  -9.4897     78.4050    183.3209   7.4868038116e+01   2.6792865439e+01    0.1771139    0.1219975 -85.37 0.0009444434    1.593    0.372
        24  -9.7531    121.3201    182.3222   6.4375233460e+01   2.0481379216e+01    0.1368001    0.1060654  -5.65 0.0007044771    1.672    0.402
        25 -10.6917     96.8610    180.0894   6.9926029066e+01   2.4816289855e+01    0.2740649    0.1823306 -74.13 0.0004557312    1.738    0.425
        26 -10.1873     96.8415    175.8960   6.9331024735e+01   2.5727002437e+01    0.2059789    0.1911284  61.64 0.0003695649    1.029    0.028
        27  -9.7533     62.9152    181.1888   7.8424020521e+01   2.9313060100e+01    0.2002337    0.1485256  60.89 0.0006003949    1.228    0.186
        28 -10.7861    173.2712    177.9015   5.1987548986e+01   1.2473399547e+01    0.2904292    0.2155885  63.90   0.00147511    2.012    0.503
        29 -10.3527     75.1791    174.6429   7.4600912973e+01   2.9162459438e+01    0.2281555    0.1745258  88.34 0.0008455187    1.345    0.256
        30 -16.1243     66.6603    138.6013   7.1802884490e+01   3.8905612701e+01     7.815046     3.704294  73.89   0.01835236    5.167    0.806
        31 -10.3921    139.8480    171.8071   5.8248920244e+01   1.9450388021e+01    0.2070401    0.1852498  11.56 0.0004503766    1.123    0.109
        32 -11.1062    178.5694    167.5399   4.8891867657e+01   1.3356057282e+01    0.3395829    0.2341354 -12.57  0.001696043    1.689    0.408
        33 -11.9581    145.2742    245.5785   6.7850965657e+01   6.0036788151e+00    0.3107591    0.1856768 -34.57  0.000841758    2.176    0.541
        34 -10.9012    110.7097    167.0877   6.4484046057e+01   2.5434748130e+01    0.3234333    0.2238314 -88.83  0.001242981    2.010    0.503
        35 -10.4177    101.5207    166.9563   6.6788840606e+01   2.6962722764e+01    0.2031096    0.1388127 -60.28   0.00038446    1.542    0.352
        36 -11.0891     48.6686    166.0710   8.0428882219e+01   3.4494839285e+01    0.3679164    0.2440231  24.95  0.001788588    1.697    0.411
        37 -11.3993     86.9291    161.6055   6.9742735278e+01   3.0449996002e+01      0.24812     0.198498 -77.45  0.001355043    1.291    0.226
        38 -11.2256     90.9364    153.9204   6.7440616346e+01   3.1622633720e+01    0.3897076    0.2653828  80.96  0.001387214    1.881    0.468
        39 -10.8473     84.6603    150.3749   6.8570857982e+01   3.3432366881e+01    0.2381708    0.2317671 -31.14 0.0002867786    1.150    0.130
        40 -11.0329    133.3393    142.9863   5.4156829596e+01   2.6646240257e+01    0.5586308    0.1517415 -52.32  0.001533917    4.459    0.776
        41 -12.2512     91.1384    145.1747   6.5869287753e+01   3.3658192392e+01    0.5948988    0.4133034  -9.47  0.001834293    2.326    0.570
        42 -10.9626    108.8754    145.2375   6.1005569492e+01   3.0654944553e+01    0.2945887    0.2778099 -57.01 0.0006504795    1.084    0.077
        43 -11.6666     80.8063    138.0759   6.7547752170e+01   3.6992312146e+01    0.4168363    0.2427971 -75.39  0.000871621    2.041    0.510
        44  -9.4762    128.4939    138.5206   5.4425985344e+01   2.8552368473e+01    0.1486604    0.1456734  35.71 1.076866e-05    1.011    0.011
        45 -11.7809    104.8455    131.4942   5.9304383570e+01   3.4577765796e+01    0.5698465    0.4565718 -43.86  0.002180694    1.285    0.222
        46 -11.6258     92.0250    132.0033   6.3105161225e+01   3.6679897148e+01    0.2813115    0.2780071  28.53 0.0003385286    1.072    0.067
        47  -9.6456    147.9798    125.9907   4.6645976035e+01   2.7333384029e+01     0.184936    0.1764276  25.91 0.0003755485    1.039    0.037
        48 -10.5110    112.6485    126.0782   5.5902285438e+01   3.4404497077e+01      0.26879    0.2158526   3.45 0.0007578506    1.565    0.361
        49 -10.6420    134.8090    123.4276   4.9309026899e+01   3.0608020088e+01     0.306514    0.1189126 -48.68  0.001024621    2.662    0.624
        50  -9.2278     93.0133    123.0171   6.0922182649e+01   3.8690813461e+01    0.1784476    0.1729659 -77.02  0.000368498    1.004    0.004
        51 -10.1826    100.0269    121.2686   5.8436844434e+01   3.7875738413e+01    0.2591076    0.2059442 -22.70 0.0008660478    1.520    0.342
        52  -9.4803    108.5226    116.0174   5.4697501165e+01   3.7535741514e+01    0.2244841    0.1497258 -50.11 0.0001298447    1.481    0.325
        53 -10.9474    131.6355    102.6322   4.4736944670e+01   3.5784656071e+01    0.3969995    0.2655563 -87.60  0.001394342    2.847    0.649
        54 -11.0553     43.4950    102.0077   7.2982375606e+01   5.1038517817e+01    0.2435671    0.2123831  26.03 0.0003489209    1.284    0.221
        55 -12.3419     43.1950     89.3918   7.0521225614e+01   5.4267789487e+01    0.9317411    0.2492867  45.63  0.002518515    5.896    0.830
        56 -11.0672     36.4137     88.2506   7.2930297148e+01   5.5264867653e+01    0.2452414    0.2135881  59.08 0.0005264677    1.269    0.212
        57 -11.6518     26.7091     87.1153   7.6549044354e+01   5.6433453005e+01    0.2705071    0.2418733  31.45 0.0005842514    1.276    0.216
        58 -10.7447     58.6136     85.8489   6.3706748111e+01   5.3235892768e+01    0.2845948    0.2405749 -86.15 0.0009144872    1.320    0.242
        59  -9.5736     80.1509     71.9858   5.1453830024e+01   5.3047871193e+01    0.3261557    0.2038792   6.66 0.0009770831    2.810    0.644
        60 -11.9107    182.7532     63.5729   2.2229501395e+01   3.0921986537e+01    0.3808899    0.3556526 -46.89 0.0008584085    1.017    0.017
        61 -13.5058    199.8121     51.4401   1.6253996196e+01   2.8600540424e+01     1.182827    0.8624761  34.69  0.004234507    1.697    0.411
        62 -12.3676    205.2451     46.6718   1.4257132168e+01   2.7968765269e+01     0.476441    0.4567599  41.69  0.001349389    1.184    0.155
        63  -9.5777     67.2553     55.5960   5.0665397633e+01   5.8847128429e+01    0.1841831    0.1370924  23.55  0.000409131    1.443    0.307
        64 -11.0830     46.1372    238.5596   8.6644810168e+01   1.9829448754e+01    0.1438158    0.1185555  76.30  0.000139947    1.210    0.174
        65  -9.9478    164.4912    249.1139   6.4644319194e+01   2.9096234284e+00    0.1450717    0.1109366 -32.46  0.001029417    1.586    0.370
        66  99.0000     46.6850    229.3149   8.5985790801e+01   2.1435430522e+01    0.2780014    0.1767158  19.24   0.00167343    2.041    0.510
        67 -10.2805     60.4918     21.4707   3.8296971933e+01   6.6245490095e+01    0.1362567    0.1207394   3.12 -6.76276e-06    1.013    0.013
