#   1 NUMBER                 Running object number                                     
#   2 MAG_AUTO               Kron-like elliptical aperture magnitude                    [mag]
#   3 X_IMAGE                Object position along x                                    [pixel]
#   4 Y_IMAGE                Object position along y                                    [pixel]
#   5 X_WORLD                Barycenter position along world x axis                     [deg]
#   6 Y_WORLD                Barycenter position along world y axis                     [deg]
#   7 A_WORLD                Profile RMS along major axis (world units)                 [deg]
#   8 B_WORLD                Profile RMS along minor axis (world units)                 [deg]
#   9 THETA_WORLD            Position angle (CCW/world-x)                               [deg]
#  10 FWHM_WORLD             FWHM assuming a gaussian core                              [deg]
#  11 ELONGATION             A_IMAGE/B_IMAGE                                           
#  12 ELLIPTICITY            1 - B_IMAGE/A_IMAGE                                       
         1 -13.9228    244.2445    109.6939   2.9177291739e+01   1.0217748154e+01     1.803553    0.9695644 -37.81   0.00883761    1.613    0.380
         2 -13.4070     44.3890     23.1042   4.9964860106e+01   6.8678594347e+01     1.674311    0.8533077 -54.25  0.007246186    2.685    0.628
         3 -11.1034      5.6959     35.4028   7.6605649367e+01   7.0212845130e+01    0.2856748    0.2080915  23.21  0.001816082    1.646    0.392
         4 -10.3250    128.6317     18.2742   2.0528993845e+01   5.1084160825e+01    0.2880158    0.2291316  57.95   0.00113387    1.209    0.173
         5 -11.5473     78.2231     14.0251   3.1163584712e+01   6.3733972747e+01    0.4206121    0.2621286 -11.19  0.002037838    1.791    0.442
         6 -12.1812    156.3123     12.0359   1.3816268574e+01   4.4498436581e+01    0.5276487    0.4454847 -80.96  0.002314794    1.156    0.135
         7 -12.4116    177.6746      4.2075   8.8243491640e+00   3.9692802405e+01    0.6996967    0.4854204 -39.51  0.003722416    1.371    0.270
         8 -12.1948    164.5553     11.9354   1.2741708291e+01   4.2343168118e+01     0.524488    0.3863226 -63.85  0.002500653    1.359    0.264
         9 -12.6731    158.6140      3.8548   1.0701450251e+01   4.4684382827e+01    0.9555948    0.3609495  62.67  0.003778053    2.349    0.574
        10 -12.3449    169.3980      8.9996   1.1209087373e+01   4.1373669436e+01    0.6009509    0.3922064 -38.57  0.003029823    1.469    0.319
        11 -12.5041    169.7937      3.1775   9.2722294442e+00   4.1826406974e+01    0.6194748    0.3678858  82.17  0.002986148    1.638    0.389
        12 -11.2996    227.2006     16.0206   7.9696850065e+00   2.6382141793e+01    0.4456848    0.3086169 -89.34  0.002495446    1.467    0.318
        13 -11.4105    232.2591      9.1887   5.8964325532e+00   2.5974278129e+01    0.4567248    0.3061411 -79.53   0.00262125    1.457    0.314
        14 -10.9583    223.9895      5.5969   5.5367498640e+00   2.8216706094e+01    0.3773721    0.1251882 -48.92  0.001533381    2.548    0.608
        15 -10.4937     70.7852      5.8488   2.9208295552e+01   6.6286406690e+01    0.3842699    0.1738386  52.71  0.001723907    2.094    0.523
        16 -11.2315    206.5294      4.6241   6.5060642709e+00   3.2432095727e+01    0.5239553    0.1742249  75.51  0.002024691    2.953    0.661
        17 -11.3969    141.7178      1.6984   1.2000436074e+01   4.9313388088e+01    0.4189497    0.2324441 -72.25  0.001805944    2.177    0.541
        18 -11.0729    130.9714      3.9297   1.4392916547e+01   5.1929969401e+01    0.6972362    0.1822405  59.41  0.002383951    3.016    0.668
        19 -11.7477     83.9403      3.6124   2.3961136763e+01   6.3613204358e+01    0.7445256    0.3086941  62.02  0.003090032    2.399    0.583
        20 -10.4243     61.3532      1.9994   3.0310759837e+01   6.8655629823e+01    0.3254583     0.167994  31.76  0.001515177    2.101    0.524
        21  -9.8150    192.4057      5.2394   7.8070585059e+00   3.5851004804e+01    0.2006494    0.1092677 -38.28 0.0009572396    1.655    0.396
        22 -10.0438     53.2993    143.6608   7.9031253009e+01   3.9398117313e+01    0.2394134    0.1811434 -75.36  0.001360229    1.203    0.169
        23 -12.5130     10.9408    139.9418   9.0212630685e+01   4.4590777145e+01    0.5012206     0.245424  74.81  0.002523709    1.907    0.476
        24  -9.7520     40.6627    139.3366   8.1986530164e+01   4.1934816488e+01    0.1456732   0.08497157  67.30 0.0007051572    1.751    0.429
        25  -9.1645    139.3477    135.3137   5.4853477989e+01   2.6945198802e+01    0.1516522    0.1188839   0.61  0.000704686    1.718    0.418
        26 -13.5692    240.9982    125.2325   3.3123083423e+01   8.5496607788e+00     1.193699     1.003703  58.09  0.007382139    1.512    0.338
        27 -10.9926    212.5172    112.6874   3.4641129232e+01   1.5927476911e+01    0.5465032    0.2477229 -33.40  0.002254241    2.035    0.508
        28 -11.0294      3.6490    230.1341   9.6136239856e+01   2.6247162237e+01    0.1940576    0.1001648  49.42  0.001338683    1.390    0.281
        29 -11.7081    222.5194    107.4118   3.1784138864e+01   1.4742931427e+01     0.462262     0.290471  38.07  0.002271982    1.819    0.450
        30 -10.9465    154.7043    121.1450   4.7978426906e+01   2.6699064800e+01    0.3048634    0.1802106  36.35  0.001272682    1.885    0.469
        31 -10.4900    156.3759    108.7323   4.4459230486e+01   2.8838176327e+01    0.2849404    0.1942338  61.24   0.00113993    1.681    0.405
        32  -9.9143    107.6545    109.2919   5.6935355514e+01   3.9083498816e+01    0.1570801    0.1182719  80.78 0.0007028191    1.662    0.398
        33 -11.1415     17.3744    104.2330   8.4776049735e+01   5.2864555433e+01    0.4493591    0.2156702  45.81  0.002180896    2.202    0.546
        34 -10.2107     30.8542    101.7012   7.9837880832e+01   5.2344577062e+01    0.2514484    0.1561933 -59.56  0.001317404    1.414    0.293
        35 -10.0433    112.3407     99.8283   5.3144494957e+01   4.0316204779e+01    0.2235978    0.2031405  76.98  0.001158776    1.150    0.130
        36 -10.4018    178.9455     92.6467   3.5444883747e+01   2.6736740655e+01    0.3150646    0.2667778 -71.13  0.001435348    1.331    0.248
        37 -10.7251     12.8569     89.8579   8.4441194031e+01   5.6781679378e+01    0.2014662    0.1531792 -60.03  0.001186523    1.190    0.160
        38 -12.0104    148.5002    109.6457   4.6496092614e+01   3.0402901690e+01    0.5364723    0.3777074 -44.19  0.002481411    1.391    0.281
        39 -12.9986     15.2348     73.1574   8.0812866205e+01   6.0749743537e+01    0.7574332    0.5959243  47.32  0.004712672    1.465    0.317
        40 -12.3509      4.4847     75.4633   8.5589912093e+01   6.0843821658e+01    0.6802191    0.3667516  86.07  0.003458876    1.906    0.475
        41 -11.0858      2.4241     88.6274   8.8093501265e+01   5.7719343130e+01    0.3036949    0.2435271  73.95  0.001987285    1.233    0.189
        42 -11.2366      2.7471     83.5805   8.7366172870e+01   5.8944377752e+01    0.3842352    0.1747861 -68.18  0.001331042    1.686    0.407
        43 -10.7745    191.8139     86.9297   3.1549967873e+01   2.4749584647e+01    0.6098884    0.2490643  55.68  0.002248186    2.612    0.617
        44 -12.3817     42.6055     81.0040   7.1496957688e+01   5.6300479090e+01    0.9942958    0.7127068  -9.16  0.005120357    1.910    0.477
        45  -9.9677    145.0688     81.0712   3.9218177923e+01   3.6943232039e+01    0.2586007    0.1921763 -74.55  0.001137465    1.715    0.417
        46  -9.8305    215.2666     79.7564   2.5952962992e+01   2.0594537610e+01    0.2755634    0.1617771 -37.04  0.001284125    1.501    0.334
        47 -10.2513    220.6822     77.6174   2.4644699021e+01   1.9731530949e+01    0.3211382    0.1690475 -56.61  0.001310444    2.407    0.585
        48 -10.4187    169.7326     76.1947   3.2529272555e+01   3.1862305206e+01    0.3292112    0.2885714 -43.92  0.001704446    1.087    0.080
        49 -11.2835      4.3975    124.5293   9.0856917999e+01   4.8782453273e+01    0.2793503    0.1671006  71.87  0.001485179    1.496    0.332
        50 -10.3064     74.4889     69.6303   5.6206474749e+01   5.4420107939e+01    0.2798455    0.1832624  43.00  0.001182573    1.646    0.392
        51 -11.9096    214.4016     67.7445   2.2919840037e+01   2.2607180953e+01    0.4115002     0.254163 -41.12  0.001982671    1.437    0.304
        52 -10.2673    179.5614     66.3683   2.7827848149e+01   3.1109066204e+01    0.2817177    0.2507249  84.97  0.001493161    1.184    0.156
        53 -10.7867     25.4592     64.7682   7.4647667696e+01   6.1986470310e+01    0.3217419    0.2215706 -75.99  0.001632731    1.415    0.293
        54 -12.2671     10.3607    121.8970   8.8887486714e+01   4.9006244447e+01    0.4031954    0.2184746  57.09  0.002143165    1.808    0.447
        55 -10.0256    200.0234     63.6783   2.3821278257e+01   2.6563036516e+01       0.2021    0.1942513 -81.33 0.0009954737    1.087    0.080
        56 -11.0648    209.4469     59.8080   2.1447348643e+01   2.4915768281e+01    0.5629342    0.1873461 -39.75  0.002026247    2.542    0.607
        57  -9.3348    132.4525     63.5110   3.6563022588e+01   4.3307135513e+01    0.1539155    0.1493076 -50.32 0.0001376021    1.004    0.004
        58 -10.7673    218.8310     61.8382   2.0783209344e+01   2.2466787843e+01     0.214119    0.1899892 -11.63  0.001200256    1.229    0.186
        59 -11.9562    189.2652    115.7287   3.9484096402e+01   2.0281090486e+01    0.8138759    0.4696665 -13.54  0.003039004    2.827    0.646
        60 -11.6718    199.1140     52.2869   2.0735492299e+01   2.8463896264e+01    0.4334863    0.3025105 -25.63  0.002124554    1.442    0.307
        61 -11.8678    214.9194     51.0129   1.8377628313e+01   2.4887238454e+01    0.3921339    0.3353772  26.14  0.002209495    1.431    0.301
        62  -9.7822     35.2771     52.9319   6.6851721699e+01   6.3789790441e+01    0.1980569    0.1586042 -50.53  0.001168151    1.072    0.067
        63 -11.1190     85.2674     48.0471   4.4472888410e+01   5.6874627274e+01    0.4426656    0.3453698  45.94  0.002293816    1.342    0.255
        64 -10.3406    164.9573     53.5185   2.6426889519e+01   3.6829104167e+01    0.2913105    0.2211269  -9.19  0.001268456    1.591    0.371
        65 -10.0150    178.5013     47.8380   2.2390834358e+01   3.4232650204e+01     0.292069    0.1756382 -82.79  0.001172824    2.291    0.564
        66 -11.6431     81.4278     39.4852   4.2231248029e+01   5.9214307742e+01    0.7325984      0.33548 -43.86  0.002946772    2.186    0.542
        67 -11.5841      3.5432     41.4042   7.9452574039e+01   6.8980198980e+01    0.3955393    0.3731801  50.57  0.002872951    1.312    0.238
        68 -11.9357     40.1122     29.4536   5.5256848149e+01   6.8134200121e+01    0.5202627    0.2780609 -43.02   0.00222129    1.653    0.395
        69 -11.5789    248.7939    224.4595   5.0640808125e+01  -5.1757748326e+00    0.3951062    0.2198681 -22.34  0.002623487    1.688    0.408
        70  -9.7860     31.9858    227.5049   9.0869272862e+01   2.3912716823e+01    0.1249669    0.0947912   2.85 0.0008087834    2.414    0.586
        71 -10.7699    190.4992     35.9945   1.7118110497e+01   3.2827815523e+01    0.3021766    0.1891132 -47.00  0.001428994    1.495    0.331
        72  -9.7982     90.2097     28.3614   3.4334319850e+01   5.9143364420e+01    0.2025211    0.1792874  -2.07 0.0009749121    1.126    0.112
        73 -10.0106     67.4657     28.4860   4.2400952624e+01   6.3828860559e+01    0.1374549    0.1256181 -11.74 0.0001014556    1.009    0.009
        74 -10.0477    144.6789     27.3272   2.1067918263e+01   4.5815858836e+01    0.2448704    0.1605541 -61.44 0.0009365669    1.751    0.429
        75 -11.1916     75.6077     25.6330   3.7932668690e+01   6.2676594973e+01    0.3242396    0.2314701 -20.44  0.001684704    1.416    0.294
        76 -11.5777    178.2344     23.7877   1.4913810785e+01   3.7471871495e+01    0.4453418    0.4112053 -49.06  0.002580591    1.060    0.057
        77 -11.1485    173.2360     20.7428   1.4565216679e+01   3.9120108063e+01    0.4029854    0.2064373  69.82  0.001587602    1.910    0.476
        78 -10.0462    198.3063     34.6481   1.5775087581e+01   3.1055831328e+01     0.157119   0.09384896 -57.44 0.0007042218    1.710    0.415
        79 -10.0993    224.6993     22.6138   9.8622458473e+00   2.6212843345e+01    0.2369635    0.1991406 -50.89   0.00144437    1.019    0.018
        80 -10.0352    187.5011     19.2237   1.2435948641e+01   3.5623044507e+01    0.2631944    0.1943141  78.37  0.001162364    1.340    0.253
        81 -10.9236    158.4333    225.2744   6.6242468741e+01   7.3054114228e+00     0.194803    0.1141499 -40.22  0.001133342    2.062    0.515
        82  -9.7463    116.5095     17.4872   2.2639410282e+01   5.4273112819e+01    0.1403794    0.1372151  58.52 0.0008103873    1.021    0.021
        83 -10.3960    247.3022     15.6750   6.4890960112e+00   2.2014172601e+01    0.2566041    0.1138021 -40.38  0.001265607    1.736    0.424
        84  -9.4834     94.0042     16.7872   2.7795142860e+01   5.9839916103e+01     0.187852    0.1098587  57.91 0.0007674039    1.689    0.408
        85 -12.8914    208.4767    216.2365   5.5897847462e+01   1.1505624556e+00    0.7609199    0.4161881  15.10  0.004059968    2.142    0.533
        86  -9.8852     20.0460     15.4679   5.9691650785e+01   7.3173738166e+01    0.1735694    0.0956653  -4.58 0.0008095374    2.670    0.626
        87 -13.3240    183.3467    217.3216   6.0514796942e+01   4.7007311995e+00    0.6724238    0.3863629  24.19  0.003765908    1.708    0.414
        88 -10.7934     50.5969    218.0555   8.6724672365e+01   2.3569788242e+01    0.2157222    0.1975137  81.50  0.001653999    1.302    0.232
        89 -10.0909     67.5074    217.4901   8.3302847615e+01   2.1601343332e+01    0.1181974   0.09390492  58.08 0.0001194558    1.026    0.026
        90  -9.3405    141.0000    206.5331   6.7082943031e+01   1.2915648624e+01    0.2424018   0.07274137 -51.06 0.0009300078    3.897    0.743
        91 -12.4915    247.4413    184.5108   4.4099987107e+01  -4.9616805717e-01    0.9422572    0.3834051 -41.77  0.004332779    3.132    0.681
        92 -12.5970    244.0542    200.2893   4.7415473254e+01  -1.9112006240e+00    0.7088245     0.544579 -12.47  0.004329215    1.167    0.143
        93 -10.2920    202.9884    197.2856   5.3771835712e+01   4.4773905791e+00    0.1783946    0.1429745  21.29  0.001047764    1.073    0.068
        94 -11.6162    195.9719    185.3429   5.2961854542e+01   7.3303266579e+00    0.3255682    0.3041597  86.15  0.002126763    1.525    0.344
        95 -10.0857     37.2258    185.6009   8.7224207822e+01   3.1642847668e+01    0.1547073    0.1137499  24.11 0.0009531681    1.719    0.418
        96 -10.0409     26.4924    180.4905   8.9271758488e+01   3.3880422562e+01    0.1227713   0.09419551  71.41  0.000300525    1.015    0.015
        97 -11.4095    247.2713    192.6144   4.5578964157e+01  -1.4492390287e+00    0.4035099    0.3081701  28.45   0.00237402    1.336    0.251
        98 -10.9417    172.8540    159.1494   5.2490153828e+01   1.5726470879e+01    0.1988608    0.1622758   1.57  0.001087044    1.345    0.256
        99 -10.8192    219.8734    155.8478   4.3022903634e+01   7.7287493040e+00    0.3208927    0.2053807  59.70  0.001577299    2.370    0.578
       100 -10.0615     20.8278    155.6736   8.8840520162e+01   4.0028273009e+01    0.1670397    0.1623994 -37.65  0.001187367    1.407    0.289
       101 -11.1922    163.0927    152.3321   5.3141965590e+01   1.8840210640e+01    0.3475191    0.2856691 -24.27  0.001888268    1.296    0.229
