#   1 NUMBER                 Running object number                                     
#   2 MAG_AUTO               Kron-like elliptical aperture magnitude                    [mag]
#   3 X_IMAGE                Object position along x                                    [pixel]
#   4 Y_IMAGE                Object position along y                                    [pixel]
#   5 X_WORLD                Barycenter position along world x axis                     [deg]
#   6 Y_WORLD                Barycenter position along world y axis                     [deg]
#   7 A_WORLD                Profile RMS along major axis (world units)                 [deg]
#   8 B_WORLD                Profile RMS along minor axis (world units)                 [deg]
#   9 THETA_WORLD            Position angle (CCW/world-x)                               [deg]
#  10 FWHM_WORLD             FWHM assuming a gaussian core                              [deg]
#  11 ELONGATION             A_IMAGE/B_IMAGE                                           
#  12 ELLIPTICITY            1 - B_IMAGE/A_IMAGE                                       
         1 -14.6709      3.6407    122.2386   1.4162031766e+02   4.9261200175e+01      4.53477          nan -67.92   0.01061212    9.037    0.889
         2 -13.6299    200.0791     27.4313   6.7610118754e+01   3.2092780652e+01     1.483859     1.330085  30.22  0.006185536    1.388    0.280
         3 -13.6429    216.0780      8.2416   6.1216552432e+01   3.0465927166e+01    0.9805441    0.7461691  72.26  0.002782585    1.202    0.168
         4 -10.9296      2.0136      3.7051   1.1342186784e+02   7.1770342645e+01    0.3019566    0.1122152 -41.44  0.001760316    2.209    0.547
         5 -10.4822     81.8446    249.2823   1.3900907783e+02   1.3005841801e+01    0.2037196    0.1171066  60.26  0.001143017    1.453    0.312
         6 -12.0322    244.9276    248.2184   1.0896936583e+02  -1.3226527378e+01    0.4536547    0.3412471  -6.82  0.003114278    1.234    0.190
         7 -12.1451    237.7461    247.8932   1.1017565460e+02  -1.2130045084e+01    0.4001566    0.2877411   1.98  0.002613836    1.322    0.244
         8 -12.9672     44.7778    215.7775   1.4261757417e+02   2.4618905070e+01    0.8352613    0.4879451  73.81  0.003877389    1.538    0.350
         9 -11.4160     50.5089    235.0980   1.4324456647e+02   2.0014562654e+01     0.262831     0.179084 -86.66  0.001149565    1.267    0.210
        10 -13.6572    150.1095    248.6169   1.2644600723e+02   2.1491465223e+00     1.744646    0.3045645  43.21   0.00533444    4.626    0.784
        11 -11.8508    103.4867    230.2177   1.3298999561e+02   1.3259001794e+01    0.6075135      0.10382  44.80  0.001880416    4.560    0.781
        12 -11.3429     88.6136    226.6297   1.3543310363e+02   1.6307030744e+01    0.4032341    0.1284736  46.83    0.0016658    2.670    0.625
        13  -9.6812    174.9833    223.4978   1.1790116201e+02   1.9830109626e+00    0.1875725    0.1062765  60.51 0.0005638879    2.412    0.585
        14  -8.7056    152.5162    213.0584   1.2073116730e+02   8.0140668121e+00     0.181192     0.137418 -54.46  0.000377039    1.457    0.314
        15 -10.6577     58.1009    212.6727   1.3980772734e+02   2.3559104743e+01    0.2208833    0.1461095  88.74   0.00132329    1.339    0.253
        16 -12.6672      9.5258    207.2534   1.4831239197e+02   3.0254856947e+01    0.6525522    0.5494177  26.59  0.002977394    1.839    0.456
        17 -11.0877     53.9756    204.9032   1.3981854108e+02   2.5750623582e+01    0.3633707    0.1788137  53.83  0.001890191    1.881    0.468
        18 -12.0792     56.9341    199.7887   1.3868760011e+02   2.6471810798e+01     0.266739    0.2243059 -81.62 0.0004976294    1.164    0.141
        19 -14.5795     13.8159    243.5262   1.4987816700e+02   2.2720277694e+01     2.757929      1.28356  48.77   0.01781022    1.825    0.452
        20 -11.0894      7.4668    193.1953   1.4767514100e+02   3.3374878493e+01    0.2697499    0.1545811  64.86 0.0009608777    1.551    0.355
        21 -12.2484     63.7481    191.1773   1.3629182775e+02   2.7461553235e+01    0.2617935    0.2247782 -80.29 0.0004013765    1.144    0.126
        22 -13.1974     60.9269    176.3619   1.3502964400e+02   3.1199984889e+01    0.5096357    0.2665721 -48.03  0.001725402    2.284    0.562
        23 -10.9944     74.8065    177.8914   1.3213032612e+02   2.8920367097e+01    0.2497016    0.2118242 -79.83 0.0003342775    1.066    0.062
        24 -11.9173     11.6393    121.0700   1.3941061193e+02   4.8980810185e+01    0.4743878    0.2360663  55.23  0.002448509    2.655    0.623
        25 -14.5826      6.4859    153.2261   1.4442422144e+02   4.2160175763e+01     2.603684    0.7691708 -72.51   0.01149981    2.594    0.614
        26 -14.7629     32.7794    229.2454   1.4585209981e+02   2.3336914802e+01    0.9553584    0.8111861 -64.64   0.00716934    1.602    0.376
        27 -12.0225     84.1435    151.9676   1.2575104450e+02   3.3598072243e+01    0.3063258    0.2418077 -48.64 0.0006014848    1.312    0.238
        28 -12.1071     67.5495    143.4148   1.2842487996e+02   3.8042150182e+01    0.6448683    0.4121265  67.67  0.002315806    1.928    0.481
        29 -10.4578    108.4829    137.5230   1.1668162742e+02   3.2905689164e+01    0.4895633    0.3503116 -12.09  0.001699366    2.279    0.561
        30 -10.7464     95.1924    135.1109   1.1962255379e+02   3.5805730343e+01    0.2410934    0.2284404 -41.58 0.0003197221    1.131    0.115
        31  -9.6551    115.4387    129.2216   1.1301053670e+02   3.3531563780e+01    0.4616838    0.2735541 -18.41  0.001454335    4.052    0.753
        32  -9.7570     25.8356    128.6314   1.3680204344e+02   4.6146108602e+01    0.1597221    0.1056517  47.05 0.0009465163    1.755    0.430
        33  -9.3587    105.8747    124.1082   1.1433406448e+02   3.6498455480e+01    0.2073503    0.1894081 -86.70 0.0002752833    1.136    0.119
        34  -8.4179     68.6482    114.7470   1.2251350924e+02   4.4610529295e+01    0.1335139    0.1018225 -22.47 0.0002765172    1.598    0.374
        35  -8.6858     65.2656     80.6641   1.1512044545e+02   5.2496375944e+01    0.1247555     0.103067 -78.04 0.0003754978    1.588    0.370
        36  -9.1791     95.2389    172.6813   1.2664430602e+02   2.6956772311e+01    0.2157034    0.1569977  65.40  0.000606816    1.403    0.287
        37 -10.9218    158.9130     76.6498   8.8221828668e+01   3.4928142096e+01    0.2986958    0.2236692 -46.29 0.0007487555    1.365    0.267
        38 -12.2560     82.9180    168.3263   1.2881943804e+02   2.9929890051e+01    0.7830892    0.6576788 -41.31  0.004471098    1.436    0.304
        39 -10.9641     95.5958    153.1501   1.2311765162e+02   3.1475551464e+01    0.3467074    0.3034549 -43.33 0.0008271296    1.258    0.205
        40 -11.0818    218.6273    248.8236   1.1374800891e+02  -9.3150619240e+00    0.2758611     0.165612  17.84   0.00151133    1.815    0.449
        41  -9.8788     98.8637    148.8326   1.2147213736e+02   3.1944004614e+01    0.2447932    0.2370287 -25.68 0.0004680062    1.197    0.164
        42 -11.6484     98.5724    248.7807   1.3598215510e+02   1.0573639961e+01    0.3371598    0.2673263  21.13  0.002094466    1.947    0.486
