#   1 NUMBER                 Running object number                                     
#   2 MAG_AUTO               Kron-like elliptical aperture magnitude                    [mag]
#   3 X_IMAGE                Object position along x                                    [pixel]
#   4 Y_IMAGE                Object position along y                                    [pixel]
#   5 X_WORLD                Barycenter position along world x axis                     [deg]
#   6 Y_WORLD                Barycenter position along world y axis                     [deg]
#   7 A_WORLD                Profile RMS along major axis (world units)                 [deg]
#   8 B_WORLD                Profile RMS along minor axis (world units)                 [deg]
#   9 THETA_WORLD            Position angle (CCW/world-x)                               [deg]
#  10 FWHM_WORLD             FWHM assuming a gaussian core                              [deg]
#  11 ELONGATION             A_IMAGE/B_IMAGE                                           
#  12 ELLIPTICITY            1 - B_IMAGE/A_IMAGE                                       
         1 -14.9334    190.4735     37.3569   1.8986802501e+01   3.2631069395e+01    0.9642293    0.5997139 -24.86  0.003419951    1.631    0.387
         2 -14.6871    185.4717     36.8434   1.9490565550e+01   3.3976231213e+01    0.9004347    0.5420121 -21.01  0.003317677    1.793    0.442
         3 -11.6209    227.2385      9.5601   7.5948248845e+00   2.6894739875e+01     0.246342    0.2101291 -51.97 0.0007100616    1.032    0.031
         4 -11.5281     86.2376     10.4259   2.8420930002e+01   6.2537841874e+01    0.1838346     0.134087  71.90 0.0006346282    1.614    0.380
         5 -14.8440    190.2454    236.9374   6.3752112781e+01   1.4689591027e+00    0.6127824    0.3058839  29.59  0.003560021    1.699    0.411
         6 -14.7360    182.9599    233.2306   6.4517385459e+01   2.9543285362e+00    0.5625832    0.3501154 -26.52  0.002973402    1.947    0.486
         7 -14.2043    181.0133    248.8533   6.6869592025e+01   1.3413829038e+00     2.143458    0.3890816  35.88    0.0028768    4.935    0.797
         8 -14.0084    179.9088    242.7501   6.6295118873e+01   2.2162537692e+00    0.5661677    0.2088323  33.18  0.002822158    2.297    0.565
         9 -18.9090     74.0204    198.7178   8.1742670284e+01   2.4642265181e+01     6.930426     5.900982 -68.87   0.04285515    1.349    0.259
        10 -13.7940    167.4373    221.5023   6.5711285950e+01   6.7992486202e+00    0.3642438    0.2718345  41.65  0.002023151    1.205    0.170
        11 -14.4370    176.0024    221.0928   6.4083234143e+01   5.5632487452e+00    0.4565254      0.36165  29.43  0.002231749    1.025    0.025
        12 -12.4187    162.1568    200.8682   6.3715337769e+01   1.0708668978e+01    0.2553348    0.1837336 -42.04 0.0008261186    1.593    0.372
        13 -12.6139    192.2510    194.1193   5.6904438415e+01   6.8228052375e+00      0.73171    0.3946689 -61.07  0.002551024    5.844    0.829
        14 -11.7067    180.9496    194.3499   5.9053631100e+01   8.6366110516e+00    0.3236741    0.1824502 -44.86  0.001312167    2.058    0.514
        15 -11.6996    210.7202    198.6277   5.4367424787e+01   3.2793537254e+00    0.2066335    0.1787425  12.42 0.0004722646    1.108    0.097
        16 -11.0956    151.8206    223.0462   6.8831110452e+01   8.9389318665e+00    0.1711257    0.1445792  51.24 0.0006467431    1.223    0.183
        17 -10.6253    237.5301    188.4733   4.8108246409e+01   5.2777014977e-01    0.1197592   0.09562075   3.99 0.0001041385    1.009    0.009
        18 -18.9951     53.5348     73.5065   6.7036625084e+01   5.6774078820e+01     19.22581    0.9649608 -57.54   0.02585033   19.141    0.948
        19 -11.1635     28.4626    171.7304   8.9585173705e+01   3.5784498783e+01    0.2179703    0.1460591 -40.29  0.001090715    2.318    0.569
        20 -12.7943    171.1998    219.1632   6.4690466415e+01   6.5570775322e+00    0.2398417    0.2129719  38.92  0.001214502    1.189    0.159
        21 -13.9614    177.2407    231.5816   6.5305384699e+01   3.9883779599e+00    0.4530591    0.2205542 -28.54  0.001858183    2.929    0.659
        22 -11.0933     11.7380    165.7866   9.3078879997e+01   3.8674276180e+01    0.2101403    0.1433041 -10.28  0.001193567    2.704    0.630
        23 -11.3887    149.9736    235.9987   7.0781360977e+01   7.3565320035e+00    0.1650528    0.1347943  33.34 0.0004271757    1.051    0.049
        24 -10.6426    121.4554    217.3675   7.3990354122e+01   1.4410629883e+01    0.1795349     0.164344  -9.14 0.0006820157    1.384    0.278
        25 -11.5852    152.8669    213.6367   6.7375059537e+01   1.0196401235e+01    0.2620436    0.1728967 -44.37  0.001092895    1.804    0.446
        26 -11.6092     27.0108    146.0670   8.7857389265e+01   4.1810897200e+01     0.192004    0.1507935  77.17 0.0007846353    1.055    0.052
        27 -11.3146    160.0046    131.8070   5.1079023316e+01   2.3541754993e+01     0.223216    0.1988119  -4.29 0.0004992068    1.216    0.177
        28 -12.1305    160.1023    128.2090   5.0218842713e+01   2.4229370921e+01     0.338511    0.2863771 -45.69  0.001773835    1.191    0.160
        29 -12.5347    149.1419    126.0910   5.2189094723e+01   2.6964765572e+01    0.3020642    0.1957045 -40.09   0.00089654    1.571    0.364
        30 -11.4585    163.8313    237.1674   6.8419756696e+01   5.1978868626e+00    0.1523609    0.1131631  19.95 0.0004142119    1.282    0.220
        31 -13.2726    182.6291    213.3604   6.1746444141e+01   5.6175406929e+00    0.2352194    0.1859689  14.94 0.0008249608    1.165    0.141
        32 -11.3815     25.5598    118.6179   8.5417258884e+01   4.8612869669e+01    0.1856471    0.1762987 -63.66 0.0003118816    1.247    0.198
        33 -11.4415    133.0274    208.9866   7.0647556650e+01   1.4042282438e+01    0.6700847    0.4112789 -59.28  0.003781976    2.005    0.501
        34 -11.9931     24.1056    104.7646   8.4112712305e+01   5.2189402319e+01    0.2426911    0.2143636 -56.43 0.0009128952    1.224    0.183
        35 -11.0635     31.2014    101.9609   8.1323595121e+01   5.2252122222e+01    0.2052051    0.1685679 -19.72 0.0006198502    1.578    0.366
        36 -13.2005    124.7596     99.3348   5.1376075021e+01   3.7889778411e+01    0.4838795    0.3654479  33.11   0.00190644    1.492    0.330
        37 -12.1812    119.1580     96.8870   5.2201399561e+01   3.9628683481e+01    0.2405421     0.208484 -78.62 0.0004176111    1.249    0.199
        38 -10.8315     15.1503    100.5935   8.6561702068e+01   5.3938185660e+01    0.2465112    0.1263138   0.52  0.001112337    3.224    0.690
        39 -11.6472     74.6691     86.1369   6.2844006725e+01   5.0601813610e+01    0.2413949    0.1997845  56.84 0.0005613437    1.314    0.239
        40 -12.4994      3.6391     84.4760   8.8632117760e+01   5.8651223627e+01    0.3195276    0.1746465 -27.38  0.001642252    2.459    0.593
        41 -10.4858    123.9430     82.2743   4.6592871282e+01   4.1716367315e+01    0.2100587    0.2033289  66.24 0.0006077175    1.060    0.057
        42 -11.9721     87.3162     81.0919   5.7145534007e+01   4.9577336382e+01    0.5108258    0.2930847  67.89  0.001801349    3.186    0.686
        43 -10.8739    184.3059     77.3219   3.1824567233e+01   2.8150386215e+01    0.1530696    0.1185823  13.49 0.0005899685    1.639    0.390
        44 -14.1072    157.6004     73.1246   3.5705053942e+01   3.5443292389e+01    0.7296674    0.5371578  39.97 0.0009299706    1.491    0.329
        45 -15.2701    170.1211     61.1181   2.9504068993e+01   3.4349500569e+01     1.289157     1.059433 -16.62  0.003962556    1.322    0.243
        46 -13.9384    176.8757     53.7247   2.6025504329e+01   3.3789538122e+01    0.5836136    0.5224786 -26.17 0.0008228684    1.132    0.117
        47 -12.9886      6.7007     75.5950   8.6253336297e+01   6.0659012175e+01    0.2362015    0.1852461 -87.08 0.0005426384    1.148    0.129
        48 -12.2634    133.5428    201.9664   6.9600328742e+01   1.5155523188e+01    0.2599073    0.2533814  44.60 0.0008801491    1.140    0.123
        49 -11.2445     71.2129     65.4126   5.7785392572e+01   5.5976251633e+01    0.1998873    0.1365487  52.07 0.0009496499    1.704    0.413
        50 -12.8318    133.1191    196.8437   6.8971070013e+01   1.6119542427e+01    0.3387722     0.258464 -38.66 0.0005878194    1.576    0.365
        51 -12.3285     17.4994     61.0156   7.8963273236e+01   6.3505021431e+01    0.1916982    0.1657135  87.81 0.0003335428    1.229    0.187
        52 -13.6183     12.4620     59.2440   8.0853577550e+01   6.4273812503e+01    0.4517579    0.2604533  53.30  0.001727314    2.210    0.548
        53 -12.5080      5.1391     60.0665   8.4340801178e+01   6.4501962827e+01     0.203716    0.1384304 -52.41 0.0008733381    1.271    0.213
        54 -13.1500     32.6793     55.3972   7.0565013214e+01   6.3505364417e+01    0.4262681    0.1957342  26.82  0.001411068    2.518    0.603
        55 -11.3757     16.4941     54.5074   7.7881920774e+01   6.5122625740e+01    0.1296201     0.105048 -57.70 -8.502306e-05    1.014    0.013
        56 -11.9415    201.9864     47.6951   2.0543256484e+01   2.8359602296e+01    0.2022806    0.1853551 -76.34 0.0004957644    1.095    0.086
        57 -11.8506    135.7919    227.7343   7.2437716247e+01   1.0631616529e+01    0.2057125    0.1859197 -37.11 0.0005595805    1.381    0.276
        58 -11.0055    126.2249    244.8151   7.6071387606e+01   9.4854896866e+00     0.127895    0.1103864  22.51 0.0003678397    1.288    0.223
        59 -11.5098     41.9999     23.9534   5.3419608143e+01   6.8960247850e+01    0.1960032    0.1698815 -22.02 0.0003620659    1.015    0.014
        60 -12.5904    189.2216     14.9906   1.2327779196e+01   3.5618399170e+01     0.249519    0.2021005  84.08  0.000714606    1.207    0.171
        61 -11.1178    112.3204    240.4239   7.8180483505e+01   1.2058907905e+01    0.1047926   0.08848389  39.61 0.0002773739    1.153    0.133
