#   1 NUMBER                 Running object number                                     
#   2 MAG_AUTO               Kron-like elliptical aperture magnitude                    [mag]
#   3 X_IMAGE                Object position along x                                    [pixel]
#   4 Y_IMAGE                Object position along y                                    [pixel]
#   5 X_WORLD                Barycenter position along world x axis                     [deg]
#   6 Y_WORLD                Barycenter position along world y axis                     [deg]
#   7 A_WORLD                Profile RMS along major axis (world units)                 [deg]
#   8 B_WORLD                Profile RMS along minor axis (world units)                 [deg]
#   9 THETA_WORLD            Position angle (CCW/world-x)                               [deg]
#  10 FWHM_WORLD             FWHM assuming a gaussian core                              [deg]
#  11 ELONGATION             A_IMAGE/B_IMAGE                                           
#  12 ELLIPTICITY            1 - B_IMAGE/A_IMAGE                                       
         1 -10.6335    152.8765     26.7942   7.8216867716e+01   4.3471290421e+01    0.3189455    0.2170329 -57.55  0.001366018    1.862    0.463
         2 -10.9624     84.9911     21.2962   9.2774007632e+01   5.9328691966e+01    0.4905171    0.2585905  -0.58  0.001951599    2.998    0.666
         3 -11.4079     26.1352     13.5455   1.1216119422e+02   6.8978274119e+01    0.2213842    0.1516944 -24.77 0.0003554809    1.138    0.121
         4 -11.4987     26.2067     19.3324   1.1461770597e+02   6.8035627440e+01    0.5788178    0.2659465 -19.97  0.002627322    2.998    0.666
         5 -11.5698     67.2040     21.1891   9.8706674406e+01   6.2451834362e+01    0.3309627    0.2339619   8.64  0.001720195    1.398    0.285
         6 -10.5387    159.8583     18.3881   7.4157290860e+01   4.2654844221e+01    0.2350591    0.2006277  -2.00 0.0004179023    1.246    0.197
         7 -10.0876    104.2762     18.7015   8.6099499208e+01   5.5781351380e+01    0.2767814    0.1504038   0.87  0.001033948    2.511    0.602
         8 -11.2096    130.8141     15.0092   7.8393656982e+01   5.0171745194e+01    0.3408997    0.2869709 -22.97  0.001370307    1.248    0.199
         9 -10.6951    133.4882     11.5097   7.6553798554e+01   4.9883119010e+01    0.2497817    0.2111825  48.05 0.0008194073    1.086    0.079
        10 -10.1906     99.5968     13.3224   8.5123271311e+01   5.7380135499e+01    0.3222352    0.1845664 -33.76  0.001592588    1.845    0.458
        11  -9.2998    175.7375     11.9572   6.9665314989e+01   3.9273068443e+01    0.1648125     0.122332 -18.97 0.0004070624    1.455    0.313
        12 -10.2646    118.8689     10.5848   7.9273726485e+01   5.3418970983e+01    0.3289318    0.1631587 -42.23  0.001407968    2.498    0.600
        13 -12.0228     80.8529      7.0334   8.7761055999e+01   6.1806653458e+01    0.4915852    0.2880165   9.92 0.0006328041    1.903    0.475
        14  -9.8452      8.7927      8.2990   1.1827099306e+02   7.1324130043e+01     0.214688    0.1247435   0.61  0.001113285    1.859    0.462
        15 -11.3457     75.2370      4.8958   8.8535331917e+01   6.3082019075e+01    0.3127927    0.1931743 -11.80 0.0008504796    1.545    0.353
        16 -10.3654    127.1178      5.2532   7.5472843555e+01   5.1990721644e+01    0.2538636    0.1555973 -46.74  0.001155788    2.055    0.513
        17 -10.0414     91.8556      4.6587   8.3488483426e+01   5.9879642990e+01    0.3225488    0.1461885 -30.26  0.001488585    2.235    0.553
        18  -9.6326     60.0714      5.2480   9.3926713598e+01   6.5661574695e+01    0.3287505   0.09169469  43.94  0.001296574    3.464    0.711
        19 -11.8620     26.9262      3.2580   1.0691774172e+02   7.0426164772e+01    0.3812678     0.241327  17.07  0.001735953    1.577    0.366
        20  -9.9593    117.4329      4.1550   7.7048611892e+01   5.4352283950e+01    0.2371745    0.1563971  46.91   0.00125663    1.334    0.250
        21  -9.2011    100.7177      3.6903   8.0741404930e+01   5.8114493332e+01    0.1380387   0.08620346  24.76 0.0004779059    1.566    0.362
        22  -9.4482      5.6550      1.3039   1.1673801447e+02   7.2664793627e+01   0.08917215   0.08452132 -47.90 0.0007040624    1.688    0.408
        23  -9.3618    240.5705    231.4832   1.1133152737e+02  -6.1656762177e+00    0.1173034   0.08686879  17.33  0.000127753    1.030    0.029
        24 -10.0451    243.0156    247.4948   1.1343584622e+02  -8.1493744379e+00    0.1585959    0.1112148  24.59   0.00051114    1.064    0.060
        25 -11.1171    247.7026    249.9132   1.1304931390e+02  -9.0363452003e+00    0.4542968    0.1424648  36.40  0.002248748    2.474    0.596
        26 -10.3515    250.4886    244.0357   1.1170391312e+02  -8.8648939864e+00    0.2917179    0.1529665 -22.28  0.001823361    2.037    0.509
        27 -11.3548    181.5569    247.8826   1.2375545322e+02   1.0051420580e+00    0.5146301    0.2667432 -21.16  0.002495655    3.704    0.730
        28 -10.5790    127.8675    249.5232   1.3314125705e+02   8.9768637731e+00    0.1690807    0.1548986 -82.27 0.0009836442    1.329    0.247
        29  -9.7024     72.8765    250.0319   1.4230514390e+02   1.6471612209e+01    0.1342312    0.1273533   5.40  0.001118581    1.734    0.423
        30 -10.4610     32.3650    249.0718   1.4855004730e+02   2.1335557911e+01    0.2133195     0.153076 -62.60  0.001728687    1.901    0.474
        31 -11.6489     27.9454    246.1118   1.4906263672e+02   2.2271482882e+01    0.3647376    0.1596047 -86.57  0.002375808    2.184    0.542
        32 -12.2516     21.3752    248.9043   1.5017589838e+02   2.2500916442e+01    0.4582939    0.1649082  48.17  0.002971092    2.000    0.500
        33 -11.6093     14.2083    244.3197   1.5102253032e+02   2.3940714499e+01    0.2824629    0.1350044  83.74  0.001936087    1.776    0.437
        34 -10.8578      6.3865    245.2684   1.5220161049e+02   2.4533839484e+01    0.2537952    0.1097864  84.84 0.0009128847    1.972    0.493
        35 -11.7287      8.4796    241.6749   1.5175030755e+02   2.4914123681e+01    0.3487026    0.1465034  71.03  0.002319619    1.940    0.485
        36 -10.8665     11.2824    249.8852   1.5168488251e+02   2.3340294082e+01    0.2303297   0.08103605  59.00  0.001472453    2.075    0.518
        37 -10.0331     79.5133    231.2961   1.3969834004e+02   1.8633047492e+01    0.1982581    0.1220622  47.17 0.0006165504    1.353    0.261
        38  -9.3880    168.2346    250.6230   1.2638023109e+02   2.7187049668e+00    0.1570978   0.08446959  35.36 0.0003645396    1.546    0.353
        39  -9.6155    236.0069    230.3124   1.1190123100e+02  -5.3566756284e+00    0.1646558    0.1181575  22.46 0.0004991857    1.070    0.065
        40 -10.3263    169.9863    228.7269   1.2319651433e+02   5.3582645569e+00    0.1769658    0.1311112  38.89  0.001024913    1.092    0.084
        41 -11.1760    144.6420    227.5906   1.2764664120e+02   9.6275235223e+00    0.2650368    0.1759795 -73.37  0.001226706    2.215    0.548
        42 -10.9293    116.3795    229.2038   1.3296919518e+02   1.3764970211e+01    0.2154955    0.1070113 -67.66  0.001122303    2.693    0.629
        43  -9.3226     93.6713    229.3347   1.3704028270e+02   1.7036689416e+01     0.120444   0.07064053  66.51 0.0007051943    1.723    0.420
        44 -10.1836    178.3139    228.3246   1.2163937237e+02   4.0534854788e+00    0.1206454   0.08381812  15.43  0.000704186    1.663    0.399
        45 -10.2529     86.3189    233.4884   1.3871495302e+02   1.7359887280e+01    0.1920185    0.1148233  81.06  0.001178155    1.887    0.470
        46 -10.4880    129.8442    226.8662   1.3025693735e+02   1.2077340092e+01    0.3609843    0.1647637  54.58  0.001761309    2.256    0.557
        47 -10.3719    190.5109    226.4625   1.1917895949e+02   2.3069137732e+00    0.2075694     0.179312  17.81 0.0006858093    1.121    0.108
        48  -9.5153    140.1797    227.3479   1.2842988621e+02   1.0375662013e+01     0.174169   0.08996584  48.36 0.0009351558    1.643    0.391
        49 -10.4622     88.0979    227.1290   1.3781597175e+02   1.8177945876e+01    0.1604984    0.1452385  47.93  0.001225462    1.302    0.232
        50 -10.7931     66.5150    226.5720   1.4154814492e+02   2.1108949752e+01    0.2664233    0.1486273  48.41  0.001336611    1.473    0.321
        51  -9.8187      6.6916    227.3199   1.5139545450e+02   2.7458633172e+01    0.1046729   0.04917825  66.41 0.0005407775    1.640    0.390
        52 -10.5832     81.4766    224.7668   1.3876978291e+02   1.9478382227e+01    0.2178757    0.1649635  71.74 0.0008268227    1.137    0.120
        53  -9.8196     25.0211    226.0000   1.4844522214e+02   2.5915719706e+01    0.1494144   0.04865975  37.46 0.0007967126    2.903    0.656
        54 -10.2121    181.7782    222.7777   1.2019939916e+02   4.2460540576e+00    0.2652013    0.1466608 -33.12  0.001431345    2.252    0.556
        55 -10.8745     13.1246    222.1872   1.5014521289e+02   2.7741781856e+01    0.1631195    0.1298902  85.58 0.0003464429    1.242    0.195
        56 -11.4992    141.5270    221.3071   1.2740572068e+02   1.1100115472e+01     0.518455    0.3151909  14.51  0.002361012    3.269    0.694
        57  -9.2064    134.8904    223.0000   1.2885361911e+02   1.1895685367e+01    0.1979044   0.05781395  41.65 0.0007883586    2.846    0.649
        58 -11.0654    123.3997    221.4402   1.3078822677e+02   1.3953687147e+01    0.2667049    0.1986461  44.43 0.0009772785    1.152    0.132
        59  -9.1320     51.6731    222.6793   1.4380027092e+02   2.3585177802e+01   0.09018898   0.08348128 -45.28 0.0005158521    1.684    0.406
        60 -10.2237    165.7486    220.5862   1.2281406557e+02   7.2281532390e+00    0.1961328    0.1466157 -26.99  0.000530335    1.674    0.403
        61 -10.5679    174.2880    219.8157   1.2112655280e+02   5.9141727429e+00    0.2477133    0.1739565  23.23 0.0007837916    1.462    0.316
        62  -9.9494     21.9758    220.2583   1.4861594359e+02   2.7221523160e+01    0.1375787   0.09943579  65.97 0.0003620812    1.090    0.083
        63  -9.8003    250.3062    219.0879   1.0766031377e+02  -6.2804930801e+00    0.1623622    0.1244383   3.91  0.000669412    1.107    0.096
        64  -8.8717    233.6706    219.3247   1.1048383822e+02  -3.7609367473e+00    0.1041264   0.09435215  57.08 0.0007050157    1.700    0.412
        65 -10.9395    192.5467    216.4514   1.1726387303e+02   3.3184826797e+00     0.365848    0.2308291  12.15  0.001937967    2.035    0.509
        66  -9.6992     49.8467    218.3715   1.4379402783e+02   2.4560316974e+01    0.1366198   0.09477658  35.04 0.0005967179    1.705    0.414
        67 -10.6956     10.0575    217.0324   1.5037659002e+02   2.8929965314e+01    0.2665618    0.1381656  62.85  0.001667844    1.496    0.331
        68  -9.9767     24.6056    216.9240   1.4798959265e+02   2.7548917851e+01    0.2203521   0.09008309  54.79  0.001328117    1.971    0.493
        69 -10.7042    201.6433    215.8137   1.1551362900e+02   1.8775463015e+00    0.2311049    0.1702048  22.95  0.001037508    1.203    0.169
        70  -9.3372    179.6647    215.7101   1.1951192595e+02   5.6005368434e+00    0.1259366   0.08697556  17.30 0.0006531919    1.634    0.388
        71  -9.6296    137.1756    215.6340   1.2747115785e+02   1.2715404981e+01    0.1785638    0.1012917  34.85 0.0009434734    1.717    0.418
        72  -9.0687    115.0000    214.9783   1.3158029255e+02   1.6336072531e+01    0.1716614   0.06810663 -57.26 0.0006084753    2.880    0.653
        73  -9.9966     30.9931    215.4698   1.4682744345e+02   2.7155271387e+01    0.1512989   0.08703054  44.44  0.001035965    1.605    0.377
        74 -10.2291    169.9669    213.4414   1.2097004474e+02   7.5830842716e+00    0.2003889    0.1660396  12.91  0.001285001    1.294    0.227
        75 -10.3672    208.9858    212.1693   1.1359147246e+02   1.1313403414e+00    0.1960817    0.1666339   0.75 0.0004530868    1.165    0.141
        76  -9.7588    142.7894    213.4013   1.2610335400e+02   1.2160031757e+01    0.1730557    0.1038733  34.44 0.0005387483    1.608    0.378
        77 -11.1991     20.5462    211.3962   1.4834177404e+02   2.8943802649e+01    0.2744178    0.1338651  74.04 0.0007551385    1.802    0.445
        78  -9.8117    212.6913    211.3885   1.1279703785e+02   6.1383002245e-01    0.2411741    0.1568063 -49.60  0.001129827    2.270    0.559
        79 -10.0331    217.9814    207.5747   1.1120031577e+02   2.2652166146e-01    0.3979267    0.1728136 -18.98  0.001487495    4.221    0.763
        80 -11.5864      5.1639    207.6376   1.5070075030e+02   3.1048801711e+01    0.3933661    0.1630568  86.49  0.002357825    2.121    0.529
        81 -10.1079      1.4944    207.4794   1.5129580463e+02   3.1395391720e+01    0.1858485    0.0767674 -84.53  0.001073566    1.995    0.499
        82 -10.2008     10.6208    208.6897   1.4985127328e+02   3.0370214549e+01    0.1925473    0.1129051 -51.06  0.001026248    2.629    0.620
        83  -9.3254    139.7597    208.0248   1.2593315449e+02   1.3550653230e+01    0.1443025    0.1071261 -54.59  0.000596991    1.561    0.359
        84  -9.8904    206.0000    205.9966   1.1308227563e+02   2.4682287365e+00    0.1860514   0.07123376 -37.22 0.0008011215    2.933    0.659
        85  -9.3823    150.3004    205.3166   1.2349703047e+02   1.2225093615e+01    0.1222645   0.09568309  10.14 0.0004526254    1.616    0.381
        86  -9.3650     27.5530    205.4889   1.4676888069e+02   2.9331270589e+01    0.1083697   0.07804776  74.71  0.000807644    1.051    0.049
        87  -9.5230    238.7820    201.2169   1.0643502688e+02  -2.4043427754e+00    0.1753563    0.1200392  12.78 0.0005394113    1.340    0.254
        88 -10.0772    218.4346    201.4776   1.1004501479e+02   9.5407542518e-01    0.1282161    0.1045412  17.51 0.0001211485    1.022    0.022
        89 -10.9488    210.1362    200.8798   1.1143616531e+02   2.4603244859e+00    0.1852711    0.1709302  43.15 0.0007525895    1.316    0.240
        90  -8.9459     34.6704    200.7210   1.4516857172e+02   2.9490554219e+01   0.09189332   0.08129751 -54.03 0.0002305095    1.600    0.375
        91 -10.8940    227.3380    196.6782   1.0759207258e+02   7.6695455407e-02    0.3061324    0.1917397   4.76 0.0009006382    1.847    0.459
        92 -11.5651    231.8273    191.7811   1.0589081525e+02  -4.0443298846e-02    0.3942528    0.2207957  14.91  0.001881481    2.197    0.545
        93 -11.8430    192.2564    194.9094   1.1370023112e+02   6.4788100718e+00    0.3252198    0.3009892  86.21  0.002070736    1.456    0.313
        94  -9.8039    203.0019    195.9559   1.1186972428e+02   4.4064402953e+00    0.2000533    0.1701848  20.22 0.0006339983    1.017    0.017
        95  -9.8098      7.3573    196.1702   1.4971771662e+02   3.2972126232e+01    0.1503338   0.07263128  87.49 0.0007076068    1.726    0.421
        96 -11.6948    215.4593    193.9974   1.0922482404e+02   2.4882987318e+00    0.3437681    0.1946557 -32.69  0.001580359    1.887    0.470
        97  -9.2849     59.9995    192.7514   1.3972175615e+02   2.8144131866e+01    0.1390318   0.08888868  44.19 0.0002984171    1.497    0.332
        98  -9.7949    198.6295    191.2395   1.1183496549e+02   5.8835468338e+00     0.176828    0.1199136 -22.68 0.0008715704    1.647    0.393
        99 -11.5285    187.4586    189.3464   1.1362321850e+02   8.2051652499e+00     0.353975    0.2150177 -27.05  0.001773826    1.956    0.489
       100 -10.3954    250.3388    190.0315   1.0239131200e+02  -2.8974314692e+00    0.1765978    0.1375166 -10.26 0.0006128205    1.168    0.144
       101  -9.3146    205.5237    190.4480   1.1039744302e+02   4.7587326737e+00    0.1333937    0.1119009  20.07 0.0002130844    1.030    0.029
       102  -9.4400    179.3259    189.3358   1.1520206812e+02   9.6948981393e+00    0.1375683   0.09820952   9.89 0.0007051512    1.719    0.418
       103 -10.3810    163.3366    191.0776   1.1866265554e+02   1.2315535231e+01    0.2489164    0.1199417 -37.20  0.001098067    2.532    0.605
       104 -10.0237    166.5264    183.4895   1.1670520973e+02   1.3024546655e+01     0.197665    0.1199679  50.71 0.0009648683    1.643    0.391
       105  -9.4551     61.6123    184.8148   1.3859522135e+02   2.9518145356e+01    0.1665681   0.09898022 -83.91 0.0009482804    1.672    0.402
       106 -12.3244     17.0701    182.7255   1.4711692989e+02   3.4699163967e+01    0.4046707     0.324019  39.65  0.003146029    1.515    0.340
       107 -11.6646    248.6399    182.7607   1.0127030308e+02  -1.7008038829e+00    0.4515252    0.2281874  15.19  0.001926813    2.831    0.647
       108  -9.9776    142.0054    183.4962   1.2172867901e+02   1.7477534620e+01    0.1935195    0.1128038  21.92 0.0008106194    2.659    0.624
       109  -9.9570    236.2260    182.3859   1.0331827458e+02   4.5745387521e-01    0.1706566    0.1155529  45.85 0.0007898397    1.604    0.377
       110  -9.5478     58.4718    182.4562   1.3898329549e+02   3.0378364008e+01    0.1169924   0.09844068  81.09 0.0002268332    1.035    0.034
       111 -10.5419    188.1828    180.8491   1.1191342710e+02   9.4246843658e+00    0.1910511    0.1493229  12.52 0.0003695844    1.342    0.255
       112 -10.5689      2.3257    180.2596   1.4969304473e+02   3.6440554959e+01    0.2041851    0.1261053  68.08  0.000555949    1.330    0.248
       113 -11.7975    224.1664    178.3439   1.0465716007e+02   3.1502322458e+00    0.3023746    0.2623226  12.71 0.0004999846    1.043    0.041
       114 -11.0714    200.4125    176.2542   1.0866047948e+02   7.8557761367e+00    0.2740541    0.1977639  12.32  0.001097638    1.512    0.339
       115  -9.2677     70.1868    177.6138   1.3602400247e+02   2.9887558888e+01    0.1453142    0.1140859  32.34 0.0004367038    1.512    0.338
       116  -9.7146    211.1657    174.8499   1.0634791482e+02   6.0533290644e+00    0.1953204    0.1471163   6.62 0.0009874596    1.366    0.268
       117 -11.1959     17.8670    173.1821   1.4626683439e+02   3.6533830356e+01    0.2986951    0.1623827  57.25   0.00189365    1.684    0.406
       118 -10.5632    241.6328    173.2127   1.0055872356e+02   7.5868680348e-01    0.1866867    0.1111082 -17.95 0.0009483795    1.713    0.416
       119 -11.9842    244.7186    177.6538   1.0092391377e+02  -3.7231869038e-01     0.332765    0.2057303  -4.61  0.001730356    1.777    0.437
       120 -10.2212    193.3897    172.7719   1.0933382252e+02   9.7481244797e+00    0.1933621    0.1268021 -23.71 0.0009540122    1.723    0.420
       121  -9.7366    183.3324    173.3236   1.1142998889e+02   1.1585801995e+01    0.1438098    0.1028431   9.94 0.0007050446    1.705    0.413
       122  -9.5669     59.6283    171.8201   1.3757904643e+02   3.2420976690e+01    0.1725209    0.1009228 -81.82 0.0009460734    1.694    0.410
       123  -9.7686     74.6472    171.4396   1.3431182920e+02   3.0571401278e+01    0.1479727     0.119161  33.28 0.0009209043    1.445    0.308
       124 -10.4586    196.9959    169.2508   1.0792668323e+02   9.6272961857e+00    0.1859722     0.110387  42.27 0.0006340652    1.574    0.365
       125  -9.9604      4.5818    167.7605   1.4847287909e+02   3.8741935747e+01    0.2096368   0.07795617 -73.26  0.001144539    2.106    0.525
       126 -10.0359    209.9751    166.3341   1.0484402981e+02   7.5913500901e+00    0.1982005    0.1642306  26.19 0.0004707215    1.099    0.090
       127 -10.5577     41.1593    165.5802   1.4082717734e+02   3.5835839241e+01    0.1932401     0.131847 -89.20 0.0004050422    1.282    0.220
       128  -9.2414     21.6323    166.7026   1.4499684511e+02   3.7519323734e+01    0.1043156   0.07759254 -48.48 0.0007030953    1.728    0.421
       129 -10.6176     51.6992    164.3445   1.3842839182e+02   3.4932486933e+01    0.3576804    0.2210048 -32.20  0.001785982    2.982    0.665
       130  -9.2067    229.5140    164.5310   1.0088978267e+02   4.1702076572e+00    0.1377109    0.1165764   7.91 0.0001255121    1.031    0.030
       131 -10.7348     36.0551    161.4962   1.4150006685e+02   3.7225955212e+01    0.3440697    0.1626399 -76.12  0.001835871    1.882    0.469
       132  -9.9547    238.3917    158.7695   9.8121389090e+01   3.3639421915e+00     0.189155    0.1171647 -18.08 0.0006620879    1.637    0.389
       133 -11.4257    247.9358    158.9427   9.6540253947e+01   1.6070214275e+00    0.4704611    0.2372492 -36.87  0.002236528    1.999    0.500
       134 -10.3738      8.0055    158.3103   1.4710856099e+02   4.0403864405e+01     0.142341    0.1171013  81.76 0.0004896621    1.124    0.110
       135 -10.7586     23.1632    156.1651   1.4374769091e+02   3.9582709400e+01     0.383738     0.164214  38.75  0.002108022    2.373    0.579
       136  -9.5593     23.7086    152.6594   1.4329820951e+02   4.0277817558e+01    0.1826506     0.130717 -69.57 0.0005606159    1.238    0.192
       137  -9.5589    217.4907    154.6949   1.0097767015e+02   7.9563087766e+00    0.2528049    0.1205553  44.50  0.001079583    2.043    0.511
       138  -9.8904    197.0335    153.5190   1.0462789154e+02   1.2230579128e+01    0.2230234     0.134415  43.78 0.0008034844    1.597    0.374
       139  -9.2389    151.5049    153.0267   1.1405870085e+02   2.1489826436e+01    0.1930336    0.1269294 -72.56 0.0007650533    2.408    0.585
       140 -10.1420    205.4190    152.3488   1.0274175039e+02   1.0733229438e+01    0.2688632    0.1349375 -30.29  0.001126574    2.122    0.529
       141 -10.4991    178.3740    151.4186   1.0795276340e+02   1.6396305961e+01    0.3067964     0.253097  62.20  0.001620005    1.404    0.288
       142  -9.3754    169.3089    152.2901   1.1004587132e+02   1.8079200269e+01    0.1445499    0.1106408   8.98 0.0002857358    1.580    0.367
       143 -10.6627     10.9457    152.7482   1.4605203705e+02   4.1331186016e+01    0.3024719    0.1583896  44.34  0.001479783    1.946    0.486
       144  -9.5923     92.8123    148.1620   1.2670743881e+02   3.2924649441e+01    0.1777115    0.1619202 -23.01  0.001071031    1.338    0.253
       145  -9.4201    233.5230    146.9864   9.6411767705e+01   6.0163124418e+00     0.210356    0.1276049 -29.29 0.0008559776    1.576    0.365
       146 -10.4296    206.9859    145.9834   1.0103377974e+02   1.1466125003e+01     0.269289    0.1957043  42.33  0.000737125    1.351    0.260
       147  -9.2357     37.5163    146.4776   1.3954177854e+02   4.0305768779e+01    0.1200614   0.09821469 -85.71 0.0001864569    1.005    0.005
       148 -10.9006      7.9381    145.4834   1.4608648949e+02   4.3093039789e+01    0.1998123    0.1333668  61.66  0.001180439    1.454    0.312
       149 -11.0253      3.2327    143.8136   1.4697061982e+02   4.3787010416e+01    0.2962589    0.2180822 -18.27  0.002054563    2.178    0.541
       150 -10.6042    212.2543    141.9192   9.9119168186e+01   1.1055145016e+01    0.4267319    0.2644664  29.85  0.001971035    1.729    0.422
       151 -10.0615     37.4547    142.0335   1.3902775550e+02   4.1284106140e+01    0.1754312    0.1510209  59.49 0.0008425396    1.232    0.188
       152 -11.3544     13.0262    140.8260   1.4453904862e+02   4.3698953151e+01    0.3126746    0.2046063 -13.47  0.001862797    2.729    0.634
       153  -9.7383    235.8867    138.8279   9.4180830395e+01   6.7863514990e+00    0.1743622    0.1690504 -50.12 0.0008863771    1.294    0.227
       154 -11.9778     57.7798    138.5811   1.3366891030e+02   3.9833123431e+01    0.3298161    0.2161144  68.34  0.000549215    1.710    0.415
       155  -9.9833     44.2345    138.2576   1.3692806839e+02   4.1423775737e+01    0.3198504    0.1642419 -82.71  0.001297566    2.108    0.526
       156  -9.9753     41.4722    135.5047   1.3723370854e+02   4.2321075637e+01    0.1728894    0.1398435  60.72 0.0005086732    1.277    0.217
       157 -11.9591      9.1276    136.7966   1.4504457372e+02   4.4857029542e+01    0.2183591    0.1772252 -75.32 0.0002513019    1.131    0.116
       158 -10.9859      2.8335    136.4106   1.4643634269e+02   4.5383074989e+01    0.3159088    0.1198296 -70.24  0.001072674    1.970    0.492
       159 -10.6507      5.7211    133.6558   1.4553287722e+02   4.5773649125e+01    0.1995225    0.1246563 -74.12 0.0005443281    1.239    0.193
       160 -10.5923     21.4899    136.3407   1.4213296886e+02   4.3988873629e+01    0.2034905    0.1402231  39.11   0.00134335    1.651    0.394
       161  -9.8792    138.3521    135.2636   1.1327324483e+02   2.7643054489e+01    0.2708586    0.1758714  31.90 0.0007286313    1.714    0.416
       162  -9.6617     67.5244    134.0407   1.3053304347e+02   3.9638021290e+01    0.1932341     0.115757 -62.11 0.0003415454    1.503    0.335
       163  -9.8736     79.5084    133.0504   1.2733175329e+02   3.8232174984e+01    0.1977361    0.1222306 -60.26 0.0003482248    1.499    0.333
       164 -12.0242     36.2464    130.5997   1.3786990651e+02   4.3929893530e+01     0.420831    0.2583746 -77.46   0.00217679    1.439    0.305
       165 -10.4057    249.6576    130.2909   8.9971973235e+01   5.3785517499e+00    0.2356061    0.2090951 -39.75  0.001410587    1.278    0.218
       166 -10.2657     74.1938    129.1440   1.2798935817e+02   3.9848787696e+01    0.2233226    0.2006678 -55.10 0.0007474583    1.119    0.106
       167  -9.2106     29.3933    130.4996   1.3955191672e+02   4.4588746124e+01    0.1198931   0.09474528 -70.70 8.674512e-05    1.084    0.077
       168 -10.0610    126.5063    129.4859   1.1482581809e+02   3.1147578289e+01    0.1423619    0.1412301 -69.75 0.0001709164    1.006    0.006
       169  -9.4182    243.1329    128.3833   9.0587445217e+01   6.9298732833e+00    0.1709409    0.1344786  59.42  0.000437121    1.585    0.369
       170  -9.2781     60.1939    128.4669   1.3148126889e+02   4.1807924394e+01    0.1645015    0.1156623  52.63 0.0003240044    1.529    0.346
       171 -10.8515     44.4141    125.9025   1.3514235286e+02   4.4162006119e+01    0.1944217    0.1854938   0.33 0.0004174596    1.324    0.244
       172 -10.5289    219.5525    124.5173   9.3716274589e+01   1.2367773438e+01    0.2638607    0.2287961   2.47  0.000568357    1.113    0.102
       173 -10.1537     10.7270    102.5228   1.4080483705e+02   5.2224535269e+01     0.206297    0.1390443  37.48  0.001360264    1.789    0.441
       174 -11.5279     18.9303    114.8898   1.4022647297e+02   4.8913962789e+01    0.4986475    0.1561113 -50.29  0.002085499    3.044    0.671
       175 -12.1797     16.6138    108.5862   1.4001119632e+02   5.0481477688e+01    0.3630286    0.2932156 -77.73 0.0005868595    1.056    0.053
       176  -9.7428     20.6830    121.8632   1.4065565451e+02   4.7234870970e+01    0.1646524    0.1182707 -76.90 0.0004306996    1.121    0.108
       177  -9.4026     56.2403    121.4195   1.3133429952e+02   4.3866957687e+01    0.1695805    0.1141516  49.89 0.0009422218    1.633    0.388
       178 -11.9569      9.9253    122.5300   1.4341957324e+02   4.7889496954e+01    0.4508549    0.3103676 -17.80   0.00289395    2.206    0.547
       179 -10.3565     54.3645    117.6717   1.3119123494e+02   4.4930093917e+01    0.2205569    0.2006455  -4.84  0.001147801    1.363    0.266
       180 -10.0943    179.1861    116.2092   9.9525032225e+01   2.2693385712e+01    0.2267014    0.2008505  13.83 0.0004708106    1.152    0.132
       181 -10.6666     35.2000    113.9539   1.3576228430e+02   4.7751912731e+01    0.3734566    0.1754554 -66.59  0.001887497    1.770    0.435
       182  -9.7424     38.4309    111.4806   1.3449115290e+02   4.8002758376e+01    0.2160797    0.1481625  52.17 7.853689e-05    1.663    0.399
       183 -10.8162     35.4594    109.2459   1.3494945106e+02   4.8784673784e+01     0.263508    0.1073917 -69.24  0.001186549    2.225    0.551
       184 -10.5520    103.1962    113.1888   1.1704502263e+02   3.8915494875e+01    0.2128007    0.1916787 -22.11 0.0004649716    1.201    0.167
       185 -10.0470     66.7950    113.0252   1.2693142374e+02   4.4464780061e+01    0.1889405    0.1590414 -80.30 0.0002508733    1.185    0.156
       186  -9.4261    166.4920    118.9997   1.0296796398e+02   2.4992026284e+01    0.2216372    0.1486187 -36.87 0.0005207027    1.499    0.333
       187 -10.0987     42.4076    110.5902   1.3324619096e+02   4.7812752750e+01    0.2044557    0.1631432 -55.86 0.0004987217    1.136    0.119
       188  -9.8453    167.1626    109.1138   1.0028975694e+02   2.6725273018e+01    0.2389825    0.2055651   4.87 0.0006266495    1.257    0.204
       189 -10.1102    242.1895    108.3740   8.6035604032e+01   1.0126303877e+01     0.184822    0.1376287  64.71 0.0006594037    1.676    0.403
       190 -11.0333     23.4370    106.9026   1.3791265535e+02   5.0338681985e+01    0.2446261    0.1748983 -64.23 0.0006423818    1.126    0.112
       191 -11.1228      4.1509    106.0397   1.4303041265e+02   5.1865182689e+01    0.3134096    0.2815925  37.26   0.00241394    1.421    0.296
       192  -9.3605    133.3132    107.3448   1.0779426861e+02   3.4430420247e+01    0.1555327    0.1187328  -3.36 0.0007046894    1.710    0.415
       193 -10.1131     76.4137    107.0096   1.2299171418e+02   4.4511737343e+01    0.2139427    0.1214405 -55.52 0.0004175375    1.595    0.373
       194  -9.0624     49.6501    107.3288   1.3063959699e+02   4.7790772936e+01    0.1312433   0.09186539  76.78 0.0007048537    1.764    0.433
       195  -9.2566     81.2961    105.3840   1.2125066387e+02   4.4165106821e+01    0.1451231    0.1002009 -28.56 0.0007018056    1.767    0.434
       196  -9.8150    223.3141    103.9489   8.8019962568e+01   1.4859905279e+01    0.2084877    0.1753079 -25.52 0.0004902334    1.119    0.106
       197 -10.0843     92.8171    103.4699   1.1756268533e+02   4.2790860120e+01    0.3925515    0.2350558 -67.02  0.001707747    2.115    0.527
       198 -11.4041     70.3250    102.6537   1.2376926716e+02   4.6327869783e+01    0.3649874    0.2121185  25.56 0.0009777021    2.152    0.535
       199 -10.4066    247.5269    102.4827   8.3809741519e+01   9.8993079903e+00    0.1399878     0.125087 -17.17 0.0001538505    1.005    0.005
       200  -9.8612    120.2073    101.4365   1.0960279773e+02   3.8291727275e+01    0.2484517    0.1999848 -17.36 0.0008112441    1.415    0.293
       201  -9.9746     36.6725    101.3405   1.3327122017e+02   5.0445473420e+01     0.202499    0.1561771  23.68 0.0007012042    1.593    0.372
       202  -9.9860     27.9488    100.9627   1.3572127538e+02   5.1297306046e+01    0.1716934    0.1435074 -66.26  0.001171773    1.035    0.034
       203 -10.3587      4.2154    100.6849   1.4235911583e+02   5.3030347266e+01     0.262012    0.1542489  40.92  0.001172666    2.027    0.507
       204 -11.1581     21.0090     98.5326   1.3732758495e+02   5.2386060980e+01    0.3448788    0.1933704 -83.61 0.0009883172    1.866    0.464
       205 -10.4822     65.8445     98.3518   1.2411911637e+02   4.7879607049e+01    0.2508434    0.1874612   8.24 0.0006827448    1.744    0.427
       206 -10.4447     61.9815     98.5034   1.2529162849e+02   4.8336567600e+01    0.2513694    0.1928156 -20.46  0.001418564    1.588    0.370
       207  -9.1013     49.6524     98.2980   1.2889418233e+02   4.9819609664e+01    0.1269624   0.09398773  76.73 0.0007035421    1.680    0.405
       208 -10.0801     92.6050     96.7498   1.1594969579e+02   4.4288735397e+01    0.2866018    0.1248435 -46.46  0.001141481    2.125    0.529
       209 -10.5791     79.9880     96.6820   1.1957625670e+02   4.6282523039e+01    0.1783065    0.1755872 -52.15 0.0002617837    1.086    0.079
       210 -12.4447      8.6041     94.4312   1.4028876765e+02   5.4135265575e+01    0.3477633     0.178924 -55.67  0.002045835    1.550    0.355
       211 -10.8110      1.8761     93.0827   1.4203414945e+02   5.4818806150e+01    0.3503235   0.09925362 -57.48  0.001655276    2.415    0.586
       212 -10.6425    109.5106     92.6842   1.1012111106e+02   4.2170591429e+01    0.3175193    0.1385727 -45.27  0.001215643    2.182    0.542
       213  -9.2301     31.2930     93.6692   1.3348073743e+02   5.2639173506e+01      0.12032   0.08658838  82.84 0.0004359178    1.631    0.387
       214  -9.1223    138.2348     92.3494   1.0249159430e+02   3.6402782042e+01    0.1512456    0.1161746  -9.30 0.0003261017    1.564    0.361
       215  -9.4943    115.6784     91.2840   1.0804737502e+02   4.1279488628e+01    0.1435529    0.1185927 -89.72 0.0004074416    1.593    0.372
       216 -10.7067     96.4943     90.4701   1.1318179978e+02   4.4977483035e+01    0.3260435    0.2138821 -11.68  0.001380919    2.407    0.584
       217  -9.2345     21.2911     91.3649   1.3607841123e+02   5.3951358576e+01    0.1278503    0.0703192 -45.30  0.000702665    1.706    0.414
       218  -8.8620    184.7071     90.3960   9.1544338817e+01   2.6039696423e+01    0.1609291    0.1177831 -64.36 8.797696e-05    1.791    0.442
       219 -10.5512     77.2129     89.6245   1.1863711546e+02   4.8232047217e+01    0.2504538    0.2055402  32.82  0.001433359    1.348    0.258
       220 -11.2885     67.4925     85.5092   1.2055780782e+02   5.0487354332e+01    0.3222944    0.2295009 -74.82  0.001674998    1.747    0.428
       221 -11.3868     47.0190     84.2158   1.2668179650e+02   5.3224133242e+01    0.5759187    0.3646447 -69.43  0.002359984    1.638    0.390
       222  -9.6836     24.0047     85.4666   1.3420228983e+02   5.5045697917e+01    0.1526438    0.1217129  14.98  0.001023216    1.574    0.365
       223 -10.9176    118.1657     83.1938   1.0504452337e+02   4.2417237578e+01      0.31844    0.2545378   0.68   0.00107186    1.465    0.317
       224 -10.9702     85.7041     82.5115   1.1416961760e+02   4.8449216258e+01    0.4336932    0.2094298 -49.05  0.001336918    1.918    0.479
       225 -11.4535     23.8961     78.0752   1.3280863890e+02   5.6669144423e+01    0.2404239    0.1398803 -57.21 0.0007571065    1.336    0.251
       226 -11.3702     75.4077     81.7537   1.1711392311e+02   5.0185887530e+01    0.3876443    0.1713948 -50.46  0.001639817    2.037    0.509
       227 -11.3347     77.8623     72.0388   1.1357799804e+02   5.1844216762e+01    0.4303384    0.3327704  51.87 0.0007306672    1.586    0.370
       228 -11.1013     71.7789     79.1555   1.1754017952e+02   5.1258532847e+01    0.3182859    0.2316779 -19.44 0.0006913803    1.597    0.374
       229 -10.6362     74.4225     76.4764   1.1595848977e+02   5.1441598172e+01    0.2484411    0.1774769 -47.10 0.0005210224    1.256    0.204
       230  -9.2368    130.3169     82.3352   1.0158084976e+02   4.0055599722e+01    0.1571571    0.1176091   2.98 0.0007048101    1.696    0.410
       231 -11.0314      2.9767     78.7359   1.3962817308e+02   5.7866367661e+01    0.3884635    0.1623155  31.73  0.002114636    2.901    0.655
       232 -11.8801      5.8569     74.1127   1.3794309097e+02   5.8705464425e+01    0.4847052    0.3776739  15.19  0.003333578    1.656    0.396
       233 -10.0854    100.7702     78.4105   1.0850685269e+02   4.6712872315e+01    0.1997004    0.1366193  27.94 0.0009510898    1.652    0.395
       234 -11.2035     59.0027     76.5533   1.2093594319e+02   5.3506615160e+01    0.3579855    0.2880711 -79.04    0.0010887    1.522    0.343
       235 -10.2056     54.7667     72.5614   1.2126727495e+02   5.4866787488e+01    0.1915864    0.1908693 -58.19 0.0006498573    1.193    0.162
       236 -12.0198     63.1545     72.1254   1.1836731348e+02   5.3911640573e+01    0.4925714    0.3528393  36.35  0.002035251    1.589    0.371
       237 -10.8412     69.2137     67.0929   1.1489871838e+02   5.4121459832e+01    0.2817464    0.2403899  24.92 0.0008995136    1.287    0.223
       238 -11.7222     18.5046     81.5543   1.3520990044e+02   5.6305958283e+01    0.4299693     0.318691  17.91  0.001990513    1.705    0.413
       239  -9.9057    121.5006     76.4817   1.0212124094e+02   4.3039336294e+01    0.1495514     0.140484 -10.65 0.0002756271    1.017    0.017
       240 -11.7447    108.5771     74.7080   1.0513703844e+02   4.5978484145e+01    0.5634384    0.3271514 -24.57   0.00131628    2.144    0.533
       241 -10.8479     94.7328     73.0023   1.0865242135e+02   4.8875432048e+01    0.3089336    0.1817124 -42.41 0.0007961218    1.582    0.368
       242 -10.4544     94.4969     68.9949   1.0747429534e+02   4.9705066093e+01    0.2394198    0.1730115 -20.46 0.0007567045    1.499    0.333
       243 -11.7314     99.0404     65.7933   1.0508409966e+02   4.9496190462e+01    0.5218227    0.2298397  44.50  0.001469097    2.420    0.587
       244 -11.4192    152.0248     72.1394   9.3197291908e+01   3.7012507424e+01    0.3706096    0.2443276  49.84  0.001667283    1.517    0.341
       245 -10.3013    115.8709     71.0016   1.0193758317e+02   4.5236122122e+01    0.3469364    0.2036112 -39.23  0.001116137    1.641    0.390
       246 -10.5738    150.6880     78.4568   9.5425068785e+01   3.6210929076e+01    0.2867905    0.2387578 -57.49 0.0005786644    1.365    0.267
       247 -11.6635     50.3637     69.4615   1.2191338292e+02   5.6029182624e+01    0.4166221    0.2050966 -42.92  0.002022965    1.782    0.439
       248  -9.2177    215.4704     70.5192   8.0623111863e+01   2.1852967370e+01    0.1450801    0.1390121 -32.04 0.0001780165    1.013    0.013
       249  -9.3696    175.1542     70.6110   8.7793368411e+01   3.1680799365e+01    0.2095892    0.1364402  42.80  0.000183609    1.564    0.360
       250  -9.6168    137.2852     70.3296   9.6135079943e+01   4.0740892910e+01    0.1547135    0.1163821   6.61 0.0003972928    1.612    0.380
       251  -9.5733    232.2672     69.1928   7.7777272517e+01   1.8113766083e+01    0.2094995    0.1147685  72.50 0.0007377015    2.398    0.583
       252 -10.4152     37.2489     67.8184   1.2598838282e+02   5.7734954999e+01    0.3743664    0.1872758 -42.07  0.001897273    1.768    0.434
       253 -11.4224     41.0622     63.8055   1.2360341787e+02   5.8203726754e+01     0.286826    0.1907089 -76.38  0.001520443    2.063    0.515
       254 -10.9450     31.0335     66.4233   1.2780566348e+02   5.8590766800e+01    0.2819761    0.1823063 -55.56 0.0007914753    1.258    0.205
       255  -9.2453    220.2350     68.3739   7.9318520078e+01   2.1037340302e+01    0.1448599     0.109342   5.22 0.0006911599    1.613    0.380
       256 -10.9532    130.5935     65.8741   9.6390255791e+01   4.3027686862e+01    0.5429805    0.2197097 -47.38  0.001821658    3.016    0.668
       257 -11.2350     25.8592     68.4420   1.3008221483e+02   5.8589566511e+01    0.2877795    0.1729781 -28.88  0.001634614    1.844    0.458
       258 -10.1419      6.9278     67.9874   1.3647914117e+02   5.9954283151e+01    0.1736835    0.1350693 -53.04  0.001241714    1.076    0.070
       259 -10.8640     21.0886     66.2650   1.3124486678e+02   5.9413889786e+01    0.2597582    0.1799814  34.90  0.001661681    1.803    0.445
       260  -9.7655     14.2559     66.6285   1.3369818157e+02   5.9804698078e+01    0.2817303    0.1595865 -18.30  0.001046734    2.304    0.566
       261 -11.0430      2.3819     65.1331   1.3749497898e+02   6.0798636621e+01    0.4271102    0.0677077 -54.03   0.00173697    3.163    0.684
       262 -11.3724    120.0893     64.6679   9.8746258572e+01   4.5519993041e+01     0.558868    0.3425459  -6.05  0.002153814    2.635    0.620
       263 -11.4290     84.1809     63.1698   1.0880618725e+02   5.2601479679e+01    0.4995124    0.3484078 -55.36   0.00254049    1.635    0.389
       264 -10.2935     86.1717     58.1807   1.0652035693e+02   5.3212553844e+01    0.3363055    0.2304176 -53.23 0.0009309732    1.674    0.403
       265 -10.3736    165.7964     64.9155   8.7979208371e+01   3.4899938081e+01    0.2260748    0.1991473   6.21 0.0003296918    1.186    0.157
       266 -10.4689    138.0132     65.2515   9.4340274990e+01   4.1462791056e+01    0.2085594    0.1954371  40.16 0.0004714993    1.088    0.081
       267 -10.8804     76.9478     65.1446   1.1176256619e+02   5.3369569226e+01    0.3645273    0.1900522  48.56  0.001599363    2.477    0.596
       268 -11.1273    174.1891     63.7161   8.5925371164e+01   3.3020784951e+01    0.3091088    0.2679668 -70.52 0.0005967446    1.331    0.249
       269 -10.0911     40.6033     73.1912   1.2617776809e+02   5.6268773660e+01    0.3135999    0.2012888 -68.36  0.001558373    1.631    0.387
       270  -9.3942    191.6845     63.6978   8.2674113539e+01   2.8679354763e+01    0.1544945    0.1136485  22.65 0.0002198541    1.618    0.382
       271 -10.3093     51.5268     62.4013   1.1952512095e+02   5.7357174482e+01    0.2717018     0.143253 -30.74  0.001270785    2.141    0.533
       272 -10.9971     11.1665     62.2500   1.3385708099e+02   6.0921661616e+01    0.2881917    0.1649032 -45.09 0.0008364992    1.438    0.304
       273 -11.0235     64.9241     60.0268   1.1415550015e+02   5.6132082346e+01    0.5301957    0.2033245  43.11  0.002114224    3.231    0.691
       274  -9.9109     71.8338     61.7896   1.1238253568e+02   5.4800606967e+01    0.2207962    0.1928108 -28.32 0.0002472817    1.004    0.004
       275 -10.2285     70.5830     58.2651   1.1166291179e+02   5.5670510647e+01    0.2810524    0.2042212 -26.53  0.000677324    1.313    0.238
       276 -10.6262     32.6033     61.1304   1.2590532428e+02   5.9561385232e+01    0.3603268    0.1939641 -29.27  0.001851616    2.103    0.524
       277 -10.8208     27.1235     61.2817   1.2791862967e+02   5.9996797584e+01    0.3611601    0.1841567  19.99  0.001942247    2.424    0.587
       278  -9.5232    183.8196     61.3508   8.3398336964e+01   3.0990837058e+01    0.2129453    0.1316362  47.54 0.0004335248    1.611    0.379
       279 -12.5101    127.9667     51.3902   9.2217308154e+01   4.6040824222e+01    0.5592557    0.4068013 -36.91  0.000385137    1.386    0.279
       280 -11.5450    135.7086     50.4906   9.0009664257e+01   4.4408155714e+01    0.4745168    0.3386171 -80.10  0.001764675    2.302    0.566
       281 -10.3385    137.2753     57.7002   9.2054926246e+01   4.2898389591e+01    0.3401145    0.2307371  22.13  0.000176498    1.781    0.438
       282 -10.8229    137.5349     54.5355   9.0938856486e+01   4.3348460491e+01    0.2682581    0.2556674  29.04 0.0005533881    1.052    0.049
       283 -11.1313     58.0944     58.9343   1.1617594490e+02   5.7253759798e+01    0.3235856     0.229959 -54.79  0.001825096    1.428    0.300
       284 -10.1439     18.1057     59.2933   1.3069843550e+02   6.1090451981e+01    0.2232341    0.1442584 -66.87 0.0005931768    1.444    0.308
       285 -11.0427    123.3282     56.9259   9.5302702298e+01   4.6166053079e+01    0.4552349    0.2803944  70.40  0.001798117    2.674    0.626
       286  -9.1074     46.0912     58.3643   1.2026644884e+02   5.8790550687e+01    0.3074819    0.1202655  15.42 0.0009528695    6.199    0.839
       287  -9.6125    114.8248     57.3313   9.7723912579e+01   4.7914258589e+01    0.2071697    0.1743087  33.77 0.0002669879    1.187    0.158
       288  -9.8870    117.6230     54.7311   9.6068850121e+01   4.7765362401e+01    0.2857592    0.1749284 -30.04 0.0006684903    1.616    0.381
       289  -9.5753     80.7219     57.0406   1.0788869066e+02   5.4332895511e+01    0.1914778    0.1571419 -31.05 0.0004068239    1.092    0.085
       290 -10.6185     98.4832     56.0192   1.0197319916e+02   5.1395080963e+01    0.3774189     0.196671  30.85  0.001346351    2.306    0.566
       291  -9.7750     96.2461     53.0069   1.0159742836e+02   5.2346158005e+01    0.1964416    0.1670603 -26.46 0.0002738002    1.094    0.086
       292 -11.5365     38.4309     51.8222   1.2112063142e+02   6.0901846288e+01     0.596413    0.2864695 -38.00  0.002988353    1.874    0.466
       293 -10.2351    108.9548     53.5314   9.8050011537e+01   4.9773493539e+01    0.3943768    0.2135724  12.48  0.001205703    4.462    0.776
       294 -11.8694      4.6406     52.6194   1.3413546881e+02   6.3289633725e+01    0.5546391    0.2325562 -22.22   0.00262515    3.412    0.707
       295 -11.1253     13.0260     49.8790   1.3028919013e+02   6.3362492405e+01    0.3501908    0.1359914 -53.05  0.001612794    1.832    0.454
       296 -11.8260      8.8005     45.8192   1.3090210834e+02   6.4439030583e+01    0.4219534    0.3253424 -33.13  0.001963956    1.199    0.166
       297 -10.4701    157.3577     52.8500   8.5949051534e+01   3.8854016090e+01     0.281536    0.2104492  11.59 0.0007188844    1.577    0.366
       298 -10.1866     87.0787     52.7696   1.0436598149e+02   5.4043673050e+01    0.1936071    0.1927876 -19.11 0.0008772995    1.230    0.187
       299 -10.0725     83.1006     51.3591   1.0514770974e+02   5.4978221143e+01     0.234731    0.1691287 -26.79 0.0006203999    1.296    0.228
       300 -10.1253     72.9047     51.7964   1.0869144318e+02   5.6542287705e+01    0.2415779    0.2012541  61.06  0.001384168    1.679    0.404
       301 -10.0405     44.8860     51.1334   1.1848914230e+02   6.0359668623e+01     0.280663    0.1955954 -21.78  0.001035286    1.447    0.309
       302 -10.2131     46.1723     46.9189   1.1663226718e+02   6.1028703650e+01    0.2167421    0.1610479 -48.09 0.0002829801    1.264    0.209
       303 -11.1284     51.9243     49.6423   1.1539459368e+02   5.9832532027e+01    0.3545978    0.2463694 -19.79  0.001386764    1.471    0.320
       304 -10.3747     51.8802     43.6420   1.1335026535e+02   6.0963097317e+01    0.4549799    0.1434734 -38.48  0.001726439    3.016    0.668
       305 -11.1587    145.5910     46.4878   8.6383423230e+01   4.2666075843e+01     0.400506    0.2211022 -41.65 5.842484e-05    1.927    0.481
       306 -12.0306    142.5584     46.4796   8.7056450109e+01   4.3395986422e+01    0.5413474    0.3903903 -37.85  0.002091733    1.428    0.300
       307 -10.9033    101.6406     49.3456   9.8679202944e+01   5.1939322519e+01    0.3766108    0.2551003  61.89  0.001772612    2.040    0.510
       308 -10.3760     76.9305     50.0829   1.0673089881e+02   5.6223070867e+01    0.2161766    0.1506282 -10.78  0.001112739    1.615    0.381
       309 -10.5967    162.9440     47.7593   8.3182233164e+01   3.8216414939e+01    0.2480685    0.2135271 -24.66 0.0004360837    1.174    0.148
       310 -11.8993    155.0292     47.4332   8.4677293202e+01   4.0226233673e+01    0.4502024    0.2659782  49.89  0.001677267    1.623    0.384
       311  -9.2597    104.3307     46.3003   9.6791475213e+01   5.1906302060e+01    0.1478835    0.1045663  10.16 0.0006396279    1.647    0.393
       312  -9.3535     22.8399     46.1874   1.2545069065e+02   6.3406741716e+01    0.1626776    0.1043397 -38.39 0.0003938988    1.279    0.218
       313  -9.7584      7.2022     40.9707   1.3026995089e+02   6.5495680094e+01    0.1763511    0.1278434 -47.80 0.0006166338    1.025    0.025
       314  -9.9501    233.1645     45.1834   7.1506781559e+01   2.1176047093e+01    0.1940866    0.1819297   2.11 0.0004536786    1.167    0.143
       315  -9.6445    123.4689     38.5500   8.8796955951e+01   4.8989276463e+01    0.2361062    0.1389726 -26.53  5.20517e-05    1.709    0.415
       316 -10.9733    122.1046     44.1547   9.1165973891e+01   4.8473818167e+01     0.480636    0.2701072 -31.00  0.001031505    1.757    0.431
       317 -10.4069    119.4850     39.5102   9.0158022798e+01   4.9742362332e+01    0.2859274    0.2204362  -4.12 0.0007962477    1.348    0.258
       318 -10.3567     86.4179     44.9004   1.0173471729e+02   5.5525637360e+01     0.226751     0.153403  34.02 0.0009579464    1.521    0.342
       319  -9.9254     99.0162     44.1690   9.7567168701e+01   5.3301761586e+01    0.2187088    0.1726738   7.82   0.00061101    1.293    0.226
       320  -9.7850     74.8025     43.5741   1.0508499236e+02   5.7711159338e+01    0.1714898    0.1284238  47.93 0.0009432464    1.645    0.392
       321 -11.2441     64.0867     41.5179   1.0807700937e+02   5.9702854010e+01    0.2580629    0.1916571 -29.54  0.001512589    1.165    0.142
       322 -11.4877     68.5140     37.6664   1.0502996803e+02   5.9700929972e+01    0.4488017    0.2299263 -36.53  0.002176709    1.755    0.430
       323 -10.3024     56.5336     42.3082   1.1113207286e+02   6.0608872429e+01    0.2297275    0.1132731 -47.21  0.001094387    1.930    0.482
       324 -10.4773     92.0896     46.4640   1.0052169730e+02   5.4238377161e+01    0.2555631    0.2175414 -60.23  0.001112356    1.535    0.348
       325 -10.3589     23.9890     41.5199   1.2358575114e+02   6.4227582670e+01    0.2114311    0.1936457 -28.33  0.001209758    1.212    0.175
       326 -10.1155    226.6697     40.8083   7.1170706881e+01   2.3267526799e+01    0.2262811    0.1843425  56.23 0.0006305356    1.271    0.213
       327  -9.8734    112.7291     41.8507   9.2805190474e+01   5.0863618291e+01    0.3260928   0.08216497  46.39 0.0009958132    3.758    0.734
       328 -10.9208     95.0318     40.2470   9.7294053726e+01   5.4694959311e+01    0.3817835    0.2456931  54.01  0.001139186    1.869    0.465
       329 -10.1005     44.1626     39.9934   1.1501468785e+02   6.2550723810e+01    0.2586831    0.1553186 -48.89  0.001019739    1.558    0.358
       330 -10.6462    114.9618     49.3674   9.4913838731e+01   4.9213420854e+01    0.2816645    0.2243805 -15.90 0.0009045983    1.238    0.193
       331  -9.3325     28.7349     40.7195   1.2140960688e+02   6.3976905599e+01    0.1198837   0.07312629 -30.49            0    1.484    0.326
       332 -11.8240     82.6398     36.9320   9.9925191093e+01   5.7492545370e+01    0.3651754    0.2995375  41.52  0.001017058    1.362    0.266
       333  -9.5266     19.3760     37.8366   1.2432691397e+02   6.5297934192e+01    0.1714165   0.07950088 -45.24 0.0005348045    1.622    0.384
       334  -9.8732      1.3278     37.8563   1.3186135841e+02   6.6422179629e+01    0.1655375   0.06778286 -51.94 0.0004370928    1.675    0.403
       335  -9.9001    111.0949     34.8819   9.0643258724e+01   5.2232149167e+01    0.2811949    0.2147124 -45.91 0.0003546301    1.531    0.347
       336  -9.8159    112.1926     31.6204   8.9106872739e+01   5.2447144401e+01     0.416816    0.1665942  52.90  0.001614425    2.511    0.602
       337 -11.0677    102.0239     36.9205   9.3952038496e+01   5.3826108225e+01    0.3155346    0.2074367  48.35 0.0006526262    1.581    0.368
       338 -10.7709    105.6988     34.0536   9.1806914249e+01   5.3488673531e+01    0.3239489    0.2666099   8.47 0.0009376763    1.162    0.139
       339 -11.0116     24.3913     35.5235   1.2147888241e+02   6.5334294716e+01    0.2257187    0.2065281  -4.45 0.0006293817    1.280    0.219
       340 -10.7788     76.3310     33.6241   1.0072103584e+02   5.9096890288e+01      0.25369    0.2030726   4.87 0.0007742346    1.179    0.152
       341 -10.3817     54.2465     23.2783   1.0446582753e+02   6.4098252019e+01    0.2384189     0.181701  -6.90 0.0006254233    1.159    0.137
       342 -10.2022     56.6784     27.1783   1.0517714045e+02   6.3150075151e+01    0.4280921    0.1422895 -45.30    0.0016216    3.419    0.707
       343 -11.0931     31.7934     33.9376   1.1783532167e+02   6.4956860592e+01    0.2697407    0.1705928   8.22  0.000885149    1.819    0.450
       344 -10.5639      9.2764     33.9969   1.2740882336e+02   6.6726468380e+01    0.3321903    0.2141708 -55.09  0.001285143    1.301    0.231
       345  -9.7853      1.5407     31.4931   1.3001375431e+02   6.7643086152e+01    0.1991501    0.1148891 -22.96  0.001020801    1.750    0.429
       346 -11.6867      6.0453     29.9703   1.2758029340e+02   6.7684565668e+01    0.3725543    0.1651702 -43.50 0.0004239627    1.647    0.393
       347 -10.9290      8.9130     26.0150   1.2501655644e+02   6.8244208894e+01    0.3194032    0.1506267 -38.95  0.001397924    1.635    0.388
       348 -10.0342    138.9862     34.0000   8.3534502249e+01   4.5986183525e+01    0.2359952   0.07990652  57.34 0.0004137436    2.875    0.652
       349 -10.7700     97.5588     32.1519   9.3400197412e+01   5.5415901717e+01    0.2970659    0.2136731   5.96 0.0006499874    1.479    0.324
       350 -11.3723    145.1707     31.6366   8.1396225834e+01   4.4788312357e+01    0.2669326    0.2445679  54.84 0.0002968683    1.100    0.091
       351  -9.0371     90.2460     31.3812   9.5301600622e+01   5.6946263207e+01    0.1410805   0.09553709   0.00 0.0004488181    1.646    0.393
       352 -10.2489     63.3848     30.7147   1.0412038429e+02   6.1613762871e+01    0.2106613    0.1413216   7.28 0.0005367633    1.653    0.395
       353 -10.7006     81.7702     29.0492   9.7051527499e+01   5.8845492608e+01    0.3623464    0.1909377 -47.48  0.001587236    2.556    0.609
       354 -10.1587    124.3182     28.2427   8.4787181949e+01   5.0177560403e+01    0.2454303    0.1910681  22.84  0.001302328    1.269    0.212
       355 -10.3422     50.0553     28.0588   1.0811983664e+02   6.3906284404e+01    0.2868112    0.1361071 -26.47  0.001023166    2.250    0.556
       356 -12.4492    226.8007    246.3950   1.1591855082e+02  -5.6993201653e+00    0.6621595    0.3998165  25.81  0.004324845    1.327    0.246
       357 -10.0141    131.8056     26.2027   8.2315349068e+01   4.8680123858e+01    0.1969867    0.1507187  25.23            0    1.306    0.234
       358  -9.7013     89.7593     26.0262   9.3274650615e+01   5.7793269473e+01    0.2602923    0.1864562  81.36  0.001192901    2.828    0.646
       359 -11.3688     60.8275     23.8651   1.0220378495e+02   6.3055977165e+01    0.4605827    0.2077028 -47.28  0.001949679    3.003    0.667
       360 -10.1704    113.4535     25.4338   8.6390579209e+01   5.2977845538e+01    0.2222702    0.2150936 -50.36 0.0005180667    1.249    0.199
       361  -9.9416    112.6556     22.2428   8.5344910995e+01   5.3544794581e+01    0.2228729    0.1860473  23.21 0.0005429275    1.095    0.087
       362 -10.5883     99.9733     22.9449   8.9008200841e+01   5.6166417990e+01    0.3191519    0.2629403  22.36    0.0018611    1.103    0.094
       363 -10.4385     17.5831     23.9234   1.2033992580e+02   6.8001068631e+01    0.1935642    0.1493355  -6.51 0.0003608472    1.296    0.228
       364  -9.6771    160.9104    250.0000   1.2755516383e+02   3.9228773256e+00     0.189757   0.05088487  41.91 0.0005170903    2.865    0.651
       365 -11.2153     55.4952     32.0127   1.0760107681e+02   6.2530940156e+01    0.5226897    0.2765415  -7.20  0.002079018    3.473    0.712
       366 -10.2081    137.2865    247.0281   1.3126417525e+02   7.9251801740e+00    0.1480395    0.1297812  50.88 0.0006274867    1.133    0.117
       367 -11.3376    147.1223    243.9793   1.2921608966e+02   6.8533836099e+00    0.2650342    0.1348697  39.14 0.0009811698    1.606    0.377
       368  -9.6985    115.4407    244.2904   1.3472636087e+02   1.1561750838e+01    0.1350224    0.1005159 -89.01 0.0009441723    1.563    0.360
       369  -9.8681     45.0810     20.5375   1.0695583527e+02   6.5741384015e+01    0.1675541     0.113192  26.55 0.0005769321    1.557    0.358
       370  -9.4334     35.1526     20.2149   1.1102205673e+02   6.6968801743e+01      0.16967   0.08698823  40.36 0.0008830126    2.601    0.615
       371 -10.9648    217.4940     16.2121   6.5782823804e+01   2.8354206591e+01    0.4850109    0.1900057  54.72  0.001842712    2.478    0.596
       372  -9.6966    166.9859     19.2261   7.3265083698e+01   4.0758518573e+01    0.1961387    0.1115547  64.32 0.0008794344    1.668    0.400
       373 -10.5506    109.8383    243.1340   1.3557144917e+02   1.2545320673e+01    0.2452732    0.1559843  65.25  0.001363875    1.552    0.356
       374 -10.3330     72.0067    243.9463   1.4199118799e+02   1.7537642934e+01     0.162395    0.1267642  61.44 0.0006982058    1.080    0.074
       375 -10.4321     19.5389     18.9177   1.1750264911e+02   6.8708462961e+01    0.2134752    0.1639269   3.97 0.0009784524    1.353    0.261
       376  -9.6274     20.0076     15.4740   1.1586255186e+02   6.9243240426e+01    0.1844467    0.1189596 -15.48 0.0006037615    1.435    0.303
       377 -11.3762     70.6372     26.4084   9.9727285657e+01   6.1139188141e+01    0.4645573    0.1808822  35.26  0.001924759    2.803    0.643
       378  -9.5831      5.0000     17.9866   1.2402149972e+02   6.9936476399e+01    0.1781324   0.04918505 -53.68 0.0007876349    2.841    0.648
       379  -9.8090    188.5815     16.8182   6.9384456785e+01   3.5510514616e+01    0.1886629    0.1237823 -39.19 0.0005275807    1.553    0.356
       380 -10.8520     76.2476     16.4366   9.3484417391e+01   6.1552743639e+01    0.2660137    0.1723155  25.19 0.0007539513    1.508    0.337
       381 -10.2818      9.8396     16.6856   1.2120215074e+02   6.9843855811e+01    0.1873098    0.1112308 -38.45 0.0004055803    1.243    0.195
       382 -11.3527     34.6439    241.5520   1.4779644562e+02   2.2299350162e+01    0.3936574    0.2068424  44.18  0.002783919    1.654    0.395
       383 -10.4989     28.8113    232.9836   1.4823119540e+02   2.4335927022e+01    0.4182803    0.1144443  43.88  0.002272015    2.678    0.627
       384 -10.1217     60.4449     15.6854   9.8723867967e+01   6.4283335926e+01    0.2405686    0.1065839 -36.50  0.001138871    2.155    0.536
       385 -10.3953    136.9995     20.0565   7.8971929192e+01   4.8145737029e+01    0.2086461    0.1968365  36.68 0.0003135025    1.051    0.049
       386 -10.3867    107.9414     17.5687   8.4681495170e+01   5.5123753360e+01    0.3211906    0.1906332 -12.56 0.0009319207    1.792    0.442
       387 -12.1804    155.5863    241.5244   1.2744324233e+02   5.8803137211e+00    0.3821579    0.1961836  35.30  0.001249693    1.733    0.423
       388 -10.3733    124.1644     21.6267   8.2334265363e+01   5.1011860599e+01    0.2246025    0.1894562 -13.47 0.0002295805    1.189    0.159
       389  -9.5110    115.4635     13.4820   8.1196810897e+01   5.3900981635e+01    0.1364116     0.123213  24.09 0.0002415156    1.036    0.035
       390 -11.7910     19.9028    238.0819   1.4987988444e+02   2.4394305496e+01    0.4098105    0.1983535  44.53  0.002894216    1.758    0.431
       391 -12.0032     73.9749    238.5054   1.4124172915e+02   1.8163463188e+01    0.5799925    0.2166032  47.36  0.003190765    2.066    0.516
       392 -10.3350     81.4814     17.8221   9.2389177136e+01   6.0428428088e+01    0.3262169    0.1226324 -25.33  0.001302865    2.730    0.634
       393 -10.5350     31.8512    237.3155   1.4799474295e+02   2.3293411553e+01    0.2355428    0.1148995  70.72  0.001003686    1.761    0.432
       394  -9.6799     57.2695     10.4202   9.7471623727e+01   6.5468932840e+01    0.2258784    0.1073203  36.15  0.000960056    2.097    0.523
       395  -8.8580     51.3112     11.3222   1.0022429951e+02   6.6235394458e+01     0.128311    0.0806703  -0.55 0.0004665195    1.652    0.395
       396 -11.2244    174.0584    238.5019   1.2381112960e+02   3.3735373912e+00    0.3302866    0.1844522  35.97  0.001928533    1.477    0.323
       397 -11.4110    177.5837    234.9620   1.2270655565e+02   3.2784909326e+00     0.295583    0.1982777  13.99  0.001344679    1.844    0.458
       398  -9.7866    135.3749    237.2885   1.3049466640e+02   9.6247628983e+00    0.1126295   0.08278999  20.76 0.0007019722    1.724    0.420
       399 -10.9096    160.2835    235.6688   1.2587204240e+02   5.9512114680e+00    0.2293767    0.1753539  30.96 0.0008749218    1.204    0.170
       400 -10.9560     73.7215    232.9755   1.4083574363e+02   1.9107596787e+01     0.258262    0.1492248  60.15  0.001345019    1.451    0.311
       401 -10.6508    167.0963    233.8453   1.2441730797e+02   5.1143583590e+00    0.2068634     0.165208  38.59  0.000756394    1.001    0.001
       402 -11.3889    153.3976    233.6478   1.2684012783e+02   7.3344786455e+00    0.2082776    0.1734226  -0.66 0.0007259265    1.541    0.351
       403  -9.7020     53.6551    234.7016   1.4433052167e+02   2.1291919433e+01   0.08490805   0.08336912  -4.22 0.0007035484    1.675    0.403
