#   1 NUMBER                 Running object number                                     
#   2 MAG_AUTO               Kron-like elliptical aperture magnitude                    [mag]
#   3 X_IMAGE                Object position along x                                    [pixel]
#   4 Y_IMAGE                Object position along y                                    [pixel]
#   5 X_WORLD                Barycenter position along world x axis                     [deg]
#   6 Y_WORLD                Barycenter position along world y axis                     [deg]
#   7 A_WORLD                Profile RMS along major axis (world units)                 [deg]
#   8 B_WORLD                Profile RMS along minor axis (world units)                 [deg]
#   9 THETA_WORLD            Position angle (CCW/world-x)                               [deg]
#  10 FWHM_WORLD             FWHM assuming a gaussian core                              [deg]
#  11 ELONGATION             A_IMAGE/B_IMAGE                                           
#  12 ELLIPTICITY            1 - B_IMAGE/A_IMAGE                                       
         1 -13.2929    215.8249     15.7426   6.0733379247e+01   2.9793051674e+01     1.263204    0.8315288  74.18  0.004013193    1.329    0.248
         2 -13.0390     42.6155     20.6239   9.9910631177e+01   6.5820297472e+01    0.6913432    0.3539795  25.10  0.003909796    1.923    0.480
         3 -11.1733    127.2922     16.3815   7.3607125518e+01   5.0714392838e+01    0.3955022    0.2630542  -9.26  0.002166497    1.834    0.455
         4 -13.5196    188.3024      7.6143   6.1814036934e+01   3.7141328900e+01     1.289189    0.6740913 -87.64  0.006111813    2.114    0.527
         5 -12.2990     57.4817      6.7555   8.8513870854e+01   6.5245711250e+01    0.6777149    0.5753515  83.20   0.00411291    2.288    0.563
         6 -10.9142     66.1152      7.1217   8.5792113999e+01   6.3806595085e+01    0.2904762    0.1494881  42.12  0.001142832    1.672    0.402
         7 -11.7810     43.7222      8.7218   9.4413697183e+01   6.7069972030e+01    0.2952181    0.2332771  27.43  0.001183375    1.309    0.236
         8  -9.2319    148.7502      7.9923   6.7226946611e+01   4.6527347774e+01    0.1432724    0.1121609 -23.40 0.0005029349    1.514    0.339
         9 -10.0228    103.6562      5.3299   7.4899920268e+01   5.6845430732e+01     0.116703   0.09372526 -75.21 0.0007050785    1.751    0.429
        10 -12.2097    165.9622      2.1604   6.3154158590e+01   4.2968847247e+01    0.7442299    0.2038804  68.00  0.002803138    2.985    0.665
        11 -10.7352    109.9924      8.9586   7.4758244218e+01   5.5202794299e+01    0.1872129    0.1491564 -79.23  0.001129859    1.708    0.414
        12 -10.9209    104.8063    225.2328   1.2968203801e+02   1.3690681200e+01    0.2918902    0.1706016 -74.57  0.001435424    1.975    0.494
        13 -11.0363     95.9997    224.4513   1.3138465790e+02   1.5289331480e+01     0.414579    0.2894362 -88.52  0.002313696    1.489    0.328
        14  -9.2835    185.5463    223.5204   1.1279062681e+02  -3.3710193027e-01     0.135015    0.1202218  27.32 2.525068e-06    1.016    0.015
        15 -10.1501    150.2397    218.9945   1.1930243828e+02   6.9387890431e+00    0.3090862    0.1920029 -13.19  0.001109296    4.046    0.753
        16 -11.5211    226.3606    220.3946   1.0428931850e+02  -6.8651732610e+00    0.3443988    0.2077836 -15.45  0.001445704    2.034    0.508
        17  -9.7652    211.4112    217.6608   1.0663878154e+02  -3.9145048593e+00    0.2445968    0.1186662 -54.17 0.0009593797    3.329    0.700
        18 -11.0758    238.4288    213.4955   1.0078605440e+02  -7.7558233095e+00    0.5202494    0.2878486 -56.49  0.002147958    3.607    0.723
        19 -11.4244    233.2733    219.6198   1.0286402236e+02  -7.8652777786e+00    0.2158403    0.1512902 -43.95 0.0007775445    1.654    0.395
        20 -10.0264      3.2012    214.7500   1.4832913777e+02   2.9276289214e+01    0.2392479    0.1378006 -88.07  0.001393414    1.326    0.246
        21  -9.1218     56.6571    211.3226   1.3789623798e+02   2.3926339327e+01    0.1384601   0.07915288  70.14 0.0006651935    1.729    0.422
        22 -10.5056    115.6087    209.3204   1.2519642715e+02   1.5175960380e+01    0.2864404    0.1923463  71.29  0.001407522    1.675    0.403
        23  -9.9825     56.6013    205.8015   1.3732062148e+02   2.5148417261e+01    0.1850117    0.1053304 -84.76 0.0009477241    1.714    0.417
        24 -10.0939     48.9985    202.0129   1.3848846982e+02   2.6980394949e+01    0.2159841    0.1255951  72.86  0.001135629    1.704    0.413
        25  -9.7049     41.8195    201.4330   1.3990490000e+02   2.7997933333e+01    0.2050761    0.1291055 -70.41   0.00107409    1.419    0.295
        26 -11.0737      5.1981    199.6339   1.4694526002e+02   3.2270399202e+01    0.3568546    0.1604515  56.62  0.001182028    2.048    0.512
        27  -9.9943    112.3792    197.2091   1.2405222505e+02   1.8388329645e+01    0.2037498    0.1302502 -73.21 0.0006883626    1.755    0.430
        28 -12.5076    160.5795    192.1078   1.1238929561e+02   1.0370830243e+01    0.7893078    0.5635024  74.30  0.002699016    1.889    0.471
        29  -9.6386     66.3065    194.6515   1.3395682278e+02   2.6330136042e+01    0.1429118   0.08831628  74.66 0.0006295649    1.703    0.413
        30  -9.7873    199.0043    190.2541   1.0388453195e+02   3.1827091608e+00    0.3482729     0.191267 -46.67   0.00153409    1.925    0.481
        31  -9.7251     94.6709    186.9853   1.2648728077e+02   2.3752714412e+01    0.2316059     0.111387 -82.95 0.0007044525    4.264    0.765
        32 -10.3273    183.6490    182.6335   1.0554245988e+02   7.6935963021e+00    0.4346679    0.2193154 -36.16  0.001721532    2.249    0.555
        33 -10.5324    223.8618    183.0590   9.7546034448e+01  -1.9706760657e-01    0.2252859    0.1627439 -65.09  0.001084383    2.034    0.508
        34  -9.6413    133.2871    196.1512   1.1918335874e+02   1.4796595511e+01     0.279168    0.1744676  65.96  0.001211726    1.983    0.496
        35  -9.4150     67.5146    180.4818   1.3181925524e+02   2.9450587949e+01    0.1366147    0.1178755 -88.96 9.488376e-05    1.020    0.020
        36  -9.5190    191.6378    178.3270   1.0297962689e+02   6.9418772620e+00    0.1509916    0.1185387  85.84 0.0007040683    1.793    0.442
        37  -9.3554     28.2236    176.8391   1.4025874178e+02   3.5100981240e+01    0.1615346    0.1276301 -60.96 0.0004506148    1.334    0.250
        38  -9.8962    105.9728    175.4845   1.2192669272e+02   2.4504838399e+01    0.3071429    0.1725457  83.32  0.001037872    3.452    0.710
        39  -9.3094     12.3448    176.6655   1.4365957899e+02   3.6673392781e+01    0.1287904   0.07141982  71.60 0.0007049736    1.766    0.434
        40 -11.5888     38.0987    174.6986   1.3782073483e+02   3.4532837653e+01    0.3870387    0.2348809  72.92  0.002073539    1.703    0.413
        41  -9.7085      3.8526    175.1102   1.4529974384e+02   3.7752540475e+01    0.1822806    0.1220792  78.90 0.0004792333    1.277    0.217
        42 -10.0700    176.6261    172.1346   1.0488597678e+02   1.1282397372e+01    0.2716743    0.2083257  55.76  0.001060821    1.371    0.271
        43 -10.6859     44.4352    168.8825   1.3564893049e+02   3.5172161273e+01    0.3953798    0.1089981 -66.33  0.001439074    3.090    0.676
        44 -10.1615    121.3413    169.4823   1.1712040706e+02   2.3089163641e+01    0.3443315    0.2155951  87.92  0.001314676    2.584    0.613
        45 -11.4407     55.6824    167.4394   1.3278561462e+02   3.4137783328e+01    0.5467947    0.2788121 -73.57   0.00206041    1.888    0.470
        46 -11.0235     50.8597    158.6559   1.3270483627e+02   3.6837591851e+01    0.5090479    0.2785376  85.73  0.002227083    2.402    0.584
        47 -10.3460     98.8732    165.7729   1.2192760583e+02   2.8047354995e+01     0.296947    0.1742377 -70.43  0.001273588    1.888    0.470
        48 -10.4101     47.0363    164.6990   1.3448174656e+02   3.5856372616e+01     0.183241    0.1594909  89.08  0.000793364    1.065    0.061
        49  -9.7679     79.3279    163.6537   1.2641289316e+02   3.1731612062e+01    0.1519347    0.1018873  77.19 0.0007050108    1.752    0.429
        50 -11.0676    130.6900    160.0245   1.1296055303e+02   2.3470333159e+01    0.4828512    0.1675143  50.25  0.001474417    3.313    0.698
        51 -12.0213    119.3282    157.3374   1.1520855779e+02   2.6327763404e+01    0.5629845    0.3867989  41.62  0.002614158    1.484    0.326
        52 -11.3963    105.4292    158.2687   1.1888139368e+02   2.8690307245e+01    0.6802599    0.3486239 -63.82  0.002689295    2.134    0.531
        53 -11.3142     23.4351    159.1741   1.3938821706e+02   3.9663161105e+01    0.4062418    0.2700211  51.28  0.001876078    1.602    0.376
        54 -10.5577    167.9636    157.7896   1.0371339015e+02   1.6176256733e+01    0.3803322    0.2715191  71.23  0.001652865    1.813    0.448
        55  -9.4103    237.4954    155.9767   8.9376533773e+01   2.1300540097e+00    0.2135446    0.1286541 -37.55 0.0004270916    1.529    0.346
        56 -10.4230     27.7151    155.2915   1.3790546809e+02   4.0160859474e+01    0.2370811    0.1274337 -80.81 0.0008201617    1.717    0.417
        57 -10.3555      5.0829    155.0652   1.4318758868e+02   4.2166092632e+01    0.2656879    0.1506222  51.95  0.000867549    1.902    0.474
        58  -9.2882    144.3144    155.6662   1.0873989990e+02   2.1685879393e+01    0.1614182     0.122207  86.46 0.0007046256    1.686    0.407
        59  -9.5899     81.3333    154.6496   1.2434609405e+02   3.3597424521e+01    0.1535771     0.104793  78.18  0.000704726    1.778    0.438
        60  -9.5451     67.9947    154.5038   1.2774232776e+02   3.5598054778e+01    0.1991723    0.1024938  58.81 0.0008098825    2.486    0.598
        61 -10.7534     23.4629    152.7450   1.3861690555e+02   4.1158053144e+01    0.3821968    0.1849419 -69.83  0.001943445    1.665    0.399
        62 -11.7459    239.5586    151.8219   8.8127911380e+01   2.4894612087e+00    0.7154564    0.2190555  42.00  0.002371423    3.841    0.740
        63  -9.1775     88.3164    167.9981   1.2492212741e+02   2.9275843757e+01    0.2351839    0.1131667 -81.46 0.0007039636    4.199    0.762
        64 -10.7338    107.3482    145.8214   1.1586707125e+02   3.1319110322e+01    0.5704055     0.313822  74.18  0.001701223    4.350    0.770
        65 -10.0314     56.1488    146.4758   1.2947265409e+02   3.9107074778e+01    0.3274211    0.1558979  67.43   0.00109011    4.233    0.764
        66 -10.1024     12.1124    148.8033   1.4088000573e+02   4.3047701033e+01    0.2720386    0.1354962 -67.04  0.001144875    1.553    0.356
        67  -9.9521    148.1787    144.7786   1.0537785270e+02   2.3339463130e+01     0.266388    0.1726391  88.05  0.000943351    2.781    0.640
        68  -9.7601    124.4742    142.9705   1.1083340447e+02   2.8701461367e+01    0.2276369    0.1353461 -74.44 0.0008101095    2.631    0.620
        69  -9.7856    182.2266    141.8439   9.6940734897e+01   1.6463581220e+01    0.2652294      0.17267 -83.93 0.0009457728    2.841    0.648
        70  -9.9655    247.3335    139.6752   8.4216932562e+01   3.1922375315e+00     0.140601    0.1050226 -69.25 0.0003680573    1.711    0.415
        71  -9.6722     23.0072    138.4799   1.3688947732e+02   4.4526824283e+01    0.2644002    0.1253501  76.48  0.001037321    3.566    0.720
        72 -10.3856     83.2502    132.1049   1.1943655323e+02   3.8728496212e+01    0.3575332    0.2232792  80.20  0.001423375    2.656    0.624
        73 -11.8042     98.8287    128.4621   1.1433229908e+02   3.6979977495e+01    0.8068074    0.4970129  86.64  0.002876032    3.209    0.688
        74 -10.1793     59.1206    124.8728   1.2474825425e+02   4.3889951077e+01    0.2999114    0.1903835  76.61  0.001351903    2.348    0.574
        75 -10.7011     43.5166    123.3692   1.2891937437e+02   4.6074194332e+01     0.512395    0.2743287 -84.44  0.002161001    2.712    0.631
        76 -10.9828     27.6362    121.7325   1.3313747032e+02   4.8008776725e+01    0.6379933    0.3016066  85.00  0.002137431    4.983    0.799
        77 -11.9902    193.2822    118.1602   8.8970706616e+01   1.8819446145e+01    0.6689638    0.4769387 -68.81  0.002176055    1.713    0.416
        78  -9.6429     72.1344    121.1597   1.2023269937e+02   4.2997553657e+01    0.3291922    0.1496787  57.16  0.001068513    4.155    0.759
        79 -10.2315     12.5610    129.1181   1.3834206791e+02   4.7533293352e+01    0.3032458    0.1564181  81.70  0.001437291    2.575    0.612
        80 -11.1723    141.1324    112.9890   9.9304819846e+01   3.1955282538e+01    0.5312715    0.3049432 -39.93  0.002154265    1.792    0.442
        81 -10.8303      2.4778    115.7295   1.3924113838e+02   5.1235786837e+01    0.3027161     0.174271 -83.54 0.0008888548    1.669    0.401
        82 -10.3664    232.0033    114.5834   8.1157175312e+01   1.0840646943e+01    0.2973947    0.1814733 -53.42 0.0009397572    1.649    0.394
        83 -10.2041     78.5186    112.7040   1.1644538448e+02   4.4007133578e+01    0.3687399    0.2279141 -86.14   0.00141356    3.043    0.671
        84 -10.9422    174.5537    110.6495   9.0956516782e+01   2.4720456683e+01    0.4687521    0.2964169 -41.89  0.001084423    1.571    0.363
        85 -12.1691    160.7267    112.1929   9.4417366061e+01   2.7650134036e+01    0.5750688    0.3906538  52.94  0.002099142    1.488    0.328
        86  -9.3639    117.3317    125.6561   1.0865922939e+02   3.4153648424e+01     0.161191    0.1212396  87.21  0.000705058    1.756    0.430
        87 -10.5028     18.2753    112.7602   1.3434012077e+02   5.0826726672e+01    0.2397463    0.1785634   7.30  0.001241474    1.734    0.423
        88 -11.1469     13.5748    110.4351   1.3532507005e+02   5.1693653528e+01    0.6454456    0.2129479 -67.28  0.002790634    2.494    0.599
        89 -11.4548    114.9467    102.0867   1.0324750680e+02   3.9874195587e+01    0.9657712    0.2647209  44.57  0.002849588    3.731    0.732
        90 -10.9319    107.2251     98.8268   1.0451093187e+02   4.2092570059e+01    0.5038782    0.3219032 -63.64   0.00191411    2.020    0.505
        91 -10.1181    108.3889    112.9011   1.0791591733e+02   3.8797338220e+01    0.6068839    0.2573619 -62.57  0.001656322    4.683    0.786
        92 -12.0100    158.3392    107.1648   9.3652798235e+01   2.9247696338e+01     0.459664    0.3337059 -69.06  0.002020543    1.691    0.409
        93 -12.7001    142.6266    105.8918   9.7057960186e+01   3.3127017319e+01    0.7385293    0.4444584  52.98  0.003089478    1.717    0.418
        94 -11.8445    142.3164     99.9650   9.5531320255e+01   3.4422039801e+01    0.6495888    0.4689797  70.14  0.002897657    1.689    0.408
        95 -11.6951     44.7761    101.3934   1.2414105107e+02   5.0967936834e+01    0.6174593     0.393175  89.39  0.002894564    2.535    0.606
        96 -10.5919     23.1822    102.7325   1.3112601043e+02   5.2690048949e+01    0.4785227    0.2459617  69.51  0.001816887    4.581    0.782
        97 -12.1487    127.8759    100.9749   9.9472767627e+01   3.7411911100e+01     0.906454      0.65042 -89.65  0.003835913    2.129    0.530
        98 -10.5558     82.4012    100.7136   1.1230485715e+02   4.6084456219e+01    0.2891139    0.2250748  55.77  0.001163741    1.519    0.342
        99 -10.1516     63.5067     96.9960   1.1719848303e+02   4.9678260930e+01     0.267486     0.162578  69.17  0.001043352    3.468    0.712
       100 -12.9753    170.3845     90.6433   8.6603148030e+01   2.9634628774e+01    0.5249316    0.4289181 -41.37 0.0007708017    1.240    0.193
       101 -11.5445     42.3891     87.7044   1.2174282355e+02   5.4197863897e+01    0.6730176    0.3609326   4.31   0.00263791    2.981    0.665
       102 -10.3622     45.1459     81.8525   1.1934518193e+02   5.5127137225e+01    0.3362708    0.1905182 -59.21 0.0008248775    1.776    0.437
       103 -10.8677     87.2132     87.1115   1.0712361184e+02   4.8168890575e+01    0.4841188    0.3212817  64.27   0.00210921    2.342    0.573
       104 -10.7348    104.8907     83.9989   1.0095540960e+02   4.5572005216e+01    0.3891223    0.3003803 -89.19  0.001375924    1.939    0.484
       105  -9.5648    158.8105     83.1129   8.7027152378e+01   3.3821014429e+01    0.2243576    0.1959559 -80.54 0.0003524375    1.233    0.189
       106 -10.4704     25.2447     81.7712   1.2610851354e+02   5.7041161942e+01    0.4102947    0.2488803  84.76  0.001839176    3.499    0.714
       107  -9.9209      1.9246     78.2431   1.3327988905e+02   5.9330540773e+01    0.2391157    0.1235458 -53.63  0.001431655    1.415    0.293
       108 -13.0763    223.3462     72.0163   7.2664787978e+01   2.0200725140e+01    0.3534268    0.2986041 -64.12 0.0006353284    1.071    0.066
       109 -10.5143     82.3214     73.2551   1.0454020086e+02   5.1708819136e+01    0.3197499    0.2294296 -80.73  0.001446695    2.625    0.619
       110  -9.3106    116.3352     73.6580   9.4637422287e+01   4.5201952867e+01    0.1473575    0.1169265 -82.52 0.0005603392    1.760    0.432
       111  -9.3187     95.9784     72.9784   1.0024060320e+02   4.9357891373e+01     0.275923    0.1824078 -87.58 0.0009632518    4.168    0.760
       112 -10.0889     62.2631     70.3261   1.1024945978e+02   5.5309313562e+01    0.2574831    0.1409733 -36.51   0.00126063    1.718    0.418
       113 -10.3354     51.9980     70.3982   1.1381556080e+02   5.6625128057e+01    0.2540068    0.1729676 -44.53 0.0006443517    1.309    0.236
       114 -10.1986    196.3609     67.9455   7.5796884797e+01   2.7273719265e+01     0.348969     0.207589  60.20  0.001593772    1.630    0.386
       115 -11.1773      9.8010     58.2247   1.2593301506e+02   6.2835041696e+01    0.6112139    0.4018526  55.43   0.00359325    2.686    0.628
       116 -11.6062     42.2273     62.6315   1.1500048248e+02   5.9224407278e+01    0.5221767     0.255005 -53.55  0.002039238    2.077    0.519
       117 -11.3645     20.5197     51.1975   1.1981024465e+02   6.3364226814e+01    0.5420133    0.2477081 -49.58  0.002963667    1.811    0.448
       118 -13.3872     30.7240     59.7352   1.1840630775e+02   6.0923527242e+01     1.201591    0.7485811  22.50  0.004955214    1.772    0.436
       119 -11.3415    232.4527     59.5100   6.8597903757e+01   2.0092475009e+01    0.3749068    0.2481291 -64.54  0.001953501    1.468    0.319
       120 -10.8697     19.4722     59.3935   1.2256333285e+02   6.1938438388e+01    0.2811009     0.193628 -41.41 0.0009422855    1.140    0.123
       121 -11.9402    149.1531     52.9381   8.0426857636e+01   4.1139517293e+01    0.5071774    0.3077859  45.62 0.0006304654    1.613    0.380
       122 -11.6265     39.7577     51.8062   1.1253366840e+02   6.1442130331e+01    0.5255462    0.2184126 -37.73  0.001626524    2.142    0.533
       123 -10.2400    161.8760     53.1438   7.7941956571e+01   3.8030940575e+01    0.3505384    0.1980779  69.71  0.001425019    1.935    0.483
       124 -10.0317     92.3655     51.2001   9.4232151378e+01   5.3715151670e+01    0.1910318    0.1199802 -43.97 0.0007787572    1.766    0.434
       125 -10.1538     82.4926     47.2294   9.5907958049e+01   5.6103843502e+01    0.2350539    0.1727504  58.47 0.0009945108    1.819    0.450
       126 -10.4686    156.8129     45.0628   7.6593347666e+01   4.0410269056e+01    0.2962946    0.2080469  56.14  0.000606944    1.302    0.232
       127 -12.0797    239.4973     63.6639   6.8645015200e+01   1.7881118285e+01    0.6462824    0.3683254  70.90  0.002801202    1.824    0.452
       128 -11.6576     72.1830     42.4987   9.7585115511e+01   5.8543342840e+01    0.6353987    0.3602998  51.03  0.003151748    2.261    0.558
       129 -11.0310      7.3268     43.1849   1.2274458062e+02   6.5728636527e+01    0.4267368    0.2407658  36.10    0.0026201    2.461    0.594
       130  -9.1984    149.4523     43.5083   7.7569770976e+01   4.2396059174e+01    0.1397665    0.1288448  62.14 0.0001031872    1.010    0.010
       131  -9.1038    114.4750     42.4682   8.5130870921e+01   5.0528043272e+01    0.1375492    0.1219227  28.73 0.0003651732    1.044    0.042
       132 -12.2808     42.3934     37.7650   1.0666171955e+02   6.3440822405e+01    0.6478009    0.3862337  17.01  0.002583324    1.741    0.426
       133 -11.7378     46.8083     35.5988   1.0415318820e+02   6.3225000515e+01    0.3414758    0.2250415   4.87  0.000707874    1.544    0.352
       134  -9.3276    119.2901     38.3145   8.2559019056e+01   5.0032176106e+01    0.1910301     0.156883  38.58 0.0003465737    1.115    0.103
       135 -11.2191    120.0252     33.8236   8.0899327752e+01   5.0433103124e+01    0.3238544    0.3046741   4.76  0.001055502    1.110    0.099
       136 -10.7438     82.6469     38.0451   9.2580426221e+01   5.7396418391e+01    0.3568767    0.1809504  49.17  0.001576497    2.088    0.521
       137  -8.9459    153.4109     36.4990   7.4743064419e+01   4.2356424867e+01    0.1366694    0.1247633  59.68 0.0001327173    1.028    0.028
       138  -9.9774     73.8000     32.8857   9.3504165812e+01   5.9617681542e+01    0.2812046    0.1584099  51.97  0.001420575    2.175    0.540
       139 -11.5867    104.3583     30.1097   8.3513686068e+01   5.4222950644e+01    0.6269667    0.3595247  62.72  0.003020069    2.074    0.518
       140 -11.3314    223.6812    249.2312   1.0978169094e+02  -1.0624591174e+01    0.5269228    0.1693572  37.96  0.002244269    2.721    0.632
       141 -12.6286    203.2519     20.9801   6.3285153320e+01   3.2139386777e+01    0.5417808     0.341046  87.56  0.002894075    1.508    0.337
       142  -9.6145    166.8644     24.1310   6.8952002696e+01   4.0565853163e+01    0.1759015    0.1439677  47.49            0    1.253    0.202
       143  -9.6192    187.7904    248.1356   1.1635826401e+02  -4.7289197844e+00    0.2593678    0.1461729  21.58   0.00123723    2.207    0.547
       144 -11.5101    239.5931     20.6345   5.9504339859e+01   2.3844150668e+01    0.3627194    0.2169929  73.58 0.0006851082    1.526    0.345
       145 -12.1159     22.2298    239.8063   1.4666235758e+02   2.2245079164e+01    0.7185982    0.2646717  66.40  0.003441245    2.732    0.634
       146 -10.5445    134.0653     18.0192   7.2801650391e+01   4.9006525719e+01    0.2028652    0.1718767  55.41 0.0005107191    1.023    0.023
       147  -9.9860     89.3798     18.2517   8.3243012168e+01   5.8520256291e+01    0.2501531     0.162956  58.22  0.001403482    1.686    0.407
       148  -9.1715      3.4539     17.9345   1.1593556597e+02   7.0049551262e+01     0.142199   0.08260752 -41.10 0.0003545931    1.450    0.311
       149 -10.3878     33.1485    242.1888   1.4496477217e+02   2.0509439938e+01     0.165972   0.09929987  68.17 0.0007622332    1.321    0.243
       150 -10.2342      7.8557    240.8437   1.4910272145e+02   2.3598242915e+01    0.1576814    0.1224912  87.69  0.001029009    1.239    0.193
       151  -9.6200      2.7565    240.3895   1.4989866792e+02   2.4206741381e+01    0.1250272   0.09454729  45.01 0.0009518465    1.606    0.377
       152 -10.2417      6.0207    235.7129   1.4911102306e+02   2.4783022625e+01    0.1964691    0.1156759  84.97  0.000470453    1.276    0.216
       153  -9.3680     33.6647    235.3125   1.4437549466e+02   2.1808472594e+01    0.1260282   0.06512251  68.35 0.0002458326    1.685    0.407
       154 -10.6167     71.9950    232.3024   1.3703052579e+02   1.7348699801e+01     0.234096    0.1408206 -44.44   0.00117477    2.671    0.626
       155  -9.5744    117.6860     13.3050   7.4576176275e+01   5.3147402612e+01    0.1202445   0.09674242 -77.51 0.0003209657    1.620    0.383
       156 -10.8288     12.6103    227.2319   1.4748785485e+02   2.5790367894e+01    0.2379964     0.150037  83.88 0.0005598532    1.198    0.165
