#   1 NUMBER                 Running object number                                     
#   2 MAG_AUTO               Kron-like elliptical aperture magnitude                    [mag]
#   3 X_IMAGE                Object position along x                                    [pixel]
#   4 Y_IMAGE                Object position along y                                    [pixel]
#   5 X_WORLD                Barycenter position along world x axis                     [deg]
#   6 Y_WORLD                Barycenter position along world y axis                     [deg]
#   7 A_WORLD                Profile RMS along major axis (world units)                 [deg]
#   8 B_WORLD                Profile RMS along minor axis (world units)                 [deg]
#   9 THETA_WORLD            Position angle (CCW/world-x)                               [deg]
#  10 FWHM_WORLD             FWHM assuming a gaussian core                              [deg]
#  11 ELONGATION             A_IMAGE/B_IMAGE                                           
#  12 ELLIPTICITY            1 - B_IMAGE/A_IMAGE                                       
         1 -12.8397    227.7227     48.5654   5.1857624415e+01   2.1937819773e+01     4.798641     0.664246 -41.16    0.0120946    5.345    0.813
         2 -10.5915    122.4015     21.1521   5.9836875870e+01   5.2596168360e+01    0.4748658    0.2924571 -25.39  0.002200701    1.620    0.383
         3 -10.6001    197.3565     13.8228   4.5373398648e+01   3.3771771652e+01     1.778779    0.7388297  71.64  0.007024127    2.369    0.578
         4 -11.3725    244.0025      2.1359   3.8289493011e+01   2.3533035400e+01     1.701452    0.1798305  69.11  0.004940624    5.981    0.833
         5  -9.1890    215.1746      8.2216   4.2035461108e+01   2.9810592774e+01    0.8095847    0.3732471  78.02  0.003482767    2.218    0.549
         6  -8.1995    142.0000     11.9953   5.2265330793e+01   4.8600287572e+01    0.3818578   0.08224398 -21.64  0.001037539    4.810    0.792
         7 -10.7381    119.2379      9.8791   5.5736519656e+01   5.4627182946e+01    0.6789918    0.4281305  41.59  0.002379805    1.525    0.344
         8  -8.0839    170.0583      7.5920   4.6546505193e+01   4.1594541447e+01      0.19795    0.1840722 -19.01 0.0001052413    1.137    0.120
         9  -9.5995    250.5197      6.5130   3.8930600157e+01   2.1620490736e+01    0.3302028    0.1610126 -31.85  0.001104548    1.760    0.432
        10  -8.8107    136.9376      6.4462   5.0956455024e+01   5.0454409126e+01    0.2743671    0.1965664 -10.59 7.536395e-05    1.487    0.328
        11  -9.9628    226.3644      6.9727   4.0775347878e+01   2.7189122687e+01    0.5904275    0.3789959 -52.44  0.003122617    1.414    0.293
        12  -7.4542    193.5420      1.5260   4.2053535625e+01   3.5969907328e+01    0.1402769    0.1242625 -68.43 1.398111e-05    1.056    0.053
        13 -12.3350     22.1768    185.5660   1.2591129734e+02   3.3634190224e+01    0.7173826    0.5168397  71.69  0.002650359    1.051    0.048
        14 -10.1382    224.2169    185.3130   8.5048060840e+01   2.3183135054e+00    0.3567871     0.229973   1.29 0.0002863162    1.737    0.424
        15 -12.2135    246.4972    172.4784   7.8829971937e+01   2.8392965927e-01     1.590557    0.8198982 -16.73  0.007794044    2.093    0.522
        16  -9.2411      5.3046    181.6413   1.2901112386e+02   3.5968177747e+01    0.2222487   0.08326062  47.93 0.0007518549    2.136    0.532
        17  -9.8947    192.3887    177.1684   8.9306415703e+01   9.1117292668e+00    0.2281048    0.1983157  32.75  0.000296362    1.084    0.078
        18  -7.8204    144.9912    178.3485   9.9055359538e+01   1.7610822016e+01     0.177153     0.151489  46.66 0.0003265421    1.059    0.056
        19  -8.9929     78.0246    176.6750   1.1335781161e+02   2.8865320728e+01    0.1901193     0.158803  89.20 0.0004374022    1.100    0.091
        20 -10.4319     30.0161    180.5262   1.2399237114e+02   3.3886096677e+01    0.3042128    0.2949207  -6.47  0.001150979    1.588    0.370
        21  -8.5495    212.8983    160.5132   8.2160576009e+01   7.8817371855e+00    0.1877105    0.1659804   4.78 0.0003500732    1.015    0.015
        22  -8.6201     78.0045    161.0361   1.1137236399e+02   3.2244411113e+01    0.1868439    0.1639752  79.68 -0.003769674    1.033    0.032
        23  -8.6092    240.1691    149.1404   7.5028476876e+01   4.5121247977e+00    0.1641759    0.1559446 -23.92 0.0003247184    1.286    0.223
        24  -9.7121     67.9679    144.0476   1.1142815447e+02   3.7496770954e+01    0.5614011    0.3136525  59.43  0.002345843    1.921    0.479
        25  -8.0853    179.4918    136.5112   8.3369845923e+01   1.8636902224e+01    0.1469286    0.1398755   9.03 -8.870637e-05    1.007    0.007
        26  -7.4824    169.5521    134.4314   8.4981999388e+01   2.1138947791e+01    0.1473426    0.1408055  13.36 1.022571e-05    1.028    0.027
        27  -8.0916    250.5318    124.5503   6.7913429946e+01   6.0878839054e+00    0.1359468    0.1162276 -14.10 4.732251e-05    1.017    0.017
        28  -7.7407    187.2870    123.6475   7.8709112851e+01   1.9308451903e+01     0.149919    0.1185989 -69.20 0.0007023067    1.667    0.400
        29 -12.4866    242.9577    109.2426   6.5442346588e+01   9.7790839500e+00     2.109571    0.6068797 -31.47   0.00716302    3.085    0.676
        30  -7.5031    157.7253    240.3438   1.0541118630e+02   5.6801279811e+00    0.1071875   0.07839397  62.89 0.0005157189    1.621    0.383
        31  -9.7545    187.6841    103.1883   7.3362964121e+01   2.2924942248e+01    0.4129462    0.3359383 -77.95  0.001987224    1.579    0.367
        32  -8.9564    187.3863     97.7337   7.1940867342e+01   2.3972792542e+01    0.3563221    0.2648919 -12.23  0.001497398    1.549    0.355
        33  -9.6002    185.7375     91.8007   7.0614095029e+01   2.5422715079e+01    0.5032213    0.2722599 -47.62  0.001973252    1.981    0.495
        34  -8.6270    218.2263    102.9008   6.7758307846e+01   1.5995816389e+01    0.2541435    0.2140386  21.25 0.0008074974    1.258    0.205
        35  -8.6841    151.1847     97.1816   7.9548789980e+01   3.2630432919e+01    0.2726291    0.2593305   6.46 0.0007923579    1.096    0.088
        36  -8.7020    196.5082     97.2477   7.0078343085e+01   2.1906176199e+01    0.3019029    0.2848264  -6.12  0.001418966    1.045    0.043
        37  -7.7439    136.7164     94.5154   8.2309244986e+01   3.6479343307e+01    0.2141581    0.1533057  61.25 0.0008404647    1.587    0.370
        38  -8.9028    163.6980     88.8646   7.4306961958e+01   3.1289496558e+01    0.5594598    0.3052719  29.56  0.001925996    2.815    0.645
        39  -8.2927    101.8534     88.1263   9.0007776062e+01   4.5155949180e+01    0.2101076    0.1928163 -77.86 0.0002825287    1.146    0.127
        40  -8.9467    145.7209     85.9950   7.7572830712e+01   3.6140748313e+01    0.3248944    0.2621173 -21.77 0.0008312147    1.337    0.252
        41  -8.9725    250.4543     85.7528   5.8651925042e+01   1.1656388553e+01    0.2773717    0.1115161 -34.88  0.001126562    2.077    0.518
        42 -10.7070    181.2900     77.5168   6.7342197972e+01   2.9011694556e+01      0.66762     0.642671 -86.66   0.00230962    1.098    0.089
        43 -10.7386    238.4208     38.2707   4.7936308439e+01   2.0756115315e+01    0.4971013    0.3304394  41.77  0.001500278    1.855    0.461
        44 -10.2619    162.1779     78.0527   7.1388971894e+01   3.3671782360e+01    0.3781346    0.2879447 -15.71 0.0006175087    1.486    0.327
        45  -9.0066    222.6405     82.5935   6.1738968842e+01   1.8205213239e+01    0.5778691     0.172458 -44.45  0.001724222    3.721    0.731
        46  -9.1391    214.8628     73.2262   6.0376422027e+01   2.1467623200e+01    0.4112201    0.3690253 -73.29  0.001792412    1.217    0.178
        47  -9.2772    189.4770     71.2297   6.3966910205e+01   2.8017578177e+01    0.2658538    0.2563077  -8.01 0.0003888237    1.053    0.051
        48  -6.8299    133.3126     72.3045   7.6333459288e+01   4.1739682416e+01     0.158171    0.1232951   8.91 0.0005045891    1.616    0.381
        49  -8.8024    212.8058     66.6874   5.8865131088e+01   2.2956219938e+01    0.7141463    0.2889812 -56.34  0.001912325    5.058    0.802
        50  -9.7469    200.6626     63.4731   5.9806405308e+01   2.6438711811e+01    0.3430501    0.2552767  44.31 0.0008348246    1.448    0.309
        51 -10.0105    207.0022     59.5856   5.7706958223e+01   2.5441424496e+01    0.4463872    0.2995034  40.08  0.002047361    1.708    0.414
        52  -7.9359     69.5028     66.9631   9.4078701570e+01   5.5450367128e+01    0.2219768    0.1273854 -51.90 0.0004961127    1.574    0.365
        53 -10.1581    116.5066     67.0950   7.9084374161e+01   4.6579497583e+01    0.2567266    0.2387801  39.46 7.021818e-05    1.119    0.107
        54  -7.3691    128.1874     65.0166   7.5206555590e+01   4.4326565575e+01    0.2050329    0.1167177 -36.77 0.0003210293    1.701    0.412
        55 -11.2053    182.4716     60.2381   6.1872232833e+01   3.1560913848e+01    0.5756646    0.3803318  10.37  0.001589023    2.239    0.553
        56  -8.9026    212.6332     57.9213   5.6416638905e+01   2.4292214696e+01     0.356039    0.2509199 -16.99  0.001391098    1.522    0.343
        57 -10.5563    166.7895     57.4059   6.3876450287e+01   3.6054930290e+01    0.6447363    0.3998467 -63.66  0.002527131    2.214    0.548
        58 -11.1076    159.8410     49.3083   6.2536496311e+01   3.9126303174e+01      1.16068    0.6457676 -82.90  0.003564133    3.956    0.747
        59  -9.2891    188.1431     47.6114   5.7000325363e+01   3.1988440933e+01    0.7091993     0.265051 -37.75  0.002495532    2.433    0.589
        60 -11.2905    135.0471     39.0389   6.4084068476e+01   4.7032625777e+01    0.6194203    0.5091851  29.89  0.003136727    1.269    0.212
        61 -11.2271    141.9275     41.0134   6.3296424068e+01   4.4998072828e+01    0.5547776    0.4834416 -79.48  0.002168547    1.306    0.234
        62  -8.6235    111.4548     42.7553   7.1496415142e+01   5.2124486161e+01    0.2984401     0.133613 -38.65  0.001138294    2.155    0.536
        63 -10.9801    133.6348     32.3728   6.1842376711e+01   4.8336790727e+01    0.5032397    0.2999535  57.01  0.001654056    1.652    0.395
        64  -7.5249    160.6076     38.2241   5.8576523852e+01   4.0543352415e+01    0.2025905    0.1459974 -10.18  0.000351472    1.575    0.365
        65  -8.7363    167.9873    113.5686   8.0193547817e+01   2.5522373160e+01    0.3109038    0.2459867 -78.66 0.0008258123    1.667    0.400
        66  -8.7018    157.0295    110.7443   8.1900500660e+01   2.8560901769e+01     0.244033    0.2118857 -38.15 0.0003347798    1.137    0.120
        67  -7.4117     68.3219     29.9707   8.0210518413e+01   6.2928246248e+01    0.2229312   0.09777655 -53.30 0.0003481897    4.405    0.773
        68  -9.7459    213.5329    106.1434   6.9384824007e+01   1.6509776644e+01    0.2507493    0.2473134 -23.40  0.001439833    1.106    0.096
        69  -9.7424    248.3294     24.2779   4.3452431104e+01   2.0172430714e+01    0.4074826    0.2024318 -44.38 0.0009299696    1.712    0.416
        70  -8.7964    156.1939     27.1645   5.5457838818e+01   4.3157167531e+01    0.2071232     0.170893 -66.69 0.0004245665    1.326    0.246
        71  -9.0627    144.4726     25.4742   5.6970390084e+01   4.6445938078e+01    0.1475712    0.1418174  33.30 3.639019e-05    1.021    0.021
        72 -10.0379    126.1907    239.3010   1.1084797847e+02   1.0536852757e+01     0.192275    0.1565797  46.29 0.0002473029    1.078    0.072
        73  -7.4361    128.4014    224.7745   1.0885766868e+02   1.2410541542e+01    0.1230541   0.07191906  56.43 0.0006879303    1.653    0.395
        74  -8.6084    237.0323    213.0599   8.7798788431e+01  -3.1005035921e+00    0.1726567     0.135375  15.29 0.0003470439    1.046    0.044
        75  -8.5338    194.1663    197.5156   9.2621778403e+01   5.7418649527e+00    0.1880488     0.181346  61.07  0.001279951    1.336    0.252
        76  -9.4832    142.5293     15.9932   5.3714265211e+01   4.8045273853e+01    0.2367443    0.2012822 -66.05 0.0006284922    1.299    0.230
        77 -11.0459    232.7717    178.8890   8.2358994731e+01   1.7319258836e+00     1.102973    0.7183849 -55.38  0.005358113    2.919    0.657
        78 -11.2829    233.9453    194.9816   8.5168133852e+01  -5.0965467904e-01     1.777402    0.9010285  57.57  0.002544188    4.889    0.795
        79 -11.1656    224.7945    180.2818   8.3994928424e+01   2.8970101583e+00    0.6262154     0.508635  58.10   0.00260775    1.720    0.419
        80 -11.2429    223.4506    190.0907   8.6065734724e+01   1.8148008869e+00     0.802714    0.2756079  48.34 -3.378802e-05    3.484    0.713
        81  -8.4410    209.3292    197.6910   8.9905303536e+01   3.1563140665e+00    0.1127056   0.09898514  66.84 0.0007040261    1.663    0.399
        82 -12.0704     39.7642    173.7369   1.2140901035e+02   3.4283062846e+01    0.8749243    0.8123686  67.70   0.00531902    1.308    0.235
