#   1 NUMBER                 Running object number                                     
#   2 MAG_AUTO               Kron-like elliptical aperture magnitude                    [mag]
#   3 X_IMAGE                Object position along x                                    [pixel]
#   4 Y_IMAGE                Object position along y                                    [pixel]
#   5 X_WORLD                Barycenter position along world x axis                     [deg]
#   6 Y_WORLD                Barycenter position along world y axis                     [deg]
#   7 A_WORLD                Profile RMS along major axis (world units)                 [deg]
#   8 B_WORLD                Profile RMS along minor axis (world units)                 [deg]
#   9 THETA_WORLD            Position angle (CCW/world-x)                               [deg]
#  10 FWHM_WORLD             FWHM assuming a gaussian core                              [deg]
#  11 ELONGATION             A_IMAGE/B_IMAGE                                           
#  12 ELLIPTICITY            1 - B_IMAGE/A_IMAGE                                       
         1 -12.2368    170.4339     43.0510   7.2631432783e+01   3.7418295827e+01     1.127048    0.9328583  14.81  0.004695957    1.559    0.359
         2 -12.1008    187.0505     13.8141   6.2646515854e+01   3.6933737278e+01    0.9873071    0.8442763  63.71  0.005351972    1.181    0.154
         3 -10.8867    186.0956      7.8546   6.1309493762e+01   3.7769669511e+01    0.3984603    0.3438433  78.74  0.001906298    1.075    0.070
         4  -9.2925    119.3828      9.7400   7.2125599292e+01   5.3030214861e+01    0.5466511    0.2710033  33.90  0.002600249    2.252    0.556
         5  -9.9036    202.4870     10.7577   6.0179638917e+01   3.3646059832e+01    0.2453073    0.1525681  75.71 0.0008966682    1.380    0.275
         6  -7.5813    173.3607      9.2792   6.3223765175e+01   4.0629138038e+01    0.1314878   0.08338828  46.87 0.0004652626    1.668    0.401
         7  -7.8932    201.4365     17.4793   6.1839054583e+01   3.3152296991e+01    0.1269908    0.1090934  81.13 0.0008052262    1.092    0.084
         8 -18.3328     55.9465    232.5329   1.3932541784e+02   1.9058586554e+01     4.376289     3.456952 -82.03   0.01630716    1.218    0.179
         9  -8.0262    155.9519    230.0979   1.1890356787e+02   3.4943852711e+00    0.3164271    0.1901976 -79.44  0.001261617    3.404    0.706
        10  -8.7581    126.6392    187.7872   1.1825929044e+02   1.7630381194e+01    0.2837136    0.2154759  80.19 0.0004096874    1.520    0.342
        11  -8.1173    114.5516    187.6752   1.2104636341e+02   1.9864871729e+01    0.2552074    0.1585886  59.53 0.0006558318    1.756    0.430
        12 -10.3666    167.1414    228.4903   1.1635355735e+02   1.8084134757e+00     0.345937    0.2453557 -37.43  0.001243867    1.607    0.378
        13 -11.8518    248.5134    235.5507   1.0190968991e+02  -1.2516992551e+01    0.2333246    0.2023771   5.01  0.001639363    1.165    0.142
        14  -7.9008    195.5175    184.5514   1.0239151925e+02   4.8748225651e+00    0.1433568    0.1376085   4.66 1.764378e-05    1.010    0.010
        15  -8.2815    177.7200    228.2014   1.1415188009e+02  -6.5955262113e-03    0.1940025    0.1708093 -72.91 0.0009430551    1.418    0.295
        16  -8.5027    163.2034    179.1897   1.0825636763e+02   1.2406490775e+01    0.3186168    0.2450543 -72.11  0.001046354    1.573    0.364
        17  -9.0038    221.6694    178.0540   9.5863323314e+01   1.1438845836e+00    0.4819697    0.2115389 -54.30     0.001633    3.582    0.721
        18  -9.1623     19.4156    178.5690   1.4157102379e+02   3.5242657127e+01    0.2008928    0.1594675 -74.32   0.00134469    1.156    0.135
        19  -9.6521    204.5281    176.5879   9.8912584464e+01   4.6803072696e+00    0.3383861    0.3007194  17.09  0.001167469    1.142    0.125
        20  -7.9702      6.0069    176.5305   1.4423158038e+02   3.6911456652e+01    0.2213928    0.1089968  71.23 0.0007198781    2.108    0.526
        21 -10.1742      8.0541    171.2997   1.4332817661e+02   3.7928299504e+01     0.419892    0.2259846 -61.63  0.001870197    1.625    0.384
        22  -8.7602    135.6311    175.4245   1.1385443288e+02   1.8740475990e+01     0.316436     0.229464  82.65  0.001095867    1.793    0.442
        23  -8.2989    103.4874    175.5393   1.2157795334e+02   2.4666757694e+01    0.2958096    0.2205038 -31.88 0.0009092871    1.775    0.437
        24  -8.7162    105.0080    172.5051   1.2067104135e+02   2.5126350800e+01    0.3173904    0.2331766 -83.60  0.001303686    1.502    0.334
        25  -8.8899    119.8263    170.5647   1.1670124557e+02   2.2900322327e+01    0.4336405    0.2624804  76.28 0.0009346379    2.728    0.633
        26  -9.0274    111.0453    168.6645   1.1848709328e+02   2.4969534937e+01     0.408704    0.2631852  67.59  0.001468074    1.947    0.486
        27  -9.5952    186.5392    235.2976   1.1355828752e+02  -2.7453037548e+00    0.3353336    0.1685768 -43.41  0.001599219    2.213    0.548
        28  -9.7082     22.3690    167.4953   1.3977331838e+02   3.7530558558e+01    0.6432954    0.3429309   7.18   0.00284656    3.979    0.749
        29 -11.0643     27.7021    161.8595   1.3789301694e+02   3.8341583440e+01    0.4830309    0.3892952 -61.37  0.002467018    1.228    0.186
        30 -11.2256     23.3442    156.9577   1.3834240630e+02   3.9915099256e+01    0.7180759    0.4133824 -43.72  0.002860752    2.071    0.517
        31  -9.1881    189.8920    155.8568   9.7444481655e+01   1.1849809526e+01    0.4718313    0.3867133 -57.17  0.002077651    1.280    0.219
        32  -9.4705    193.4763    166.5713   9.9046461729e+01   8.8890962342e+00     0.416068    0.2689779 -42.16 0.0006900429    1.518    0.341
        33  -8.9989    190.3608    162.2216   9.8752716574e+01   1.0427094883e+01     0.374018    0.2759283 -57.44   0.00138434    1.489    0.329
        34  -8.2696    152.9300    164.3189   1.0752314554e+02   1.7791920784e+01    0.2644085    0.2074469 -63.74 0.0006945673    1.364    0.267
        35  -9.3044     19.5763    163.9494   1.4002424228e+02   3.8619472843e+01     0.201599    0.1687707 -30.97 0.0006528468    1.625    0.385
        36  -9.8832    175.6306    219.5014   1.1310576352e+02   1.9306410344e+00    0.3352358    0.2421594 -75.86  0.001649495    2.109    0.526
        37  -8.8224    137.6186    161.3043   1.1052025142e+02   2.1611826275e+01    0.2987715    0.2297406  82.33 0.0006115959    1.597    0.374
        38  -9.7625     93.0421    161.9090   1.2172524641e+02   2.9727455984e+01    0.7211264    0.2442991  51.34  0.002172748    4.028    0.752
        39  -9.0176     95.5098    159.2268   1.2060308332e+02   2.9967842841e+01    0.2904035    0.2362907  85.90 0.0006219784    1.286    0.222
        40  -9.0980    120.6858    164.8271   1.1537407082e+02   2.4097902628e+01    0.4353766     0.285446  81.84 0.0009208143    2.268    0.559
        41  -8.3762      8.4079    232.7700   1.4785780527e+02   2.4603309104e+01    0.1392932   0.08184651 -71.91 0.0004371701    1.580    0.367
        42  -8.6280    110.1742    214.2905   1.2617800336e+02   1.4691322475e+01    0.4523057    0.2734905  83.23  0.001989328    2.339    0.572
        43 -10.4020    134.2518    147.3564   1.0831817871e+02   2.5553014697e+01     1.139385    0.4230629 -59.23  0.003140984    4.092    0.756
        44  -8.4554    175.0428    151.5576   9.9676208197e+01   1.5938196633e+01    0.2240039    0.2034512 -46.07 0.0001283093    1.084    0.077
        45  -7.7473      1.4598    151.4153   1.4288539013e+02   4.2990646869e+01    0.1190901    0.0905554 -74.59 9.326688e-05    1.060    0.056
        46  -9.4968    144.6972    147.8874   1.0587387111e+02   2.3261946512e+01    0.5366376    0.3400107 -80.96  0.001928378    2.748    0.636
        47 -10.1075    221.6319    145.9897   8.8982617303e+01   7.2429356284e+00    0.2489409    0.2332409  52.88  0.000414662    1.161    0.138
        48 -10.1409      8.1256    145.6111   1.4068592428e+02   4.3841404056e+01    0.3093598    0.1864092  34.06  0.001860734    1.985    0.496
        49 -10.0321    121.0888    203.5841   1.2217594701e+02   1.5114458928e+01    0.3269158    0.2410276  84.48  0.000719722    1.566    0.361
        50  -8.0870    153.7743    203.6532   1.1497469018e+02   9.0696563989e+00    0.2241112    0.1718839 -79.94 0.0006368242    1.641    0.391
        51 -11.0805    193.3450    195.7137   1.0506329001e+02   3.1281351665e+00     1.194336    0.5664731 -59.67  0.003923864    4.030    0.752
        52  -9.3676     14.8110    142.4975   1.3866939967e+02   4.4048749393e+01    0.2360068    0.1373089 -70.07 0.0006113845    1.347    0.258
        53  -8.5846     20.9461    142.2596   1.3709086118e+02   4.3596020560e+01    0.1639348    0.1480518  85.85  0.000950581    1.171    0.146
        54  -7.9903    158.0340    141.0247   1.0110928246e+02   2.1959582894e+01    0.2550316    0.1938688 -84.81 0.0007112302    1.716    0.417
        55  -8.5586    173.8758    200.2834   1.1002264825e+02   5.9338274446e+00     0.352647      0.22293 -62.75  0.001411903    2.098    0.523
        56  -8.6115    171.4655    194.9253   1.0952769296e+02   7.4731248020e+00    0.2581588    0.2061919 -65.39 0.0007759604    1.461    0.316
        57  -9.9704    101.9140    129.8835   1.1279133579e+02   3.5947783892e+01    0.4106032    0.2824149  49.56 0.0008684656    1.558    0.358
        58  -9.9812     20.2340    128.7103   1.3539698944e+02   4.6834354088e+01    0.3288594     0.202573 -60.09  0.001899127    1.299    0.230
        59  -7.4762    168.9963    129.2318   9.5763924941e+01   2.2118640763e+01    0.1957552    0.1318488  48.48 0.0003221547    1.514    0.339
        60  -8.9656    119.6540    128.9466   1.0779214574e+02   3.2810732648e+01    0.2525572    0.2211205  21.03 0.0007943478    1.293    0.227
        61 -11.4470     34.7953    126.3829   1.3101148452e+02   4.6083427520e+01     0.623902     0.380493  21.15  0.003343191    2.080    0.519
        62  -9.0635    240.1847    127.9054   8.1780139414e+01   6.9384678642e+00    0.2086254    0.2013808 -89.16 0.0003391121    1.133    0.118
        63  -8.4864    131.7793    128.6303   1.0456189843e+02   3.0412735837e+01    0.2260574    0.1447832  55.02 0.0006903152    1.718    0.418
        64  -9.7755      2.1781    125.5825   1.3979557320e+02   4.8852060498e+01    0.2746096    0.1353735 -71.60   0.00132842    1.575    0.365
        65  -8.7276    108.0090    124.9834   1.0997115242e+02   3.5983495172e+01    0.2297241    0.2146812 -35.30 0.0004844392    1.095    0.087
        66  -7.6471    173.2404    124.3450   9.3622411166e+01   2.2201600439e+01    0.1532956    0.1235188 -12.68  0.000149732    1.564    0.361
        67  -9.9551     33.4841    121.0277   1.3046608364e+02   4.7467338332e+01    0.2249827    0.1734144 -24.27 0.0009737217    1.545    0.353
        68  -7.6938    113.4815    118.5364   1.0689416372e+02   3.6427606410e+01    0.1522659    0.1462653 -64.30 6.002444e-05    1.029    0.028
        69  -8.4891    162.0428    200.0259   1.1252222421e+02   8.2447473799e+00    0.3348703    0.2042278  32.77  0.001507373    1.730    0.422
        70  -9.1790     27.0601    119.3162   1.3201731410e+02   4.8448882684e+01    0.1692189    0.1510902 -64.50 0.0005385762    1.094    0.086
        71 -10.3383     10.2521    111.6643   1.3561784900e+02   5.1489551287e+01    0.4519502    0.2311569   4.29  0.002033945    2.933    0.659
        72  -7.8835    168.6662    114.3463   9.2122834508e+01   2.5355521362e+01    0.1662691    0.1232219 -80.93 0.0007049277    1.768    0.434
        73  -9.5767    103.1451    196.1225   1.2503855794e+02   1.9911506276e+01    0.3924794    0.2792475  86.35  0.001268254    1.566    0.362
        74  -8.3681     26.1862    113.2007   1.3121873931e+02   4.9935659925e+01    0.1715521    0.1366326 -88.65 0.0009805585    1.349    0.259
        75 -10.5036     60.6993    109.5561   1.2006567915e+02   4.7109832927e+01    0.3963662    0.2476496 -46.00  0.001999839    1.440    0.306
        76  -9.1744     92.9584    110.5133   1.1065135638e+02   4.2028615956e+01    0.2938539    0.1930498 -36.54 0.0008622783    1.590    0.371
        77  -9.4945     36.4668    107.1125   1.2697492409e+02   5.0396962920e+01    0.2413973    0.1652947  -6.45   0.00124967    1.927    0.481
        78  -9.8800     65.4594    105.8148   1.1773812573e+02   4.7333709575e+01    0.2656636    0.2205266  74.89  0.001478394    1.510    0.338
        79  -9.0252      2.3188    100.6238   1.3621885309e+02   5.4433374511e+01    0.2178102    0.1534957 -53.39 0.0005017217    1.138    0.121
        80  -7.7843     20.7849     95.3527   1.2954473809e+02   5.4377676811e+01    0.1504529    0.1112404  -7.13 0.0006632442    1.616    0.381
        81  -8.5951     86.0903     93.6670   1.0825652232e+02   4.6892373176e+01    0.2801301    0.1254542  45.20  0.001097645    2.520    0.603
        82  -7.4461     52.6615     93.7368   1.1885642607e+02   5.1644130081e+01    0.1332659    0.0928994 -23.57  0.000254995    1.589    0.371
        83  -8.3684     11.7248     89.5849   1.3133620595e+02   5.6266599216e+01    0.2005832    0.1166433   5.80  0.001150328    2.209    0.547
        84  -7.5206    142.5135     83.3986   8.9794926935e+01   3.7586899664e+01    0.1494202    0.1428772  34.37 8.915925e-05    1.060    0.056
        85  -8.7876    180.0220     82.0365   8.1356740455e+01   2.8943960863e+01    0.2168501    0.2041789 -78.21            0    1.016    0.016
        86  -7.3144    147.3089     81.6861   8.8178025658e+01   3.6797595537e+01    0.1528579    0.1185563 -79.65 0.0007028537    1.628    0.386
        87  -8.3604      3.6561     75.6803   1.3126305549e+02   5.9664065754e+01    0.1258403   0.06319416 -38.56 0.0007049584    1.724    0.420
        88  -9.7919    235.6729     72.1024   7.0063488851e+01   1.7682859024e+01    0.2488974    0.2125144  72.53 0.0003977755    1.221    0.181
        89  -8.6018    240.0839     67.9892   6.8598743097e+01   1.7382987449e+01     0.204219    0.1791553 -65.33 0.0004252991    1.060    0.057
        90  -8.4360    121.9682     66.7544   8.9968879937e+01   4.5142439559e+01    0.2198294    0.1967144 -27.68 0.0002743595    1.138    0.121
        91 -11.7252    157.9206     58.1432   7.9154849063e+01   3.8261914493e+01    0.8095303     0.572078  85.96  0.002960296    1.750    0.429
        92  -7.7287    178.2489     55.6065   7.4675516124e+01   3.3728291888e+01    0.1921993    0.1246215  52.28 0.0003065167    1.513    0.339
        93  -8.8687    189.0166    248.0162   1.1511158304e+02  -5.1980149845e+00    0.2444445    0.1611294 -50.99  0.001369627    1.909    0.476
        94 -10.3376    174.6904     35.1783   6.9818651748e+01   3.7418801324e+01    0.3352733    0.3135993  35.17 0.0007954423    1.237    0.191
        95  -9.6110    151.1702     46.9208   7.7263313589e+01   4.1519200368e+01    0.3616669    0.2418241  22.69  0.001553041    2.086    0.521
        96 -10.3096    133.6433     43.9002   8.0033574580e+01   4.6025068814e+01    0.2417754    0.2182398  41.44 0.0002663076    1.043    0.042
        97  -7.7915    144.6787     40.2753   7.6594596328e+01   4.3949081015e+01    0.1354306    0.1044101 -81.76 0.0002507465    1.576    0.365
        98  -9.2656    228.5480     23.5261   6.0326671702e+01   2.6236561524e+01    0.3142085    0.2207618 -38.82  0.001069501    1.530    0.347
        99  -8.4377    133.9274    248.3203   1.2594773753e+02   3.9674411686e+00    0.1848568    0.1602328  83.87 0.0004291096    1.240    0.194
       100  -8.5304    124.9846    244.9541   1.2727198030e+02   6.0682200115e+00    0.3393437    0.1627802 -56.96   0.00161541    2.377    0.579
       101  -9.1754    135.4964    195.8310   1.1765275043e+02   1.4179282360e+01    0.3682158    0.2410343 -77.07   0.00162395    2.036    0.509
       102  -7.5670    151.2102    246.3681   1.2227521724e+02   1.4016429537e+00    0.1160053   0.09613629 -12.62  0.000681548    1.570    0.363
       103  -9.3864    156.0845    191.5216   1.1225227596e+02   1.1170731408e+01    0.5514991    0.3104113 -69.50  0.002038991    2.925    0.658
