#   1 NUMBER                 Running object number                                     
#   2 MAG_AUTO               Kron-like elliptical aperture magnitude                    [mag]
#   3 X_IMAGE                Object position along x                                    [pixel]
#   4 Y_IMAGE                Object position along y                                    [pixel]
#   5 X_WORLD                Barycenter position along world x axis                     [deg]
#   6 Y_WORLD                Barycenter position along world y axis                     [deg]
#   7 A_WORLD                Profile RMS along major axis (world units)                 [deg]
#   8 B_WORLD                Profile RMS along minor axis (world units)                 [deg]
#   9 THETA_WORLD            Position angle (CCW/world-x)                               [deg]
#  10 FWHM_WORLD             FWHM assuming a gaussian core                              [deg]
#  11 ELONGATION             A_IMAGE/B_IMAGE                                           
#  12 ELLIPTICITY            1 - B_IMAGE/A_IMAGE                                       
         1 -11.9129    125.6245     27.9395   4.1407178716e+01   4.9943526637e+01    0.5605342    0.5299001 -38.15  0.003422017    1.146    0.127
         2 -12.4382    118.2259     43.7819   4.8672827236e+01   4.9721528601e+01     1.029434    0.6748611  43.09  0.004980335    1.482    0.325
         3 -11.2861    105.9967     20.5083   4.2883755801e+01   5.5520083787e+01    0.4704282     0.367815 -66.02  0.002585294    1.590    0.371
         4 -12.4838    119.4664     36.9553   4.5939155422e+01   5.0345746182e+01    0.8903307    0.5280832 -56.49  0.003877739    2.279    0.561
         5 -13.1708    163.7014     19.1212   3.2528684451e+01   4.1538111255e+01    0.4528406    0.2910273  38.08  0.001089437    1.910    0.476
         6 -11.8343     27.2858     27.6901   7.7096794745e+01   6.9672123251e+01    0.5773459     0.406918 -19.51  0.002754607    1.272    0.214
         7 -11.8396     35.9602     18.2584   6.7476064817e+01   7.0023037211e+01    0.8111767    0.3620144 -31.64   0.00381127    2.244    0.554
         8 -12.2689     20.2018     22.0112   7.8657094639e+01   7.1466391372e+01    0.6065658      0.25039 -42.43  0.002889954    2.182    0.542
         9 -10.6192     13.1501      9.4309   7.6707001094e+01   7.4291362594e+01    0.2985637    0.2169887 -34.49  0.000798896    1.343    0.256
        10 -12.7395     16.8165     13.3558   7.6383799981e+01   7.3273413834e+01    0.9341753    0.4504916 -10.12  0.003913098    3.276    0.695
        11 -12.0090     23.0289     11.4365   7.1277668472e+01   7.2825036390e+01    0.4922352    0.2966502   1.44  0.001957601    1.775    0.437
        12 -11.4475    183.2923     25.6342   3.2020188328e+01   3.6187881873e+01    0.4461675    0.2872719  52.30  0.002407331    1.664    0.399
        13 -10.6725    147.8042     16.4794   3.3840023713e+01   4.5682069108e+01    0.4533927    0.2387599  42.22  0.002080773    2.169    0.539
        14 -11.5766    136.5218     22.4784   3.7524910476e+01   4.7857313664e+01     0.810951    0.3058857  54.05  0.003275294    2.316    0.568
        15 -10.7237    120.4375     11.5349   3.6521981455e+01   5.2888315079e+01    0.5922554    0.4626139  13.97  0.002781186    1.489    0.328
        16 -11.9241    134.8684     15.2078   3.5367092878e+01   4.8994466899e+01     1.136879    0.5160202  82.93  0.004406691    2.872    0.652
        17 -10.5929    127.8218     16.1222   3.6851828021e+01   5.0645818048e+01    0.3899324    0.2325308  40.48  0.001326592    1.769    0.435
        18 -10.5101     87.1098      7.7302   4.2178017230e+01   6.1183792963e+01    0.5544215    0.2916348  61.91  0.002693846    1.747    0.428
        19 -11.0953     90.2278     19.5873   4.6531389391e+01   5.9306678588e+01    0.6418092    0.2802573 -34.91  0.002775383    2.476    0.596
        20 -11.4784     85.9485     14.0511   4.5309962337e+01   6.0856581574e+01    0.4406553    0.2969793 -10.88    0.0018116    1.660    0.398
        21 -11.7425     68.1877     18.0636   5.2882141299e+01   6.4268486598e+01    0.4379069    0.3759331  18.02  0.001496261    1.046    0.044
        22 -12.0525    228.3712     15.9295   2.5718503306e+01   2.7397028993e+01    0.3799886    0.2304105 -74.65 0.0006505856    1.564    0.360
        23 -11.2868    184.1743      5.7329   2.6739160807e+01   3.7984586475e+01     0.366027    0.2249313 -61.10  0.001650374    1.550    0.355
        24 -10.6921    187.7238     15.6169   2.8949954664e+01   3.6219585828e+01    0.4877343    0.2260304 -74.52  0.002077778    2.752    0.637
        25 -11.7335    191.9569      9.0448   2.6908987659e+01   3.5898831213e+01     0.518246    0.3144354  -1.54  0.001700587    2.673    0.626
        26  -9.9681    188.7226      4.3254   2.6000260752e+01   3.7071302010e+01    0.1831832    0.1426312  88.12 0.0002776785    1.137    0.120
        27 -11.6454    244.0197     14.1116   2.4332485124e+01   2.4524920923e+01    0.2056471     0.137275 -43.00   0.00132325    1.268    0.212
        28 -12.1368    104.6572     13.1815   4.0285090162e+01   5.6569506047e+01    0.4051298    0.3331586  -4.98  0.001162877    1.355    0.262
        29 -12.0397     48.8405     12.9773   5.8180698228e+01   6.8605194987e+01    0.5335097    0.2686621  45.89  0.002639826    1.893    0.472
        30 -11.6910    211.4854     10.1990   2.5648006309e+01   3.1488268820e+01    0.4612547    0.3082076  -1.43   0.00257848    2.374    0.579
        31 -10.5082    163.0328      8.9481   2.9679422422e+01   4.2678968118e+01    0.4709759    0.2037299 -18.46  0.002040646    2.907    0.656
        32  -9.7720      5.2150      9.5387   8.2533061609e+01   7.5032770602e+01    0.2974515     0.130577 -27.28  0.001457303    2.272    0.560
        33 -10.1304    168.6253      9.9178   2.9349062055e+01   4.1249543486e+01    0.3107558    0.1409011  57.29  0.001454444    2.079    0.519
        34 -10.1626    145.1745      9.6901   3.2068930453e+01   4.6961006636e+01    0.2131474    0.1860056  12.38 0.0004863655    1.367    0.268
        35 -11.1569    247.7210      5.4740   2.2411124571e+01   2.4703744466e+01    0.2248259    0.1772173 -83.91  0.001034432    1.213    0.176
        36 -11.0079    232.8787      7.1561   2.3575089525e+01   2.7388467416e+01    0.2278022     0.142676 -38.44  0.001462387    1.436    0.304
        37 -11.5272    241.8464      3.1273   2.2255105441e+01   2.6041223074e+01    0.2653201    0.1915897 -89.29  0.001313714    1.307    0.235
        38 -11.9141    237.0016      4.5761   2.2807985200e+01   2.6833298044e+01    0.3479823    0.1976134 -55.14  0.002196515    1.424    0.298
        39 -10.0973    157.8923      6.8979   2.9658779684e+01   4.4102559257e+01    0.1925814    0.1717608  83.23 0.0003783623    1.032    0.031
        40 -10.0023    156.9757      2.1005   2.8354566672e+01   4.4729730196e+01    0.3438805    0.1217189 -40.51 0.0009822402    2.729    0.634
        41  -9.8358     78.4428      7.3512   4.4385582352e+01   6.3176757418e+01    0.3636566    0.1704952  66.29  0.001425673    2.409    0.585
        42 -10.0144     76.5213      3.4800   4.3096696601e+01   6.3938388496e+01    0.2662485    0.1878525  39.83 0.0007203266    1.215    0.177
        43 -10.1770     72.8209      3.3774   4.4135234010e+01   6.4762454578e+01    0.2579772    0.1682246  30.36 0.0008709293    1.442    0.306
        44  -9.7717     62.9117      6.7991   4.9145013693e+01   6.6557742441e+01    0.2132064    0.1454283  29.89  0.001215022    1.312    0.238
        45 -11.0446    177.0248      5.9383   2.7433435744e+01   3.9626237210e+01    0.3266159    0.1765214  82.91 0.0008284439    1.737    0.424
        46 -10.4238    137.7032      4.3366   3.1352277208e+01   4.9251162534e+01    0.2376922    0.1964177  71.13 0.0004464445    1.058    0.054
        47 -11.4707    133.6734      2.3686   3.1249406444e+01   5.0397439450e+01    0.4422466    0.2299383  61.65  0.002210614    1.625    0.384
        48 -10.0142     41.5684      3.8466   5.6427255351e+01   7.0948937914e+01    0.3750603    0.1871067  -4.27  0.001655558    2.876    0.652
        49 -10.5646    218.6729      3.6696   2.3700035898e+01   3.0606444989e+01    0.2554475    0.2049291  67.63 0.0009357602    1.384    0.277
        50 -11.1486    223.8078      2.3106   2.3092496596e+01   2.9678486955e+01    0.2484969    0.2015835  68.70  0.001252848    1.389    0.280
        51 -10.0444    143.0822      3.8534   3.0496977975e+01   4.7970004017e+01    0.2462441    0.1588674  67.82  0.001090548    1.344    0.256
        52 -10.5801    207.4268      3.2018   2.4333378607e+01   3.3029954611e+01    0.2361185    0.1424769 -76.20 0.0006746225    1.526    0.345
        53 -10.0805    204.2574      1.5673   2.4173444875e+01   3.3865854202e+01    0.2050307    0.1025688  72.61 0.0006797101    1.852    0.460
        54 -11.1812    116.0872      2.5614   3.3983661923e+01   5.4695855496e+01    0.3510922    0.1917675  62.35  0.001776529    1.532    0.347
        55 -10.7176    105.3394      1.7653   3.5598740758e+01   5.7363181569e+01    0.2814028    0.1737057  77.82 0.0009392687    1.646    0.393
        56  -9.8473     12.6847      1.8667   7.2472928959e+01   7.5468795067e+01    0.2139165     0.129441  15.12  0.001032196    1.500    0.333
        57  -9.4887    152.3118      1.3738   2.8644905400e+01   4.5917665135e+01    0.1793081    0.1077781  85.76 0.0006520325    1.567    0.362
        58  -9.5037     82.0646      1.1429   4.0485310041e+01   6.2878148683e+01    0.1728834   0.07699724  60.23 0.0003718224    1.920    0.479
        59 -11.0244      2.5315      1.9307   8.0279188548e+01   7.6494937652e+01    0.3028614    0.1691562   2.08  0.001604029    1.738    0.425
        60  -9.9201    217.0988    138.7981   5.4715955402e+01   1.2091219951e+01    0.1950924    0.1740896 -37.48 0.0005108408    1.172    0.147
        61 -10.0105     40.5910    138.3714   1.0039087106e+02   4.2552234891e+01    0.2584789    0.1904192  78.63  0.001228504    1.471    0.320
        62  -9.9037     32.3434    137.8456   1.0295543467e+02   4.3493311378e+01    0.3230428    0.2142444  48.26  0.001163301    1.585    0.369
        63 -11.7278     22.6366    135.9055   1.0580938122e+02   4.4827516172e+01    0.4914413    0.4012798  33.59  0.002845951    1.324    0.245
        64 -11.5279     30.0124    133.0419   1.0306981931e+02   4.4936791959e+01    0.4234718      0.25131 -46.80 0.0005647325    1.688    0.408
        65  -9.7760     47.2866    134.8422   9.7691396427e+01   4.2739180252e+01    0.2263389    0.1715428  89.29 0.0008344877    1.415    0.293
        66  -9.5504     38.4750    133.1928   1.0032068489e+02   4.4097221583e+01    0.2150242    0.1641155  37.40  0.000624521    1.375    0.273
        67  -9.3351    138.4398    131.5117   6.9565452966e+01   2.8598158684e+01    0.1527488    0.1470331 -11.14 0.0004873068    1.014    0.014
        68  -9.4237    103.6788    130.9919   7.9065919465e+01   3.5373157722e+01    0.2071961    0.1917125 -43.22 0.0003646861    1.073    0.068
        69  -9.6349     93.1579    129.6420   8.1945220479e+01   3.7540373619e+01    0.2155983    0.2002809 -81.25  0.001136188    1.165    0.141
        70 -10.9770      9.9428    128.4913   1.0906511421e+02   4.7623955898e+01     0.426617    0.1730116 -65.25  0.001894361    2.006    0.502
        71 -10.8192     22.8601    126.9485   1.0462912594e+02   4.7101483643e+01    0.2096279    0.2030507 -57.78 0.0003368711    1.102    0.092
        72  -9.4519    223.7210    126.3425   5.0934648516e+01   1.2987475771e+01    0.1308628   0.09690059 -56.71 0.0003766704    1.627    0.385
        73 -10.1832      2.1474    125.9346   1.1133454201e+02   4.8722384450e+01    0.2055382     0.153752  76.39 0.0008584842    1.304    0.233
        74 -13.0515    103.8167    122.5110   7.7022495210e+01   3.7356529278e+01    0.3549214    0.3331412  -0.11 0.0005727425    1.075    0.070
        75  -9.2310     77.4323    123.4273   8.5574237900e+01   4.1629154385e+01    0.1469692    0.1441593 -54.41  3.44251e-05    1.028    0.027
        76 -10.4771     49.7009    122.8346   9.4828026050e+01   4.5546493854e+01    0.3003255    0.1938339  16.75  0.001147886    1.768    0.434
        77 -10.2153     45.1933    120.3837   9.5947944879e+01   4.6685440221e+01    0.3022574    0.2286992  57.16 0.0009457527    1.489    0.328
        78 -10.4333     43.6161    116.7634   9.5845835235e+01   4.7785250157e+01    0.3279324    0.2670639  16.00   0.00156532    1.343    0.255
        79 -10.4079      7.1999    114.4294   1.0844609287e+02   5.1353055549e+01    0.2493303     0.209946  74.41 0.0008028053    1.225    0.184
        80 -12.1729      2.4050    111.7686   1.0982727117e+02   5.2277257646e+01    0.4732311    0.2920934 -84.26  0.000854992    1.483    0.326
        81 -11.3635      3.9170    105.0957   1.0851836482e+02   5.3882302991e+01    0.4244304    0.3521068  12.76  0.001887215    1.406    0.289
        82  -9.6043     67.5423    114.7102   8.6975686175e+01   4.5282011060e+01    0.2663406    0.1724876  51.99  0.001178282    1.831    0.454
        83 -10.8217     35.1839    103.5480   9.6461551472e+01   5.2014294412e+01    0.6740152    0.2754457  13.19  0.002476369    3.267    0.694
        84 -11.7405     17.3971    100.9393   1.0285089981e+02   5.4139638344e+01    0.4030296    0.3137684 -52.09 0.0006168633    1.135    0.119
        85 -11.4965     35.4530     93.1715   9.4216491397e+01   5.4586986589e+01    0.6693047    0.4254456 -45.16  0.002847115    1.431    0.301
        86 -11.0314     25.3406     87.2433   9.7123800242e+01   5.6965070181e+01     0.815403    0.5139403  77.74  0.003763617    2.314    0.568
        87 -10.3120     29.3082     85.1573   9.4989055839e+01   5.7135816887e+01    0.4783905    0.2897189  56.44  0.001561232    2.328    0.570
        88 -11.5515     44.7529     84.9616   8.8430284844e+01   5.5583156753e+01    0.7972861     0.437529 -19.36  0.003184135    2.621    0.618
        89 -10.6011     37.3175     85.8917   9.1771961177e+01   5.6182871579e+01    0.3762818    0.2127337  15.82  0.001224475    1.992    0.498
        90 -12.7747     24.8641    107.0916   1.0101076431e+02   5.2025103867e+01     1.030689    0.6510428 -61.38  0.005307591    1.372    0.271
        91 -11.8691     18.0840     90.5466   1.0079903493e+02   5.6696795396e+01     0.544445    0.3107184 -66.38 0.0006767505    1.549    0.354
        92 -11.2704     21.6702    114.4590   1.0332463634e+02   5.0393500039e+01    0.5055162    0.2801405  -0.08  0.001914746    2.349    0.574
        93 -11.4254     28.2023    113.0842   1.0075811301e+02   5.0219286006e+01     0.669353    0.2759463  11.35  0.002551404    3.213    0.689
        94 -10.0222     48.7341    112.3067   9.3147303891e+01   4.8346517763e+01    0.2472579    0.2171986  66.74  0.001077674    1.268    0.211
        95  -9.4321     94.0074    112.5114   7.7581268446e+01   4.1507784107e+01    0.2139715    0.1287867  58.91 0.0006410244    2.375    0.579
        96  -9.7579    170.4990    110.4460   5.6830977504e+01   2.6199598125e+01    0.3096423    0.1416561 -38.86  0.001191497    2.098    0.523
        97  -9.6878     65.9723    110.4967   8.6564401971e+01   4.6557154808e+01     0.215055    0.1478687  27.27 0.0005013367    1.526    0.344
        98 -10.8103     16.1498    109.7196   1.0464073767e+02   5.1998008417e+01    0.3044745    0.1915893  52.66 0.0007238497    1.837    0.456
        99 -10.2693     18.1467    106.1620   1.0337988661e+02   5.2765255568e+01    0.2450381    0.1920209 -38.36 0.0008571163    1.265    0.209
       100  -9.3794    120.4256    109.4773   6.8810035382e+01   3.7075802074e+01    0.1566058    0.1469855  -9.17  0.000804697    1.063    0.060
       101 -10.0658    101.9614    109.0297   7.4164845747e+01   4.0844976255e+01    0.2492129    0.1886349  -6.23 0.0005241348    1.665    0.399
       102 -11.5472     79.9090    108.0783   8.1121352767e+01   4.5000039160e+01    0.5609213    0.3104036  28.93 0.0003982433    1.940    0.485
       103  -9.5287    175.5328    107.0125   5.4931079214e+01   2.5763910232e+01    0.2281052    0.1392185 -37.48 0.0006672274    1.562    0.360
       104  -9.6722    181.0237    105.3302   5.3429795000e+01   2.4900407918e+01    0.3466939    0.2060178 -10.91  0.001281061    2.966    0.663
       105  -9.7383    143.1613    105.9079   6.1839424166e+01   3.2997190170e+01    0.2382779    0.2109593 -74.53 0.0009849364    1.318    0.241
       106  -9.8417     89.1855    104.6150   7.7092611659e+01   4.4230384484e+01    0.2190286    0.1898515  27.55 0.0003703334    1.168    0.144
       107  -9.8007     85.6282    104.1031   7.8147186501e+01   4.4978264437e+01    0.2461254    0.2036911 -20.14 0.0007492458    1.291    0.226
       108 -10.1521     52.2248     95.8057   8.8164087336e+01   5.2045052507e+01    0.3028093    0.1823012 -62.87  0.001368442    1.694    0.410
       109 -10.0433     47.6712    102.7307   9.1524204233e+01   5.0885976410e+01    0.3012007    0.1923889 -53.29 0.0005414862    1.419    0.295
       110 -10.4111     50.6617    101.6955   9.0156238433e+01   5.0786121307e+01    0.4278114     0.194575 -46.51  0.001476859    2.063    0.515
       111 -10.2597    145.4745    100.0191   5.9671935059e+01   3.3663726872e+01    0.3091362    0.2365835 -13.79 0.0006814056    1.555    0.357
       112 -12.0091      9.4192     97.3410   1.0539723233e+02   5.5540883024e+01    0.5050065     0.373896  69.14 0.0008618577    1.545    0.353
       113 -12.2364      7.3520     89.1023   1.0497343907e+02   5.7704998679e+01    0.5314792    0.3921497   8.45  0.001413514    1.547    0.354
       114 -11.3871     23.0414     94.7109   9.9547851999e+01   5.5294906554e+01     0.389698    0.2753953 -18.66   0.00149884    1.560    0.359
       115 -10.7564     80.2428     98.1030   7.8379061012e+01   4.7314220941e+01    0.3933876    0.2794757  49.32  0.001741924    1.586    0.370
       116 -10.2729     82.8157     93.3832   7.6154191053e+01   4.7958821401e+01    0.3337574    0.1990399  28.13 0.0007551936    1.823    0.452
       117 -10.8215     78.7897     92.4639   7.7313434916e+01   4.8868759573e+01     0.452659    0.3433368 -41.31   0.00223167    1.277    0.217
       118 -11.3919     68.7883     95.6687   8.1840155233e+01   4.9747502455e+01    0.3641577    0.3053526   5.10 0.0006753047    1.266    0.210
       119 -10.7692     43.2049     94.3061   9.1357435483e+01   5.3490412886e+01    0.3481757    0.3055259 -43.57  0.001308242    1.035    0.034
       120 -10.4596    125.9350     94.1312   6.2989660304e+01   3.9149893492e+01    0.2976988    0.2626423   7.48 0.0006869405    1.214    0.177
       121 -10.7453    122.2141     93.2706   6.3758560415e+01   4.0135150654e+01    0.3237209    0.2401599 -39.79 0.0008937859    1.346    0.257
       122 -11.0141     98.3788     91.0957   7.0251737876e+01   4.5553881463e+01    0.2682477    0.2475945  27.78 0.0002471334    1.076    0.071
       123 -11.8601     89.1525     89.6634   7.2878900667e+01   4.7642219394e+01    0.4062854    0.3252686 -33.73  0.001158532    1.241    0.194
       124 -10.4787     49.4808     91.0526   8.8064177847e+01   5.3546190656e+01      0.29718    0.2229118  24.57  0.001544584    1.403    0.287
       125  -9.2549    152.4934     92.4555   5.5944165060e+01   3.3541161670e+01    0.1486433    0.1461964 -17.66 0.0002917209    1.004    0.004
       126 -10.1665    104.0901     88.3158   6.7606569657e+01   4.4997753779e+01    0.2765179    0.2048784 -29.15 0.0007881404    1.428    0.300
       127 -10.0110     66.3726     88.8995   8.0880238062e+01   5.1711797665e+01    0.3332887    0.2325676  -2.58  0.001129961    1.813    0.448
       128 -10.6377    143.3417     84.4167   5.5751188632e+01   3.7117283261e+01    0.2601648    0.2566115 -26.25 0.0005235571    1.013    0.013
       129 -10.8583    113.3956     83.2424   6.3243188688e+01   4.4072790033e+01    0.4796509    0.3733122 -82.36  0.002191486    1.839    0.456
       130 -10.7165     80.3442     83.7714   7.4175768795e+01   5.0550507666e+01    0.4834292    0.3471852 -42.88  0.002334426    1.359    0.264
       131 -10.9712     76.6229     78.7567   7.3966581653e+01   5.2301725054e+01    0.7005479     0.335866 -56.89  0.002573325    2.667    0.625
       132 -10.3821     72.8669     78.5329   7.5302774230e+01   5.2999928936e+01    0.4389053    0.3110295 -70.07  0.001983902    1.993    0.498
       133  -9.3143    165.5999     83.7810   5.0767806403e+01   3.2113159551e+01    0.2141534    0.1309528 -46.43 0.0009480647    1.648    0.393
       134 -10.0228     67.2704     81.8845   7.8483379781e+01   5.3178178266e+01    0.3685426    0.2564439 -19.03  0.001712932    1.689    0.408
       135  -9.7937     60.1831     83.2096   8.1658299663e+01   5.3957768121e+01    0.2266223    0.1910199 -21.41  0.001215858    1.164    0.141
       136 -10.2010      1.3129     80.6585   1.0618657820e+02   6.0060607142e+01    0.2648577    0.1061608 -75.10  0.001135967    2.309    0.567
       137 -11.5358     53.3362     76.5605   8.2488585765e+01   5.6449025295e+01     0.608919    0.4035207 -59.56  0.002941267    1.625    0.385
       138 -10.9209     58.2105     77.6445   8.0800065570e+01   5.5514006222e+01    0.3126434    0.2364305 -43.14  0.001008491    1.242    0.195
       139 -11.6256     13.8247     74.5303   9.9496855579e+01   6.0890060596e+01    0.5474073    0.3130977 -76.32  0.002683436    1.881    0.468
       140 -10.2414     14.2210     67.6642   9.7783446483e+01   6.2491650707e+01    0.4089166    0.2246656  11.15  0.002063484    2.008    0.502
       141 -11.7441    247.9710     75.8877   3.6831115940e+01   1.6273777451e+01    0.3829551    0.2220735 -83.45  0.001881765    2.799    0.643
       142 -11.4396     86.0842     72.8587   6.8620518263e+01   5.1788306971e+01    0.7383635    0.3325024  37.95  0.002821073    2.250    0.556
       143 -11.3008     79.2159     67.8483   6.9380097890e+01   5.4100508277e+01    0.7841781    0.5393453 -78.91  0.003116006    2.932    0.659
       144 -10.9063     72.8019     47.4249   6.4162398851e+01   5.9105135722e+01    0.3970501    0.2308419 -43.01  0.001311241    1.839    0.456
       145 -11.8752     75.0182     54.2880   6.6008723947e+01   5.7475038082e+01    0.6660894    0.3363735 -47.19  0.001673074    2.223    0.550
       146 -10.1655     94.7336     76.2396   6.6797493550e+01   4.9394328978e+01    0.3493303    0.2778055  53.59  0.001735985    1.388    0.280
       147 -10.1573    103.8426     74.8958   6.3445472599e+01   4.7767954510e+01    0.2703434    0.2308053  53.38  0.001316491    1.243    0.195
       148  -9.8452     24.7938     74.3941   9.4451753375e+01   6.0116123180e+01    0.2251986     0.166445 -65.19 0.0004428115    1.336    0.252
       149 -10.2126     13.9409     54.0605   9.4419823490e+01   6.5617533234e+01    0.3499621    0.1438601 -53.07 0.0002959626    1.939    0.484
       150 -11.5042      2.1255     71.4862   1.0427660672e+02   6.2237562719e+01    0.6456191    0.1900066 -69.06  0.002509171    2.832    0.647
       151 -12.4621      4.5900     62.2745   1.0126738820e+02   6.4295289193e+01    0.6835593    0.4014634 -19.15  0.001800819    1.761    0.432
       152 -11.6477     10.1861     62.3007   9.8489374691e+01   6.3990074407e+01    0.2733537    0.2080764 -34.06 0.0006989466    1.156    0.135
       153 -11.4480    187.3051     70.7731   4.3424855612e+01   2.9292593428e+01    0.6069559    0.3265927 -38.88  0.002540419    1.731    0.422
       154  -9.8613     29.6484     72.2886   9.1694756554e+01   6.0180000336e+01    0.2657265     0.162664  40.07  0.001311027    1.932    0.482
       155 -11.5130     41.0880     72.1302   8.6469974844e+01   5.9013286253e+01    0.4824135     0.293249 -58.66  0.001375169    1.654    0.396
       156 -10.9618     35.0058     71.8988   8.9142528820e+01   5.9738642599e+01      0.53582    0.2080152  33.48  0.002158829    2.700    0.630
       157  -9.2133    154.3579     72.2860   4.9774520820e+01   3.6671563349e+01    0.1515908    0.1128616  23.70 0.0005614729    1.677    0.404
       158 -11.2530    122.9445     68.9876   5.6058548922e+01   4.4608705277e+01    0.4680665    0.3209616  42.29   0.00135416    1.443    0.307
       159  -9.7158     26.2993     67.0415   9.1846934020e+01   6.1702695307e+01    0.3221763    0.1648864 -76.31  0.001262878    3.026    0.670
       160 -10.9675    220.1753     66.6559   3.7899978052e+01   2.2852326510e+01    0.4159661    0.2356394  68.05  0.002122553    2.007    0.502
       161 -11.4918     59.1895     63.6830   7.5840897767e+01   5.8389695468e+01    0.3420928    0.2749273 -55.80 0.0004697416    1.417    0.294
       162 -11.0274     21.0114     65.0416   9.3850463203e+01   6.2609156420e+01    0.2299856    0.1700264 -57.04 0.0004274254    1.249    0.199
       163  -9.8318    203.0372     64.4276   3.9530276970e+01   2.6761431734e+01    0.2972569     0.123884  58.72  0.001258459    2.481    0.597
       164 -10.1780    106.7717     63.6613   5.8776048539e+01   4.9215610614e+01    0.3665853    0.2239265  34.76  0.001240623    1.750    0.429
       165 -11.2337     91.9253     62.7246   6.3109807550e+01   5.2576342133e+01    0.5202072    0.3134753  58.00   0.00214197    2.096    0.523
       166 -10.2020     87.6514     56.6362   6.2338243432e+01   5.4556373862e+01    0.5345131    0.2150292 -35.43  0.001960948    2.642    0.622
       167 -10.1384     91.6499     57.1576   6.1185351311e+01   5.3633246003e+01    0.3689052    0.2569942  58.96  0.000824522    1.700    0.412
       168 -10.7521     52.7299     48.1412   7.2875864089e+01   6.2463919295e+01    0.4312013    0.2260365  29.17  0.001958154    1.944    0.486
       169 -11.6380     60.4379     47.3142   6.9140590219e+01   6.1360386944e+01     0.934814    0.4674234 -43.90  0.004132099    2.061    0.515
       170 -11.4496     40.5194     57.0080   8.1911402058e+01   6.2403393193e+01    0.4561726    0.2829693  46.12  0.001764908    2.108    0.526
       171 -11.4157     43.6107     62.5943   8.2355067901e+01   6.0826003260e+01    0.2562036    0.2299523 -37.42 0.0002866848    1.114    0.102
       172 -11.0919     52.2781     61.8520   7.8189843299e+01   5.9808689687e+01    0.3297913    0.2230356  38.76  0.001665091    1.602    0.376
       173 -11.2217     46.4589     58.8585   7.9770384392e+01   6.1246475754e+01    0.3812896    0.3350135 -59.44  0.001270873    1.349    0.259
       174 -11.2634    234.7452     60.8250   3.4966137231e+01   2.0767453766e+01    0.2828189    0.2763786  80.33  0.002019025    1.216    0.178
       175  -9.4096     65.0776     62.0182   7.2805607766e+01   5.7775565941e+01    0.1737562    0.1522309 -24.98 0.0004242995    1.082    0.076
       176 -10.5181    122.3239     60.1154   5.3293357889e+01   4.6260675100e+01    0.3747604    0.2878764  30.25  0.001863063    1.396    0.284
       177 -10.5209    117.6461     56.1063   5.3138725819e+01   4.8005011079e+01    0.3707337    0.2914186 -68.23  0.001438959    1.615    0.381
       178 -12.5315     43.3572     46.1608   7.6503244929e+01   6.4215270017e+01     1.097351     0.715257  40.99  0.001866057    1.764    0.433
       179  -9.4233    113.6248     60.1719   5.5617891065e+01   4.8269519926e+01    0.2102935    0.1408308 -22.16 0.0008964067    1.715    0.417
       180 -10.8431     32.7774     52.8889   8.4281074429e+01   6.4177225005e+01     1.181278    0.4806365 -35.58  0.004699333    2.628    0.619
       181 -10.9055     24.5008     59.4982   9.0574545565e+01   6.3570748773e+01    0.5264802     0.198362  30.41  0.002205723    2.764    0.638
       182 -10.9382     25.3933     55.8170   8.8998920624e+01   6.4301297520e+01     0.358225    0.2620978 -37.04  0.001167068    1.177    0.150
       183  -9.5973    135.5504     58.4297   4.9569816038e+01   4.3389182118e+01    0.2706493    0.1458821 -19.15  0.001029188    2.603    0.616
       184 -10.3944    107.0672     58.7439   5.6974790619e+01   4.9999700933e+01    0.2184627    0.2030877  77.24 0.0005761158    1.219    0.180
       185  -9.8156     51.0659     56.7035   7.6898585032e+01   6.1043596913e+01    0.2047884     0.169979   3.99   0.00115751    1.154    0.133
       186 -10.2242     20.6611     56.1714   9.1531609184e+01   6.4638857320e+01    0.3324333    0.2201235 -74.90  0.001717817    1.938    0.484
       187 -10.4174    237.9170     55.8843   3.3571576992e+01   2.0808806331e+01     0.167036    0.1538132 -30.14            0    1.222    0.182
       188 -10.4118    157.1424     54.6796   4.4033181210e+01   3.8746584789e+01    0.3991113    0.2582478 -61.46  0.001834827    1.864    0.463
       189  -9.9610     55.7135     50.9768   7.2656049533e+01   6.1460333369e+01    0.1862997    0.1632833 -12.95  0.000255882    1.033    0.032
       190  -9.7450      7.3777     54.1585   9.7917084394e+01   6.6005823180e+01    0.2483242    0.0954688 -58.81  0.001117142    2.075    0.518
       191  -9.7677    159.2343     62.5310   4.5962652825e+01   3.7073540622e+01     0.365416    0.1032031  49.27  0.001139038    3.550    0.718
       192  -9.5842    201.3868     53.2697   3.6974768387e+01   2.8672385692e+01    0.1850668    0.1095624 -43.43 0.0005399698    1.535    0.349
       193 -10.1540    240.4095     50.7935   3.2241720060e+01   2.0986103255e+01    0.1639605     0.106474 -25.74 0.0008357329    1.644    0.392
       194 -10.1262    121.6509    245.6993   9.3408555397e+01   8.2597910997e+00    0.1238955   0.08712631   1.80 0.0004603993    1.690    0.408
       195 -10.4414    109.2562     42.4089   5.0451665654e+01   5.2037334469e+01     1.318168    0.3147067 -39.85  0.003905089    4.394    0.772
       196 -11.1091    113.8474     38.1574   4.7711796221e+01   5.1536372559e+01    0.2633516    0.2396569 -34.77 0.0002952517    1.180    0.152
       197 -11.9453    126.9522    241.9050   9.1825827473e+01   8.1840905812e+00    0.3759214    0.3116769  53.31  0.002189576    1.375    0.273
       198 -10.7456    131.1181    241.1186   9.0839750496e+01   7.7495238792e+00    0.2474994    0.1565932  31.37  0.001113231    1.301    0.231
       199 -11.8964    106.8481     31.8435   4.7087122193e+01   5.4012168494e+01    0.6686498    0.3686919  15.99  0.002531411    3.149    0.682
       200 -12.2014    114.2482     25.2127   4.2813947213e+01   5.3024537937e+01    0.7005684     0.297829  55.95  0.001816873    2.029    0.507
       201 -10.4014    174.7138     48.6038   3.9384373713e+01   3.5396148662e+01    0.4717691    0.2046864  65.20  0.001934668    2.337    0.572
       202 -10.8764     12.7715     47.9449   9.3249706143e+01   6.7038325022e+01    0.4254576    0.1667306 -36.29  0.001843459    2.384    0.581
       203  -9.9170      2.2220     48.9689   9.9369063893e+01   6.7427747021e+01     0.211369    0.1664034  -5.35 0.0008594604    1.311    0.237
       204  -9.4597    201.6632     48.6834   3.5800947677e+01   2.9220473081e+01    0.1278436     0.100453  27.83 0.0007048196    1.699    0.411
       205 -10.4808    146.0495     46.4985   4.3591838104e+01   4.2593463392e+01    0.4000735    0.1968052 -32.13  0.001695632    2.096    0.523
       206  -9.9848     26.1726     48.0662   8.6012483350e+01   6.5878292899e+01    0.2096474    0.1460509 -28.51  0.000379765    1.286    0.222
       207 -11.1999     20.6145     46.0324   8.8305217497e+01   6.6824551539e+01    0.3306327     0.246343 -38.72 0.0009707424    1.143    0.125
       208  -9.7973     18.5704     41.6144   8.7890425485e+01   6.7917233241e+01    0.3529097     0.176592  27.19   0.00176603    2.096    0.523
       209 -10.0027    199.2670     44.8907   3.5140072949e+01   3.0241577646e+01    0.3327308    0.1643391  89.66   0.00133756    3.026    0.670
       210 -10.6500    136.8889     44.8194   4.4858040818e+01   4.5060769171e+01    0.7138005     0.182554  48.91  0.002171915    3.753    0.734
       211 -10.1558      8.3525     30.4932   8.9889451207e+01   7.0958576365e+01    0.5875928    0.2192948   6.04  0.002383687    3.465    0.711
       212  -9.7594      6.2809     43.5314   9.5572183927e+01   6.8402504284e+01    0.2563367    0.2325323 -56.91  0.001115812    1.244    0.196
       213  -9.4135      3.6976     39.3179   9.5805541061e+01   6.9443995949e+01    0.1816981    0.1589737 -35.68  0.000647402    1.123    0.109
       214 -11.0056      4.6494     36.0232   9.4175870906e+01   7.0079475483e+01    0.3276037    0.2402936  10.04 0.0008089452    1.431    0.301
       215 -10.3539     26.2932     43.0461   8.4117947914e+01   6.6891912586e+01    0.1846429     0.176827 -20.28 0.0006210983    1.249    0.199
       216 -10.6203     23.3648     37.6463   8.3658006734e+01   6.8260127834e+01    0.4698433    0.2725808  44.41  0.002309044    2.484    0.597
       217 -10.7705    235.1581     41.8145   3.0777825303e+01   2.3113023654e+01    0.1933358     0.138412 -59.48 0.0007689286    1.230    0.187
       218 -11.1760     79.5322     35.4907   5.6735345289e+01   5.9641829963e+01    0.7689568    0.4359696 -29.40  0.003623181    1.853    0.460
       219 -10.3126     93.2989     41.3916   5.4631816563e+01   5.5822296613e+01    0.4491999    0.2019622  42.56  0.001811121    2.134    0.531
       220  -9.7713    183.4991     38.0349   3.5294330593e+01   3.4693938318e+01    0.1881337    0.1656408 -84.33 0.0003200457    1.063    0.059
       221 -11.1081     60.9903     36.1983   6.4190558452e+01   6.3150399823e+01    0.4118611    0.2671279 -15.58  0.001303836    1.730    0.422
       222  -9.0829    206.5068     37.4443   3.2504664967e+01   2.9573271143e+01    0.1259837    0.1118683 -66.49 0.0002444243    1.022    0.021
       223 -10.3768    176.6241     36.0240   3.5637116853e+01   3.6552868180e+01    0.2694254    0.2085185 -49.82 0.0006482911    1.249    0.200
       224 -10.6624    153.2189     36.3141   3.9161209257e+01   4.2163351740e+01    0.2463256    0.2285527 -82.61 0.0003484053    1.050    0.047
       225 -10.5084     68.0077    240.6836   1.0440221190e+02   1.6017867604e+01    0.1777452     0.135582  38.73 0.0008364246    1.104    0.094
       226 -10.7720    155.7259     42.3776   4.0590044870e+01   4.0783466685e+01    0.2913178    0.2603945  54.01 0.0009276976    1.121    0.108
       227 -10.8174    158.1122     20.4884   3.3649483358e+01   4.2754645277e+01    0.3667928    0.1755004  66.84  0.001393329    1.886    0.470
       228 -12.0983    160.0475     29.7019   3.6117607526e+01   4.1280208422e+01    0.4153921    0.3502983 -39.28 0.0003635625    1.229    0.186
       229 -11.6325    164.4125     27.5638   3.4880582138e+01   4.0462852527e+01    0.2839888    0.2615617 -71.39 0.0006158423    1.055    0.052
       230 -10.8668    162.2431     23.3338   3.3939934828e+01   4.1451142288e+01    0.2040068    0.1582905  24.89  0.000214674    1.628    0.386
       231 -11.3381    148.9092    237.9836   8.6659693722e+01   5.8239839716e+00    0.4281671    0.2163074  31.29  0.001903696    1.651    0.394
       232 -10.6983    239.7094     32.7451   2.8467837834e+01   2.3305547082e+01    0.2297156    0.1984077  70.27 0.0008006918    1.345    0.256
       233 -10.1590     68.0774     32.0894   5.9472144850e+01   6.2446563584e+01    0.2323868    0.2219727  89.77  0.001052219    1.400    0.286
       234 -11.8767     57.9331     30.2643   6.2805494597e+01   6.4618265577e+01    0.4012466    0.2693979   3.36  0.001120561    1.708    0.414
       235 -11.7396     49.4060     30.3410   6.6702115178e+01   6.6074802057e+01    0.6123461    0.2633584  35.99  0.001797283    2.238    0.553
       236  -9.7465    229.8784     30.8633   2.8841481948e+01   2.5455144094e+01    0.1601625    0.1514948 -74.26 0.0003838941    1.199    0.166
       237  -9.5725     86.0286     30.6899   5.2531590163e+01   5.8914191378e+01    0.1978267    0.1680996  32.14 0.0008344467    1.060    0.056
       238  -8.9441    199.3241    235.3115   7.6140882119e+01  -5.3800335948e-01    0.1265669   0.07721959  -0.06 0.0005997091    1.657    0.396
       239  -9.1781     15.4775    233.5305   1.1495464129e+02   2.2957684085e+01    0.1108051     0.091534  60.40 0.0008086229    1.065    0.061
       240 -10.2016    246.9895    231.2773   6.7048499193e+01  -5.6976732405e+00    0.1356104   0.08210105  21.38 0.0006589497    1.485    0.326
       241  -9.4960     23.5221    231.5550   1.1320155994e+02   2.2595339647e+01     0.116198   0.09119238  57.84 0.0002668696    1.018    0.017
       242 -10.1893    233.3916    227.2019   6.8667515226e+01  -3.6414010444e+00     0.149028   0.09739393 -35.43 0.0009467078    1.682    0.405
       243  -9.3373    152.7070    219.3250   8.3139315796e+01   8.4188723627e+00    0.1220248    0.1003521  57.42 0.0003465186    1.618    0.382
       244 -10.9090    189.2024     27.4693   3.1849435319e+01   3.4616116939e+01    0.3292221    0.2855356  -2.63  0.001697202    1.454    0.312
       245 -10.1648    164.5681    212.0804   7.9430474491e+01   7.9169669424e+00    0.2435693    0.1725364  21.36 0.0006921422    1.258    0.205
       246  -9.1624     99.6846     30.3514   4.8381722619e+01   5.5875190248e+01    0.1390933    0.1081721 -70.06  0.000598927    1.732    0.423
       247  -9.7091    150.2113     27.3693   3.6880304493e+01   4.3950644690e+01    0.1875364    0.1216479  79.36 0.0002993937    1.571    0.364
       248 -11.5288    241.3724     25.9423   2.6923639423e+01   2.3757483761e+01    0.2244638    0.1710958 -72.03  0.001269081    1.172    0.147
       249 -10.3473    230.9223     26.3600   2.7781013972e+01   2.5756514855e+01    0.1652556    0.1381475 -81.50  0.001150502    1.142    0.124
       250 -10.7331    154.0554     24.4497   3.5406084648e+01   4.3327789218e+01    0.3892835    0.2173636  79.51  0.001813937    1.882    0.469
       251 -10.0303    152.9444    207.5025   8.1213761152e+01   1.0487634026e+01    0.2347968    0.2009341 -69.69  0.001004314    1.625    0.385
       252 -11.0970    143.6848     25.0826   3.7191015945e+01   4.5810015837e+01     0.381103    0.1933072  67.73  0.001722031    1.844    0.458
       253 -10.7710    149.1170     21.9892   3.5371208155e+01   4.4801793558e+01    0.2787196    0.2218673   6.16  0.001111823    1.568    0.362
       254  -9.1586     61.4914    206.5001   1.0275251981e+02   2.3743537880e+01    0.1291084    0.1145828  54.41 0.0008106344    1.003    0.003
       255  -9.7657    238.5946    204.2058   6.3864342056e+01  -1.1948036753e+00     0.173551   0.09135205 -23.48 0.0009490929    1.695    0.410
       256  -9.3372    100.7592    204.0073   9.2891510325e+01   1.9054803108e+01    0.1691388    0.1161513 -59.42 0.0006472174    1.610    0.379
       257  -8.9654    213.6481    203.7292   6.8170701959e+01   2.1566384864e+00    0.1306386   0.08245511   1.10 0.0005688092    1.631    0.387
       258  -9.6782    214.2512     24.6314   2.8743851011e+01   2.9387159666e+01     0.166357    0.1039452  65.35 0.0009530398    1.646    0.393
       259 -10.1099     59.7855     23.7557   5.8924620467e+01   6.5205712308e+01    0.2140076    0.1634499  -6.79 0.0004847767    1.294    0.227
       260 -10.4688     13.8919     23.4038   8.3345878420e+01   7.1852635290e+01    0.2105541    0.1462564 -33.14 0.0004044599    1.214    0.176
       261 -10.7957    178.6363     21.0381   3.1310966044e+01   3.7774168642e+01       0.4331    0.2226071  40.58  0.001854964    2.694    0.629
       262  -9.7506    169.5235     23.4954   3.3055143150e+01   3.9677780446e+01    0.2848079    0.1178029  67.53  0.001219665    2.217    0.549
       263  -9.8857    233.7257    196.6441   6.3335391618e+01   4.9382737894e-01    0.2321194    0.1230212 -25.32  0.001249031    1.689    0.408
       264  -9.1751     83.5194    195.5744   9.6044821374e+01   2.3312780365e+01     0.136347    0.1227778  47.09 0.0001244231    1.027    0.026
       265 -10.7409    246.4797    193.4626   6.0649898201e+01  -6.9813149643e-01    0.2467825   0.09812281 -35.15  0.001209014    2.164    0.538
       266 -11.1235    249.6239     21.8074   2.5529474022e+01   2.2656661699e+01    0.2300224    0.1250496 -75.00   0.00135095    1.877    0.467
       267  -9.9153    170.3914    191.1371   7.4540439916e+01   1.0729893877e+01    0.3718079    0.1777547  17.45  0.001321376    3.362    0.703
       268  -9.7451     74.4364     19.7267   5.1470042192e+01   6.2771758217e+01     0.173502    0.1453019  38.09 0.0005369821    1.073    0.068
       269 -10.3739     46.9336     19.3997   6.2476618459e+01   6.8105553983e+01    0.2552579    0.2039716  -9.38  0.001323173    1.159    0.137
       270  -9.3426     16.3324    191.3141   1.1243808715e+02   3.1837943490e+01    0.1188274   0.08819819 -43.07 0.0007045601    1.682    0.405
       271 -12.3552      4.4133    184.3185   1.1489416417e+02   3.4389849540e+01    0.6095652    0.3694216  77.49  0.003289014    1.476    0.322
       272  -9.0643     85.6870    185.6763   9.4147092849e+01   2.5243028169e+01    0.1402886    0.1067888 -21.11 0.0007040505    1.659    0.397
       273  -9.9854    239.9434    184.3813   6.0044166063e+01   1.4397779192e+00    0.1691521    0.1356215   1.46 0.0006425495    1.125    0.111
       274  -9.6906    250.3097    177.3322   5.7078388104e+01   1.0777696510e+00    0.1263176   0.07785685  -7.69 0.0007042283    1.671    0.402
       275  -9.6956     28.1535    175.8317   1.0827413155e+02   3.4408200715e+01    0.1719086    0.1478414 -47.78   0.00071154    1.319    0.242
       276  -8.9832    230.2968    175.3609   5.9939263817e+01   4.1257503730e+00    0.1345189   0.08450897  -8.04 0.0007033169    1.710    0.415
       277 -10.3365     51.8791    173.2898   1.0160645343e+02   3.2554578910e+01    0.4204514    0.2037595 -88.31  0.001647277    2.812    0.644
       278 -10.1824     39.2270    173.4187   1.0507636553e+02   3.3905499078e+01    0.1929211    0.1092182  41.00 0.0009514699    1.674    0.402
       279  -9.2714    170.5026    171.5705   7.0761244706e+01   1.4358374423e+01    0.1438032    0.1270313   0.80 0.0002379399    1.027    0.026
       280 -10.0338      6.2338     12.6130   8.3393215746e+01   7.4426440415e+01    0.3278885    0.1067398  20.71  0.001439007    3.092    0.677
       281  -9.9257    245.7644    169.7430   5.6346969183e+01   2.7860192382e+00    0.1667356    0.1028603  50.69 0.0008950147    2.480    0.597
       282 -10.2357     35.3064    169.0283   1.0569645955e+02   3.5371178818e+01    0.1894181    0.1646875  88.77 0.0008558981    1.056    0.053
       283 -12.5677      9.8168    166.3955   1.1238465833e+02   3.8210234463e+01    0.5831256    0.3680989 -66.35  0.002408018    1.472    0.321
       284  -9.8856     65.7651     10.4516   4.9994059700e+01   6.5604559032e+01    0.3026604    0.1091454  51.62  0.001257022    2.393    0.582
       285 -11.5809     13.9039    158.0645   1.1062394278e+02   3.9936123943e+01    0.4794547    0.1924772 -70.55  0.002056798    2.137    0.532
       286  -9.5697    198.2626    167.9876   6.4292418062e+01   1.0297817492e+01      0.19448    0.1624304 -18.70 0.0006074891    1.066    0.062
       287  -9.5515    156.7070    166.3326   7.2811757101e+01   1.7808840759e+01    0.1381979    0.1190429  84.72 0.0003298957    1.635    0.388
       288  -8.7620    152.2971    166.6760   7.3912531417e+01   1.8524819282e+01    0.1391831    0.1190465  80.62 0.0004606264    1.625    0.385
       289 -10.9400     18.7329    164.9764   1.0986855369e+02   3.7861090780e+01    0.2895098    0.2262098  -0.60  0.001720369    1.616    0.381
       290 -10.0740     38.6500    161.7526   1.0397260783e+02   3.6830854583e+01    0.3811305    0.1676006  59.27  0.001459177    2.923    0.658
       291 -10.5518    205.0706    163.1634   6.2006266305e+01   1.0003479657e+01    0.2340282    0.1973413 -15.56 0.0006955732    1.028    0.027
       292  -9.5077     78.7705    159.9905   9.2128644395e+01   3.2331671250e+01    0.2391618    0.1618201  77.71  0.001066343    1.959    0.489
       293 -10.0679    224.0053    158.1470   5.7596113304e+01   7.7781922192e+00    0.2824709    0.1670946 -56.83  0.001236875    2.937    0.659
       294  -9.9231     54.0998    156.9120   9.8867574515e+01   3.6340299804e+01    0.4605876    0.2314173  78.02  0.001616044    3.426    0.708
       295 -10.9200      9.3565    155.3400   1.1167715308e+02   4.0937805560e+01    0.2734871    0.1399982 -87.10  0.001210007    1.820    0.450
       296 -10.7941     30.5406    151.9755   1.0522963076e+02   4.0066076593e+01    0.2506194    0.2097785   4.48   0.00133649    1.412    0.292
       297 -10.3540    104.9833    154.0492   8.3580901641e+01   2.9660132793e+01    0.2409961    0.2333627   5.83  0.001333519    1.022    0.022
       298 -12.1254     22.5216    149.2953   1.0732252757e+02   4.1440759401e+01    0.6928869     0.330775 -34.53  0.001897407    2.986    0.665
       299 -10.6829    198.4785     28.9999   3.1262425308e+01   3.2339500379e+01    0.3669444    0.1848804  52.49  0.001776255    2.212    0.548
       300 -11.5413      3.0863    152.8847   1.1324890686e+02   4.1958806017e+01    0.4159149    0.3917446 -55.07  0.002871521    1.205    0.170
       301 -10.6638      3.2716    147.4262   1.1279304199e+02   4.3290818406e+01    0.2211487    0.1750912 -89.95 0.0006659023    1.089    0.082
       302 -12.4024      2.3304    141.6576   1.1262104777e+02   4.4777258619e+01    0.6887846    0.3537782  62.49  0.002852042    2.049    0.512
       303 -11.4782     47.3496    147.4160   9.9564498378e+01   3.9516311762e+01    0.7626086      0.46276 -40.37  0.003561544    1.869    0.465
       304 -10.0889     64.1281    150.3260   9.4881419258e+01   3.6747394300e+01    0.2726662    0.1393075  17.70  0.001067384    2.500    0.600
       305 -11.4826     15.9167    147.9944   1.0915148722e+02   4.2287513064e+01    0.3161621    0.2601296  46.70 0.0009181799    1.253    0.202
       306  -9.2945     74.3904    145.8276   9.0995409579e+01   3.6472046316e+01    0.2108463    0.1279457 -49.24 0.0005772653    1.636    0.389
       307 -11.2137     33.4017    144.6941   1.0350082839e+02   4.1644788796e+01    0.3862499    0.2677712  49.82 0.0007460243    1.488    0.328
       308 -10.3431    232.8219    143.3268   5.3111025624e+01   8.7411988593e+00    0.2347109    0.1216715  52.99  0.001097958    2.688    0.628
       309 -11.9432     12.3093    137.0826   1.0918748689e+02   4.5293388001e+01    0.5469887    0.3645866 -56.88  0.003040096    1.397    0.284
