#   1 NUMBER                 Running object number                                     
#   2 MAG_AUTO               Kron-like elliptical aperture magnitude                    [mag]
#   3 X_IMAGE                Object position along x                                    [pixel]
#   4 Y_IMAGE                Object position along y                                    [pixel]
#   5 X_WORLD                Barycenter position along world x axis                     [deg]
#   6 Y_WORLD                Barycenter position along world y axis                     [deg]
#   7 A_WORLD                Profile RMS along major axis (world units)                 [deg]
#   8 B_WORLD                Profile RMS along minor axis (world units)                 [deg]
#   9 THETA_WORLD            Position angle (CCW/world-x)                               [deg]
#  10 FWHM_WORLD             FWHM assuming a gaussian core                              [deg]
#  11 ELONGATION             A_IMAGE/B_IMAGE                                           
#  12 ELLIPTICITY            1 - B_IMAGE/A_IMAGE                                       
         1 -11.8945    228.1498     32.6539   2.5005375042e+01   2.5132471440e+01    0.6999926    0.5665476 -40.16  0.003037103    1.010    0.010
         2  -9.9920    250.0000     12.9886   1.9090385801e+01   2.2871448579e+01    0.3600979     0.171341 -22.42  0.001617904    1.874    0.466
         3 -10.6619    249.5984      9.1870   1.8256849782e+01   2.3287477331e+01    0.5638806    0.2708233 -18.33  0.002907767    2.069    0.517
         4  -8.9843     32.7012     14.8472   6.1871564278e+01   7.3487161842e+01    0.2733902    0.1102266 -35.08  0.001079155    2.567    0.610
         5  -8.4881     33.0000      2.9671   5.2686388554e+01   7.5281534053e+01    0.2175594   0.07112359 -32.55 0.0008110067    3.002    0.667
         6  -8.6641      7.9998      2.3365   7.3296517211e+01   7.9191563794e+01    0.2039486   0.09584595   2.91 0.0003317734    4.431    0.774
         7 -11.0722    108.6064    229.2239   8.7352991096e+01   1.5600121435e+01    0.3466451    0.1901575  36.39  0.002063662    1.439    0.305
         8 -10.8833     71.9844    246.0695   9.6296081839e+01   1.7178754248e+01     0.365829    0.2634832 -85.18  0.002677836    1.778    0.437
         9 -13.7783     31.7465    193.0830   1.0172818319e+02   3.0965638517e+01     3.553902    0.6962325  44.29   0.00466354    3.385    0.705
        10 -14.0691     40.1929    185.0904   9.9086095466e+01   3.1809883325e+01     4.561088     1.399058  55.99   0.01647528    3.839    0.740
        11 -10.2726     58.0459    170.4807   9.3076673886e+01   3.3026650697e+01    0.3970821    0.2762824 -25.00  0.001788729    2.047    0.511
        12 -10.1785     63.4630    165.7351   9.1062556184e+01   3.3428244553e+01    0.3394092    0.2674114   3.53 0.0008539346    1.555    0.357
        13  -9.1116    110.7156    167.6352   7.8877337190e+01   2.6337357400e+01    0.2214633     0.206743  -9.27 0.0005202403    1.126    0.112
        14 -11.4080     73.9978    156.8434   8.6971485613e+01   3.4064245324e+01    0.7031433    0.4209702  55.57 0.0006206595    1.795    0.443
        15 -11.9527     69.5597    144.6832   8.6466925062e+01   3.7503208846e+01      0.81839    0.5815656  78.57  0.003103014    1.635    0.389
        16  -9.7374     80.1215    152.1765   8.4548266729e+01   3.4267914138e+01    0.2929414    0.2799678  30.04 0.0004740797    1.074    0.069
        17  -9.8488     83.4178    149.2808   8.3151842476e+01   3.4446847580e+01    0.4343121      0.25662 -57.98  0.002053997    1.754    0.430
        18 -11.3755     22.0642    146.8601   1.0119091843e+02   4.2295095991e+01    0.4211045    0.3263218  62.55  0.002276015    1.153    0.132
        19 -11.0179     58.5234    132.4554   8.7998092567e+01   4.1952855665e+01    0.6140181    0.3176494 -85.60  0.002395468    2.656    0.623
        20  -9.3632     97.0892    138.0530   7.7255193829e+01   3.4854907833e+01     0.395732    0.2882295  -3.34   0.00185395    1.901    0.474
        21 -11.6983     60.4743    152.7290   9.0293171318e+01   3.6797726782e+01    0.4621253    0.3315797 -40.59  0.001176286    1.662    0.398
        22 -10.5176     84.2073    136.9069   8.0784517458e+01   3.7190248413e+01    0.2835732    0.2751915 -45.93 0.0004805951    1.083    0.077
        23  -9.3696    106.9047    129.9649   7.2831115604e+01   3.4978742097e+01    0.4385004    0.3127417  13.61  0.002035947    1.770    0.435
        24 -15.5651     10.6000    240.0215   1.0830917956e+02   2.4046693220e+01     9.150567     4.567626 -87.19    0.0537582    2.182    0.542
        25  -8.3244    105.8263    118.1276   7.0462667130e+01   3.7813698739e+01    0.2149453    0.1981698  70.76 0.0003193574    1.165    0.142
        26 -10.1784    125.2874    230.6749   8.4097509151e+01   1.3322730015e+01    0.2642511    0.1337292 -47.42  0.001519662    2.407    0.585
        27 -10.1155    133.2679    230.4813   8.2476942644e+01   1.2358562037e+01    0.3619405    0.1915855  -2.33  0.001529879    4.045    0.753
        28  -8.5348    231.1861    113.8846   4.3899257292e+01   1.4677096244e+01     0.185509    0.1531276 -32.18  0.001218269    1.189    0.159
        29  -9.1528     33.0000    108.9460   9.3313052708e+01   5.0926862717e+01    0.3859039   0.07483454 -70.45  0.001038006    4.814    0.792
        30 -10.6151     13.1273     60.6938   9.3823937255e+01   6.5268129890e+01    0.3752522      0.18905 -64.54  0.001353453    1.686    0.407
        31 -10.8351    202.2028     51.3717   3.2230254015e+01   2.8416810571e+01    0.3599657    0.3042118 -85.80   0.00115392    1.312    0.238
        32 -12.0705    211.3083     45.5878   2.9734362188e+01   2.7162381686e+01     1.023707    0.7617716  33.40  0.005380319    1.680    0.405
        33 -10.5886    221.6302     37.3722   2.6689761709e+01   2.5944561614e+01    0.3327493    0.2806777  27.12  0.001097667    1.467    0.318
        34  -9.4296     51.8131    247.1714   1.0040181994e+02   1.9094512015e+01    0.1314809    0.1112361  23.53 0.0004050383    1.277    0.217
        35  -8.1054     73.6804     43.3274   5.6885610708e+01   6.0492364030e+01    0.1492133    0.1192768 -79.19 0.0007047101    1.683    0.406
        36  -9.2199     32.7754     29.7305   7.0745691168e+01   7.0628884030e+01    0.4162764   0.09718157 -48.04  0.001292635    3.825    0.739
        37  -9.4557    127.3060    210.4036   8.1243893504e+01   1.6190957781e+01    0.3151362     0.158836 -64.89  0.001446351    3.512    0.715
        38 -11.0336     78.7849    236.7681   9.4228531805e+01   1.7903392844e+01    0.2824003     0.226451 -59.89  0.001912965    1.585    0.369
        39 -13.8916      8.4722    208.5743   1.0785916674e+02   2.9902171149e+01     1.744497     1.115483 -83.76  0.005921026    1.631    0.387
        40 -11.3220    114.8514    229.6356   8.6107627153e+01   1.4769637654e+01    0.4009609    0.2278369 -56.20  0.002418358    2.259    0.557
