#   1 NUMBER                 Running object number                                     
#   2 MAG_AUTO               Kron-like elliptical aperture magnitude                    [mag]
#   3 X_IMAGE                Object position along x                                    [pixel]
#   4 Y_IMAGE                Object position along y                                    [pixel]
#   5 X_WORLD                Barycenter position along world x axis                     [deg]
#   6 Y_WORLD                Barycenter position along world y axis                     [deg]
#   7 A_WORLD                Profile RMS along major axis (world units)                 [deg]
#   8 B_WORLD                Profile RMS along minor axis (world units)                 [deg]
#   9 THETA_WORLD            Position angle (CCW/world-x)                               [deg]
#  10 FWHM_WORLD             FWHM assuming a gaussian core                              [deg]
#  11 ELONGATION             A_IMAGE/B_IMAGE                                           
#  12 ELLIPTICITY            1 - B_IMAGE/A_IMAGE                                       
         1  -8.7966     12.9311     30.1457   1.0546300973e+02   6.8028545851e+01    0.3095039    0.1511828 -64.80  0.001577346    2.440    0.590
         2  -9.0736     63.5897     21.0171   7.9983254340e+01   6.3874267972e+01      0.35053    0.1865977 -41.40  0.001592581    1.980    0.495
         3  -8.6004     55.8302     10.1310   7.7826319531e+01   6.6576451023e+01    0.1750048    0.1549577 -21.98 0.0007168075    1.313    0.238
         4  -7.7948     47.5285     10.0455   8.1184171236e+01   6.7802501302e+01    0.1538045   0.09722212 -49.54  0.000807801    2.405    0.584
         5  -8.1309     90.9402      9.0236   6.5355554969e+01   6.0382890380e+01     0.193319    0.1588062 -56.45 0.0006730486    1.699    0.411
         6  -7.7047    101.4318      8.4387   6.2231206576e+01   5.8225776775e+01    0.1315558    0.1191649  20.22 8.341826e-05    1.060    0.057
         7  -8.9523    138.1179      4.2583   5.2643902561e+01   4.9978515076e+01      0.26294    0.1882644 -30.06 0.0002092599    1.501    0.334
         8  -8.5411     33.1683      5.0168   8.5046606666e+01   7.0346136019e+01    0.2448404    0.1365559 -50.67  0.001220391    3.012    0.668
         9  -8.5122     79.2406      4.3090   6.6666881470e+01   6.3197219995e+01    0.2387064    0.1523872 -29.44  0.000789004    1.609    0.379
        10  -7.8813     44.4323      3.2157   7.9004001515e+01   6.9125312922e+01    0.1573248   0.09823083 -35.18 0.0006522147    1.636    0.389
        11  -8.4123     62.4154      1.4585   7.0929021917e+01   6.6540925147e+01    0.1735847    0.1187077  55.94 0.0004269141    1.948    0.487
        12  -7.4448     52.5044      1.4636   7.4716874327e+01   6.8147296171e+01      0.12193   0.09733462   0.20  6.67361e-05    1.027    0.027
        13  -7.3593     39.3128      1.6294   8.0417155646e+01   7.0021407570e+01     0.105708    0.0893505 -44.59 0.0007034985    1.777    0.437
        14  -9.0076    119.9556    245.2368   1.1458858791e+02   9.6775776924e+00    0.3041075    0.1779834  69.81  0.001710201    2.006    0.501
        15  -9.9338    248.5808    242.5727   9.2141340599e+01  -1.0055362634e+01    0.3680516    0.1827097 -36.26  0.001977142    2.560    0.609
        16  -9.1515    247.9425    235.6124   9.1139352533e+01  -9.2594949284e+00    0.2357759    0.2238266 -61.79  0.001319252    1.939    0.484
        17  -8.9788    232.9308    247.5874   9.5467374401e+01  -8.2970776920e+00    0.3220503    0.1428394 -38.60  0.001768022    2.967    0.663
        18  -9.2140    210.9794    246.5762   9.8986276935e+01  -4.8796818894e+00    0.2152569    0.1795497 -67.90 0.0006741596    2.125    0.529
        19  -7.3689     86.2873    250.6574   1.2077276873e+02   1.3732099066e+01    0.1137266   0.06339456  67.08  0.000346681    1.645    0.392
        20  -8.7586      9.8032    244.4965   1.3237362973e+02   2.3859707184e+01    0.2701662   0.08653544  83.44   0.00140484    3.195    0.687
        21  -9.3030    202.0260    243.0197   1.0000432864e+02  -3.0689028875e+00    0.2754449    0.1607055 -37.16  0.001121136    2.131    0.531
        22  -8.8708    169.1486    243.2986   1.0576224526e+02   2.1710627093e+00    0.2270963    0.1848308  82.50 0.0008302099    1.686    0.407
        23  -8.4951    139.3382    243.9296   1.1107155155e+02   6.8612621036e+00    0.1915784    0.1081767 -65.76  0.001084302    2.493    0.599
        24  -7.9652     34.4842    243.9998   1.2862534885e+02   2.1328523416e+01    0.1433445   0.05891884  74.25  0.000500646    2.332    0.571
        25  -8.8847     77.3540    242.9049   1.2163799370e+02   1.6200062603e+01    0.1883426   0.09140439 -82.30  0.001063048    2.435    0.589
        26  -9.0318    194.3154    240.4855   1.0097766364e+02  -1.5310032622e+00    0.2530907     0.185992 -55.71  0.001245255    2.044    0.511
        27  -9.2189    183.2663    239.9031   1.0282931528e+02   3.2997818237e-01    0.3673185    0.2953617  78.61  0.002290967    1.845    0.458
        28  -9.3579    160.1890    240.4034   1.0697104394e+02   4.0203190299e+00    0.2993769    0.2126082  87.82   0.00146884    2.250    0.556
        29  -7.9256    153.4133    242.1875   1.0839105565e+02   4.8651659327e+00    0.1413194    0.1104841 -78.99 0.0007050534    1.722    0.419
        30  -8.0300     88.2025    242.1983   1.1975217147e+02   1.4821152962e+01     0.153847    0.1014663  72.85 0.0006256297    1.377    0.274
        31  -7.5689     49.4699    242.5081   1.2617686691e+02   1.9832677311e+01    0.1092512   0.07351593  67.02 0.0002499408    1.062    0.058
        32  -8.4822    240.5727    240.3450   9.3100433070e+01  -8.6720879441e+00      0.17431    0.1036282 -30.77 0.0008970601    1.949    0.487
        33  -7.6562    112.2997    240.6698   1.1545600835e+02   1.1549463389e+01    0.1186099   0.07240643  66.71 0.0005359455    1.644    0.392
        34  -8.6170      3.4602    240.4938   1.3314721172e+02   2.5144873566e+01    0.1803602   0.04648389  49.04   0.00103908    2.483    0.597
        35  -8.1970    208.9994    238.7195   9.8176593371e+01  -3.6621091149e+00    0.1682409    0.1553966 -62.43 0.0007266305    1.645    0.392
        36  -8.5261     67.9189    245.6750   1.2340543254e+02   1.6995072972e+01    0.2647323    0.1248768  78.25  0.001460183    2.466    0.594
        37  -8.6986    135.7628    239.0177   1.1114057751e+02   8.1596918154e+00    0.1840471     0.130121  63.11  0.001002703    1.377    0.274
        38  -8.1867    129.0221    238.6058   1.1229103361e+02   9.2899379403e+00      0.19364    0.1352367  74.72 0.0008604573    1.620    0.383
        39  -9.3110    230.8024    237.1316   9.4222613030e+01  -6.8702019927e+00    0.2214783    0.2053549 -62.20  0.001061143    1.837    0.456
        40  -8.6822     25.7511    237.0293   1.2961747286e+02   2.3468618623e+01    0.2626369   0.08700556  76.22  0.001198941    3.716    0.731
        41  -8.3335     58.6819    237.3726   1.2433382419e+02   1.9567698381e+01    0.2106541   0.07250457  46.17 0.0007792391    2.204    0.546
        42  -8.7360    243.0067    235.3225   9.1903792463e+01  -8.5057004580e+00    0.2405235    0.1422161 -14.36   0.00148512    1.819    0.450
        43  -9.7666    214.8098    233.2543   9.6345434482e+01  -3.9357572219e+00    0.4478601     0.333716 -85.72  0.002292424    3.648    0.726
        44  -8.7676    203.3038    235.0021   9.8610967500e+01  -2.3007775728e+00    0.2591424    0.1998645 -64.16  0.001440468    2.213    0.548
        45  -7.9695    204.1623    230.6289   9.7799486449e+01  -1.8945101654e+00    0.1763319   0.09068037  33.68 0.0004785104    1.657    0.396
        46  -8.8685    195.3586    232.6449   9.9657319207e+01  -7.0783817421e-01    0.4493424     0.241413 -42.81  0.002509061    2.343    0.573
        47  -9.7912    175.7478    233.4919   1.0327553322e+02   2.4238253243e+00     0.394095    0.2274911 -57.84  0.002119689    2.659    0.624
        48  -8.4644    170.2949    235.8243   1.0457218710e+02   3.0037669366e+00    0.1882539    0.1086969 -55.72 0.0006260424    2.446    0.591
        49  -9.2653    109.0884    234.5666   1.1540149873e+02   1.3019466350e+01    0.4652935    0.1963401  56.37  0.001838077    2.296    0.565
        50  -8.3118    123.0521    234.1821   1.1286405087e+02   1.0924289711e+01    0.2127219    0.1333994  79.19 0.0008529862    2.086    0.521
        51  -8.4665     99.6844    234.4552   1.1705694966e+02   1.4445314322e+01    0.2274714    0.1393137  74.78  0.001013405    1.739    0.425
        52  -9.1342     78.7453    234.4422   1.2071251011e+02   1.7430540352e+01    0.2691243    0.1497093  73.17   0.00112141    1.795    0.443
        53  -9.4029     68.3596    232.5145   1.2234096487e+02   1.9158890339e+01    0.4115168     0.157715  66.21  0.001827385    3.319    0.699
        54  -8.1531    132.5469    232.7327   1.1098584911e+02   9.6450391795e+00     0.144698    0.1098092 -86.32 0.0006456321    1.587    0.370
        55  -9.2506    186.3685    230.6172   1.0096020608e+02   1.0481927141e+00    0.2756627    0.2116109 -73.41  0.001433802    2.144    0.534
        56  -9.0545    140.9775    230.6579   1.0920266389e+02   8.6022701974e+00    0.4622726    0.1825586  56.91   0.00182694    3.428    0.708
        57  -8.3406     92.3703    231.7094   1.1808727888e+02   1.5977229109e+01     0.240057      0.11938  71.93 0.0007747775    2.555    0.609
        58  -8.9596      2.0383    231.3466   1.3300259056e+02   2.6834343731e+01    0.2194467   0.08557837  67.28  0.001154184    1.944    0.486
        59  -9.3984    246.4938    229.1301   9.0319893465e+01  -8.3636486901e+00    0.2851044    0.1772764 -29.16  0.001054589    1.781    0.439
        60  -9.0300    236.1082    230.9183   9.2343022882e+01  -6.9934465792e+00    0.1906026    0.1638661  15.58 0.0006937888    1.212    0.175
        61  -9.9090    149.7598    226.3233   1.0703501219e+02   7.8221494133e+00    0.5769312    0.3408194 -86.98  0.002425489    4.106    0.756
        62  -8.2756    229.8672    229.1368   9.3110130761e+01  -5.8295071601e+00     0.163578    0.1455939  30.03 0.0006909966    1.328    0.247
        63  -9.5976      8.8565    228.3757   1.3183359094e+02   2.6699985620e+01    0.2084275   0.08755695  73.51   0.00129464    1.923    0.480
        64  -8.9387    127.8353    227.1678   1.1118705889e+02   1.1297497980e+01    0.2973675    0.1914632  72.18  0.001508916    1.844    0.458
        65  -8.1863    120.0548    227.8478   1.1269460881e+02   1.2428687907e+01    0.2101554    0.1123763  63.36  0.001075487    2.096    0.523
        66  -7.8561    223.3770    227.1771   9.3905548846e+01  -4.5772600969e+00     0.141674    0.1103035 -37.80 0.0005303592    1.660    0.398
        67  -9.1969    216.2555    224.7184   9.4746397370e+01  -3.1308562087e+00    0.3812404    0.2201154 -28.34  0.002186601    1.982    0.495
        68  -8.6076    206.1542    226.4103   9.6794410063e+01  -1.6862922784e+00    0.1995387    0.1592574 -58.56 0.0007956498    1.931    0.482
        69  -7.8931    177.6661    227.3024   1.0204896855e+02   2.9670762182e+00    0.1195876   0.08799138  63.08   0.00040834    1.658    0.397
        70  -8.2798     49.6310    227.2708   1.2514391521e+02   2.2452235877e+01    0.1905284   0.09261116  68.29  0.001118987    1.834    0.455
        71  -8.2871    200.2206    225.7874   9.7752314981e+01  -6.2080357403e-01    0.2161573     0.146328 -34.15 0.0009173524    1.744    0.427
        72  -8.9947     94.0946    224.4190   1.1707029822e+02   1.6987978698e+01    0.3761383    0.1747521  65.29  0.001790665    2.570    0.611
        73  -8.6270    180.5974    224.3919   1.0108710454e+02   2.8823513084e+00    0.2085072    0.1724268  77.56  0.000537816    1.656    0.396
        74  -8.8216    104.8069    223.7780   1.1504359437e+02   1.5493348876e+01    0.3137479    0.1861717  82.06  0.001707223    2.123    0.529
        75  -8.0418     38.4451    224.9552   1.2687435715e+02   2.4184223471e+01     0.158247   0.06565002  77.66 0.0008079775    2.578    0.612
        76  -8.8387    173.0099    223.2542   1.0231216521e+02   4.3421076140e+00    0.2263153    0.1734625 -61.18 0.0007619439    1.749    0.428
        77  -8.0309    113.9708    223.9863   1.1337605595e+02   1.4037980542e+01     0.194921    0.1226213  69.81 0.0007846566    1.704    0.413
        78  -9.2799    192.5629    221.5859   9.8478411080e+01   1.2359229777e+00    0.2816804     0.226172  78.27  0.001141269    1.917    0.478
        79  -9.2108    160.1978    221.2402   1.0439994379e+02   6.8408025942e+00    0.4753539    0.2227514  59.02  0.001953948    3.150    0.683
        80  -9.1050    239.0573    221.7132   9.0323329671e+01  -6.4078335673e+00    0.2244126    0.1844801 -20.62  0.001077093    1.381    0.276
        81  -9.0506    225.5479    221.8739   9.2662287694e+01  -4.2880537254e+00    0.2296755    0.1738322  49.83  0.001101327    1.597    0.374
        82  -8.6271    162.2706    227.8675   1.0494080459e+02   5.4849817348e+00    0.2249829      0.16833  67.53 0.0009566546    1.588    0.370
        83  -9.1070    120.6370    219.5209   1.1161103007e+02   1.3743531910e+01    0.4081061     0.215424  69.48  0.001689639    2.765    0.638
        84  -8.8477     82.7246    220.6108   1.1877003784e+02   1.9309104374e+01     0.295025    0.1334192  65.47  0.001071469    2.546    0.607
        85  -8.4296     72.9256    220.7773   1.2056055317e+02   2.0636601424e+01    0.2272819    0.1176136  76.65 0.0009759414    2.150    0.535
        86  -8.0302     27.3913    221.2236   1.2849127500e+02   2.6084924801e+01    0.1484304   0.07662463  86.22 0.0009498351    1.639    0.390
        87  -8.3762    210.1534    219.4429   9.4967671286e+01  -1.4517246113e+00    0.1719052     0.158457  39.91 0.0005262521    1.296    0.228
        88  -8.1937    202.6869    220.1970   9.6427400472e+01  -2.9451296976e-01    0.1609822    0.1568504 -65.46 0.0006344874    1.403    0.287
        89  -8.7683    180.3527    219.1338   1.0033956670e+02   3.6815460350e+00    0.3044555    0.2162037 -84.51  0.001562683    2.716    0.632
        90  -8.7372    248.8266    218.2165   8.8087529155e+01  -7.5134992324e+00    0.3452139    0.2252015  63.23   0.00160525    3.961    0.748
        91  -7.7222     94.3391    219.3063   1.1650514057e+02   1.7860875164e+01    0.1044206   0.09460737  10.89 0.0003496925    1.680    0.405
        92  -9.4150    133.1093    216.2512   1.0883632893e+02   1.2253857981e+01    0.4678711    0.2713709  76.33   0.00213492    2.877    0.652
        93  -8.3783     62.0176    217.4596   1.2223747739e+02   2.2690352315e+01    0.2636176    0.1221533  69.78  0.001353692    2.304    0.566
        94  -8.9973     51.7352    217.6705   1.2408377811e+02   2.3944267753e+01    0.2162224    0.1235693  85.89 0.0007192564    1.600    0.375
        95  -8.8391    169.2249    216.2409   1.0197776658e+02   6.0496080243e+00    0.2476738     0.195856 -68.50 0.0008943778    1.695    0.410
        96  -8.5823    142.9574    216.6138   1.0700826325e+02   1.0530451235e+01    0.2491381    0.1727946  80.23  0.001140358    1.942    0.485
        97  -8.6515    232.4124    214.9875   9.0309568056e+01  -4.5573612061e+00    0.2141383    0.1970204 -76.05  0.000963825    1.834    0.455
        98  -8.3186    154.6652    215.5160   1.0462645893e+02   8.6983224037e+00    0.1975717    0.1505844 -89.55  0.000874592    1.773    0.436
        99  -8.4818    185.5273    214.2746   9.8621356461e+01   3.4920450746e+00    0.2013766    0.1261144 -48.08 0.0008212089    1.995    0.499
       100  -7.5239     41.3516    215.0249   1.2571507440e+02   2.5673922072e+01    0.1861185   0.06677601  82.66 0.0007047966    4.488    0.777
       101  -9.5035    213.9884    212.4375   9.3113061427e+01  -1.1761147480e+00    0.3683457    0.2725511  49.29  0.001607308    1.489    0.329
       102  -7.8519    197.0307    214.4819   9.6529567871e+01   1.4573707986e+00    0.1836864   0.09311716  25.23 0.0008093119    2.466    0.594
       103  -8.7587     92.8340    213.8801   1.1621698709e+02   1.9072359016e+01    0.2702113    0.1480429  65.98  0.001183244    1.883    0.469
       104  -9.4382     73.4317    212.2069   1.1968737743e+02   2.2155923569e+01    0.6057705    0.2002462  59.44  0.002295136    3.926    0.745
       105  -8.2322    224.8544    212.8591   9.1257749857e+01  -3.0551384124e+00    0.1663771    0.1524169  73.16   0.00096794    1.680    0.405
       106  -8.7048    161.6200    212.5651   1.0286811601e+02   7.9590134319e+00    0.2205668    0.1857284 -85.62 0.0006905465    1.499    0.333
       107  -8.2343    106.6302    213.0685   1.1350445523e+02   1.7114631601e+01    0.1894324    0.1328963  80.78 0.0007861232    1.498    0.332
       108  -9.1119    204.3701    210.7863   9.4573022266e+01   7.0090891551e-01    0.2769603    0.2035443 -54.63  0.001011754    1.962    0.490
       109  -9.4790    175.5875    210.3014   9.9858966293e+01   5.8452707614e+00    0.3861501     0.262867  74.84  0.001421949    2.472    0.595
       110  -9.2266      6.4650    208.9757   1.3131124370e+02   3.0441416943e+01    0.2967367   0.09720504  74.64  0.001414662    3.152    0.683
       111  -8.3476    192.2227    210.7186   9.6800188028e+01   2.8358916410e+00     0.188952    0.1724569 -51.42 0.0006566654    1.389    0.280
       112  -8.8361    147.7720    210.5762   1.0523842495e+02   1.0710686723e+01    0.2749206    0.1969278  71.66   0.00102788    1.681    0.405
       113  -9.1405    116.3817    210.4116   1.1130600675e+02   1.6040981248e+01    0.3133705    0.1904322  70.68  0.001104802    1.936    0.484
       114  -8.5292     32.8669    210.6352   1.2690061229e+02   2.7457746681e+01    0.2746573    0.1005749  65.36  0.001329542    2.757    0.637
       115  -9.0676    236.4305    208.5849   8.8494451536e+01  -4.4208365277e+00    0.2885339    0.2465967  -0.76  0.001415946    1.157    0.136
       116  -8.4775     85.6059    209.6393   1.1714044997e+02   2.0925498524e+01    0.3284375    0.1494919  66.73  0.001452678    2.823    0.646
       117  -8.2970     46.7922    209.9792   1.2438023835e+02   2.5989444582e+01    0.1999604   0.09480741  72.78  0.001074515    2.095    0.523
       118  -9.4586    246.3725    207.3452   8.6578238081e+01  -5.8671761436e+00    0.2468179     0.193889 -18.93 0.0006198241    1.307    0.235
       119  -8.0792    156.4309    208.2203   1.0321374529e+02   9.5836603702e+00    0.1620528    0.1242449 -70.27 0.0009391458    1.663    0.399
       120  -8.3889    139.0379    208.0375   1.0657482148e+02   1.2660919716e+01    0.2023519    0.1409607  71.29 0.0006774839    1.684    0.406
       121  -8.4824    112.1720    217.7420   1.1299590076e+02   1.5405675231e+01    0.2068297    0.1068567  69.15 0.0008625006    2.688    0.628
       122  -9.2189     99.4513    206.3794   1.1411082948e+02   1.9470015606e+01    0.3498499    0.2020638  75.50  0.001293223    2.107    0.525
       123  -8.6765     56.5849    205.6650   1.2223578454e+02   2.5622133374e+01    0.2957352    0.1378169  66.82  0.001393944    2.172    0.540
       124  -9.1855    183.7834    203.9042   9.7257637302e+01   5.3667901453e+00    0.2951728    0.2305386  72.48 0.0008969392    1.762    0.432
       125  -8.7243    131.3619    204.1487   1.0753847667e+02   1.4671826717e+01    0.2982858    0.1882431  77.91  0.001000279    2.245    0.554
       126  -8.2898    109.0683    205.0963   1.1207147520e+02   1.8199470076e+01    0.2005321    0.1313795  73.71 0.0007920046    1.661    0.398
       127  -7.8833     25.3153    205.6437   1.2790164013e+02   2.9218394323e+01    0.1202546   0.05839033  68.95 0.0007044854    1.745    0.427
       128  -9.3619    194.9285    203.5905   9.5095737798e+01   3.4052342067e+00    0.3114116    0.2520396 -35.85  0.001310729    1.411    0.291
       129  -9.2409    192.3526    197.5023   9.4523509847e+01   4.7972129505e+00    0.3647195    0.2917168 -65.88  0.001339312    1.781    0.438
       130  -9.6642    163.9728    203.1270   1.0095598361e+02   9.0799218877e+00    0.4475994    0.2333715  56.79  0.001062808    2.268    0.559
       131  -9.4116    250.0969    202.0153   8.4980901761e+01  -5.8150532370e+00     0.321505    0.1664808 -28.36  0.001168412    1.933    0.483
       132  -8.3634     48.5029    202.4948   1.2347503314e+02   2.7233923669e+01    0.1984216   0.09149206 -87.94 0.0006778326    2.249    0.555
       133  -9.2602    242.9637    201.1051   8.6018894677e+01  -4.5535184905e+00     0.259733    0.1708522 -31.97 0.0007994749    1.630    0.387
       134  -8.2070    222.0206    201.8850   8.9822956232e+01  -1.1349124150e+00    0.1761758    0.1587051  82.39 0.0007581921    1.726    0.421
       135  -8.3457    210.9944    202.0080   9.1840260108e+01   7.7255430001e-01    0.1795918    0.1584646  77.03 0.0005547039    1.660    0.398
       136  -9.0141    140.4233    201.1111   1.0529847962e+02   1.3642411151e+01    0.3291915    0.2147112  80.50   0.00115308    2.283    0.562
       137  -8.6983     79.8114    201.1646   1.1736510497e+02   2.3390320401e+01    0.3282325    0.1657144  75.72  0.001524803    2.579    0.612
       138  -8.1256     10.8024    202.6118   1.3024818775e+02   3.1239596777e+01    0.1465119   0.07182917  52.40  0.000552738    1.681    0.405
       139  -9.4899    149.6815    198.7790   1.0309462682e+02   1.2406873443e+01    0.3960046    0.2658898  83.17  0.001231127    2.327    0.570
       140  -8.9959    123.8645    199.2918   1.0835684609e+02   1.6844189071e+01    0.2929731    0.2096313 -86.79   0.00126715    1.658    0.397
       141  -9.4008    112.8933    198.5130   1.1046224151e+02   1.8825280742e+01    0.4246977    0.2495266  75.83  0.001499568    2.310    0.567
       142  -9.3510    236.9267    198.3945   8.6556053255e+01  -3.2090343469e+00    0.2749652     0.171949 -36.85  0.001254164    1.802    0.445
       143  -8.3535    176.9232    199.1296   9.7775320838e+01   7.3743291126e+00    0.1959568    0.1674613  60.83 0.0005310703    1.286    0.223
       144  -9.1255     88.6536    198.3778   1.1531050485e+02   2.2651485415e+01    0.3483245    0.1962131  74.99  0.001542037    2.096    0.523
       145  -8.2620    202.4661    197.9260   9.2689229393e+01   2.8891484096e+00    0.1759269    0.1284374 -35.78 0.0004995402    1.525    0.344
       146  -9.2733     61.5500    197.0762   1.2051295196e+02   2.6683238540e+01    0.3739862    0.1766104  72.91  0.001585871    2.517    0.603
       147  -8.7387     13.0586    197.8512   1.2958725234e+02   3.1945583278e+01    0.2560991    0.0975517  66.38  0.001352447    2.393    0.582
       148  -8.1000     53.7840    197.1608   1.2202043369e+02   2.7648207752e+01    0.2145796   0.08969925  67.99 0.0009492775    2.877    0.652
       149  -8.7898    216.0382    195.5784   8.9753421812e+01   7.9101495320e-01    0.2334817    0.2025258 -74.38 0.0008510621    1.799    0.444
       150  -8.6599    133.0079    195.8194   1.0600556584e+02   1.5912881628e+01    0.2222589    0.1620797 -78.40 0.0006999132    1.645    0.392
       151  -8.8090    224.5316    194.2275   8.7965589283e+01  -5.2171854418e-01    0.2530836    0.2038922 -46.15  0.001007665    1.624    0.384
       152  -9.0103    185.2389    194.8191   9.5417387844e+01   6.5331268569e+00    0.2425361    0.2144151  71.37 0.0007324365    1.384    0.277
       153  -9.0973    161.0347    194.5075   1.0013540487e+02   1.1082558140e+01    0.2906508    0.2055407  66.98 0.0009324359    1.733    0.423
       154  -9.0529    245.5397    193.4826   8.4153608402e+01  -4.0102980515e+00    0.2242567    0.2099488  -8.17 0.0007599348    1.336    0.251
       155  -8.1960    230.8106    194.3742   8.6875725625e+01  -1.6352590667e+00    0.1666608    0.1481153   0.94 0.0003762188    1.139    0.122
       156  -8.8850     76.9015    193.7514   1.1713921233e+02   2.5278255447e+01    0.2280452    0.1559627 -87.60 0.0006728389    1.391    0.281
       157  -8.8793     44.0305    193.3303   1.2355986844e+02   2.9587606493e+01    0.3926624    0.1750443  76.79  0.001886223    2.575    0.612
       158  -8.7421    240.1386    192.2568   8.4845993874e+01  -2.9469815251e+00    0.3439593    0.1344523  40.10  0.001042309    2.339    0.573
       159  -8.0426    205.2220    191.9531   9.1085580464e+01   3.2813351784e+00    0.1599794     0.107863 -35.31 0.0005694581    1.614    0.381
       160  -8.1355    198.8736    192.0585   9.2303752685e+01   4.4366962795e+00    0.1862466    0.1768659  53.35 0.0005327662    1.243    0.195
       161  -8.2589    179.0252    191.5087   9.6046383563e+01   8.2349780171e+00     0.195747    0.1774291 -35.89 0.0005993493    1.236    0.191
       162  -8.7979    172.5004    191.9725   9.7417958736e+01   9.3821278672e+00    0.2238389    0.1775608  79.54 0.0008500727    1.690    0.408
       163  -9.2558    139.5471    190.5737   1.0386269505e+02   1.5728143193e+01    0.3739159    0.2478563  82.15  0.001036145    2.219    0.549
       164 -10.5293     92.1589    188.3189   1.1338106674e+02   2.4139142340e+01    0.9561322    0.4164478  56.76  0.003487634    2.458    0.593
       165  -8.6054    148.3782    189.2718   1.0183635959e+02   1.4358321714e+01    0.2149657     0.168099 -68.94 0.0007487662    1.499    0.333
       166  -9.0336    129.3724    188.5815   1.0565934263e+02   1.7925152004e+01    0.3085662    0.2199927  89.34  0.001015421    1.747    0.428
       167  -9.9525    120.8545    186.7392   1.0716101741e+02   1.9773523153e+01    0.5491651    0.2861999 -74.16  0.002261358    2.961    0.662
       168  -8.6221    237.1562    188.5303   8.4649016756e+01  -1.9396264680e+00    0.2244509    0.1652235 -23.36 0.0006486449    1.344    0.256
       169  -8.9140    191.5072    187.5132   9.2881255505e+01   6.5349387254e+00    0.3215007    0.2273064 -79.54  0.001088922    2.789    0.641
       170  -9.3829    156.1010    187.6929   9.9988519356e+01   1.3211241381e+01    0.3500764    0.2332101 -64.28 0.0009331395    1.929    0.482
       171  -8.6229     34.2868    188.0500   1.2500046227e+02   3.1753392290e+01     0.312186    0.1358265  76.25  0.001481536    2.521    0.603
       172  -8.0035    242.5909    188.2519   8.3654829685e+01  -2.8328892524e+00    0.1710125     0.110796 -16.24 0.0008059022    1.539    0.350
       173  -8.7203    216.5450    187.9059   8.8220811033e+01   1.8109367553e+00    0.2249744    0.2026071  63.22 0.0008606506    1.462    0.316
       174  -8.8994    165.0116    186.8768   9.8031261344e+01   1.1677845264e+01    0.3010376    0.2257745 -77.27  0.001058163    1.869    0.465
       175  -9.4011    109.7694    186.3819   1.0943876069e+02   2.1722296698e+01    0.4132426    0.2565675  76.50  0.001206226    2.029    0.507
       176  -9.1299     54.8850    187.1694   1.2087395209e+02   2.9545668159e+01    0.3729568    0.1700685  66.84  0.001545673    2.445    0.591
       177  -8.7884    229.5304    187.3044   8.5755656902e+01  -4.3732822516e-01     0.354634    0.1595183  37.15  0.001609035    2.068    0.517
       178  -8.7322    249.4998    185.3931   8.1923106112e+01  -3.6210431029e+00     0.268081    0.1917257 -36.57 0.0009391553    1.591    0.371
       179  -8.8487    182.9542    184.8830   9.4071860222e+01   8.5981065180e+00    0.2659707    0.2021944 -55.82 0.0006985442    1.621    0.383
       180  -8.7869    210.2326    184.5043   8.8739471917e+01   3.4848222614e+00     0.223423    0.1778618 -28.26 0.0004876007    1.319    0.242
       181  -8.9247    202.6573    184.6438   9.0196848849e+01   4.8844584016e+00    0.2324373    0.1906656 -88.72 0.0008020012    1.916    0.478
       182  -9.0277     66.5635    184.3629   1.1821147783e+02   2.8627081359e+01    0.3617447    0.2014543  76.03  0.001446911    1.946    0.486
       183  -8.4086    224.1503    183.6492   8.6010823294e+01   1.0490505316e+00    0.2093885    0.1718679 -31.18 0.0005944775    1.321    0.243
       184  -8.8259    174.2993    183.6363   9.5572106142e+01   1.0473402227e+01    0.2667328    0.2139882  81.37 0.0008348374    1.672    0.402
       185  -8.9071    240.9222    181.4828   8.2616232859e+01  -1.6316283634e+00    0.3022178    0.1988338 -53.92  0.001482225    2.559    0.609
       186  -8.8856     44.3348    182.3399   1.2253517734e+02   3.1812958705e+01    0.3181565    0.1623451  74.48 0.0008862249    1.999    0.500
       187  -8.0652      1.8597    183.6351   1.3078540580e+02   3.5754810828e+01    0.1462312   0.07263517  51.59 0.0009404732    1.761    0.432
       188  -9.2639    147.6588    180.7677   1.0055173591e+02   1.6084391990e+01    0.3575717    0.2438939  76.58   0.00125076    2.058    0.514
       189  -7.8920    235.2954    181.6624   8.3632223461e+01  -6.6758554806e-01    0.1168863    0.1066965 -68.97 0.0005011985    1.651    0.394
       190  -9.4933     25.6175    178.9164   1.2596923127e+02   3.4540395289e+01    0.5841048     0.207611  79.15  0.002205118    4.291    0.767
       191  -8.8314    137.6184    179.5071   1.0246167643e+02   1.8200400421e+01    0.3252008    0.2146427  70.82  0.001120404    1.934    0.483
       192  -9.4372    191.4554    178.3456   9.1154295946e+01   8.0541173767e+00    0.2743089     0.249757  76.16 0.0006123358    1.353    0.261
       193  -8.1417    169.3418    178.6819   9.5667413491e+01   1.2310548614e+01    0.2069571    0.1612938  80.70 0.0006893975    1.729    0.422
       194  -9.3093    248.1035    176.4306   8.0377486541e+01  -2.1866841897e+00    0.4208812    0.2587806 -46.26   0.00209038    2.195    0.545
       195  -8.6327    231.1587    177.3359   8.3500430986e+01   6.9155912563e-01    0.2329965    0.1818458 -33.39 0.0005786332    1.371    0.271
       196  -8.5956    217.6013    177.2402   8.5941308068e+01   3.2137409633e+00    0.2726291    0.1954088 -51.21  0.001133332    1.842    0.457
       197  -8.8746    205.1188    177.6824   8.8374899313e+01   5.5184755969e+00    0.2232745    0.1880762 -43.42 0.0005931639    1.367    0.268
       198  -8.8982    129.1718    177.4194   1.0392356668e+02   2.0159176591e+01    0.3134868    0.2155279  86.62  0.001048281    1.931    0.482
       199  -9.1666     35.7298    176.4494   1.2374313644e+02   3.4010368595e+01    0.4395032    0.1726425  83.00  0.001761302    3.595    0.722
       200  -9.3242    183.0934    176.3329   9.2427811219e+01   1.0033620733e+01    0.2696539     0.232313 -48.09 0.0006449459    1.306    0.234
       201  -7.9753     97.7618    177.4405   1.1073288157e+02   2.5517839053e+01    0.1675669    0.1244443  33.38  0.000549843    1.560    0.359
       202  -8.6166     89.0581    177.0133   1.1255882857e+02   2.6964897554e+01    0.2536113    0.1741764  74.93  0.001018784    1.477    0.323
       203 -10.0564     57.4727    173.3237   1.1890336167e+02   3.2150065361e+01    0.7774734     0.331551  79.92  0.002718616    4.454    0.775
       204  -8.5735     56.9007    164.2623   1.1799095278e+02   3.4199932111e+01    0.4181538    0.2691709  -4.50  0.001728842    4.515    0.779
       205  -8.7521     60.5324    160.2570   1.1668758128e+02   3.4631786919e+01     0.330508    0.1794885  76.38  0.001264583    2.205    0.547
       206  -8.8940     12.5978    176.6192   1.2833897061e+02   3.6249938880e+01    0.2831546    0.1165191  60.80  0.001529894    2.228    0.551
       207  -7.7039    211.4854    176.4742   8.6928507123e+01   4.4906302196e+00    0.1369311    0.1224023  18.07 0.0003707799    1.024    0.023
       208  -9.3157    158.7366    175.0306   9.7194086330e+01   1.5049308031e+01    0.3544997    0.2586137  87.46 0.0008547026    2.001    0.500
       209  -9.4218    104.3570    174.6288   1.0888453716e+02   2.5039983207e+01    0.5133517    0.3011929  73.13  0.001828086    2.255    0.557
       210 -10.7538     75.8979    170.4303   1.1455830936e+02   3.0317091689e+01     1.102165    0.4221373 -77.96    0.0036176    4.541    0.780
       211  -8.3738    224.5383    174.2995   8.4077088070e+01   2.3591360270e+00    0.2318599    0.1259818 -38.89 0.0006375733    1.948    0.487
       212  -8.4627    250.5638    172.7378   7.9213856662e+01  -2.1078900745e+00    0.2117227    0.1163551 -26.87 0.0004773797    1.736    0.424
       213  -9.7369    175.6938    172.1090   9.3110826343e+01   1.2245792494e+01     0.407439    0.2525628 -39.63  0.001188144    1.746    0.427
       214  -8.5729    142.8861    172.6578   1.0014175789e+02   1.8562016063e+01    0.2625929    0.1841407 -74.19 0.0007154669    1.827    0.453
       215  -8.5259    134.8069    171.8967   1.0176133677e+02   2.0236266327e+01     0.251471    0.1895183 -84.63 0.0006822572    1.601    0.375
       216  -9.5998    121.3388    170.4373   1.0447292766e+02   2.2997420614e+01    0.3890465    0.2581859 -79.76 0.0009635438    1.891    0.471
       217  -9.1952     45.1561    171.0339   1.2127727640e+02   3.4122301220e+01    0.3631591    0.1767343  89.67  0.001163812    2.182    0.542
       218  -8.7342    230.3804    170.2656   8.2198459425e+01   1.8735103030e+00    0.2242294    0.1633625 -35.52  0.000806596    1.439    0.305
       219  -8.4874    205.9421    170.4548   8.6764410575e+01   6.5259686431e+00    0.2464554    0.1911172 -53.76 0.0007662005    1.628    0.386
       220  -8.4819    198.5430    170.3237   8.8170203361e+01   8.0069823067e+00    0.2225143    0.2008839 -66.50  0.000570747    1.395    0.283
       221  -8.1828    237.1407    169.8391   8.0915575226e+01   6.8958964659e-01    0.1853988    0.1780832 -10.15 0.0005922497    1.256    0.204
       222  -9.2366    167.2977    168.7598   9.4200762077e+01   1.4537712944e+01    0.3539794    0.2522053  80.04  0.001105301    2.138    0.532
       223  -8.6506    149.7048    169.5467   9.8100428610e+01   1.7863379220e+01    0.2686661    0.2041361  89.46 0.0006383171    1.717    0.418
       224  -7.9632    244.4033    169.2385   7.9536467088e+01  -5.3674446711e-01    0.1731173    0.1168527 -37.36 0.0004759645    1.575    0.365
       225  -8.8339    111.8879    167.8990   1.0615873177e+02   2.5193636285e+01    0.3636074    0.2283009  76.97  0.001218065    2.131    0.531
       226  -8.6652     88.3462    168.6310   1.1154932650e+02   2.8874308542e+01    0.2861388    0.1725816  86.43 0.0008799268    2.049    0.512
       227  -7.9679     35.9695    170.0000   1.2310842694e+02   3.5360445564e+01    0.1731932   0.06390096  34.13 0.0008060394    2.967    0.663
       228  -8.3434    218.8311    168.1432   8.3858859226e+01   4.3870357116e+00    0.1931564    0.1848302 -36.08 0.0005412661    1.248    0.199
       229  -7.8889    211.3854    168.1754   8.5258717948e+01   5.8289007813e+00    0.1878252    0.1272589 -46.74 0.0004132467    1.730    0.422
       230  -8.9935    191.8987    166.7307   8.8748655396e+01   9.9490003032e+00    0.2848726    0.1992317 -45.15 0.0007228579    1.569    0.363
       231  -9.0612    184.9616    166.5069   9.0099311997e+01   1.1389881732e+01    0.2565738    0.1984221 -59.67 0.0006637938    1.607    0.378
       232 -10.0424    137.0482    164.6469   9.9962916876e+01   2.1290099559e+01     0.676776    0.3086298  57.93  0.002422888    2.982    0.665
       233 -10.1573     95.1044    163.0939   1.0919431765e+02   2.9027671475e+01     0.782886    0.4070168  79.22  0.002737859    3.872    0.742
       234  -9.1118     20.4708    165.9735   1.2597509222e+02   3.7769682851e+01    0.3717984    0.1533817  68.00  0.001165293    2.635    0.620
       235  -8.0638     13.3458    167.6981   1.2756011913e+02   3.8046748567e+01    0.1202984   0.06357113  68.53 0.0007038981    1.685    0.407
       236  -7.7578    250.5847    165.5000   7.7715668594e+01  -1.1086759135e+00    0.1331416    0.1112537  -1.22  7.60111e-05    1.021    0.020
       237  -8.5725    233.9783    164.8292   8.0425794311e+01   2.0134962767e+00    0.2356632    0.1785713 -26.18 0.0006213312    1.277    0.217
       238  -8.8826    159.5716    164.1696   9.4941150602e+01   1.6962497668e+01    0.3025231    0.2342454 -86.79 0.0009335366    1.726    0.420
       239  -9.3074     33.4911    163.5298   1.2302092955e+02   3.7021598051e+01    0.4611895    0.1709725  58.31  0.002033025    3.002    0.667
       240  -8.9089    246.0597    163.1853   7.7990413226e+01   2.9433114411e-02    0.2238346    0.1762464 -19.52 0.0004473561    1.171    0.146
       241  -8.3885    240.0922    163.8844   7.9158676591e+01   1.0176708196e+00    0.1934036    0.1820141 -32.22 0.0007389873    1.294    0.227
       242  -8.5580    212.9801    163.8168   8.4046121739e+01   6.2202749403e+00    0.2344247    0.1937635 -33.57 0.0006952698    1.260    0.206
       243  -8.4633    204.8351    162.8956   8.5407155930e+01   7.9972962370e+00    0.2407104    0.1878123 -37.64 0.0005351991    1.344    0.256
       244  -9.4277      3.3564    162.3600   1.2919198756e+02   4.0004415953e+01    0.3577547    0.1458482  58.04  0.001902526    2.291    0.564
       245  -9.2808    177.6213    160.9729   9.0470049678e+01   1.3894233065e+01    0.3525971    0.2812141 -86.18  0.001054888    1.741    0.426
       246  -8.9795    151.6618    161.0916   9.6052476644e+01   1.9154114132e+01     0.303861    0.2319201 -82.46 0.0009343225    1.699    0.411
       247  -8.5787    227.4214    159.1184   8.0379698803e+01   4.1361504388e+00    0.3305346    0.2119415 -54.88  0.001426876    2.324    0.570
       248  -9.7021    105.7684    157.9836   1.0589962912e+02   2.8390446374e+01    0.4895531    0.3099622  73.89  0.001454308    2.020    0.505
       249  -9.5772    250.1998    157.8869   7.6171108840e+01   4.1679033652e-02    0.2987973    0.1698224 -32.49 0.0007900004    1.656    0.396
       250  -8.5741    127.8186    158.7484   1.0094732733e+02   2.4270113857e+01    0.3135529    0.2013634  86.93  0.001305707    2.452    0.592
       251  -8.3756    196.6274    157.9946   8.5971781467e+01   1.0509546132e+01    0.2315557    0.1991955  59.25 0.0008768658    1.311    0.237
       252  -8.4983    187.9232    157.8971   8.7701055431e+01   1.2327618179e+01    0.2496683    0.1957548 -46.25 0.0005895206    1.381    0.276
       253  -9.1739    167.5835    157.3010   9.1826288852e+01   1.6660327953e+01    0.3370517    0.2592824  87.34  0.001267863    1.809    0.447
       254  -8.5476     78.8283    158.5638   1.1226019803e+02   3.2517126384e+01    0.2338501    0.1302483  34.34  0.001128483    2.054    0.513
       255  -8.8886    217.3836    156.9069   8.1740825883e+01   6.4679647397e+00    0.2965576    0.2480707  10.35  0.001358318    1.161    0.139
       256  -9.3078    157.5118    155.7420   9.3687915196e+01   1.9039688548e+01    0.4037227    0.2382401 -53.82  0.001463799    1.893    0.472
       257  -9.3488    119.5454    155.2545   1.0220604449e+02   2.6553239446e+01    0.3878243    0.2642679 -84.21  0.001461345    1.890    0.471
       258  -9.5315     81.6902    155.0399   1.1106562594e+02   3.2888991669e+01    0.5028744    0.2734688  72.44  0.001591474    2.595    0.615
       259  -9.3334     49.2688    154.9011   1.1859487367e+02   3.7204148236e+01    0.4098728    0.2187001  87.93  0.001695318    2.047    0.511
       260  -8.4951    242.6962    154.7074   7.6748588752e+01   1.8909581426e+00    0.1702772    0.1589916 -43.20 0.0003750125    1.326    0.246
       261  -8.4491    239.7160    153.3143   7.6955552536e+01   2.6635514699e+00    0.2002694     0.191786  -8.14 0.0004714107    1.191    0.160
       262  -8.0544    204.5898    155.3162   8.3828151603e+01   9.3328655213e+00    0.1894296    0.1351361 -23.99 0.0009313222    1.477    0.323
       263  -8.6639    144.5700    154.9341   9.6403295656e+01   2.1823014984e+01    0.2630052    0.2186022  88.18 0.0008327838    1.381    0.276
       264  -9.8292    132.7626    152.8679   9.8685159120e+01   2.4578879398e+01    0.4786885    0.3307191  84.24  0.001414376    2.037    0.509
       265  -9.2828    133.5997    148.1956   9.7554967580e+01   2.5414491086e+01    0.3209251    0.2390681 -40.25  0.001224576    1.470    0.320
       266  -9.6987     68.0686    153.7203   1.1407680303e+02   3.5114166964e+01    0.4784358     0.256905  79.87  0.001621662    2.556    0.609
       267  -8.4813     19.8615    152.7763   1.2497077837e+02   4.0686102181e+01    0.1666204    0.1079795  76.03 0.0005132383    1.349    0.259
       268  -8.4279      8.7309    153.4201   1.2742863723e+02   4.1485551930e+01    0.1873766   0.09577443  39.26  0.001133728    2.089    0.521
       269  -8.0549    182.4980    151.4767   8.7429170996e+01   1.4643596570e+01    0.2440847    0.1384382 -52.06 0.0006068647    2.105    0.525
       270  -9.6291     29.5929    150.9874   1.2263418017e+02   4.0177156716e+01    0.3840179    0.1797968  73.66  0.001824783    2.494    0.599
       271  -9.6035    248.8005    149.6878   7.4629254972e+01   1.4942677833e+00    0.3278854    0.2053781 -28.45 0.0008603956    1.475    0.322
       272  -9.4259    246.9599    143.8878   7.3652657081e+01   2.7070647560e+00    0.3178071    0.1818942 -31.88 0.0005256775    1.617    0.382
       273  -8.2476    250.4867    140.9775   7.2424676727e+01   2.4731061162e+00    0.1979766    0.1648759 -17.36 0.0005489089    1.068    0.064
       274  -9.0610    243.1995    149.9032   7.5613966062e+01   2.5162808794e+00    0.2757527    0.1672786 -40.42  0.000905857    1.714    0.417
       275  -9.0733    189.3836    150.1609   8.5721212595e+01   1.3427464157e+01     0.346646    0.2276027 -56.95  0.000991333    1.963    0.491
       276  -8.3587    162.5965    150.6246   9.1495420026e+01   1.9006066875e+01    0.2858735    0.2107424 -89.08 0.0008287909    1.993    0.498
       277  -8.5656     98.2337    150.7021   1.0642451614e+02   3.1275163326e+01    0.2893101    0.1960663  87.64 0.0009766498    1.774    0.436
       278  -8.1644    212.9399    149.9611   8.1046341646e+01   8.5215616865e+00    0.2070643    0.1790665 -81.40 0.0004723686    1.592    0.372
       279 -10.1681     89.1742    146.2743   1.0785139878e+02   3.3737113864e+01     0.679267    0.3704278  88.39  0.002532782    3.246    0.692
       280  -8.9831      2.8860    150.1309   1.2842045521e+02   4.2646161601e+01    0.1829736    0.1134562  77.53 0.0008690507    1.341    0.254
       281  -8.5493    198.8288    149.0592   8.3576596738e+01   1.1625756405e+01    0.2141307    0.1975762 -71.12 0.0005286905    1.303    0.232
       282  -8.1597    120.3471    149.3142   1.0089430745e+02   2.7701944756e+01    0.1421889     0.116803  -6.81 0.0007047169    1.718    0.418
       283  -9.7329     39.5850    147.3443   1.1993926638e+02   3.9982957401e+01    0.5760779    0.2819116  78.67  0.002224009    2.545    0.607
       284  -9.3980    233.4088    147.4903   7.6765518413e+01   4.7847997895e+00    0.2849222    0.1941653 -23.18 0.0008065571    1.428    0.300
       285 -10.3873    149.1512    145.0436   9.3300912427e+01   2.2943583170e+01    0.5987284    0.4193234 -85.36   0.00167319    2.158    0.537
       286  -9.0168    150.3787    136.5633   9.1138101441e+01   2.4457810634e+01    0.4932096    0.3268515  13.86  0.001935151    2.540    0.606
       287  -8.9754     78.2818    147.2245   1.1066176175e+02   3.5164949249e+01     0.335824     0.189005  80.55 0.0009603442    2.581    0.613
       288 -10.3999     54.6140    143.9274   1.1592317272e+02   3.9065748329e+01    0.8980979    0.4337058  83.15   0.00316611    3.274    0.695
       289  -8.9325     57.7134    135.5668   1.1394441069e+02   4.0620401419e+01    0.3856701    0.1708279  25.63  0.001595012    3.329    0.700
       290  -8.2974    223.3096    147.0018   7.8459763648e+01   6.8875251618e+00    0.1986887     0.171534 -24.38 0.0003975375    1.124    0.110
       291  -8.0650    206.7811    146.7491   8.1501707302e+01   1.0353571676e+01    0.1872861     0.173573 -76.87 0.0005725304    1.330    0.248
       292  -9.9034    139.1467    145.1570   9.5631859591e+01   2.4962246486e+01    0.4394311    0.3024207 -80.76   0.00106661    2.071    0.517
       293  -9.4918    139.6442    137.7208   9.3908304623e+01   2.6451767380e+01    0.4533331    0.2999128 -17.75  0.001804563    2.541    0.606
       294 -10.4283    106.8012    143.7299   1.0308075086e+02   3.1389327976e+01    0.8341421    0.5572498 -74.47  0.002394465    1.693    0.409
       295  -9.2030     13.3592    146.2878   1.2582574701e+02   4.2667186223e+01    0.2945481    0.1442424  64.98  0.001145137    2.070    0.517
       296  -9.0411    240.1703    145.2187   7.5089784149e+01   3.8125590770e+00    0.2595856    0.1865661 -34.95 0.0005089137    1.358    0.264
       297 -10.1214    242.7374    143.0328   7.4165901461e+01   3.6495782663e+00    0.4183171    0.2172042 -23.13  0.001819779    2.044    0.511
       298  -8.1185    175.4295    146.2621   8.7764217128e+01   1.7139283435e+01    0.1969075    0.1429258 -53.21 0.0004359236    1.532    0.347
       299  -9.9742    125.1933    142.2702   9.8329832968e+01   2.8334173774e+01    0.7167295    0.4115005 -67.82  0.002127078    2.280    0.561
       300  -7.8353    194.2031    144.1457   8.3391400295e+01   1.3494957127e+01    0.1996711    0.1763556 -69.52 0.0006093631    1.372    0.271
       301  -8.8960    165.5392    144.0181   8.9403525200e+01   1.9698775048e+01    0.3130256     0.241313  62.98 0.0008593553    1.447    0.309
       302 -10.8343     68.7529    139.6742   1.1180765764e+02   3.8241859201e+01    0.9120628    0.4490059 -63.54  0.003456632    1.823    0.452
       303  -9.2371      2.6512    141.7715   1.2782469212e+02   4.4475170178e+01    0.3635882    0.1530771  77.75  0.001805519    2.488    0.598
       304  -8.6711    182.0158    141.6038   8.5315870415e+01   1.6607988533e+01    0.2791759    0.2073709 -57.16 0.0006286931    1.580    0.367
       305  -9.9911     23.5110    138.3443   1.2271386027e+02   4.3576452554e+01    0.4773339    0.2131636  68.08  0.002068975    2.781    0.640
       306  -8.8901    172.1744    138.0592   8.6597669876e+01   1.9443729914e+01    0.3655855     0.223221 -64.00 0.0009375263    2.477    0.596
       307  -7.1711    234.7060    138.3534   7.4473706964e+01   5.9709805635e+00    0.1387306     0.110294 -60.61 0.0007031537    1.685    0.406
       308  -7.6588    218.5555    138.5388   7.7398111120e+01   9.2757260760e+00     0.144489    0.1348079  -4.99 0.0001286784    1.024    0.024
       309  -8.2913    207.4619    137.7208   7.9294999576e+01   1.1783321853e+01     0.268801    0.1372378 -42.25 0.0009721075    2.002    0.500
       310  -8.6013    197.4875    137.6078   8.1220817306e+01   1.3971052909e+01    0.2735882    0.2316586 -57.48 0.0008252226    1.363    0.266
       311 -10.3908     83.3986    132.8538   1.0691246092e+02   3.7723579503e+01    0.6711072    0.3478262 -63.92  0.002999247    1.866    0.464
       312  -8.7168     84.0748    123.4277   1.0491908611e+02   3.9816755194e+01      0.52154    0.3367101  -6.09  0.002007427    3.556    0.719
       313  -9.3231     39.2527    136.5199   1.1869066000e+02   4.2485865033e+01    0.2620379    0.1612355  72.22  0.000751826    1.717    0.418
       314  -8.9844    248.4648    135.3391   7.1481762225e+01   3.7132712796e+00    0.2625143    0.2139409 -41.90 0.0007789864    1.321    0.243
       315  -8.0214    187.8281    135.7923   8.2752503109e+01   1.6431410518e+01    0.1985498    0.1801271 -87.23 0.0003990091    1.304    0.233
       316  -8.4888    162.5024    136.1996   8.8297006701e+01   2.1927066706e+01    0.2390116    0.2062161  83.01 0.0006831004    1.346    0.257
       317  -7.8826    237.5985    133.7839   7.2927111305e+01   6.1120710072e+00    0.2001673    0.1229345 -41.49 0.0009094179    1.651    0.394
       318  -7.8083    231.5667    134.1894   7.4056871165e+01   7.2801147605e+00    0.1961206    0.1303801 -20.09 0.0003302626    1.547    0.354
       319  -8.6625    179.5019    133.8503   8.4035426362e+01   1.8648373937e+01    0.2802904    0.2359242 -81.40 0.0007267008    1.489    0.328
       320  -9.2772    112.7609    133.1915   9.9488008466e+01   3.2701465113e+01    0.3497197    0.2478711 -83.37  0.001011911    1.767    0.434
       321  -9.5113    143.2573    131.5949   9.1665121321e+01   2.7014424179e+01    0.4752713    0.2974259 -57.35 0.0009266441    1.768    0.434
       322 -10.3166    132.4179    131.0644   9.4151027209e+01   2.9369212198e+01    0.7459569    0.4943302 -59.20  0.002184209    1.616    0.381
       323 -10.4467    130.5716    118.4625   9.1633376971e+01   3.2512913034e+01    0.7747829     0.480535  89.91   0.00257813    3.562    0.719
       324 -10.4891    133.1749    109.6981   8.8761401794e+01   3.3877889223e+01    0.7596809    0.3869286 -41.90  0.002342477    1.966    0.491
       325 -10.4710     98.2177    130.1330   1.0255767476e+02   3.5971902147e+01    0.6886124    0.3064654 -57.71  0.001837575    2.191    0.544
       326  -8.8595    250.6553    130.0394   6.9919961311e+01   4.0940900216e+00    0.4158793    0.1217115 -32.01  0.001396083    3.215    0.689
       327  -8.0931    204.9780    130.9733   7.8175358595e+01   1.3519073197e+01    0.2353409    0.1843997 -70.16 0.0007731792    1.737    0.424
       328  -9.7611    152.9594    129.2254   8.8830935469e+01   2.5440273728e+01     0.499367    0.2780423 -56.28  0.000896746    2.127    0.530
       329 -10.0872     73.1646    128.9401   1.0886054808e+02   4.0133936024e+01    0.5296264     0.300784 -76.47  0.001617981    1.974    0.493
       330  -9.9679     12.9862    129.5473   1.2431184015e+02   4.6422538280e+01    0.4290208    0.2180986  69.41  0.002142434    2.140    0.533
       331  -8.3131    246.8813    130.2067   7.0563652072e+01   4.8112053459e+00    0.2009069    0.1781896 -43.68 0.0005335369    1.253    0.202
       332  -8.0065    220.6204    129.8282   7.4973542135e+01   1.0307399127e+01    0.2011722    0.1305779 -42.41 0.0004756805    1.567    0.362
       333  -8.3485    192.6820    130.1177   8.0403121409e+01   1.6411547900e+01    0.2356404    0.1808504 -52.52 0.0005662248    1.446    0.308
       334  -9.2986    168.4254    129.5722   8.5410535614e+01   2.1959278030e+01    0.3137567     0.252385 -77.97 0.0008611639    1.577    0.366
       335  -8.1891    211.4401    129.2148   7.6520920724e+01   1.2406933210e+01    0.2104654     0.134505 -46.67 0.0006842539    1.686    0.407
       336 -10.3892     60.1937    125.3138   1.1165242037e+02   4.2706012762e+01    0.7269933     0.394189  76.50  0.002723196    2.903    0.655
       337 -10.7747     44.8420    123.5565   1.1544412421e+02   4.4899481670e+01     1.072212    0.5136945  80.73   0.00400122    3.783    0.736
       338 -10.1238    118.0359    125.1950   9.6400819440e+01   3.3514763612e+01    0.6181014    0.4253181 -82.26  0.001506782    2.000    0.500
       339  -8.8555    179.2764    124.9091   8.1914051097e+01   2.0432817304e+01    0.2797422    0.2483111  74.31 0.0007129134    1.271    0.214
       340 -10.1051     28.3483    122.3655   1.1960765928e+02   4.6791975614e+01    0.6350766    0.2891239  78.52  0.002578418    3.416    0.707
       341  -7.4644    244.2711    124.6283   6.9689675328e+01   6.2025322967e+00    0.1416762     0.104546 -54.84   0.00067483    1.676    0.403
       342  -7.9768    188.5095    124.0305   7.9763687321e+01   1.8495719399e+01    0.2289632    0.1488472 -40.45 0.0006488744    1.531    0.347
       343  -7.6623    211.7221    123.3438   7.5043193606e+01   1.3371215228e+01    0.1489143    0.1167649 -64.32 0.0007006151    1.628    0.386
       344 -10.0269    158.8215    121.1143   8.5494779285e+01   2.5828872666e+01    0.5791458    0.3423784 -44.52  0.001913395    1.695    0.410
       345  -7.8528    203.3765    122.2341   7.6354041670e+01   1.5443277136e+01    0.2146428    0.1354704 -45.96 0.0003977189    1.659    0.397
       346  -7.8939    195.3328    122.1718   7.7918606004e+01   1.7284654410e+01    0.2222293    0.1340439 -46.04 0.0004594876    1.733    0.423
       347  -8.6389    172.0847    121.6554   8.2655980031e+01   2.2712384485e+01    0.2584524     0.207889 -51.24 0.0003754206    1.299    0.230
       348  -8.7759     99.9617    120.2821   1.0000762911e+02   3.7943603118e+01    0.4839346    0.3011224   5.57    0.0016544    4.039    0.752
       349  -9.6362     71.0709    119.8260   1.0772730008e+02   4.2561070495e+01    0.3955164    0.2325274 -78.48  0.001057219    2.003    0.501
       350 -10.3042    141.6238    117.8974   8.8757584260e+01   3.0299125992e+01    0.7199728     0.360218 -52.28  0.001968881    2.151    0.535
       351  -9.5879      2.8293    117.2206   1.2556328093e+02   4.9891306141e+01     0.436418    0.1896694  79.28  0.002078653    2.713    0.631
       352  -7.7021     18.3074    118.3222   1.2170915719e+02   4.8555642376e+01    0.1205349   0.07434011 -50.49  0.000532051    1.643    0.391
       353  -7.3795    231.5089    117.5079   7.0100972864e+01   1.0016714850e+01    0.1455219    0.1348088 -31.07  3.48037e-05    1.079    0.073
       354 -10.4007    109.4123    113.3483   9.5877898170e+01   3.7825992488e+01    0.8716938    0.3818938 -55.44  0.002396086    2.368    0.578
       355  -8.9807     59.2999    115.5663   1.1016910450e+02   4.5103050627e+01    0.4501438    0.2876485 -10.14   0.00199356    3.056    0.673
       356  -8.4645    193.0502    115.4535   7.6679807208e+01   1.9055932806e+01    0.2808976    0.2049971 -51.56 0.0006074796    1.492    0.330
       357  -8.0385    185.5300    115.9839   7.8348797489e+01   2.0708204365e+01    0.2308197    0.1506855 -38.80 0.0005327239    1.513    0.339
       358 -10.0049     78.8424    112.3367   1.0405226272e+02   4.3198507348e+01    0.5750549    0.3566836 -84.63  0.001784469    2.274    0.560
       359  -8.5965     78.0428    105.4822   1.0276794378e+02   4.4911706447e+01    0.2646508    0.2017652  -3.85  0.001162993    1.874    0.466
       360  -8.0795    167.3544    114.2524   8.1811312507e+01   2.5276473572e+01     0.221751    0.1423674 -49.11 0.0004636285    1.628    0.386
       361 -10.2253     92.7355    112.4598   1.0020723199e+02   4.0978014740e+01    0.5537623    0.3363102 -71.43  0.001436674    2.021    0.505
       362  -8.8043     92.6844    105.6251   9.8613843536e+01   4.2558796239e+01     0.395492    0.2677478  -2.39   0.00164129    2.684    0.627
       363 -10.0062    121.9366    112.4571   9.2352108414e+01   3.5598327826e+01    0.3930128    0.3040991 -88.72  0.001005507    1.643    0.392
       364  -9.7204     14.1839    111.3518   1.2193613835e+02   5.0451131924e+01    0.4029166    0.2036022  78.03   0.00152369    2.389    0.581
       365  -8.5048    174.8459    112.0930   7.9602346567e+01   2.3958047267e+01    0.2407181    0.2128563 -70.49  0.000604468    1.270    0.212
       366  -8.4286    159.2186    111.8971   8.3040677255e+01   2.7628988888e+01     0.236869    0.2093426 -68.53 0.0005727539    1.236    0.191
       367 -10.3660     66.2842    109.9818   1.0711607983e+02   4.5516605196e+01      0.57434    0.3354183 -70.19  0.002165854    1.736    0.424
       368  -7.7673    149.6402    109.8881   8.4759275852e+01   3.0223968316e+01    0.2225317    0.1421772 -52.47 0.0005528871    1.663    0.399
       369  -8.9491     43.1197    109.7359   1.1367701436e+02   4.8304708422e+01    0.3019418    0.1662113  12.35  0.001403715    3.009    0.668
       370 -10.5632    248.6622    108.0180   6.5062060030e+01   7.8962495251e+00    0.4812982    0.2625757 -33.99   0.00219915    1.639    0.390
       371  -8.2202    189.3134    108.0582   7.5513546602e+01   2.1311763877e+01    0.2247782    0.1898847 -39.69 0.0005007559    1.168    0.143
       372  -9.8471    118.5091    106.4958   9.1734574616e+01   3.7605244714e+01    0.4158839     0.304243 -66.54   0.00193871    1.555    0.357
       373 -10.7322    109.2463     99.0036   9.2277265754e+01   4.1074248057e+01    0.9230871    0.5180145  67.64  0.001694037    3.465    0.711
       374  -9.0606    107.6421     92.6784   9.0998643306e+01   4.2770985276e+01    0.6519589    0.3275313  26.41  0.002203905    3.398    0.706
       375  -9.9197    139.9166    104.3477   8.5649188291e+01   3.3559091599e+01    0.5407521    0.3199482 -53.26  0.001348097    1.824    0.452
       376 -10.6259     45.5349    102.3350   1.1164328876e+02   4.9774905971e+01    0.7439743    0.4084714  77.46  0.003122324    3.105    0.678
       377  -9.2145     46.1041     92.7222   1.0955885259e+02   5.1936384396e+01    0.3949445    0.2383223   7.29  0.001933386    2.597    0.615
       378 -10.6632     22.8143    102.5253   1.1831387516e+02   5.1819224378e+01     0.752786    0.3723526  80.99  0.002956397    2.987    0.665
       379  -8.5887    166.6077    104.2860   7.9331145542e+01   2.7435648483e+01    0.3426994    0.2202893 -56.19 0.0008494027    1.833    0.455
       380  -9.6290    150.6458    103.3028   8.2749707717e+01   3.1358927160e+01    0.4523089    0.2988217 -64.05  0.001366833    1.994    0.498
       381  -8.8296      6.8677    103.1308   1.2290481773e+02   5.2801415711e+01    0.2447512     0.134187  86.69  0.001046948    1.838    0.456
       382  -8.1870    216.2492    103.5864   6.9255197560e+01   1.5769975772e+01    0.2068561    0.1392887  40.83 0.0007239545    1.582    0.368
       383 -10.2974    128.4939    102.0956   8.7942313371e+01   3.6513000622e+01    0.4292676    0.3171341 -60.71  0.001027557    1.484    0.326
       384  -9.2681    129.8051     97.4266   8.6317473151e+01   3.7231394999e+01    0.5219997    0.1778437  37.02  0.001425432    4.324    0.769
       385  -7.9865    175.5128    102.4980   7.6897454388e+01   2.5662162480e+01     0.155804    0.1536119 -33.52 4.681425e-05    1.014    0.014
       386  -8.1957    159.7853    101.1084   8.0005927814e+01   2.9678477023e+01    0.2402996     0.207963 -63.56 0.0004864112    1.256    0.204
       387  -9.4943     82.0181     99.3230   1.0015994848e+02   4.5727355380e+01    0.5399162    0.2569165 -57.76  0.001774132    2.026    0.506
       388 -10.1847     63.8362     95.9131   1.0479935655e+02   4.9106562356e+01    0.6218302    0.3615221 -80.10  0.001868756    2.494    0.599
       389  -8.9229     65.2678     87.8530   1.0243048281e+02   5.0757469322e+01    0.6265757    0.3056313  13.97  0.002075726    4.899    0.796
       390  -9.3648     94.8567     96.8233   9.5778528222e+01   4.4185916470e+01     0.374564    0.2548189 -66.25 0.0006856499    1.658    0.397
       391  -8.9658    151.0367     95.8827   8.0590872231e+01   3.2779230830e+01    0.3544932    0.2212931 -14.60  0.001216684    2.573    0.611
       392  -8.2841    176.3129     93.3787   7.4205507508e+01   2.7202120230e+01    0.2666141    0.1806021 -55.00 0.0005086198    1.682    0.406
       393  -8.2375    164.7882     94.0142   7.6886168593e+01   2.9882458258e+01    0.2581123    0.1730159 -61.89 0.0005943261    1.915    0.478
       394  -9.5184    139.0629     92.0594   8.2425150474e+01   3.6308078274e+01    0.5694869    0.3046031 -46.71  0.001448336    1.879    0.468
       395  -7.4895    188.3705     93.6982   7.1828848345e+01   2.4189390755e+01    0.1630085    0.1234087 -76.61 0.0007031912    1.747    0.427
       396 -10.4063    123.9903     91.3470   8.6125302028e+01   3.9758024023e+01    0.5652282    0.4869446  31.29  0.001328467    1.237    0.192
       397  -9.5097      5.3629     92.2266   1.2190576577e+02   5.5340548853e+01    0.3314351    0.1893005  66.56  0.001290646    2.152    0.535
       398  -8.3039    157.8665     91.5602   7.7754359320e+01   3.2023379109e+01    0.3205613    0.1958508 -53.10 0.0007358461    1.856    0.461
       399  -9.6009     34.8630     90.0603   1.1252952672e+02   5.3655511677e+01    0.4499947    0.2436437 -83.61  0.001763371    2.372    0.578
       400  -9.1305     22.9311     90.3562   1.1630106425e+02   5.4588531650e+01    0.2909856    0.2247986 -27.30  0.001541358    1.550    0.355
       401  -8.4123    150.9062     89.1646   7.8687550279e+01   3.4149410763e+01    0.2417932    0.2139235 -72.06 0.0005102315    1.259    0.206
       402 -10.1174     86.4100     86.2197   9.5433240759e+01   4.7974242408e+01    0.6082051    0.3746438 -64.09  0.001406213    1.910    0.476
       403  -7.8207    164.4306     87.4894   7.5090737415e+01   3.1220299142e+01    0.1569412     0.152394 -51.49 0.0001184636    1.039    0.038
       404 -10.2289    104.5629     84.4314   8.9518211443e+01   4.5137421997e+01    0.6147617     0.320774 -46.90   0.00255916    1.814    0.449
       405  -9.7883     48.4627     84.2599   1.0694180927e+02   5.3611054685e+01    0.4466233    0.2895692  81.92  0.001687318    2.383    0.580
       406  -8.3742    157.8547     84.1075   7.5576548672e+01   3.3463825042e+01    0.2371002    0.2105459 -63.05 0.0003572998    1.212    0.175
       407  -9.2752    140.9107     82.6335   7.9172239198e+01   3.7776510532e+01    0.4336139    0.2124305 -45.93  0.001016591    2.083    0.520
       408  -9.3825     10.0899     81.3092   1.1879781214e+02   5.7500941398e+01    0.3360839    0.1846036  63.51  0.001561616    2.571    0.611
       409  -8.6226     35.7847     82.4014   1.1066250266e+02   5.5309239207e+01    0.1547227    0.1200802  -5.22 0.0007814763    1.638    0.390
       410  -9.6653     24.5327     80.5459   1.1397317056e+02   5.6679986436e+01    0.4268893    0.2299612 -83.32  0.001440273    2.293    0.564
       411  -8.4172    150.1931     80.4655   7.6263113511e+01   3.6005896622e+01    0.3133221    0.1919352 -53.61 0.0007772428    1.895    0.472
       412  -8.7777    119.3902     80.5389   8.4159336190e+01   4.2971264421e+01    0.3386921     0.243742 -62.93 0.0009476376    1.697    0.411
       413  -9.1509     74.4862     79.6737   9.7331761276e+01   5.1279370026e+01    0.5432685    0.2213779 -53.24  0.002148441    2.277    0.561
       414  -8.2834    166.8177     79.8141   7.2306623202e+01   3.2061737070e+01    0.2318179    0.2096179   6.66 0.0004935496    1.194    0.162
       415  -7.9961    184.0000     78.0479   6.8257662043e+01   2.8068613296e+01    0.2559913   0.08801407 -34.33 0.0007533283    2.864    0.651
       416  -7.9570    174.6586     77.8880   7.0081744081e+01   3.0448961336e+01    0.2359456    0.1345947 -45.33 0.0009330207    1.799    0.444
       417 -10.0414     63.5332     74.2212   9.9382424727e+01   5.4012235352e+01    0.6463614    0.2997095 -64.46  0.002457887    2.990    0.666
       418  -8.9775     64.5328     63.7971   9.5948749147e+01   5.6088129972e+01    0.5191806    0.3028594 -21.34  0.002297768    2.414    0.586
       419  -9.2936    127.9730     75.5106   8.0281834932e+01   4.2113788874e+01     0.362977    0.2671379 -65.58 0.0007781193    1.740    0.425
       420  -8.0731    157.4456     76.5152   7.3381166561e+01   3.4983463781e+01    0.1557059    0.1523459 -49.35 9.269185e-05    1.035    0.034
       421  -8.8199    140.3386     75.4543   7.7101638616e+01   3.9296799965e+01    0.2642913    0.1793679 -55.92 0.0005503988    1.719    0.418
       422  -8.3151    163.4925     73.4822   7.1114708769e+01   3.4033822603e+01    0.2851295    0.1351667 -45.89 0.0009806961    2.246    0.555
       423  -9.7402     82.2433     72.4702   9.2727321593e+01   5.1617109146e+01    0.4818163    0.2887424 -59.92  0.001400753    1.956    0.489
       424  -7.9307     82.7111     65.6422   9.0420887917e+01   5.2948338956e+01    0.2256637    0.1608785 -12.94  0.001103743    1.729    0.422
       425  -7.8545    151.4599     73.4810   7.3815593781e+01   3.7004955265e+01     0.154653    0.1522865 -36.97 0.0001232996    1.024    0.023
       426  -8.9889    115.7240     72.3645   8.2610008845e+01   4.5379765035e+01    0.4467457     0.190737 -42.97  0.001178913    2.258    0.557
       427  -8.3236     42.7742     72.8684   1.0608732441e+02   5.6753970840e+01     0.235591     0.162736 -73.48 0.0007617857    1.596    0.374
       428  -7.7264    175.4933     72.5768   6.8331302813e+01   3.1169995430e+01    0.1535375    0.1523156 -81.08 9.620997e-05    1.019    0.018
       429  -9.3294    105.8245     71.8043   8.5267625860e+01   4.7505450299e+01    0.2855357    0.1962371 -52.23 0.0005498125    1.532    0.347
       430  -9.3738     94.9746     70.8741   8.8227576888e+01   4.9751613621e+01    0.3896663    0.2268186 -56.93 0.0009221717    2.047    0.512
       431  -9.0108     28.2616     71.0921   1.1070071503e+02   5.8482243812e+01    0.3932036    0.1540854 -37.13  0.001641534    3.083    0.676
       432  -7.3719    170.3225     71.6411   6.9105806188e+01   3.2641423144e+01    0.1670959    0.1209053 -68.21 0.0001639645    1.771    0.435
       433  -9.5098     51.4021     69.7239   1.0226553773e+02   5.6497906249e+01     0.403333    0.2204136 -68.14  0.001345884    2.299    0.565
       434  -8.8324     16.7100     70.3210   1.1455608743e+02   5.9510644030e+01    0.2273705     0.167216  83.41  0.001013045    1.642    0.391
       435  -7.8879    157.1543     69.8180   7.1374627170e+01   3.6264310411e+01      0.21234    0.1829432   6.79 0.0004102456    1.294    0.227
       436  -8.7535    147.0297     68.4125   7.3251805455e+01   3.9001322388e+01    0.2957048    0.2054747 -51.33 0.0006210104    1.578    0.366
       437  -8.7790    138.5433     66.1866   7.4579471140e+01   4.1435860264e+01    0.3555966     0.222717 -55.00  0.000984301    1.958    0.489
       438  -9.7191    119.9705     65.6503   7.9233944131e+01   4.5761573744e+01    0.4924085    0.3134821  58.63   0.00215133    1.855    0.461
       439  -8.2663    130.6406     64.4223   7.5990278926e+01   4.3598712185e+01    0.3053995    0.1166832 -48.45 0.0009389574    3.313    0.698
       440  -9.0171    110.2545     64.0117   8.1412056753e+01   4.8129938958e+01    0.3375677    0.2402749 -60.00 0.0008647148    1.768    0.434
       441  -8.7091     37.3369     64.3512   1.0580249857e+02   5.9141179137e+01    0.2470348     0.192281 -89.58 0.0009981957    1.685    0.407
       442  -7.4322    187.5004     63.5147   6.3334230163e+01   2.9613141942e+01    0.1542089    0.1479105 -64.73 0.0001274179    1.044    0.042
       443  -7.9421    158.0336     61.7304   6.8620930794e+01   3.7440743040e+01    0.1889413    0.1356876  56.66 0.0002590372    1.403    0.287
       444  -9.5510     97.6511     60.3502   8.3911882144e+01   5.1324485370e+01    0.3878421    0.2792576 -31.69   0.00150418    1.328    0.247
       445  -9.7580     73.2916     58.9156   9.1342535293e+01   5.5800719864e+01    0.6439824    0.2273881 -47.54  0.002010155    2.616    0.618
       446  -7.8945    164.3185     60.2975   6.6834020042e+01   3.6087082478e+01    0.1592736    0.1189105  22.65 0.0003608994    1.614    0.380
       447  -8.3696     89.1038     59.8536   8.6421563459e+01   5.2993924911e+01    0.2086631    0.1888063 -56.76 0.0005529144    1.244    0.196
       448  -8.2430    147.0645     59.3273   7.0290449821e+01   4.0575908124e+01    0.2099121    0.2028253  60.45 0.0004815074    1.068    0.064
       449  -8.3037    130.8123     58.1174   7.3821407625e+01   4.4676211000e+01    0.2275562    0.1991893 -58.63 0.0005059284    1.281    0.219
       450  -9.9149     23.3951     56.5017   1.0891435307e+02   6.2006915123e+01    0.4099397    0.2592703 -89.09  0.002132979    2.516    0.603
       451  -9.4048      7.5334     57.2349   1.1509545971e+02   6.2888890686e+01    0.2688479    0.1730908 -86.40 0.0009337699    1.854    0.461
       452  -9.4706    119.2963     55.5963   7.5977010675e+01   4.7726580081e+01    0.4489665    0.2393202 -49.07  0.001236607    2.197    0.545
       453  -9.5337     54.4057     55.7116   9.6990982623e+01   5.9069181601e+01    0.3503409    0.2251461 -62.56  0.001280127    1.851    0.460
       454  -8.4504    139.9165     56.1634   7.0910643510e+01   4.2849646530e+01    0.2368014    0.2026206 -64.68 0.0004770899    1.351    0.260
       455  -8.9093     44.1118     55.6095   1.0078878224e+02   6.0286764674e+01     0.280572    0.1873874 -61.44  0.001195823    1.564    0.361
       456  -8.1048    214.5325     55.5316   5.6652916318e+01   2.3953624843e+01    0.1470019    0.1396936 -56.97 0.0008089351    1.003    0.003
       457  -8.6699    105.7794     53.4123   7.9022092794e+01   5.0989364968e+01    0.2665284    0.2222254 -62.97 0.0006756215    1.490    0.329
       458  -9.4631     92.3936     50.7124   8.2126681331e+01   5.4092558981e+01    0.3763048    0.2374739 -47.89  0.001053492    1.699    0.411
       459  -8.4793    144.5602     49.0654   6.7413252601e+01   4.2860813430e+01    0.2275247    0.1468884 -32.32 0.0004291104    1.552    0.356
       460  -8.5433    129.9334     49.2836   7.0971318399e+01   4.6357508506e+01    0.2082167    0.1940818  34.64 0.0004062733    1.058    0.055
       461  -8.7464    120.8782     47.6104   7.2702375953e+01   4.8714441155e+01    0.2405054    0.1957128 -15.21 0.0005005238    1.245    0.197
       462  -7.5870    163.6688     47.7076   6.2924440765e+01   3.8229504127e+01    0.1586674    0.1140078  27.81 0.0005012632    1.631    0.387
       463  -8.5987    112.3190     46.7019   7.4698417175e+01   5.0754706458e+01    0.3238632    0.2017655 -45.07  0.001053648    1.733    0.423
       464  -8.9561     81.9530     46.2723   8.3881396700e+01   5.6762237682e+01    0.3377441    0.1772803 -41.04  0.001061007    1.783    0.439
       465  -8.5563     45.0157     44.7918   9.6893731549e+01   6.2339070393e+01    0.2200021    0.1560191 -46.14  0.000629033    1.234    0.190
       466  -9.0396     16.6613     44.6735   1.0835481278e+02   6.4933737763e+01    0.2189415    0.1557266 -70.15 0.0006745459    1.530    0.346
       467  -8.6896    132.8707     43.5352   6.8203631589e+01   4.6558498633e+01    0.2871053    0.2232538 -59.75 0.0007875973    1.573    0.364
       468  -8.6687     92.8497     42.9969   7.9082524803e+01   5.5338434178e+01    0.3095664    0.1771003 -19.46  0.001242017    2.094    0.522
       469  -8.9253     58.1273     42.4740   9.0973214716e+01   6.1137605368e+01    0.3667605    0.2004716 -57.77   0.00133229    2.584    0.613
       470  -9.2186     69.6861     41.8995   8.6479145732e+01   5.9552660084e+01    0.3024919    0.2303748 -60.94  0.001003464    1.803    0.445
       471  -9.4977      5.1316     42.1428   1.1244253029e+02   6.6143022172e+01    0.3048742    0.1754266 -78.61  0.001716619    2.180    0.541
       472  -8.4852    105.9823     41.4436   7.4521917439e+01   5.2951725823e+01    0.2566775    0.1904431 -47.09 0.0006227565    1.518    0.341
       473  -7.7453    140.4727     41.5386   6.5722922659e+01   4.5007793989e+01    0.1469408     0.143629  27.14 7.576551e-05    1.032    0.031
       474  -8.7189     36.8307     41.0386   9.8875707186e+01   6.3939854292e+01    0.1806225    0.1503918 -52.33 0.0005665853    1.275    0.216
       475  -8.8357     95.5015     38.4131   7.6469745221e+01   5.5566518695e+01     0.256441    0.1872718 -39.15 0.0009095735    1.396    0.284
       476  -8.2751     80.5873     36.7284   8.0620962588e+01   5.8621272680e+01    0.1808222    0.1200209 -41.94 0.0004127128    1.538    0.350
       477  -9.3356     26.2656     35.5617   1.0140972620e+02   6.5977337973e+01    0.2925355    0.1868528 -65.03 0.0008160612    1.954    0.488
       478  -7.8429    133.5323     36.4689   6.5494473932e+01   4.7430002236e+01    0.1455745    0.1398523  22.66  0.000212412    1.023    0.023
       479  -8.1430    125.8854     35.8318   6.7083963528e+01   4.9345587825e+01    0.2222592    0.1820358  22.30 0.0003860529    1.237    0.191
       480  -8.4150    111.9535     34.9447   7.0342160514e+01   5.2649615307e+01    0.2145928     0.174505 -63.98 0.0005801528    1.628    0.386
       481  -7.7965     88.5218     34.5108   7.7102928382e+01   5.7524347167e+01    0.1375715    0.1233971  -6.80 0.0002696363    1.035    0.034
       482  -8.9511     48.4751     33.2410   9.1187877423e+01   6.4053410647e+01    0.2745664    0.1896368 -45.70 0.0008412534    1.417    0.295
       483  -8.5501    118.9645     33.1620   6.7806481774e+01   5.1327126300e+01    0.2121023    0.1933276 -55.65 0.0004434525    1.282    0.220
       484  -8.7032     60.6339     32.6433   8.6147214901e+01   6.2507713758e+01    0.2310092    0.1977133 -36.71 0.0005716594    1.243    0.195
       485  -8.8422     72.1599     31.4219   8.1372842857e+01   6.0910599217e+01    0.2285073    0.1945717 -49.11 0.0005959939    1.459    0.315
       486  -7.6968    139.3148     31.6810   6.2460858040e+01   4.6663331617e+01    0.1480163    0.1132545 -65.81 0.0004951668    1.652    0.395
       487  -8.1253    191.5077    249.5367   1.0271221367e+02  -2.1883156352e+00    0.2075307   0.08699949  48.87 0.0007299546    2.288    0.563
       488  -7.9630     42.0000     29.9142   9.2529387924e+01   6.5414177171e+01    0.1975895   0.05974681 -45.12 0.0003988443    2.823    0.646
       489  -8.9147     81.5159     27.6488   7.6539484058e+01   5.9857053561e+01    0.2872908    0.2141514 -51.58 0.0009781725    1.775    0.437
       490  -8.8741      3.5935     27.7562   1.0897622591e+02   6.9046189699e+01    0.1910198    0.1488941 -75.76 0.0008062452    1.621    0.383
       491  -8.8104     91.8009     26.4855   7.2744878222e+01   5.8067089681e+01    0.2881728     0.180085 -38.09 0.0009371773    1.666    0.400
       492  -7.9116     34.6127     23.2966   9.2989222710e+01   6.7371561119e+01     0.104195   0.09627727 -89.06 0.0007014827    1.777    0.437
       493  -7.8788    104.4700     22.5523   6.7412949647e+01   5.5962235564e+01    0.1392294    0.1238983  15.37 6.520283e-05    1.008    0.008
       494  -9.0549    175.8262    247.9248   1.0519610520e+02   4.9386660340e-01    0.3106835     0.185692  61.67  0.001457428    2.311    0.567
       495  -8.8519     48.3565     21.7245   8.6358989174e+01   6.5980473367e+01    0.2148691    0.1835699 -47.44  0.000629836    1.521    0.343
       496  -7.6006    120.7121     21.3421   6.2781136683e+01   5.2447255291e+01    0.1389029    0.1082381 -58.95 0.0007021659    1.645    0.392
       497  -8.9760     74.1668     19.6514   7.5529292827e+01   6.2299483209e+01    0.2736192    0.1798809 -45.15 0.0007796417    1.891    0.471
       498  -8.2313     87.9142     17.9124   7.0239948774e+01   5.9963492638e+01    0.1934063    0.1595831 -54.74 0.0005367008    1.661    0.398
       499  -7.9990     38.5611     18.5395   8.9139938189e+01   6.7704518431e+01    0.1219005   0.09531925 -19.90 0.0001447973    1.008    0.008
       500  -7.7845    112.7720     17.0193   6.2972633464e+01   5.4781613096e+01     0.171574    0.1113986 -22.12 0.0003445821    1.559    0.358
       501  -7.9536      1.6113     16.8014   1.0618789754e+02   7.1177009727e+01     0.149014   0.08821582 -60.22 0.0005641497    1.687    0.407
       502  -8.0915     30.0905     16.0570   9.1874152585e+01   6.9039940039e+01    0.1587626     0.140011 -56.42 0.0006664087    1.671    0.402
       503  -8.6112    101.3199     29.4019   7.1114514042e+01   5.5722982320e+01    0.2275674    0.1549166 -45.33  0.000833871    1.718    0.418
       504  -7.7070     17.1702     14.3807   9.7369568559e+01   7.0525395769e+01    0.1337089    0.1003648  29.31 0.0005240396    1.720    0.418
       505  -7.2604    119.6797     11.3471   5.9052840292e+01   5.3791407949e+01    0.1382934     0.105027 -60.76 0.0007049177    1.734    0.423
       506  -7.5933     83.5067     11.4678   6.8699122371e+01   6.1595782288e+01    0.1304284    0.1140366   8.19 7.931145e-05    1.053    0.051
       507  -8.9691    156.4704    248.1904   1.0858206540e+02   3.5418542826e+00    0.2602892    0.1913089  68.84 0.0009743667    1.622    0.384
       508  -8.6739    132.3246    247.9359   1.1273382272e+02   7.3731171104e+00    0.2344589    0.1504552  70.65  0.000693092    1.835    0.455
       509  -8.2146    113.1323    248.6294   1.1609615336e+02   1.0189637937e+01    0.1788485    0.1319777  83.48 0.0008717434    1.456    0.313
       510  -9.1396    103.8670    246.7659   1.1749658623e+02   1.1844650007e+01    0.3478108    0.1743038 -79.93  0.001781977    2.904    0.656
       511  -8.3940     93.5099    248.9069   1.1943108256e+02   1.2998682543e+01    0.2152631     0.123982  76.30  0.001324097    1.898    0.473
       512  -9.1686    242.8525    246.7321   9.3714494124e+01  -9.6495648284e+00    0.2696072    0.1458252 -23.12  0.001343777    2.047    0.511
       513  -8.5147    218.4573    247.8845   9.7915867747e+01  -6.1682662857e+00    0.1733387    0.1091915 -36.97  0.001083385    2.033    0.508
       514 -10.0490    223.9440    244.2513   9.6461372474e+01  -6.6054093603e+00     0.388378    0.2212312 -41.66  0.002341801    2.434    0.589
       515  -9.3603    147.1503    245.9504   1.0993850162e+02   5.3329360068e+00     0.267933      0.20505  89.24  0.001812508    1.715    0.417
       516  -8.2088    191.0045    245.7108   1.0227981215e+02  -1.6460277656e+00    0.1643366    0.1176541  33.91 0.0002244926    1.091    0.084
