#   1 NUMBER                 Running object number                                     
#   2 MAG_AUTO               Kron-like elliptical aperture magnitude                    [mag]
#   3 X_IMAGE                Object position along x                                    [pixel]
#   4 Y_IMAGE                Object position along y                                    [pixel]
#   5 X_WORLD                Barycenter position along world x axis                     [deg]
#   6 Y_WORLD                Barycenter position along world y axis                     [deg]
#   7 A_WORLD                Profile RMS along major axis (world units)                 [deg]
#   8 B_WORLD                Profile RMS along minor axis (world units)                 [deg]
#   9 THETA_WORLD            Position angle (CCW/world-x)                               [deg]
#  10 FWHM_WORLD             FWHM assuming a gaussian core                              [deg]
#  11 ELONGATION             A_IMAGE/B_IMAGE                                           
#  12 ELLIPTICITY            1 - B_IMAGE/A_IMAGE                                       
         1 -13.6946     19.4243     13.0560   4.9743887765e+01   7.7173811447e+01    0.8923851    0.2707609 -47.81  0.003399739    3.294    0.696
         2 -13.4367     22.4075      2.2619   3.8383632751e+01   7.8484655768e+01    0.9805038    0.3766722  33.05  0.003761422    3.259    0.693
         3 -13.5188     13.3328      9.9772   5.3608529987e+01   7.8538315720e+01    0.8708941    0.2499558 -46.57  0.003339948    3.318    0.699
         4 -12.7516      2.2518      4.1322   6.2731065233e+01   8.0788239701e+01    0.6401793    0.2987806 -52.56  0.003265622    1.986    0.496
         5 -14.3202      7.0453     11.2581   6.1419882384e+01   7.8957915971e+01       2.7003    0.2476053 -52.22  0.008189106    5.254    0.810
         6 -13.4255     13.7695     22.4447   6.0734278437e+01   7.5993374313e+01    0.5764381    0.2697382 -40.57  0.002610512    2.183    0.542
         7 -12.5690     25.4927      7.0304   3.9809454604e+01   7.7241855643e+01    0.3227462    0.2151498  -5.42  0.001647924    2.037    0.509
         8 -10.9805      9.5221    247.5287   8.8621407761e+01   2.0335205583e+01    0.1386403    0.1047483 -77.96 0.0001785401    1.650    0.394
         9 -11.6816     90.5795    249.8840   7.0778180951e+01   1.1419710017e+01    0.2657045    0.1063005  39.68  0.001327397    1.929    0.482
        10 -11.4912     74.5199    250.4780   7.4351569755e+01   1.3155510243e+01    0.2647747   0.09132044  28.91  0.001213463    2.179    0.541
        11 -12.1762     65.6172    248.7244   7.6205968545e+01   1.4458830502e+01    0.3737335    0.1621123  40.73  0.001967466    1.702    0.413
        12 -11.5865     51.3239    249.9311   7.9465736947e+01   1.5797185361e+01    0.3514269    0.1013047  34.14   0.00159533    2.226    0.551
        13 -12.1602     19.4902    249.3370   8.6489373998e+01   1.9091704958e+01    0.3331542    0.1500458  37.04  0.001415016    1.514    0.339
        14 -12.6692    233.0450    244.7771   4.3376575282e+01  -3.3434436436e+00     0.257231    0.1183931 -20.11  0.001640624    2.054    0.513
        15 -11.5457    218.5183    245.9635   4.5774026084e+01  -2.1453618768e+00    0.1439592   0.08328704 -28.73  0.001034021    1.597    0.374
        16 -10.6637    211.6553    245.6746   4.6835636102e+01  -1.4586702513e+00    0.1101428   0.06121631  -3.30 0.0007050502    1.741    0.426
        17 -11.9486     84.4963    244.7028   7.1690994728e+01   1.3012832468e+01     0.267732    0.1356553  45.85  0.001445265    1.736    0.424
        18 -11.1860     45.2682    244.7586   8.0547944034e+01   1.7382901223e+01    0.2969514    0.1269905  42.92  0.001559087    1.692    0.409
        19 -11.1324     10.1941    244.1826   8.8396277198e+01   2.0905836287e+01    0.1761696   0.09416007  50.86 0.0008368295    1.371    0.270
        20 -12.0660    225.4974    241.4918   4.4084710329e+01  -2.2949282186e+00     0.195038   0.08326513 -34.63  0.001217405    2.190    0.543
        21 -12.6878     15.4606    240.6687   8.7129176589e+01   2.1102495377e+01    0.3331419    0.1496687  54.34  0.001835144    1.724    0.420
        22 -11.2867     54.5131    240.3188   7.8184220200e+01   1.7220135952e+01     0.289026    0.1355169  54.44  0.001481777    1.993    0.498
        23 -10.6809     38.2991    240.6584   8.1930897065e+01   1.8880032508e+01    0.2102121   0.09425607  50.14  0.001098652    1.775    0.437
        24 -11.2834     34.0245    248.4738   8.3247244679e+01   1.7847092552e+01    0.2255663    0.1294209  60.59  0.001362832    1.582    0.368
        25 -12.0324     72.8683    240.3443   7.3972184198e+01   1.5143904197e+01    0.3123822    0.1489315  46.45  0.001623025    1.791    0.442
        26 -10.6030     45.2033    237.0087   8.0147107415e+01   1.8857955277e+01    0.2127004   0.09997594  57.28  0.001081307    1.997    0.499
        27 -11.7495     63.3748    232.0760   7.5563388923e+01   1.7795027753e+01    0.3634257     0.154844  50.36  0.001713815    2.144    0.534
        28 -10.9342     11.6094    231.7686   8.7759901718e+01   2.3204496333e+01    0.1656546   0.09042997  69.36 0.0007350044    1.672    0.402
        29 -11.8620      6.1153    229.8463   8.8985817123e+01   2.4075817646e+01    0.2159316    0.1304431  62.04  0.001157943    1.370    0.270
        30 -11.9769      3.9782    222.4829   8.9322778600e+01   2.5772457699e+01     0.224552    0.1296894  62.05 0.0008965383    1.420    0.296
        31 -11.5052      1.4976    219.0134   8.9842333274e+01   2.6708925048e+01    0.2781745    0.1939638 -84.47  0.001763513    1.569    0.363
        32 -11.4482    235.4080    228.2858   4.0751690148e+01  -1.7289085985e+00    0.1939668   0.07680903 -31.17  0.001147002    2.202    0.546
        33 -10.0402     20.3749    233.6845   8.5783782998e+01   2.2013724167e+01    0.1407279   0.05787842  49.47 0.0007030772    1.797    0.443
        34 -11.7915     11.1564    226.2856   8.7714516515e+01   2.4360139763e+01    0.2506209   0.09849193  58.04  0.001227604    2.058    0.514
        35 -10.6454      1.5245    226.9905   8.9992749151e+01   2.5046816478e+01    0.1694633    0.1039069  80.89 0.0008643242    1.592    0.372
        36 -12.1320    248.7706    223.9278   3.8197135904e+01  -2.4756204004e+00    0.2141115    0.1014318 -23.03  0.001408685    1.783    0.439
        37  -9.8996     16.3148    223.3248   8.6391433199e+01   2.4505611827e+01    0.1095457   0.09300505 -27.94 0.0007042614    1.666    0.400
        38 -11.2624    240.4993    219.4648   3.8732823974e+01  -1.1988331695e+00    0.1884856   0.07245918 -26.84  0.001037848    2.425    0.588
        39 -12.3965    247.5993    216.7809   3.7324829832e+01  -1.5643663236e+00    0.2597203     0.118254 -27.79  0.001668717    1.807    0.447
        40 -12.4494      2.8685    212.9525   8.9378687732e+01   2.7894520418e+01    0.4113622    0.2305552  61.31  0.002344297    1.449    0.310
        41 -11.1398      1.5576    205.7607   8.9543904594e+01   2.9584438443e+01    0.3003438    0.1131288 -87.28  0.001330891    2.666    0.625
        42 -11.8377     13.8255    216.3096   8.6765520016e+01   2.6219413424e+01    0.2740479    0.1301208  47.95  0.001434304    1.570    0.363
        43 -11.8993     13.0055    204.4678   8.6568756968e+01   2.8902538248e+01    0.2635602    0.1423118  65.70  0.001384536    1.626    0.385
        44 -12.4314      6.7982    205.8318   8.8210830654e+01   2.9135312525e+01    0.3726945    0.1605801  67.35   0.00178375    2.064    0.515
        45 -12.4162      3.9535    197.5183   8.8719969834e+01   3.1260102125e+01    0.5356669      0.15552  62.38  0.002084362    2.965    0.663
        46 -12.8703      3.7981    188.3010   8.8503623578e+01   3.3433014408e+01    0.4701756    0.2151793  59.53  0.002259897    1.803    0.445
        47 -13.0686      2.3591    178.6018   8.8622219589e+01   3.5890760489e+01    0.5199741    0.2271657  82.51  0.002340584    2.150    0.535
        48 -12.7767      5.5279    174.3524   8.7562700593e+01   3.6699569792e+01    0.2899897    0.1813893  59.03  0.001235434    1.328    0.247
        49 -13.2848      3.8210    154.4143   8.7335365438e+01   4.1934784728e+01    0.5172062    0.1989327 -88.55  0.002067695    2.451    0.592
        50 -11.7509     10.1716    154.9933   8.5291377995e+01   4.1311512031e+01    0.2578073    0.1171814  61.65  0.001091679    2.006    0.502
        51 -12.0395      4.4431    136.7156   8.6323748602e+01   4.6620382005e+01    0.2735856    0.1236111  88.44  0.001138802    2.067    0.516
        52 -11.2144    247.9971    129.5048   2.2672637493e+01   9.5671592851e+00    0.2313171    0.1260352 -44.14  0.001376455    1.623    0.384
        53 -11.8153      2.5319    126.4906   8.6505357977e+01   4.9528133174e+01    0.3006101    0.1258541 -83.88  0.001212953    2.181    0.541
        54 -11.8236    239.5593    123.9236   2.2623314541e+01   1.1528241281e+01    0.3434073    0.1568021 -42.81  0.001820725    1.837    0.456
        55 -12.1636    247.8977    118.4568   2.0601011928e+01   1.1102997173e+01    0.3319391    0.1280917 -41.69  0.001674883    2.059    0.514
        56 -10.7464    231.5069    115.0038   2.1855699969e+01   1.4022681280e+01     0.194283   0.09719618 -37.64  0.001005961    1.597    0.374
        57 -12.1571    241.2045    108.9158   1.9502377876e+01   1.3412895115e+01    0.2670864    0.1236871 -43.87   0.00141997    1.780    0.438
        58 -11.4337    248.3858    107.1783   1.8377733236e+01   1.2586254915e+01    0.1745975   0.08098305 -42.48  0.000786905    1.699    0.411
        59 -11.6752    243.4959     98.0244   1.7090229175e+01   1.4587506710e+01    0.1904107    0.0915204 -37.04  0.001035503    1.599    0.375
        60 -12.1885      1.9472     39.7387   7.7358668854e+01   7.2827565280e+01    0.3646579    0.1732668 -69.89  0.001694143    1.926    0.481
        61 -12.6580      9.1516     35.6921   7.0303083099e+01   7.3398907978e+01    0.4189061    0.1391741 -58.51  0.001680697    2.506    0.601
        62 -13.2665    243.0123    246.3110   4.2112843009e+01  -4.3716953197e+00    0.3335233     0.152421 -27.36  0.002272263    1.848    0.459
        63 -13.4226    248.4931    241.0582   4.0623764749e+01  -4.2903970975e+00    0.5739235    0.2046377 -30.67  0.003522777    2.381    0.580
        64 -10.3778     26.4257    249.1898   8.4958958935e+01   1.8460816452e+01    0.1558222   0.08803401  66.21 0.0008528325    1.678    0.404
        65 -12.5005      6.4006    235.9892   8.9057675684e+01   2.2824347365e+01    0.3633134    0.1950719  56.10  0.002177394    1.440    0.305
        66 -11.4247      4.2151    248.5620   8.9793635379e+01   2.0606072594e+01    0.3076234    0.1326615  37.46  0.001762359    1.546    0.353
        67 -12.6053      3.2831    242.1912   8.9879586231e+01   2.1888274312e+01    0.4761087     0.196059  59.77  0.002555053    1.924    0.480
