#   1 NUMBER                 Running object number                                     
#   2 MAG_AUTO               Kron-like elliptical aperture magnitude                    [mag]
#   3 X_IMAGE                Object position along x                                    [pixel]
#   4 Y_IMAGE                Object position along y                                    [pixel]
#   5 X_WORLD                Barycenter position along world x axis                     [deg]
#   6 Y_WORLD                Barycenter position along world y axis                     [deg]
#   7 A_WORLD                Profile RMS along major axis (world units)                 [deg]
#   8 B_WORLD                Profile RMS along minor axis (world units)                 [deg]
#   9 THETA_WORLD            Position angle (CCW/world-x)                               [deg]
#  10 FWHM_WORLD             FWHM assuming a gaussian core                              [deg]
#  11 ELONGATION             A_IMAGE/B_IMAGE                                           
#  12 ELLIPTICITY            1 - B_IMAGE/A_IMAGE                                       
         1 -15.0906      7.7288    150.8208   1.4463912652e+02   4.2702843417e+01     5.963725     1.743518 -78.95   0.00386905    3.453    0.710
         2 -13.3925    194.9675     29.3078   6.9578666430e+01   3.3169986452e+01     1.302199     1.265917  29.10  0.006683789    1.227    0.185
         3 -13.5435    209.7248      9.9466   6.2980161782e+01   3.1801755786e+01     1.178318     0.921932  42.32  0.006524161    1.580    0.367
         4 -11.9082      2.2641     21.2433   1.2133357953e+02   6.9287978832e+01    0.9470465    0.1253145 -52.87  0.002457585   10.490    0.905
         5 -11.6003      2.4868      2.9736   1.1405500873e+02   7.1923399172e+01    0.3190282    0.2655154   5.17  0.002741074    1.463    0.317
         6 -10.3456    199.1181    246.1618   1.1784836282e+02  -5.5952904953e+00     0.170507    0.1370404  51.86  0.001087569    1.345    0.257
         7 -12.0828    246.8112    247.6387   1.0953738324e+02  -1.3318424783e+01    0.5929701     0.376491  42.18  0.003677776    1.631    0.387
         8 -10.6619    138.8408    249.8545   1.2954892503e+02   4.1171121306e+00    0.2818608    0.1172399  46.20   0.00132905    1.952    0.488
         9 -11.0393    124.6595    250.1397   1.3218276530e+02   6.4360009741e+00    0.4420675    0.1374439  41.67  0.001801344    2.791    0.642
        10  -9.8710    111.4831    250.5494   1.3461551453e+02   8.5089366018e+00    0.2398307   0.09890557  44.48 0.0005649238    2.003    0.501
        11 -11.4536     99.3483    247.5457   1.3647341491e+02   1.0955796150e+01    0.4036208    0.3348492  -4.84  0.002470943    2.319    0.569
        12 -10.5753     29.1852    249.9852   1.4847936731e+02   2.0104824000e+01    0.3108032    0.1801548  50.99  0.001824197    1.497    0.332
        13 -10.1819     34.2713    249.2851   1.4763676460e+02   1.9632310806e+01    0.2772366    0.1409869  63.16  0.001767594    1.529    0.346
        14 -11.2480     35.7408    243.9479   1.4704758325e+02   2.0437848662e+01    0.3539807    0.3284275  37.03  0.002254213    1.791    0.442
        15 -10.2874      2.3511    248.8256   1.5246971239e+02   2.3228380370e+01    0.2780423      0.14209 -81.14  0.001957121    1.600    0.375
        16 -10.0772     22.0408    244.6333   1.4926779021e+02   2.1897394028e+01    0.2530751    0.1213283  65.80  0.001068499    1.647    0.393
        17 -11.2981     12.9581    241.3132   1.5048511088e+02   2.3497715953e+01    0.3919584     0.170019 -85.85  0.002181332    1.923    0.480
        18 -10.1511      5.6175    240.9665   1.5158934950e+02   2.4322442560e+01    0.1519708    0.1291084  64.72 0.0003047524    1.490    0.329
        19  -9.6179    183.1566    238.8256   1.1969501995e+02  -1.7790512809e+00    0.1771343    0.1368191  22.58 0.0005066039    1.321    0.243
        20  -9.9647    119.9947    238.9765   1.3171470374e+02   9.1621278330e+00     0.152338    0.1302723  71.72  0.000627781    1.089    0.082
        21 -10.6230    233.1858    236.0778   1.0998948473e+02  -9.7872211535e+00    0.2462708    0.1975064 -75.07  0.001416949    2.477    0.596
        22  -9.2682    156.3248    250.3082   1.2637846617e+02   1.0742101339e+00    0.1199041    0.0913114  18.75 0.0007036817    1.651    0.394
        23  -9.7071    191.8946    193.0626   1.1004750785e+02   4.3496416836e+00     0.451352     0.229235 -63.36  0.001422995    4.620    0.784
        24 -10.8896     17.8765    198.5841   1.4682883321e+02   3.1431167794e+01    0.2722163     0.156804  61.07 0.0005314274    1.540    0.351
        25  -8.3528     50.4351    196.4952   1.4039053589e+02   2.8211306590e+01    0.1265724   0.09722534  83.31 6.450249e-05    1.044    0.042
        26 -12.6781     35.4371    232.4626   1.4629037984e+02   2.2650698813e+01    0.2834339    0.2276431 -83.39 0.0007605328    1.319    0.242
        27 -14.6901     41.1272    224.7612   1.4472378133e+02   2.3476659932e+01     5.176149      1.50337  38.94  0.006607154    3.391    0.705
        28 -11.8187     67.9332    190.2462   1.3608938153e+02   2.7266361813e+01    0.2772063    0.2222093 -64.79 0.0004809755    1.297    0.229
        29 -10.1418    229.3973    229.8170   1.0959287369e+02  -8.3286657542e+00    0.3451063    0.1868268 -54.24   0.00151063    3.538    0.717
        30 -13.1046     64.7256    175.6254   1.3490465374e+02   3.1006740255e+01    0.4876267    0.2708777 -46.78  0.001426244    2.233    0.552
        31 -10.6559     77.9190    177.4845   1.3221926745e+02   2.8707485353e+01    0.2349452    0.2025556 -79.10 0.0003604195    1.087    0.080
        32  -9.7317     98.2231    174.8193   1.2720618547e+02   2.6114637674e+01    0.3543944    0.2077017 -72.90   0.00111457    1.863    0.463
        33 -11.7825     85.4709    168.1091   1.2907252623e+02   2.9721833976e+01    0.6439862    0.5942469  84.54  0.003929916    1.092    0.085
        34 -10.2162    173.0506    222.3063   1.1903374614e+02   2.7268313543e+00    0.3421581     0.162373  40.97  0.001340701    1.870    0.465
        35  -9.8556     97.9907    152.2134   1.2329568663e+02   3.1408739325e+01    0.3077259    0.2571653 -54.71 0.0007932992    1.189    0.159
        36  -8.9217    100.9919    148.0254   1.2174314606e+02   3.1879090776e+01    0.2143046    0.1930024 -35.32  0.000469013    1.277    0.217
        37 -11.9064     86.5364    151.4590   1.2599085423e+02   3.3457048435e+01    0.3035692    0.2462215 -49.12  0.000514369    1.290    0.225
        38 -12.3607     67.1946    143.8078   1.2948803340e+02   3.8094967948e+01    0.7114527    0.4803201  72.98  0.003533448    1.741    0.426
        39 -12.7988      9.1371    207.0350   1.4900354626e+02   3.0545924702e+01    0.6873336    0.5461959  37.60  0.004129407    1.715    0.417
        40  -8.3031    192.2080    144.0069   9.9550669066e+01   1.3845827068e+01     0.195627    0.1218064 -41.71 0.0004115403    1.595    0.373
        41  -9.5984    109.6532    137.0249   1.1727413948e+02   3.2909795721e+01    0.3810452    0.2395572 -28.79  0.001547525    2.360    0.576
        42  -8.6344    152.4051    212.7835   1.2163794093e+02   8.2773948263e+00     0.160208    0.1326805 -39.02 0.0003055388    1.421    0.296
        43 -10.4574     96.8143    134.4682   1.2004729507e+02   3.5780278658e+01    0.2586551    0.2225895 -45.59 0.0006401264    1.185    0.156
        44 -11.1410     57.0495    131.7868   1.3001216471e+02   4.2227202193e+01    0.5702367    0.2446086 -70.03  0.002290033    2.546    0.607
        45  -9.0134     90.7525    131.1406   1.2093892885e+02   3.7569659886e+01    0.2087806    0.1780736 -88.50 0.0005172848    1.220    0.181
        46  -8.5324     79.4715    131.5479   1.2401906988e+02   3.9237265443e+01    0.1423182    0.1249561 -81.33 0.0008059232    1.105    0.095
        47  -9.0827    106.6641    123.9304   1.1510449445e+02   3.6490723913e+01    0.2014552    0.1724642 -56.93  0.000341995    1.107    0.097
        48 -10.3041     34.0742    133.0318   1.3617892817e+02   4.4451545748e+01    0.2940549    0.1396496  47.57  0.001341576    2.448    0.592
        49  -9.1811     91.9210    214.1804   1.3411849188e+02   1.8544452747e+01    0.2679474    0.1255082  62.00  0.001157484    2.430    0.589
        50 -10.1435    167.6940    112.7671   9.7175302003e+01   2.5924277097e+01     0.345186     0.274478 -81.39 0.0008380442    1.528    0.346
        51  -9.4692    203.2151    111.5816   8.9521938905e+01   1.7743548490e+01    0.2139197     0.143175  41.27 0.0005841305    1.641    0.390
        52 -11.0867    241.6641     91.4396   7.8184698891e+01   1.2556225272e+01    0.2983537    0.1768823 -36.33  0.001384465    1.609    0.379
        53  -8.7440    184.4914     77.4673   8.4228223083e+01   2.8596282131e+01    0.1501119    0.1463802  57.75 9.282265e-05    1.072    0.067
        54  -9.2329    157.4913     76.5061   8.9509031239e+01   3.5396860445e+01    0.1505409     0.147566  59.47 0.0002071102    1.010    0.010
        55 -10.2732     34.4864     63.2469   1.2169796699e+02   5.9518892147e+01    0.2961465    0.1995238  45.02  0.001473919    2.053    0.513
        56 -11.5516     61.9661    198.3547   1.3827487386e+02   2.6304830793e+01    0.3049758    0.2397213 -50.70 0.0006571858    1.633    0.388
        57 -10.4811     16.2643     56.0329   1.2631413968e+02   6.2371528988e+01    0.1920513    0.1575635  15.31 0.0004705498    1.459    0.315
        58  -9.7607     81.8082    248.9492   1.3970676454e+02   1.3357875863e+01    0.2004744    0.1090654  77.41  0.001024963    1.997    0.499
        59 -10.1110     46.5752    248.9108   1.4563781074e+02   1.8187081323e+01    0.2128618    0.1182006  75.70  0.001095513    1.527    0.345
        60 -10.3189    106.6394    247.5392   1.3516145001e+02   9.8091832385e+00    0.3336446    0.1690775  77.08   0.00144696    3.179    0.685
        61 -10.2686     13.9505     11.5154   1.1230942057e+02   6.9879137631e+01    0.1459242    0.0910553  15.10 0.0006758471    1.586    0.369
