#   1 NUMBER                 Running object number                                     
#   2 MAG_AUTO               Kron-like elliptical aperture magnitude                    [mag]
#   3 X_IMAGE                Object position along x                                    [pixel]
#   4 Y_IMAGE                Object position along y                                    [pixel]
#   5 X_WORLD                Barycenter position along world x axis                     [deg]
#   6 Y_WORLD                Barycenter position along world y axis                     [deg]
#   7 A_WORLD                Profile RMS along major axis (world units)                 [deg]
#   8 B_WORLD                Profile RMS along minor axis (world units)                 [deg]
#   9 THETA_WORLD            Position angle (CCW/world-x)                               [deg]
#  10 FWHM_WORLD             FWHM assuming a gaussian core                              [deg]
#  11 ELONGATION             A_IMAGE/B_IMAGE                                           
#  12 ELLIPTICITY            1 - B_IMAGE/A_IMAGE                                       
         1 -14.9207      9.1099    144.0974   1.4443182942e+02   4.4027780175e+01     11.59753      4.45203  74.75   0.04843247    3.517    0.716
         2 -13.5561    196.2362     27.4689   6.9181534084e+01   3.2606328786e+01     1.561527     1.455508  14.07  0.007254254    1.233    0.189
         3 -13.5548    211.6510      7.8687   6.2125271387e+01   3.0894562551e+01     1.146646     0.950125  47.12  0.004881585    1.370    0.270
         4 -11.6585      3.0165      5.3427   1.1767896638e+02   7.3352607931e+01    0.4637751    0.2747657 -23.27   0.00315263    1.420    0.296
         5  -9.1615     17.6334    249.6962   1.4945506898e+02   2.2529308645e+01   0.07989361    0.0745569 -78.97 0.0007035412    1.742    0.426
         6 -12.0170    138.3222    249.7527   1.2931741668e+02   6.5446350293e+00    0.6947153    0.1463587  41.73  0.002576789    3.693    0.729
         7 -11.8204    147.4773    247.7751   1.2747635842e+02   5.4031641035e+00    0.3899762    0.2671742  54.79  0.002549055    1.333    0.250
         8 -10.5666     46.6549    249.0234   1.4487129299e+02   1.9419789737e+01    0.3065653    0.1450326  79.26  0.001591642    2.126    0.530
         9 -10.7322     51.6435    246.0791   1.4387542107e+02   1.9312822635e+01    0.2588106    0.1697582  54.90  0.001904186    1.178    0.151
        10 -10.3116     29.7148    249.3163   1.4757523020e+02   2.1304638744e+01    0.2839512    0.1544414 -88.36   0.00202413    1.646    0.392
        11 -11.0755     34.3198    248.8749   1.4682964073e+02   2.0867212697e+01    0.4186481    0.2212584  63.46  0.002929982    1.407    0.289
        12 -11.3438     35.8682    243.9610   1.4631249133e+02   2.1518520147e+01    0.3248785    0.2648072  34.11  0.002581802    1.762    0.432
        13 -10.4237      3.4504    248.5326   1.5153623524e+02   2.4136894147e+01    0.2125012    0.1457921 -73.92  0.001765653    1.703    0.413
        14 -10.7112     12.5570    247.7976   1.5014313971e+02   2.3362409516e+01    0.2479088    0.1299074 -71.47  0.001784636    2.007    0.502
        15 -11.2398    237.8618    246.8460   1.1178090408e+02  -8.3667222301e+00    0.2601371    0.1615281  12.93  0.001692386    1.507    0.336
        16  -9.7144    198.2878    245.6519   1.1827676948e+02  -2.3192952913e+00     0.104822   0.08569712  61.42 0.0003388464    1.658    0.397
        17 -11.4377    125.5203    250.0419   1.3159385389e+02   8.4634953671e+00    0.4773172    0.1327105  40.95  0.002028695    2.896    0.655
        18  -9.5423     82.4884    243.4876   1.3847693669e+02   1.5755081979e+01    0.1126639   0.08586296  60.65 2.051082e-05    1.028    0.027
        19 -11.3053     21.2903    244.2231   1.4863817911e+02   2.3063142642e+01    0.4120892    0.1317289  58.86  0.002267783    2.416    0.586
        20  -9.5473    112.3266    242.3215   1.3312295757e+02   1.1648523230e+01    0.1049474   0.08759265  17.64 0.0006013709    1.686    0.407
        21 -10.2268     12.5708    240.6983   1.4983348623e+02   2.4556990164e+01    0.1684291    0.1176022  30.18  0.001022407    2.100    0.524
        22 -10.1712     22.1651    237.4524   1.4816531005e+02   2.4130941881e+01    0.2383589    0.1673274 -46.64  0.001647869    2.687    0.628
        23  -9.4272     94.6748    238.6967   1.3591118328e+02   1.4839303825e+01    0.1001897    0.0883269  19.83 0.0006440313    1.641    0.391
        24 -10.1520    249.4127    248.8481   1.1021666860e+02  -1.0179267524e+01    0.2251675    0.1334192   8.36  0.001451424    1.638    0.390
        25 -12.8554     34.0213    234.6564   1.4607868045e+02   2.3334083120e+01    0.2589608    0.2123858  86.86 0.0007487069    1.300    0.231
        26 -10.4372    173.3195    222.4939   1.1940116173e+02   4.8727154147e+00     0.312192    0.2380684  28.84  0.001956941    1.213    0.176
        27  -8.6835    152.5359    213.0316   1.2195776800e+02   9.9305883275e+00    0.1570039    0.1285514 -52.16 0.0002967907    1.433    0.302
        28 -12.3700      9.8204    206.8762   1.4863407904e+02   3.0947601828e+01    0.6306981    0.3565812  36.39  0.003161044    1.960    0.490
        29 -11.7240     60.6518    200.2460   1.3863905271e+02   2.6619421156e+01    0.2528749    0.2213711 -72.21 0.0005221965    1.340    0.254
        30  -9.7000    193.0412    195.1384   1.1117505855e+02   5.5945394588e+00    0.7097309    0.3616185 -62.86  0.001918623    8.166    0.878
        31 -10.9320     16.9049    198.2115   1.4685624912e+02   3.1955503435e+01    0.2309085    0.1503385  55.51 0.0003987362    1.331    0.249
        32 -11.9266     67.0548    191.6759   1.3648010357e+02   2.7519450476e+01    0.2519543    0.2150418 -76.14 0.0004283552    1.237    0.192
        33 -11.2742      6.0073    188.8147   1.4830836624e+02   3.4832249643e+01    0.2773096    0.1717211 -74.82   0.00119053    1.436    0.304
        34 -13.8614     38.9665    227.8316   1.4482336969e+02   2.3992131112e+01    0.6988646    0.4893098  67.25  0.002424622    1.052    0.049
        35 -13.2294     64.0226    176.9233   1.3547327729e+02   3.1029018604e+01    0.4650649     0.265898 -47.64  0.001609327    2.265    0.558
        36 -10.7500     77.3911    178.5311   1.3274705272e+02   2.8849130763e+01    0.2297979    0.2011867  82.61  0.000370815    1.056    0.053
        37  -9.4194     99.0943    175.7921   1.2756901264e+02   2.6133014623e+01    0.3393534     0.189948  72.16  0.001048217    2.532    0.605
        38 -11.8233     85.2591    169.0966   1.2971080637e+02   2.9732759774e+01    0.6611866    0.5943313  15.06  0.004083691    1.477    0.323
        39 -10.1460     97.4929    153.1486   1.2430934155e+02   3.1334111295e+01    0.3161645    0.2586811 -58.91 0.0008339291    1.221    0.181
        40  -9.4400    100.3575    148.9350   1.2286458578e+02   3.1801135434e+01    0.2320579    0.1994711  19.34 0.0004849682    1.447    0.309
        41 -11.9991     86.1328    152.3992   1.2693839960e+02   3.3311898748e+01    0.2863063    0.2433517 -49.76 0.0006395259    1.300    0.231
        42 -11.0469    149.1937    230.1127   1.2496715622e+02   7.7535566617e+00     0.428502     0.118108  36.99   0.00148242    3.928    0.745
        43  -9.0520    134.1597    147.2474   1.1439924107e+02   2.5973397351e+01     0.424304    0.1070957 -52.97  0.001129785    4.835    0.793
        44 -12.1337     67.4362    143.6223   1.3015664656e+02   3.8018676457e+01    0.6655694    0.4162726  66.94  0.003100194    1.816    0.449
        45 -12.8013     48.8178    216.5033   1.4228116818e+02   2.4929312571e+01    0.8510206    0.7989116  68.04  0.005680586    1.420    0.296
        46  -9.9457    109.4301    137.8245   1.1846815433e+02   3.2717540725e+01     0.452073    0.3025288 -17.00   0.00147725    2.782    0.641
        47 -10.7152     32.7307    132.3372   1.3738420090e+02   4.4638123751e+01    0.3674396     0.166837  52.54  0.001553345    2.478    0.596
        48  -9.8409     55.2825    130.4410   1.3120477276e+02   4.2628608711e+01    0.3415394    0.1504426 -54.72  0.001543906    2.045    0.511
        49 -10.3927     96.5306    135.3340   1.2124915348e+02   3.5526665446e+01    0.2479374    0.2263977 -32.76   0.00040817    1.262    0.208
        50  -9.0020    106.7062    124.2844   1.1627358018e+02   3.6263804583e+01    0.1784077    0.1640624 -12.58 0.0003136071    1.270    0.213
        51  -9.3819    167.8880    112.8576   9.8537572021e+01   2.5833935984e+01    0.2731974      0.22263 -63.50   0.00100308    1.390    0.280
        52  -9.2365    203.4554    111.5215   9.1002221949e+01   1.7859039678e+01    0.1497093    0.1424673  -9.53 0.0001372192    1.035    0.033
        53  -8.3436     38.3296     94.7103   1.2972861167e+02   5.2762197783e+01    0.1240481   0.09164482  76.52 0.0007016965    1.622    0.383
        54  -9.5975    241.3290     92.6782   8.0086127894e+01   1.2495100746e+01    0.1458567    0.1032018 -62.05 0.0007048845    1.692    0.409
        55 -11.1917      7.2058     77.6063   1.3668557552e+02   5.9011471893e+01    0.2374795    0.1946542   8.69  0.001711233    1.559    0.359
        56 -10.0822    157.7739     76.5564   9.0612982359e+01   3.5109726019e+01    0.2633845    0.2297644  40.16 0.0006827185    1.166    0.142
        57  -8.9500     39.1203     65.6727   1.2268500015e+02   5.9090662757e+01    0.1774913    0.1485693  54.37  0.001125142    1.526    0.345
        58 -11.6273      2.2295     62.8010   1.3570438973e+02   6.2475424621e+01    0.4519103    0.1547946 -65.60  0.002183175    2.206    0.547
        59 -11.2190     12.8043     54.4511   1.2979537985e+02   6.3621445183e+01     0.291404    0.1845124  39.74  0.001377534    2.069    0.517
        60 -11.4369      2.2958     46.8579   1.3217931537e+02   6.5783025510e+01    0.5514798   0.08883481 -62.04   0.00198823    4.082    0.755
        61 -11.8394      3.8262     39.4798   1.2960457273e+02   6.7176208603e+01    0.4307035    0.2808089 -74.37  0.002731007    1.753    0.430
        62 -11.4465    172.3342    247.7285   1.2308645699e+02   1.4909961306e+00    0.3013679    0.2218859  47.35  0.001894296    1.208    0.172
        63 -10.6623     99.1082    249.4039   1.3612300719e+02   1.2463698564e+01    0.1997655    0.1778644  26.74  0.001514476    1.542    0.352
