#   1 NUMBER                 Running object number                                     
#   2 MAG_AUTO               Kron-like elliptical aperture magnitude                    [mag]
#   3 X_IMAGE                Object position along x                                    [pixel]
#   4 Y_IMAGE                Object position along y                                    [pixel]
#   5 X_WORLD                Barycenter position along world x axis                     [deg]
#   6 Y_WORLD                Barycenter position along world y axis                     [deg]
#   7 A_WORLD                Profile RMS along major axis (world units)                 [deg]
#   8 B_WORLD                Profile RMS along minor axis (world units)                 [deg]
#   9 THETA_WORLD            Position angle (CCW/world-x)                               [deg]
#  10 FWHM_WORLD             FWHM assuming a gaussian core                              [deg]
#  11 ELONGATION             A_IMAGE/B_IMAGE                                           
#  12 ELLIPTICITY            1 - B_IMAGE/A_IMAGE                                       
         1 -14.7784     68.5603    144.2778   1.0674208521e+02   3.7397113065e+01      5.38589     2.626415  68.04  0.008238057    3.824    0.738
         2 -14.5041    201.1234     36.9356   4.6498660913e+01   3.0397111280e+01     2.193722     1.525003  30.61  0.008129103    1.988    0.497
         3 -14.3439    213.8067     24.0731   4.1678367670e+01   2.8922277770e+01     1.246903    0.9573282  28.53  0.006868124    1.808    0.447
         4 -12.0781      3.5926     24.3281   1.0220552270e+02   7.0555529987e+01    0.4552777    0.3664481 -65.48   0.00287624    1.576    0.365
         5 -12.1401      2.7348      6.5647   9.5350756183e+01   7.3638681731e+01    0.8779434    0.2175981 -44.81  0.004066484    2.856    0.650
         6 -12.0400    238.2710      2.1886   3.4442115189e+01   2.5736617433e+01    0.6559761    0.2335304  76.08  0.002904654    2.651    0.623
         7  -9.6468     12.3197     53.2982   1.0694897695e+02   6.4365185197e+01    0.1276207   0.06895553 -36.27 0.0002773205    1.618    0.382
         8 -10.4260    139.5504    248.8131   1.0542326520e+02   4.4261442406e+00    0.2461724    0.1236008 -56.88  0.001289213    2.572    0.611
         9 -14.9233     48.0091    221.2891   1.2039006461e+02   2.2606325671e+01     2.090962     1.439949  56.94   0.01305736    1.191    0.160
        10 -14.7763     85.5421    229.4671   1.1378489177e+02   1.6010698564e+01     2.302493     1.516748  60.05  0.006080218    1.319    0.242
        11 -15.1407     42.9302    203.2016   1.1993837887e+02   2.6950914704e+01     2.360751     1.171277  62.43  0.003431579    1.896    0.473
        12 -14.7270     51.5445    193.7004   1.1726124964e+02   2.7981115042e+01     1.643601     1.124304  74.34  0.009808143    1.309    0.236
        13 -13.1894     11.1805    188.8695   1.2534706313e+02   3.3322314082e+01    0.3982428    0.3288411  26.58  0.001053494    1.648    0.393
        14 -15.5958      8.9960    207.6634   1.2689511017e+02   2.9564851378e+01     2.563604      1.27602 -59.29   0.01097259    2.333    0.571
        15 -16.6231      8.8398    241.0228   1.2855417280e+02   2.3119471962e+01      4.41433     1.910942 -77.00   0.02743955    2.091    0.522
        16 -14.4898     29.5474    248.0592   1.2545373889e+02   1.9671441067e+01    0.8717344     0.610177  28.67  0.005664005    1.983    0.496
        17  -8.9325    108.3027    203.3380   1.0596593757e+02   1.7722870200e+01     0.126435     0.106805 -13.64 0.0007038055    1.669    0.401
        18 -11.7618    193.4054    195.1801   8.6370737406e+01   4.2152094180e+00    0.9573679    0.5283574 -64.69  0.003025363    5.531    0.819
        19 -10.9517    209.0384    197.8460   8.3783096402e+01   1.0244436693e+00    0.2249767    0.1900675 -23.67 0.0007959464    1.200    0.166
        20  -9.8163    112.0282    197.0212   1.0425026611e+02   1.8425585155e+01    0.2097209    0.1908867  62.29 0.0005977727    1.025    0.025
        21 -15.7481      3.6178    184.0863   1.2657886691e+02   3.5010986434e+01     7.429597    0.5172468 -71.21   0.02318479    5.761    0.826
        22 -10.7355    146.5881    182.7017   9.4082954461e+01   1.5267032621e+01    0.2771197    0.2436454  59.93  0.000904072    1.163    0.140
        23 -10.1438     99.1614    180.9097   1.0481545128e+02   2.4061340145e+01    0.3228396    0.2438329  13.04  0.001629923    1.871    0.466
        24 -12.1688     66.9996    177.3547   1.1193942115e+02   2.9687259967e+01      0.42485    0.2956827 -40.35  0.001851099    1.931    0.482
        25 -12.2368     71.9571    172.2312   1.1008138733e+02   3.0197411710e+01    0.3114801    0.2928107 -57.29  0.001084153    1.243    0.195
        26 -11.2250    140.5509    173.1046   9.3688803958e+01   1.8425833313e+01    0.5892981    0.3880038  75.65  0.002438036    2.398    0.583
        27 -12.8752     87.4789    155.9091   1.0368410119e+02   3.1774704019e+01     1.606861    0.8162556 -70.99  0.003062252    2.277    0.561
        28 -12.7435     80.8435    162.5743   1.0647182661e+02   3.1195232001e+01    0.9095918    0.4682894  52.88 0.0006121874    2.072    0.517
        29 -13.6859     68.5249    158.4468   1.0897694968e+02   3.3953257430e+01    0.6264486    0.5080106 -34.17  0.002022495    1.570    0.363
        30 -12.8973     54.2734    145.8340   1.1083911862e+02   3.8861473189e+01    0.7582093    0.6943516  41.59  0.004739564    1.248    0.198
        31 -10.5739    174.2868    148.4719   8.0775163922e+01   1.6802257388e+01    0.3952151    0.2856323 -63.05  0.001615435    1.743    0.426
        32 -10.3421     38.5874    146.1703   1.1503872025e+02   4.0541089339e+01    0.2506813    0.2016511  59.88  0.001234109    1.264    0.209
        33 -11.0945     28.7018    143.7234   1.1731978627e+02   4.2102240600e+01    0.2532399    0.2446784  -3.40  0.001754562    1.347    0.258
        34 -10.9782    101.7056    140.6228   9.7037597533e+01   3.3098117923e+01     0.585017    0.3683872 -25.69  0.002310505    2.564    0.610
        35 -10.0648     82.9243    142.4906   1.0251299801e+02   3.5740811629e+01    0.3341714    0.2163566  69.98    0.0010294    1.957    0.489
        36  -9.7990     79.5638    139.7166   1.0292325075e+02   3.6932303933e+01     0.243279     0.165739  51.85 0.0006450823    1.549    0.354
        37 -12.3869     88.9618    140.6602   1.0051500575e+02   3.5235247502e+01     0.294335    0.2541908 -50.27 0.0004110093    1.173    0.147
        38  -9.6707     35.1872    139.8331   1.1512284499e+02   4.2422078540e+01    0.2008718      0.15222  78.92 0.0007184117    1.274    0.215
        39 -10.8653     25.7686    137.3842   1.1733851775e+02   4.3893482170e+01    0.2703648    0.2153738  51.32  0.001172128    1.360    0.265
        40 -10.3326     34.5191    171.5195   1.1888502404e+02   3.4949212369e+01    0.2801485    0.1376108  67.79 0.0009352744    2.217    0.549
        41 -10.2072    111.0727    130.8345   9.2371586551e+01   3.3740753248e+01    0.3391672     0.259113  12.69 0.0006937804    1.726    0.421
        42 -10.3043    106.0323    130.7156   9.3729945212e+01   3.4704150571e+01    0.3421095      0.30653  86.93  0.001078972    1.171    0.146
        43 -11.7343    135.7646    126.9788   8.4891954688e+01   2.9692595042e+01    0.7122726    0.2505366 -51.62  0.002178117    3.121    0.680
        44 -10.2687    133.9947    247.3216   1.0630596858e+02   5.5277406913e+00    0.2342124    0.1664771 -71.00   0.00102206    1.842    0.457
        45 -11.0049     98.2677    126.9225   9.5053487040e+01   3.7006903726e+01    0.3061751    0.2490354 -26.90 0.0005883113    1.437    0.304
        46 -10.0687    160.5854    127.7833   7.8984824068e+01   2.4116551670e+01    0.3187722    0.2488742 -76.77  0.001436178    1.658    0.397
        47 -10.6655    117.0250    124.9278   8.9364005393e+01   3.3991506628e+01    0.3529607    0.2399189   1.00 0.0009133195    2.603    0.616
        48  -9.1410     93.2745    125.4969   9.6159882503e+01   3.8212869453e+01    0.1953765    0.1402663  52.96 0.0006028175    1.510    0.338
        49  -9.9473    107.6712    119.5014   9.0653576128e+01   3.7069837427e+01    0.2399127    0.2168132 -42.63 0.0003503941    1.097    0.088
        50 -10.3050    230.3715    165.7785   7.3344952439e+01   2.5049829782e+00    0.1977714    0.1182706 -25.51 0.0006528243    1.658    0.397
        51  -9.8886    168.4349    113.3535   7.3488012612e+01   2.5359550294e+01    0.3753937    0.2675656 -72.66  0.001237304    1.967    0.492
        52 -15.8362     60.9145    247.3212   1.1995840573e+02   1.6053303616e+01     9.321975     2.894487  29.31   0.00546255   11.394    0.912
        53 -10.1650    205.4550    110.1656   6.5090336909e+01   1.7459643846e+01    0.3210523    0.2164091  40.84 0.0008762679    1.616    0.381
        54 -11.4364    119.1966    106.1260   8.3958632785e+01   3.7886198090e+01    0.6861348    0.2672143 -41.89  0.002282214    2.625    0.619
        55 -10.4724    159.3555    162.5510   8.7224198660e+01   1.6969738802e+01    0.2960601    0.2581322 -86.18 0.0008693351    1.371    0.271
        56 -11.2322    133.4319    143.0818   8.9252599457e+01   2.6504477441e+01     1.355306    0.3295668 -54.96  0.002854944    7.056    0.858
        57 -10.3119    134.4473    105.7536   7.9720314469e+01   3.4711682340e+01    0.3086193    0.1512906 -48.74  0.001129466    2.079    0.519
        58  -9.4248     65.9693    103.9949   9.9578043717e+01   4.7612791093e+01    0.2557203      0.14025  56.25  0.001035984    2.619    0.618
        59 -11.1201     41.4771    103.9882   1.0751799157e+02   5.0525840433e+01    0.2932827    0.2067282  77.10  0.001546144    1.768    0.434
        60 -11.3773    241.4890    100.4707   5.6793718165e+01   1.1356754783e+01    0.3590053     0.118733 -38.10  0.001299831    2.587    0.613
        61 -10.1716     33.0250    100.0993   1.0953644413e+02   5.2265879312e+01    0.2038184    0.1698019 -63.60 0.0006071549    1.024    0.024
        62 -10.5642     53.1268     90.9339   1.0076014435e+02   5.2346868593e+01    0.3385409    0.1823315 -56.52  0.001590526    1.622    0.384
        63 -10.7134     41.9320     91.7759   1.0482455259e+02   5.3387261803e+01    0.2453777    0.2041073 -40.27 0.0005959548    1.142    0.124
        64  -9.7085    158.7756     81.2470   6.6706511727e+01   3.4002160877e+01    0.2160344     0.184901  17.54 0.0008655078    1.334    0.250
        65  -8.6861     70.2811     81.6898   9.2347088486e+01   5.2165296618e+01     0.133957    0.1117218 -88.40  0.000290267    1.565    0.361
        66 -10.1191    243.4719     77.5062   5.1140072722e+01   1.4630278464e+01    0.1388574    0.1209408 -48.85 0.0005034537    1.004    0.004
        67  -8.9609    184.5011     77.4377   6.0323321292e+01   2.8345903869e+01      0.15022    0.1472561  17.81 8.832382e-05    1.087    0.080
        68  -9.6499     54.1378     65.4181   9.3343012671e+01   5.7898784403e+01    0.1917121    0.1754212 -59.67  0.000374176    1.249    0.199
        69 -10.6768     13.4499     59.7808   1.0811619124e+02   6.2922301600e+01    0.2324848    0.1848858 -60.15 0.0004395162    1.164    0.141
        70  -8.9699    112.6082    150.7904   9.6213419252e+01   2.8720733909e+01    0.2030496    0.1406725 -67.87  0.000409434    1.568    0.362
        71 -12.2801    192.1449     43.3079   4.9475961196e+01   3.1773647278e+01    0.6531742     0.513278  43.93  0.001004857    1.414    0.293
        72  -9.6477    173.5195    244.4823   9.8371012322e+01  -2.6270920843e-01    0.2079871    0.1232666 -43.99 0.0009124197    2.059    0.514
        73 -10.9874    142.5864     47.6975   5.9785683467e+01   4.3667069528e+01    0.4828381    0.3061269 -80.49  0.001592872    2.697    0.629
        74 -10.2418    145.4336     42.1944   5.7343897386e+01   4.3755463457e+01    0.2567857      0.22103  81.56 0.0003665866    1.242    0.195
        75 -10.4369      5.3462     38.8176   1.0606544277e+02   6.7708565510e+01    0.1689915    0.1278453 -63.24 0.0005280933    1.374    0.272
        76 -10.7237    171.7301    240.6319   9.8168032773e+01   5.8748998145e-01    0.3941313     0.201928 -51.40  0.001932275    2.592    0.614
        77  -8.3690    115.5070     31.4279   6.0429148926e+01   5.2421761398e+01    0.1403209    0.1288484  34.79 0.0001689163    1.021    0.020
        78  -9.7383    113.2007    207.4223   1.0545861615e+02   1.6090132330e+01    0.2137855    0.1786637 -77.02 0.0002515242    1.275    0.216
        79  -8.8441    185.5281    236.4952   9.4912054231e+01  -1.0038349541e+00    0.1254814     0.102957  27.77 7.333546e-05    1.025    0.025
        80  -9.4784    189.6800     14.9839   4.1989175380e+01   3.5868475265e+01    0.1853936    0.1685973 -63.18 0.0005344715    1.102    0.092
        81 -10.0285    197.6727    223.0895   9.0451938059e+01  -9.8347924336e-01    0.2013674    0.1586938  37.55 0.0004947705    1.224    0.183
        82  -9.2564    106.7781    210.3626   1.0723087559e+02   1.6536797548e+01    0.1768136    0.1158326  34.38 0.0006105852    1.544    0.352
