#   1 NUMBER                 Running object number                                     
#   2 MAG_AUTO               Kron-like elliptical aperture magnitude                    [mag]
#   3 X_IMAGE                Object position along x                                    [pixel]
#   4 Y_IMAGE                Object position along y                                    [pixel]
#   5 X_WORLD                Barycenter position along world x axis                     [deg]
#   6 Y_WORLD                Barycenter position along world y axis                     [deg]
#   7 A_WORLD                Profile RMS along major axis (world units)                 [deg]
#   8 B_WORLD                Profile RMS along minor axis (world units)                 [deg]
#   9 THETA_WORLD            Position angle (CCW/world-x)                               [deg]
#  10 FWHM_WORLD             FWHM assuming a gaussian core                              [deg]
#  11 ELONGATION             A_IMAGE/B_IMAGE                                           
#  12 ELLIPTICITY            1 - B_IMAGE/A_IMAGE                                       
         1 -13.8424    219.2603      7.6483   3.7156448579e+01   2.9481669006e+01     2.471186     1.496191  39.72   0.01179967    2.396    0.583
         2 -13.0310    198.1263     33.4974   4.5966488753e+01   3.1585305542e+01    0.8570546    0.7519882 -36.99  0.001652201    1.202    0.168
         3 -13.3647    192.7953     39.3278   4.8279941657e+01   3.2152165918e+01     1.085059    0.8284029 -26.31  0.004232341    1.434    0.303
         4 -10.4959    190.0281     14.8052   4.1900020012e+01   3.5800824739e+01    0.2848781     0.201572  66.85 0.0008258954    1.304    0.233
         5 -13.3046    178.1380     52.4737   5.4323782480e+01   3.3990799349e+01     2.052732     1.325824  22.90  0.005959637    2.367    0.577
         6 -10.2703     68.4941      5.9886   6.3454722935e+01   6.5151948566e+01    0.1859137    0.1139565 -20.18 0.0008823879    1.615    0.381
         7  -9.4779     80.7437     15.4130   6.3762425571e+01   6.1807487316e+01    0.2493991    0.1230748  55.54  0.001143079    2.217    0.549
         8 -11.9935    248.3994    232.0856   8.2739650245e+01  -9.8036572254e+00    0.5038486    0.2671503 -37.31  0.002884834    2.158    0.537
         9 -11.7256    248.3890    248.7747   8.5485483842e+01  -1.1717620116e+01    0.4611948    0.3584258  -6.98   0.00345299    1.226    0.185
        10  -9.4856     48.6064    217.5995   1.1998323790e+02   2.3277138569e+01    0.1869684    0.1076855  34.61 0.0005906158    1.867    0.464
        11  -9.5049     56.8312    209.4607   1.1763971200e+02   2.3931124865e+01    0.2451794     0.147255 -71.15  0.001410793    1.615    0.381
        12  -9.3803    174.2316    210.6047   9.3017567262e+01   4.9740802263e+00    0.1991663    0.1145679  31.25 0.0009579452    1.664    0.399
        13 -13.0982     32.3847    206.6211   1.2233164363e+02   2.7418760679e+01    0.3365797     0.165343  55.92  0.001323302    1.748    0.428
        14 -11.1356     65.8484    204.5091   1.1528360360e+02   2.3798475226e+01    0.3163483    0.1838097 -62.51  0.001251488    1.763    0.433
        15  -8.8063     70.4172    199.5401   1.1377833522e+02   2.4244397875e+01    0.1602759    0.1208208  31.02 0.0002901849    1.553    0.356
        16  -8.4077    224.2616    206.6608   8.2544834207e+01  -2.8575606753e+00    0.1098588    0.1039184 -62.98 0.0004045742    1.587    0.370
        17 -11.2110     62.5643    250.4968   1.1989661696e+02   1.5277549279e+01    0.2181106    0.1092584  51.00 0.0005402066    1.530    0.346
        18  -8.4854     93.5141    205.4735   1.0946499063e+02   1.9615505154e+01    0.2237395    0.1543946 -34.62 0.0009904813    2.227    0.551
        19  -9.6582     96.2332    201.9480   1.0842742076e+02   1.9934782098e+01     0.262676    0.1619151  55.83  0.001122728    1.533    0.348
        20 -12.1399     49.0964    249.2007   1.2217521818e+02   1.7192799163e+01    0.1923977    0.1401079  82.87 0.0006207572    1.223    0.182
        21 -12.4716     55.9020    197.5570   1.1670238761e+02   2.6592647576e+01    0.6444472    0.2629822 -54.13  0.002864446    2.825    0.646
        22 -10.9423    192.9071    194.7797   8.6396283702e+01   4.3731721190e+00     1.057437    0.5553277 -62.46   0.00331182    5.492    0.818
        23  -9.2203     61.2869    220.1985   1.1770699428e+02   2.1155410560e+01    0.1432119    0.1170347  35.68 0.0003257732    1.448    0.309
        24  -9.1470     81.8387    194.5327   1.1067809243e+02   2.3710034653e+01    0.2182829    0.1774209 -84.44  0.001135685    1.173    0.148
        25  -8.3963     78.2334    192.7154   1.1126198590e+02   2.4634625261e+01    0.1280034   0.08841181  74.27            0    1.446    0.309
        26 -11.4131    149.5030    188.1223   9.4404522434e+01   1.3622149150e+01    0.4418612    0.3389998 -70.51  0.001660557    1.610    0.379
        27 -11.2305     98.9736    181.4345   1.0493925924e+02   2.3973696649e+01    0.4981658    0.3287221 -43.52  0.002449268    1.827    0.453
        28  -9.2332     96.8050    190.5983   1.0677515856e+02   2.2285666416e+01    0.2231004    0.1731286  73.34 0.0005963151    1.274    0.215
        29  -9.8557     94.2816    187.1406   1.0686899573e+02   2.3448027105e+01    0.2501673    0.2327623  81.51 0.0005288119    1.079    0.073
        30  -8.1540    195.7243    190.3041   8.4978617347e+01   4.6343758058e+00    0.1244781    0.1118315  84.21  0.000189819    1.544    0.352
        31  -9.2234    238.3578    185.6992   7.5985365688e+01  -2.0146776204e+00    0.1164941    0.1076385 -83.17 0.0007037164    1.712    0.416
        32  -9.8745    128.5279    185.4853   9.8693433188e+01   1.8007781420e+01    0.1416229    0.1322144  52.62 9.901229e-05    1.019    0.019
        33 -11.3933    144.0573    178.2040   9.3832919946e+01   1.6678150696e+01     0.455106    0.3101497 -54.23  0.001401168    1.578    0.366
        34 -10.2944    189.0720    177.2187   8.3762931937e+01   8.2099078951e+00    0.4585187    0.3748137 -64.23  0.002418629    1.595    0.373
        35  -9.8872     37.7730    176.5116   1.1863027811e+02   3.3451037871e+01    0.3429317    0.1505861  48.00  0.001425004    2.144    0.534
        36  -9.7398     57.8887    175.9336   1.1391285338e+02   3.1213581410e+01    0.2416011    0.1845915  63.70 0.0004377253    1.206    0.171
        37 -10.7389     54.8447    222.3093   1.1914935633e+02   2.1557726250e+01    0.2135167    0.1299716  53.05 0.0006846886    1.358    0.263
        38  -9.5812     84.0672    173.5572   1.0733342068e+02   2.8120624067e+01    0.2071952    0.1727049 -75.68   0.00031791    1.143    0.125
        39 -10.7616    138.8641    171.3799   9.3756596219e+01   1.9118871115e+01    0.3698431    0.3047054  31.35  0.001160302    1.242    0.195
        40 -10.5507     56.5202    218.2204   1.1847790833e+02   2.2167278358e+01    0.3454069    0.1624256  73.69  0.001294184    2.505    0.601
        41  -8.5316    194.4721    172.4982   8.1683130742e+01   8.0414260133e+00    0.1428115     0.133614   7.70 0.0001616561    1.033    0.032
        42 -10.5335     44.4656    173.0853   1.1673681406e+02   3.3496067134e+01    0.4923196    0.2393273  31.33  0.001649289    2.311    0.567
        43 -10.0680    149.6363    177.5168   9.2428776589e+01   1.5759511542e+01    0.2572798    0.2406593  80.74  0.000507288    1.153    0.133
        44  -9.7198     40.7595    224.9174   1.2203603292e+02   2.2748529355e+01    0.1904748   0.09157035  80.88 0.0006798812    2.125    0.529
        45 -19.5462     16.2983    144.5910   1.2059413685e+02   4.2968295227e+01      19.2132     4.584711 -76.13   0.06557623    3.924    0.745
        46  -9.9005     53.1719    230.0879   1.2008629457e+02   2.0240725423e+01    0.2786869    0.1473636 -88.57  0.001568784    1.924    0.480
        47  -9.1521    187.2869    162.5034   8.1068112116e+01   1.1333121579e+01    0.3142006    0.1766203 -53.90  0.001277679    2.240    0.554
        48 -10.5135    134.3221    148.8133   9.0284268661e+01   2.5020488413e+01    0.7030167    0.2963215 -57.43  0.002340951    2.922    0.658
        49 -10.6312    133.6000    142.9976   8.9191439373e+01   2.6489780595e+01     0.893209    0.2769123 -55.85  0.002344313    4.565    0.781
        50  -9.8177    187.5163    151.9322   7.8695650922e+01   1.3338537118e+01     0.284101    0.2178741  60.34   0.00137171    1.550    0.355
        51  -9.3388    112.9441    150.9563   9.6159792521e+01   2.8620275621e+01    0.2462282    0.1806342  80.78 0.0007417092    1.710    0.415
        52  -9.5678    174.4288    149.0806   8.0881860398e+01   1.6647759703e+01      0.29997     0.228306  51.07 0.0007707812    1.372    0.271
        53  -9.7078    109.1219    147.3812   9.6437479651e+01   3.0160539850e+01    0.2647393    0.2098559 -69.21 0.0003599901    1.292    0.226
        54  -9.1667    143.4989    145.4890   8.7286257436e+01   2.3906541584e+01    0.2895906    0.1474583 -58.85  0.001037059    2.473    0.596
        55  -9.8084     86.6999    143.2801   1.0163122870e+02   3.4958041968e+01    0.3990075    0.2212407  60.59   0.00160715    2.360    0.576
        56 -10.7200    106.8080    137.7961   9.5065874473e+01   3.2866973338e+01    0.5136889    0.3207678 -35.87  0.001299811    1.950    0.487
        57 -10.6362    105.8753    130.6889   9.3767362656e+01   3.4739242594e+01    0.4077219    0.3285379 -62.50  0.001203696    1.228    0.185
        58 -10.1187    136.2059    129.4693   8.5385433978e+01   2.9035209839e+01    0.4933532    0.1242497 -47.24  0.001323734    3.940    0.746
        59 -11.5876     94.8346    137.5172   9.8277031825e+01   3.5031077622e+01    0.2959608    0.2635683 -53.82  0.000421251    1.108    0.097
        60 -10.5337    114.7740    129.0669   9.0955685811e+01   3.3455195820e+01    0.4297659    0.3300796  42.19 0.0008292057    1.333    0.250
        61  -9.1981    160.4367    127.2161   7.8878750341e+01   2.4270697770e+01    0.2259619    0.1484673 -54.38 0.0005837074    1.663    0.399
        62 -10.4936    101.8382    124.8726   9.3577059325e+01   3.6865595772e+01    0.3017375    0.2572374 -23.33 0.0006381686    1.349    0.259
        63 -10.5558    120.0165    122.9599   8.8071835221e+01   3.3858335003e+01    0.5195019    0.3389768 -15.33  0.001936464    2.665    0.625
        64  -7.9641     76.2648    223.7429   1.1506058568e+02   1.8431498106e+01    0.1207377   0.07629248  64.95 0.0003987204    1.446    0.309
        65  -9.4753    109.8225    118.2458   8.9737711066e+01   3.6957236798e+01    0.2402209    0.2027309 -64.79 0.0003036366    1.212    0.175
        66 -10.1651    231.3633    113.7569   6.1479412282e+01   1.1207223588e+01    0.3043884    0.2655704 -31.63 0.0007898525    1.040    0.039
        67  -9.2432    167.5906    112.4052   7.3428911017e+01   2.5749555587e+01    0.3458516    0.2457227 -71.71  0.001435687    1.956    0.489
        68  -9.9755    134.5570    105.1060   7.9513423280e+01   3.4828549661e+01    0.5883861    0.1525743 -45.26  0.001590649    3.815    0.738
        69 -11.1833    118.5143    110.4122   8.5295498113e+01   3.7055005168e+01     0.663928    0.4330705  67.68  0.002520942    2.221    0.550
        70  -9.4897    205.3997    110.2896   6.5131651860e+01   1.7449225853e+01    0.3082772     0.206467  46.99  0.000909303    1.573    0.364
        71  -8.4342     81.3870    220.4447   1.1370095215e+02   1.8360459818e+01    0.1224781    0.1030748  66.89 0.0002697723    1.040    0.038
        72  -8.6807    184.1966     77.2079   6.0316170975e+01   2.8460920138e+01    0.2136115    0.1776493 -77.67   0.00080694    1.332    0.249
        73  -9.7301     72.0000    248.8744   1.1808127133e+02   1.4327335065e+01    0.1928889     0.121067 -78.29  0.001238252    1.694    0.410
        74  -9.1243     67.0685     71.0388   9.0286462375e+01   5.4945599737e+01    0.2057784    0.1723087  78.30  0.001035172    1.684    0.406
        75 -10.6859     72.0434    244.8166   1.1774604382e+02   1.5044024353e+01    0.2334718    0.1485746  70.05 0.0009128381    1.425    0.298
        76  -8.3363     84.2385    245.6937   1.1556591287e+02   1.3216618820e+01    0.1147488   0.07234276  67.34 0.0006850772    1.490    0.329
        77  -9.4636    168.0336    232.2243   9.7667753412e+01   2.4732263741e+00    0.1873772     0.174648  30.56 0.0004347621    1.136    0.120
        78  -9.8221     58.8089    229.3639   1.1896261741e+02   1.9668275504e+01    0.1617037    0.1221453  74.20 0.0003134829    1.097    0.088
        79  -7.9656     44.6019    230.5101   1.2171528212e+02   2.1204566395e+01    0.1194276   0.08331188  68.79 0.0001819961    1.118    0.105
        80 -10.3303     50.3689    224.6972   1.2020181837e+02   2.1640705816e+01     0.197892     0.114464  86.69  0.000772633    1.653    0.395
