#   1 NUMBER                 Running object number                                     
#   2 MAG_AUTO               Kron-like elliptical aperture magnitude                    [mag]
#   3 X_IMAGE                Object position along x                                    [pixel]
#   4 Y_IMAGE                Object position along y                                    [pixel]
#   5 X_WORLD                Barycenter position along world x axis                     [deg]
#   6 Y_WORLD                Barycenter position along world y axis                     [deg]
#   7 A_WORLD                Profile RMS along major axis (world units)                 [deg]
#   8 B_WORLD                Profile RMS along minor axis (world units)                 [deg]
#   9 THETA_WORLD            Position angle (CCW/world-x)                               [deg]
#  10 FWHM_WORLD             FWHM assuming a gaussian core                              [deg]
#  11 ELONGATION             A_IMAGE/B_IMAGE                                           
#  12 ELLIPTICITY            1 - B_IMAGE/A_IMAGE                                       
         1 -12.5215     43.7240     20.3245   1.0149975641e+02   6.5752768690e+01    0.7199004    0.3418212  20.38  0.002209091    2.490    0.598
         2 -12.5498    216.9894     14.7604   6.1930689940e+01   2.9665152684e+01    0.6561534    0.3974922  78.20  0.002120601    1.459    0.315
         3 -10.8096    132.5683     16.4497   7.4441063558e+01   4.9743051691e+01    0.3960063    0.1985937 -53.89  0.001651522    3.102    0.678
         4 -13.5547    186.1609      6.7021   6.3406411865e+01   3.7891085543e+01    0.8632808    0.5705706 -82.48  0.004765503    1.513    0.339
         5 -11.7259     57.7647      7.2082   9.0717233287e+01   6.5289700703e+01    0.4288529    0.3706076 -15.96  0.003104077    1.338    0.252
         6 -11.7666     43.3815      8.5390   9.6611682272e+01   6.7215797905e+01    0.3035506    0.2032959  36.84  0.001175669    1.579    0.367
         7 -11.3687    165.1397      1.6790   6.4735599720e+01   4.3417737609e+01      0.37765    0.1520137  71.77  0.001636158    2.231    0.552
         8 -11.3222     12.3099    227.0206   1.4864479888e+02   2.6104950140e+01    0.2570334    0.1562651  73.34 0.0005456143    1.243    0.196
         9 -10.2009    104.5300    225.3039   1.3136961240e+02   1.4008775537e+01    0.2355905     0.167088  86.05  0.001096419    1.466    0.318
        10 -10.9298     76.2333    225.7947   1.3698136100e+02   1.8334983822e+01    0.3727748    0.1452378  47.41  0.001717281    2.201    0.546
        11 -11.2173     95.9811    223.5643   1.3285962873e+02   1.5749634291e+01    0.4178113    0.2585763 -52.86  0.002235392    1.904    0.475
        12 -11.0665    149.5763    221.4798   1.2169923297e+02   6.8661298803e+00    0.5092291    0.2116306 -44.55   0.00207058    2.894    0.655
        13 -11.4647    230.7445    223.3679   1.0611330878e+02  -7.8742259752e+00    0.2818721    0.1535171  51.11  0.001346657    2.357    0.576
        14 -10.1482    173.9763    221.2322   1.1670928644e+02   2.4278106342e+00    0.2386297    0.1746054 -28.87  0.001282817    1.662    0.398
        15  -9.6583    185.5258    223.4486   1.1477631668e+02  -6.2111406866e-02    0.1342631    0.1180052  32.98 5.828328e-05    1.008    0.008
        16 -10.1706    211.4163    217.7714   1.0873379570e+02  -3.7474626513e+00     0.238263    0.1264168 -44.75  0.001133429    2.127    0.530
        17 -11.1289    230.4610    213.5016   1.0436614602e+02  -6.3458183239e+00    0.1303892    0.1125366   7.84 0.0001320847    1.013    0.013
        18 -10.6392    218.1086    211.9011   1.0638469792e+02  -3.9770545583e+00    0.1939228     0.183931  50.38  0.001229846    1.269    0.212
        19 -10.8637    115.5353    208.8967   1.2689118085e+02   1.5507803025e+01    0.2506939    0.2065009 -79.87  0.001448637    1.219    0.180
        20 -11.5602      5.1006    199.5194   1.4809586345e+02   3.2434085319e+01    0.3738109    0.1712673  53.25  0.001948909    1.981    0.495
        21 -10.6438    149.0168    198.0455   1.1796187203e+02   1.1590564137e+01    0.3329648    0.1878865 -67.21  0.001362534    2.461    0.594
        22 -10.2805    112.4867    197.9886   1.2591874546e+02   1.8379711895e+01    0.2035495    0.1168262 -86.27 0.0008105363    2.633    0.620
        23  -9.8758    133.1071    195.6483   1.2101756697e+02   1.5127937674e+01    0.2507938    0.1905402 -72.83  0.001084066    1.430    0.301
        24 -12.2669    159.2170    191.2931   1.1453667070e+02   1.0983971867e+01    0.7467502     0.501361 -84.58  0.002549346    2.370    0.578
        25 -10.5355    183.4274    182.6883   1.0769007342e+02   7.8538416625e+00    0.4248899    0.2231694 -36.44   0.00173938    2.154    0.536
        26  -9.9895    210.5577    182.6849   1.0216661849e+02   2.4484786543e+00    0.2770249    0.1353979 -36.08  0.001143076    2.139    0.533
        27  -9.6866     54.3204    186.7020   1.3708668925e+02   2.9869489039e+01    0.1351106   0.08338765  72.59 0.0002511439    1.619    0.382
        28 -10.7974    223.7334    183.1476   9.9721290837e+01  -1.4999867679e-01    0.2222417    0.1751218 -52.01  0.001196797    1.459    0.315
        29 -10.9500     34.5423    173.0269   1.3982203893e+02   3.5339912629e+01     0.266903    0.1358434 -89.65   0.00129534    2.044    0.511
        30  -9.8098    176.0000    170.9729   1.0687592250e+02   1.1760153453e+01    0.2512105   0.08596116 -45.42 0.0008097221    2.993    0.666
        31 -11.5687     55.6881    167.2927   1.3431529868e+02   3.4187662451e+01    0.4423108    0.2661403 -82.22  0.001501088    1.625    0.385
        32 -10.0989     44.3550    168.3077   1.3706663678e+02   3.5329542240e+01    0.1242506   0.09192344 -42.69 0.0007042346    1.722    0.419
        33  -9.9173    138.3433    164.0162   1.1395387782e+02   2.1101751386e+01    0.3612155    0.1288798 -60.31 0.0009538688    4.663    0.786
        34 -11.1533     51.0422    159.2009   1.3429315380e+02   3.6670073981e+01    0.3792298    0.1950017  65.94  0.001665269    2.532    0.605
        35 -11.8290    106.0214    156.7276   1.2033173712e+02   2.8994934540e+01      0.72787    0.4226372 -68.58  0.003087036    1.936    0.483
        36 -11.0371    167.3102    156.8877   1.0576916966e+02   1.6593621292e+01    0.4592626    0.2676887 -65.03  0.001722268    2.441    0.590
        37 -11.4053     28.5107    156.3371   1.3925606597e+02   3.9804567827e+01    0.3816573    0.1955214 -88.70  0.001272111    2.061    0.515
        38 -10.7935     23.7075    153.6035   1.4005202415e+02   4.0892352240e+01    0.2058196    0.1524745  32.42 0.0008014643    1.675    0.403
        39 -10.3170    218.4820    156.9880   9.5186085373e+01   5.6560873552e+00      0.23071    0.1384143 -41.43  0.001035427    1.608    0.378
        40 -11.3035    119.8909    156.9907   1.1696300440e+02   2.6362369159e+01    0.5245318    0.2655274  52.04  0.002063476    2.117    0.528
        41  -9.1431    237.3202    156.3079   9.1589260160e+01   2.0333577306e+00     0.142546    0.1071717   1.08 0.0001886933    1.640    0.390
        42 -10.0576      6.5164    156.0055   1.4422124903e+02   4.1810661123e+01    0.1796238   0.09013281 -74.25 0.0003960578    1.522    0.343
        43 -10.4575    232.1738    151.8052   9.1526477654e+01   3.8556369291e+00    0.3221173   0.09204952 -44.62 0.0009995496    3.502    0.714
        44 -10.5258     11.8167    148.5646   1.4224989468e+02   4.3069172764e+01    0.2283278    0.1467116 -57.47 0.0008824558    1.440    0.306
        45 -10.5607    189.8800    150.0778   9.9349080115e+01   1.3101716125e+01    0.3858907    0.2139207 -53.50  0.001528992    2.026    0.506
        46 -11.1255    107.0884    145.4403   1.1780679736e+02   3.1477998449e+01    0.4874316    0.2862138  77.96  0.001705734    3.197    0.687
        47 -10.0581    148.4936    145.0231   1.0745418269e+02   2.3280360618e+01    0.2262473    0.1360167 -71.24 0.0007375948    2.551    0.608
        48 -10.1420     55.5021    145.5222   1.3112970678e+02   3.9365907028e+01    0.1359718     0.114647 -81.76 1.602201e-05    1.058    0.055
        49 -10.1685    124.5253    143.0313   1.1286741473e+02   2.8718162412e+01    0.2282149     0.133505 -74.45 0.0008099646    2.681    0.627
        50  -9.9070    181.4116    141.2326   9.9108868531e+01   1.6819325300e+01    0.2271353    0.1443612 -54.48 0.0009493295    1.697    0.411
        51 -10.9435    245.2038    136.8120   8.6001309281e+01   3.9838287997e+00    0.2385212     0.150093 -72.59 0.0009552792    2.869    0.651
        52 -10.3284     82.8481    132.0067   1.2141133855e+02   3.8774426344e+01    0.2471662    0.1627312 -87.99  0.001092272    2.064    0.515
        53 -12.2007     98.6795    127.7926   1.1620440099e+02   3.7147372271e+01    0.8213207    0.4670117 -85.03  0.002575637    4.162    0.760
        54 -10.4629     43.1097    123.2103   1.3067049366e+02   4.6045774422e+01    0.3586343    0.1886512  86.58  0.001387682    3.459    0.711
        55 -10.8062     27.1591    121.0178   1.3470888059e+02   4.8091747518e+01    0.5273226    0.2264849 -87.22  0.001722741    5.013    0.801
        56 -12.0094    193.4118    118.7408   9.1195708628e+01   1.8687232022e+01    0.6837666     0.440768 -62.68  0.002839003    1.914    0.477
        57 -10.1736     71.0129    120.2572   1.2223051679e+02   4.3295680530e+01    0.2514388     0.145953  85.63 0.0008965736    3.590    0.721
        58 -11.1430    141.7135    112.4312   1.0114993889e+02   3.1995780264e+01    0.4214401    0.2655672 -13.16  0.001441776    3.156    0.683
        59 -10.5450      2.2829    115.3091   1.4062277212e+02   5.1205833862e+01    0.2200218    0.1472903 -72.69  0.000620366    1.165    0.141
        60  -9.7613    232.4349    115.4831   8.3311452619e+01   1.0483266911e+01    0.1464647    0.1321755 -53.60 5.066282e-05    1.032    0.031
        61 -10.5568    108.2544    112.4695   1.0991856415e+02   3.8919832994e+01    0.5396166    0.2255704 -58.77  0.001747533    3.185    0.686
        62 -11.0284     78.7378    112.1208   1.1819484044e+02   4.4044269657e+01    0.3606943    0.2525393 -78.73  0.001061184    1.807    0.447
        63  -9.8508    117.3105    125.6355   1.1072408545e+02   3.4178423496e+01    0.1603166    0.1194925 -89.56  0.000568931    1.754    0.430
        64 -10.6757    174.1684    111.0123   9.3254436194e+01   2.4784682585e+01    0.3683566    0.2252059 -42.80  0.001044104    1.620    0.383
        65 -11.5356    159.9218    110.9049   9.6402883841e+01   2.8162022118e+01    0.5580173    0.3387333 -54.78  0.002274667    1.805    0.446
        66 -11.4293     14.1215    109.6791   1.3655050480e+02   5.1678884722e+01    0.5613034    0.2096298 -72.61  0.002465858    2.572    0.611
        67 -10.1857     60.0170    109.9465   1.2319417068e+02   4.7143616236e+01    0.2092961    0.1775136 -50.17 0.0006732053    1.054    0.052
        68 -11.8926    141.5947    100.2068   9.7913537425e+01   3.4598662853e+01     0.488398    0.4061274  11.63  0.002367235    1.474    0.322
        69 -11.9228     44.1387    100.5766   1.2595218673e+02   5.1090261812e+01    0.5869564    0.3400252 -82.72   0.00262789    2.677    0.626
        70 -11.3160    150.6395    103.3330   9.6569496915e+01   3.1887751059e+01    0.2535692    0.1933632 -82.82  0.001126636    1.692    0.409
        71 -11.7882    127.4066    100.6829   1.0165077510e+02   3.7619161729e+01     0.522222     0.247512 -51.07  0.001939037    2.257    0.557
        72 -11.9042    107.6687     98.7537   1.0647561030e+02   4.2033272337e+01    0.6117316    0.4278683 -82.02  0.002613903    2.266    0.559
        73 -10.7354     81.5350     99.9420   1.1438614032e+02   4.6339910686e+01    0.4010974    0.1756608 -60.08  0.001461089    2.842    0.648
        74 -10.4426     19.8532     97.7722   1.3283757185e+02   5.3887320258e+01    0.3628288    0.1324592 -73.17  0.001370349    3.593    0.722
        75 -10.6239     94.3858     94.1296   1.0902498229e+02   4.5455853079e+01    0.4420766    0.1159698 -42.15  0.001272544    4.061    0.754
        76 -11.0848     62.6488     95.4197   1.1901568226e+02   5.0043887486e+01    0.3464919    0.1706266 -68.12  0.001323507    3.069    0.674
        77 -12.9975    170.2450     90.7784   8.8756138899e+01   2.9714168625e+01    0.4622965    0.3825468 -72.30  0.000821451    1.321    0.243
        78 -11.5854     42.4006     87.8271   1.2361812588e+02   5.4043208223e+01    0.3515012    0.2353255  -0.64  0.001487741    1.937    0.484
        79 -10.6753     33.9861     87.9935   1.2638784499e+02   5.4826676618e+01     0.274594    0.1411103 -64.17  0.001373268    1.886    0.470
        80 -10.8302     86.1298     86.7342   1.0943446740e+02   4.8406217164e+01    0.4679686    0.2595325 -66.16  0.001770201    3.083    0.676
        81 -11.0419    104.2861     83.2239   1.0303350425e+02   4.5871198080e+01    0.3532701    0.2203636 -64.20  0.001471686    2.358    0.576
        82 -11.4552     46.0366     81.9807   1.2098395551e+02   5.4887286353e+01    0.4442663    0.2990473 -63.38  0.002001609    1.564    0.361
        83 -10.0416    151.0000     88.9748   9.2538590016e+01   3.4666601488e+01    0.2561157   0.08755846 -40.07 0.0008038412    2.952    0.661
        84 -10.5112    140.6480     81.9978   9.3012244375e+01   3.8399630230e+01     0.366803    0.1428858 -39.28  0.001270975    2.609    0.617
        85 -11.1273     82.3182     73.2459   1.0665201390e+02   5.1706263331e+01    0.3357916    0.2340099 -79.43  0.001477757    2.771    0.639
        86 -11.9073    223.4977     71.3575   7.4341890225e+01   2.0223122814e+01    0.3814176    0.2711042 -88.27  0.001904821    1.541    0.351
        87  -9.7873    115.3377     72.6575   9.6740687325e+01   4.5670244338e+01    0.1471094     0.116622 -82.01 0.0005250988    1.768    0.434
        88 -10.9920     62.6090     69.8083   1.1203468814e+02   5.5306414916e+01    0.3139103    0.1492619 -44.57  0.001466478    1.877    0.467
        89 -10.7657     51.7729     69.8059   1.1572769663e+02   5.6683291088e+01    0.2774295    0.1854461 -56.16 0.0008806477    1.562    0.360
        90 -11.8603     20.8262     51.1535   1.2158430350e+02   6.3226207710e+01    0.4808729    0.3106233 -57.95  0.002029024    1.613    0.380
        91 -11.4384     19.6210     59.2523   1.2431366880e+02   6.1815879009e+01    0.3068992    0.1812888 -34.71  0.001131182    1.449    0.310
        92 -13.6670     30.5973     59.5477   1.2032847209e+02   6.0854426399e+01     1.012287    0.6753374  16.01   0.00546673    1.673    0.402
        93 -13.0391    233.3714     61.1200   7.0607115790e+01   1.9558290840e+01    0.9012583    0.5101305  83.28  0.004050201    2.118    0.528
        94  -9.6023    160.8169     61.0973   8.2411787818e+01   3.7213592502e+01    0.1954967    0.1675683  31.49 0.0002625953    1.283    0.221
        95 -11.6068     48.1242     57.3498   1.1325103741e+02   5.9446754264e+01    0.2782152    0.1829796 -11.01  0.001228293    1.705    0.414
        96 -11.0726    149.7541     52.8536   8.2277773122e+01   4.1166214435e+01    0.2674609    0.2018839  62.77 0.0004398838    1.292    0.226
        97 -10.1376     62.6767     53.0203   1.0666544764e+02   5.8333380022e+01    0.1837328    0.1464446 -29.56 0.0005167592    1.130    0.115
        98 -11.1869      7.7830     55.1634   1.2767960892e+02   6.3384267319e+01    0.4094987    0.1464947 -63.32  0.001845007    3.041    0.671
        99 -12.3770     40.2380     51.6799   1.1434473784e+02   6.1338157399e+01    0.5437633    0.2212286 -43.56  0.002040025    2.066    0.516
       100 -10.2774    173.0369     49.5386   7.6799723344e+01   3.5952019503e+01    0.2000876    0.1890184 -59.60 0.0001273458    1.102    0.092
       101 -10.3104     82.2127     47.0243   9.8068867887e+01   5.6254880580e+01    0.1967692     0.149887 -60.58 0.0007579679    1.940    0.484
       102 -10.2957    156.8839     44.9900   7.8492297855e+01   4.0572078549e+01    0.2510432    0.1901447  58.74 0.0005881749    1.219    0.180
       103 -10.6069      9.6690     43.8355   1.2383743771e+02   6.5332530901e+01    0.2512771    0.1436252  22.92  0.001175641    2.034    0.508
       104 -10.4839      5.3881     42.5940   1.2520608734e+02   6.5816690454e+01    0.2716994    0.1556946 -69.78   0.00153412    2.538    0.606
       105  -9.7048    238.5469     43.5428   6.6043390274e+01   2.0976257451e+01    0.1338526    0.1131849 -74.44 4.934673e-05    1.013    0.012
       106 -10.3246    114.6966     42.7072   8.7224237989e+01   5.0610353552e+01    0.2222985     0.185329  22.53 0.0002390631    1.178    0.151
       107 -10.1073     76.3463     43.2857   9.8634880415e+01   5.7807969895e+01    0.1330412   0.09064846   6.94 0.0007019882    1.650    0.394
       108 -11.0934     70.0031     42.0386   1.0029915687e+02   5.9010421983e+01    0.2940536    0.2379591 -78.53  0.001645249    2.286    0.563
       109 -10.4921     69.5224     38.0073   9.8987635889e+01   5.9681361976e+01    0.2416162    0.1131125 -30.83 0.0007972707    2.110    0.526
       110 -12.3585     41.7285     38.2202   1.0918866362e+02   6.3419279119e+01    0.5463193    0.3393133  25.05  0.001682412    1.657    0.397
       111 -10.8503    119.9058     33.9495   8.2979812042e+01   5.0637162900e+01    0.3207037    0.2724581  56.14  0.001300795    1.167    0.143
       112 -10.5123     48.4392     35.1448   1.0549064201e+02   6.3084794685e+01    0.2383811    0.1465674  22.67 0.0008418171    1.637    0.389
       113 -11.5025    103.9433     30.0718   8.5658373592e+01   5.4492833824e+01    0.5458103    0.3541593  64.00  0.001670506    1.879    0.468
       114 -11.8422    220.9381    248.3079   1.1216585309e+02  -9.8091391297e+00    0.4624352     0.280588  47.15  0.002618815    1.765    0.434
       115 -10.3127    119.4945     22.4987   7.9201810289e+01   5.2059149836e+01    0.1316775     0.115962  40.78 -5.791095e-05    1.004    0.004
       116 -10.7145    239.4597     20.7286   6.1042989294e+01   2.3788940510e+01     0.260198    0.1919434  83.71  0.000677848    1.200    0.167
       117 -11.8687    201.9225     20.6819   6.4983242691e+01   3.2575252669e+01    0.3731789    0.1904845 -79.41  0.001572491    2.543    0.607
       118 -10.1721     81.8538    248.6389   1.3822561894e+02   1.3049197980e+01    0.2039789     0.157724 -47.45  0.001299615    1.938    0.484
       119 -12.8326     23.2782    240.2680   1.4766052779e+02   2.2332801677e+01    0.5676426     0.240944  71.80  0.003063587    2.193    0.544
       120  -9.2080      3.0029     17.7470   1.1806910783e+02   7.0024598965e+01    0.1127782   0.07701346   3.80 0.0002372099    1.428    0.300
       121 -11.0106     32.9769    242.2992   1.4618988417e+02   2.0817109888e+01     0.161427    0.1115044  64.75 0.0008819838    1.136    0.120
       122 -10.9730      8.0620    240.7297   1.5013602662e+02   2.3892922798e+01    0.1642508    0.1426367  60.04  0.001356847    1.527    0.345
       123 -11.1181      3.6276    238.4133   1.5070883806e+02   2.4784451308e+01    0.3458705    0.2233942 -48.42  0.002214863    2.882    0.653
