#   1 NUMBER                 Running object number                                     
#   2 MAG_AUTO               Kron-like elliptical aperture magnitude                    [mag]
#   3 X_IMAGE                Object position along x                                    [pixel]
#   4 Y_IMAGE                Object position along y                                    [pixel]
#   5 X_WORLD                Barycenter position along world x axis                     [deg]
#   6 Y_WORLD                Barycenter position along world y axis                     [deg]
#   7 A_WORLD                Profile RMS along major axis (world units)                 [deg]
#   8 B_WORLD                Profile RMS along minor axis (world units)                 [deg]
#   9 THETA_WORLD            Position angle (CCW/world-x)                               [deg]
#  10 FWHM_WORLD             FWHM assuming a gaussian core                              [deg]
#  11 ELONGATION             A_IMAGE/B_IMAGE                                           
#  12 ELLIPTICITY            1 - B_IMAGE/A_IMAGE                                       
         1  -8.2513     29.9829     15.9730   1.0102161428e+02   6.9004706244e+01    0.1705497    0.1397323 -76.72 0.0007088198    1.738    0.425
         2  -8.5575     55.7554      9.9931   8.6906996038e+01   6.6836547035e+01     0.218297    0.1552444 -45.47 0.0008421714    1.529    0.346
         3  -8.0215     47.7916     10.2282   9.0362172493e+01   6.7923152081e+01    0.1754176    0.1311026 -73.79 0.0007856377    2.633    0.620
         4  -8.2645     90.8904      9.1606   7.4113815487e+01   6.0754528163e+01     0.198914    0.1783785 -41.83 0.0005694546    1.298    0.230
         5  -7.7605    101.3842      8.2089   7.0673222452e+01   5.8665622848e+01     0.189887    0.1177659 -34.19 0.0004655926    1.614    0.381
         6  -7.8798     12.5473      8.5431   1.0653341797e+02   7.1864460327e+01     0.112869   0.08683623 -43.88 5.741903e-05    1.056    0.053
         7  -8.4898     33.3576      5.2174   9.4474356806e+01   7.0520900844e+01    0.2868145    0.1696732 -63.54  0.001308495    3.530    0.717
         8  -8.4176     78.9496      3.7017   7.5183102745e+01   6.3784337230e+01    0.2600363    0.1470056 -40.85  0.001057257    1.955    0.488
         9  -7.6467     44.6918      3.3264   8.8221180458e+01   6.9418044836e+01    0.1110135   0.09250968 -54.91 0.0006577022    1.654    0.396
        10  -7.9684     15.7715      2.9969   1.0238295239e+02   7.2614239214e+01    0.1507991   0.07403252 -48.16 0.0004403639    1.591    0.372
        11  -7.8266    115.4852      2.5077   6.4566995375e+01   5.6094460009e+01    0.1388718    0.1291619  13.65 0.0008100875    1.043    0.041
        12  -8.3812     62.3690      1.6172   7.9974380756e+01   6.7001525304e+01    0.1817639    0.1547268  52.49 0.0005501089    1.538    0.350
        13  -7.6960     39.4514      1.5054   8.9647893783e+01   7.0379884064e+01    0.1204242   0.09680071 -23.88 0.0001091893    1.058    0.055
        14 -10.0034    224.0817    244.0185   1.0264164618e+02  -1.3215024005e+00     0.315061    0.2166523 -36.12  0.002291334    2.068    0.516
        15  -8.8241    232.8167    247.7726   1.0183572853e+02  -2.8857954323e+00    0.1995461    0.1591195 -50.32  0.001558701    2.336    0.572
        16  -7.3623    125.2811    250.6630   1.1849251719e+02   1.2309602230e+01    0.1000647   0.06032934  63.59 0.0003151644    1.620    0.383
        17  -8.3929     93.8315    249.5013   1.2319615481e+02   1.6639936715e+01    0.1889622   0.08890968  66.99  0.001168273    2.332    0.571
        18  -8.9169    147.4165    246.4166   1.1468179662e+02   9.6955158084e+00    0.2254875    0.1235537  65.09  0.001354084    2.431    0.589
        19  -8.9878    120.2980    245.7072   1.1883677573e+02   1.3613185605e+01    0.2570498    0.1469044  75.23  0.001647106    2.368    0.578
        20  -8.2611     67.8232    245.1367   1.2683386903e+02   2.0431814816e+01    0.1854378   0.08451954  79.06  0.001146422    2.630    0.620
        21  -8.7413    201.8780    243.0768   1.0587761969e+02   2.0208725663e+00    0.1899542    0.1450552 -51.04  0.001270927    2.065    0.516
        22  -8.7480    169.2680    243.5158   1.1097265317e+02   6.8257365482e+00    0.1986002    0.1464143  60.46 0.0007173717    1.470    0.320
        23  -8.5713     77.8690    243.4531   1.2520948570e+02   1.9457049576e+01    0.2279255   0.08480023  60.65  0.001278088    2.587    0.613
        24  -9.4304    183.2696    240.0256   1.0838840796e+02   5.1111986187e+00    0.3246403    0.2840858  66.68  0.001869344    1.471    0.320
        25  -9.2742    160.4150    240.5598   1.1204087694e+02   8.4732941226e+00    0.2608635    0.1829252  86.11  0.001564551    2.333    0.571
        26  -8.0013    153.4865    242.0561   1.1329139339e+02   9.3229669497e+00    0.1217628      0.10572 -65.05 0.0008691169    1.565    0.361
        27  -8.2402     88.3502    242.1966   1.2351538572e+02   1.8321163692e+01    0.1248268   0.07845289  86.04 0.0006403181    1.718    0.418
        28  -9.2687    194.0257    239.4320   1.0664140060e+02   3.5547124575e+00    0.1797894    0.1542186   0.16 0.0008459336    1.403    0.287
        29  -8.5086    146.0969    239.8184   1.1422982989e+02   1.0674349442e+01    0.1624947    0.1087961  56.19 0.0005062827    1.302    0.232
        30  -8.9597    135.8167    239.0573   1.1578779832e+02   1.2263650961e+01    0.2262722    0.1092151  56.43 0.0009865996    1.943    0.485
        31  -8.1526    129.2269    238.8051   1.1681229763e+02   1.3241472081e+01    0.1647156   0.08557373  67.26 0.0006910213    2.626    0.619
        32  -7.8917     41.0000    239.0443   1.3051101617e+02   2.4312121872e+01     0.128763   0.04566257 -76.73   0.00065094    2.912    0.657
        33  -9.0614    231.1393    237.2916   1.0069636382e+02  -1.7643429212e+00    0.1975657    0.1670919  69.76   0.00116817    2.106    0.525
        34  -8.1647    209.1455    237.9758   1.0412341071e+02   1.4283588023e+00    0.1692491    0.1275822 -14.23  0.001312381    1.634    0.388
        35  -8.1764    189.5528    237.0368   1.0704662559e+02   4.4776190822e+00    0.1274646    0.1069264 -29.56 0.0007355487    1.587    0.370
        36  -8.0355     25.9803    237.5025   1.3265169765e+02   2.6081875224e+01    0.1394325   0.03659739  54.95 0.0008096123    2.494    0.599
        37  -9.8022    214.9479    233.3177   1.0262069789e+02   1.0017196068e+00     0.412502    0.3063315  87.91  0.002390804    3.642    0.725
        38  -9.0555    203.1140    234.3547   1.0459030927e+02   2.6930100199e+00    0.2442175    0.1709759 -47.48  0.001118108    2.154    0.536
        39  -9.6844    175.8467    233.3981   1.0877693223e+02   6.9630833936e+00    0.3382976    0.2143783 -60.97  0.002187954    2.622    0.619
        40  -8.0391    170.2659    235.9981   1.0997119626e+02   7.5180829515e+00    0.1404864    0.1149516  46.43  0.000483736    1.138    0.121
        41  -8.4822    122.9296    234.2350   1.1739265180e+02   1.4736051748e+01    0.1862311    0.1176146  69.93 0.0009237222    1.730    0.422
        42  -9.2079    108.8681    234.5256   1.1968116841e+02   1.6662411787e+01    0.3530733    0.1427156  54.43  0.000973549    2.097    0.523
        43  -8.4960     99.4623    234.3898   1.2117576831e+02   1.7954762719e+01    0.2261972    0.1088308  65.72  0.001080006    2.292    0.564
        44  -8.7105     78.9035    234.5176   1.2444650141e+02   2.0591847449e+01    0.1845501    0.1072307  75.42 0.0009123258    1.677    0.404
        45  -9.0697     68.3995    232.5323   1.2596321319e+02   2.2165803204e+01    0.3522182    0.1415047  67.58    0.0019371    2.825    0.646
        46  -8.4880    194.5072    232.7675   1.0573625202e+02   4.1700394055e+00    0.1613608    0.1607462  12.34 0.0007312182    1.420    0.296
        47  -9.1281    141.4444    230.9558   1.1406317862e+02   1.2469706110e+01    0.5115631    0.1997825  59.53  0.002065945    4.443    0.775
        48  -8.6000    132.6071    232.8234   1.1569117534e+02   1.3528757530e+01    0.1770423    0.1239869  89.40  0.001115299    1.883    0.469
        49  -9.4468    186.4854    230.7126   1.0674971992e+02   5.6255437569e+00    0.2596802    0.1998455 -87.60  0.001519768    2.310    0.567
        50  -7.8845    157.6256    231.8235   1.1152697637e+02   9.9276631027e+00    0.1215837    0.1003405 -81.10 0.0005355176    1.643    0.391
        51  -8.0354     92.4533    231.9379   1.2210236988e+02   1.9229447929e+01    0.2158677   0.08171508  62.36  0.001031753    3.332    0.700
        52  -8.9307      1.9248    231.4007   1.3591133125e+02   2.9236051274e+01     0.175589   0.07769623  73.03  0.001335895    1.655    0.396
        53  -9.1838    236.1743    230.6367   9.9019273903e+01  -1.9237472803e+00    0.1943346    0.1544912  -7.55 0.0005850191    1.414    0.293
        54 -10.0197    149.7098    226.2740   1.1219903042e+02   1.1826138072e+01    0.4988464    0.2962938 -88.77  0.002472554    4.018    0.751
        55  -8.8213    229.8089    228.7287   9.9713118690e+01  -8.0686897797e-01    0.1600639    0.1223698 -32.72 0.0008085648    1.786    0.440
        56  -8.8604    162.4146    228.1502   1.1032767700e+02   9.6427616773e+00    0.2943618    0.1606462  57.03  0.001292178    1.914    0.477
        57  -8.9017    128.0272    227.3654   1.1589542089e+02   1.4925097189e+01    0.2468615    0.1281193  59.16  0.001178824    1.893    0.472
        58  -8.0637    119.9625    227.9304   1.1727953873e+02   1.6015217307e+01    0.1708657    0.1025066  65.59  0.001115966    1.704    0.413
        59  -8.7186    206.0947    225.8238   1.0299317241e+02   3.1024832581e+00    0.1890604    0.1557008 -57.50 0.0008172224    1.941    0.485
        60  -8.2419     49.6402    226.7088   1.2855163880e+02   2.5209514231e+01     0.194409   0.08357646  76.49  0.001163753    2.478    0.597
        61  -8.4267    200.0305    226.2929   1.0401849365e+02   3.9980474406e+00    0.1564241    0.1132293  39.74 0.0005194044    1.086    0.079
        62  -8.7654     94.1754    224.4961   1.2122058657e+02   2.0083058322e+01    0.3542932    0.1488938  64.11  0.001579273    2.917    0.657
        63  -8.9296    180.5361    224.2992   1.0689899005e+02   7.2767460787e+00    0.2362626    0.1733632  67.31  0.000866203    1.803    0.445
        64  -8.7130    104.7010    223.5020   1.1939229007e+02   1.8796354507e+01    0.2866371    0.1603247  82.07  0.001706909    2.436    0.589
        65  -8.1619     38.6695    225.2905   1.3018673657e+02   2.6617069117e+01    0.1642323   0.07103958  64.23   0.00108271    1.850    0.459
        66  -8.8075    216.6035    223.3205   1.0099102229e+02   1.7232678746e+00    0.2145705     0.164955 -38.20  0.001020527    1.796    0.443
        67  -8.5492    173.1709    223.3146   1.0798022164e+02   8.5521758872e+00    0.2002404    0.1400369  62.62  0.000626245    1.674    0.403
        68  -7.7769    113.9663    224.4683   1.1794151129e+02   1.7356718074e+01    0.1517199   0.06627331  58.03 0.0005480147    2.281    0.562
        69  -9.3363    192.5399    221.5893   1.0459239446e+02   5.6880945751e+00    0.2538983    0.1985619  73.15  0.001075547    1.913    0.477
        70  -7.6668     53.7310    234.3886   1.2835031136e+02   2.3599487406e+01    0.1029891   0.05034654  67.13 0.0006987731    1.711    0.415
        71  -8.8937    238.8503    221.2947   9.7260839764e+01  -1.4917946188e+00    0.2059437    0.1478531 -27.15 0.0008337127    1.730    0.422
        72  -9.3660    225.4333    221.6831   9.9379038731e+01   5.1805013224e-01    0.1796631    0.1572327  24.32 0.0002608338    1.262    0.208
        73  -9.1826    160.0719    221.1847   1.0988729109e+02   1.0873672474e+01    0.3938978    0.1832352  58.71  0.001719699    2.834    0.647
        74  -9.2844    120.3319    219.0667   1.1634372257e+02   1.7212239004e+01    0.3640709    0.1868189  67.57  0.001795763    2.618    0.618
        75  -8.8391     82.5881    220.3910   1.2280341091e+02   2.2221074013e+01    0.2296669    0.1220171  77.09  0.001146851    2.130    0.531
        76  -8.2949     73.2222    221.0447   1.2439897854e+02   2.3305089083e+01    0.2136671   0.08912022  60.23  0.001226674    2.170    0.539
        77  -7.7367     27.5046    221.4864   1.3173329077e+02   2.8354926845e+01   0.09618498   0.06579373  67.09 0.0008104461    1.019    0.019
        78  -8.1248    202.5594    220.0285   1.0276068220e+02   4.2694830762e+00    0.1364526    0.1094195 -24.85 0.0004453279    1.547    0.354
        79  -8.5643    248.9196    218.3872   9.5303369485e+01  -2.7420858976e+00    0.2959152    0.1755054  59.02     0.001563    3.323    0.699
        80  -8.0198    210.1427    219.1624   1.0142408594e+02   3.1600322050e+00    0.1368116    0.1183347  46.00 0.0004760537    1.337    0.252
        81  -9.2987    132.9056    216.0659   1.1388492598e+02   1.5765300663e+01    0.3829756    0.2114637  73.33  0.001948154    3.018    0.669
        82  -8.2601    112.0162    217.5170   1.1760045049e+02   1.8642943230e+01    0.2115229    0.1055311  72.84   0.00102214    3.286    0.696
        83  -8.6490     51.5378    217.1790   1.2768524123e+02   2.6478903214e+01    0.1999947    0.1080093  80.99 0.0008929409    1.720    0.418
        84  -7.9123    179.4430    217.5110   1.0619826422e+02   8.2525517733e+00    0.1140432   0.08845367  42.35 7.894561e-05    1.046    0.044
        85  -8.8516    169.3588    216.3818   1.0773462388e+02   1.0009206342e+01    0.2214268    0.1587609  66.13 0.0007918463    1.699    0.411
        86  -8.8444    142.7392    216.4959   1.1225509595e+02   1.4196742374e+01    0.2112317     0.150158 -76.95  0.001013314    1.919    0.479
        87  -8.0689     61.7444    217.1552   1.2601269031e+02   2.5302696362e+01    0.1631284   0.09390083  72.84 0.0007396573    1.525    0.344
        88  -8.7476    232.4431    215.1379   9.7321395130e+01   6.3118965473e-02    0.1972119    0.1791828 -63.69 0.0009674385    1.915    0.478
        89  -8.1659     18.5242    216.0423   1.3288686607e+02   3.0088573069e+01      0.13397   0.07338708 -87.16   0.00101478    1.587    0.370
        90  -8.5170    185.8481    214.5509   1.0473665115e+02   7.5734740312e+00    0.1836795    0.1515957 -78.36  0.001190539    1.870    0.465
        91  -8.4079    154.3242    214.8866   1.1008977893e+02   1.2599962896e+01    0.1975576    0.1490522  72.08 0.0009196404    1.573    0.364
        92  -8.8060     93.6740    214.3295   1.2042884021e+02   2.1686664367e+01    0.3539822    0.1267534  58.36  0.001603726    3.132    0.681
        93  -7.8427     41.3914    215.7124   1.2924366622e+02   2.7829320645e+01    0.1097875    0.0491606  61.80 0.0004895289    1.764    0.433
        94  -9.3669    214.0097    212.2058   9.9793424863e+01   3.2772714564e+00    0.3206234    0.2279559  58.84  0.001504083    1.861    0.463
        95  -9.3296    217.2057    205.1369   9.8204246754e+01   3.5172975052e+00    0.3066128    0.1632742  25.22 0.0004311709    1.957    0.489
        96  -9.3294     72.9591    211.7635   1.2374465036e+02   2.4794446678e+01    0.5142238    0.1726852  61.87  0.002213452    3.927    0.745
        97  -8.2941    224.8424    213.0394   9.8193024812e+01   1.4616518823e+00    0.1580123    0.1363092  41.54 0.0007149982    1.354    0.261
        98  -8.7570    161.6666    212.4470   1.0853207133e+02   1.1751248369e+01    0.2009003    0.1507503  73.14 0.0007795966    1.684    0.406
        99  -8.2041    106.4164    212.7273   1.1809122561e+02   2.0161621779e+01    0.1705106    0.1021281 -72.97 0.0009089112    1.991    0.498
       100  -9.0775    204.3640    211.0220   1.0118287284e+02   4.9683911167e+00    0.2143512    0.1914075  79.65 0.0007481218    1.660    0.397
       101  -8.8225      6.1636    208.9900   1.3453452700e+02   3.2351911416e+01    0.2324127   0.07083649  74.54  0.001232272    3.178    0.685
       102  -7.7617    242.6603    211.7543   9.5226662171e+01  -1.1967971142e+00    0.1151103   0.06457381  24.25 0.0002222218    1.562    0.360
       103  -8.4896    192.2656    210.6067   1.0311861754e+02   6.9943895829e+00    0.1705404    0.1404531 -54.32 0.0008084521    1.710    0.415
       104  -9.3257    175.5008    210.0774   1.0586319489e+02   9.8098172746e+00    0.3272917    0.2041148  65.05  0.001633329    2.252    0.556
       105  -8.7776    148.1348    210.6509   1.1063260009e+02   1.4158522637e+01    0.2273565     0.156499  74.33  0.001418808    1.880    0.468
       106  -8.8858    116.2668    210.5877   1.1616596964e+02   1.9059681798e+01     0.233331    0.1429041  67.57 0.0007946788    1.718    0.418
       107  -9.0333    236.7393    208.7130   9.5663024167e+01   1.2809509657e-02     0.240125    0.2090736  69.74  0.001190322    1.932    0.482
       108  -8.5310     85.6340    209.8813   1.2141856970e+02   2.3462851137e+01    0.2040896    0.1169448  84.61  0.001274402    1.985    0.496
       109  -7.8811     32.2536    210.2927   1.3042985306e+02   2.9662351970e+01    0.1471015   0.06172711  85.43 0.0006777628    2.348    0.574
       110  -7.9252     46.3172    209.6264   1.2807818068e+02   2.8277802316e+01    0.1121423   0.05333035  66.44 0.0007031909    1.798    0.444
       111  -9.2689    246.2566    207.4571   9.3997814390e+01  -1.3509265853e+00    0.1970811    0.1561333  14.21 0.0005784442    1.119    0.106
       112  -8.0410    156.4169    208.2162   1.0889182005e+02   1.3166604066e+01    0.1356049    0.1091262 -76.66 0.0006310708    1.638    0.389
       113  -8.4687    139.3371    208.0228   1.1184459245e+02   1.5920954763e+01    0.2137183    0.1319587  61.12 0.0009041677    1.646    0.393
       114  -8.0579    126.0817    208.3596   1.1420750150e+02   1.7923555610e+01    0.1646654    0.1183548  53.84  0.001104872    1.111    0.100
       115  -9.2633     99.4815    206.2560   1.1866771060e+02   2.2149730832e+01    0.3488497    0.1913381  81.32   0.00154045    2.483    0.597
       116  -8.4393    109.0205    205.2933   1.1688443479e+02   2.0936570001e+01    0.2142736    0.1411359 -80.01 0.0007629176    1.780    0.438
       117  -8.2920     56.6072    205.6240   1.2607825984e+02   2.7771569933e+01    0.2186047    0.1001302  66.64 0.0008322668    2.061    0.515
       118  -8.2422     11.4898    206.4971   1.3359671264e+02   3.2283941433e+01    0.0975868   0.06443265  69.47 -3.739074e-06    1.026    0.025
       119  -9.2049    195.0399    203.6802   1.0164428324e+02   7.3607300664e+00    0.3085611     0.224488  62.72  0.001824058    1.771    0.435
       120  -9.3182    192.4358    197.2999   1.0112049704e+02   8.5854018505e+00    0.2844947    0.2353149 -80.41 0.0008362621    1.887    0.470
       121  -9.0186    183.9659    204.0250   1.0357206200e+02   9.1724547011e+00    0.2597257    0.1937558  65.43 0.0009371841    1.697    0.411
       122  -8.6847    131.2782    203.9949   1.1278524213e+02   1.7776268528e+01    0.2622531    0.1585826  74.57   0.00101246    2.315    0.568
       123  -9.5074    250.0524    202.1033   9.2550232833e+01  -1.4381960378e+00    0.3272169    0.1669629 -22.55  0.001592987    2.124    0.529
       124  -8.2483    238.0006    203.9852   9.4714649774e+01   2.7645543253e-01    0.1817762    0.1055772  23.16 0.0004636885    1.566    0.362
       125  -9.5486    163.9700    202.9564   1.0687788712e+02   1.2648334866e+01    0.3866818    0.2341275  59.25  0.001111337    1.816    0.449
       126  -8.5435     24.5389    204.4993   1.3139418002e+02   3.1387986124e+01    0.1014255   0.06703933  68.80 0.0001616701    1.065    0.061
       127  -8.6161    211.0779    202.1342   9.8738168427e+01   4.8616242334e+00    0.1787889    0.1533231 -83.67 0.0006499459    1.960    0.490
       128  -8.3509     48.6766    202.5758   1.2722785618e+02   2.9185305669e+01    0.1872617   0.09510159  76.19  0.001190132    1.848    0.459
       129  -9.1733    243.0212    201.0516   9.3457367650e+01  -2.3271793199e-01    0.2208538    0.2059188 -35.37 0.0009934054    1.633    0.388
       130  -8.1242    222.2443    201.6402   9.6839856950e+01   3.0676505201e+00    0.1749513    0.1384498 -37.45 0.0006531147    1.672    0.402
       131  -8.8326    140.4628    201.1628   1.1080082311e+02   1.6746183753e+01    0.2918164    0.1816007  75.64  0.001107344    2.374    0.579
       132  -8.5352     80.0944    201.5721   1.2166124369e+02   2.5543315784e+01    0.2606011    0.1220525  68.49  0.001374239    2.491    0.598
       133  -8.9387    236.9805    198.6138   9.3999382370e+01   9.7823517277e-01    0.2205105    0.1755667 -48.08  0.001249768    2.002    0.501
       134  -9.4707    149.5231    198.6901   1.0885881126e+02   1.5638520183e+01    0.3193841    0.2180968  85.82  0.001137185    2.238    0.553
       135  -8.8770    124.0593    199.3795   1.1353268136e+02   1.9604113694e+01    0.2536728    0.1634329  83.98  0.001339125    2.082    0.520
       136  -9.2476    112.8963    198.6096   1.1546648742e+02   2.1424360662e+01    0.3841955    0.1979185  69.00  0.001593001    2.692    0.629
       137  -9.2075     88.6959    198.6037   1.1984852658e+02   2.4888418624e+01    0.2994284      0.17273  78.48  0.001542783    1.957    0.489
       138  -8.6014    176.9978    198.8956   1.0402798136e+02   1.1009351711e+01    0.2146034    0.1783236  80.33 0.0007630506    1.609    0.378
       139  -9.1327     61.5542    197.4693   1.2461176044e+02   2.8559928963e+01    0.3266979    0.1505195  67.61  0.001360568    2.206    0.547
       140  -8.0504    202.1339    197.8667   9.9561088164e+01   6.8631117534e+00    0.1715812    0.1423715  47.80 0.0004128051    1.257    0.205
       141  -8.8206     12.7396    197.3949   1.3300437756e+02   3.3689788694e+01    0.2448553   0.08865169  78.37  0.001384132    2.606    0.616
       142  -7.9993     53.8025    197.1581   1.2595943360e+02   2.9523997326e+01    0.1949588   0.07484946  66.32 0.0009507094    2.961    0.662
       143  -8.6496    215.8725    195.6502   9.6916453910e+01   4.7929866934e+00    0.1882831    0.1557631 -55.07 0.0008375302    1.844    0.458
       144  -9.3611    245.5702    193.6040   9.1817144388e+01   9.5028483982e-02    0.2222828    0.2098127 -72.65  0.001458373    1.818    0.450
       145  -8.6762    224.6649    194.4622   9.5282175855e+01   3.4461108032e+00    0.1915086    0.1707767 -56.37 0.0008126106    1.731    0.422
       146  -8.7202    185.2299    194.7949   1.0198037255e+02   1.0142185434e+01    0.1946647    0.1713186  77.60 0.0006391857    1.480    0.324
       147  -8.9743    160.9597    194.4162   1.0621788531e+02   1.4348118244e+01    0.2775763    0.1917613  70.81 0.0009181249    1.907    0.476
       148  -8.9796     43.6507    193.5381   1.2749627859e+02   3.1285615183e+01    0.3032572    0.1401891  69.19  0.001803703    2.015    0.504
       149  -8.6340     76.9594    193.9062   1.2153750099e+02   2.7246228425e+01    0.1797234    0.1337821  82.89  0.000546815    1.210    0.174
       150  -7.8020    205.3658    192.1020   9.8095982070e+01   7.0050193015e+00    0.1445621    0.1123348 -45.73 0.0005240951    1.711    0.416
       151  -7.9993    199.0068    191.9816   9.9159390825e+01   8.1198791775e+00    0.1651678    0.1402352  67.41  0.000494818    1.541    0.351
       152  -8.0585    179.0129    191.5589   1.0257519070e+02   1.1648236530e+01    0.1655722    0.1580655  -2.64 0.0005869889    1.221    0.181
       153  -8.5334    172.2997    191.7967   1.0380401669e+02   1.2778022738e+01    0.2013953    0.1711865  78.75 0.0007890402    1.476    0.322
       154  -9.0229    139.6661    190.7857   1.0959249029e+02   1.8452926292e+01    0.3121082    0.1975601  72.91  0.001240602    2.142    0.533
       155 -10.4388     92.3921    188.8447   1.1818486808e+02   2.6030616039e+01    0.8495306    0.2064396  50.77  0.003195908    3.981    0.749
       156  -8.2982    133.0876    196.0326   1.1148424405e+02   1.8705103967e+01    0.2280139     0.149012 -79.09  0.001267513    2.119    0.528
       157  -8.4245    148.4764    189.3976   1.0777612055e+02   1.7200086810e+01    0.2060729    0.1474762  72.40 0.0008610362    1.691    0.409
       158  -8.2135    237.2872    188.4248   9.2229902079e+01   1.9871019057e+00    0.1972854    0.1386746 -25.17 0.0006435782    1.573    0.364
       159  -8.8013    216.6124    188.1569   9.5552213851e+01   5.5323114920e+00    0.2077854    0.1734823  54.34 0.0008821518    1.446    0.309
       160  -7.4806    210.3052    189.6807   9.6864204120e+01   6.4429290491e+00    0.1089544   0.09349002  69.36 0.0003869869    1.632    0.387
       161  -9.2265    156.0016    187.5236   1.0612169831e+02   1.6204826870e+01    0.2680681    0.1942085 -71.08 0.0009300134    1.885    0.470
       162  -9.0472    129.2509    188.6313   1.1124251438e+02   2.0490587018e+01     0.246055    0.1664998  72.86 0.0009554678    1.715    0.417
       163  -9.8915    120.9599    186.9342   1.1258181725e+02   2.2089135818e+01     0.438411    0.2426002 -78.62  0.002164452    2.847    0.649
       164  -8.6026     34.4587    188.4563   1.2879285665e+02   3.3148861542e+01    0.2352477   0.09661784  66.15 0.0008433869    2.262    0.558
       165  -8.4486    230.9724    194.4849   9.4268402556e+01   2.3923298567e+00    0.1882317    0.1621151 -36.29 0.0007509033    1.582    0.368
       166  -8.7502    191.5278    187.5374   9.9737558382e+01   9.9961315331e+00    0.2411742    0.1784333  81.03  0.001204225    2.330    0.571
       167  -9.0496     54.6648    187.0013   1.2503207479e+02   3.1200100487e+01    0.3336494    0.1532831  72.70   0.00176223    2.378    0.579
       168  -7.9673    230.4717    187.5157   9.3166255897e+01   3.2316300246e+00    0.1203569   0.09714463  25.53 0.0002380608    1.046    0.044
       169  -8.8611    164.6400    186.5314   1.0439083225e+02   1.4858683247e+01    0.2364582    0.1841818 -69.38  0.000910376    1.714    0.416
       170  -9.2116    109.5741    186.2228   1.1464817709e+02   2.3969159496e+01    0.3053944     0.189802  71.75  0.001090903    1.806    0.446
       171  -8.4918    249.4211    185.7868   8.9864484309e+01   2.5627831465e-01    0.1889306    0.1825228  38.04 0.0008715579    1.535    0.349
       172  -8.9033    210.2161    184.4460   9.5998399842e+01   7.0932053283e+00    0.1972105    0.1882381  23.97 0.0005706148    1.252    0.201
       173  -8.8060    202.7751    184.8575   9.7341269058e+01   8.3554292440e+00    0.1879594    0.1700587 -72.56 0.0007024711    1.581    0.367
       174  -8.6308    182.8470    184.7778   1.0082637806e+02   1.1902785110e+01    0.2107533    0.1713564 -56.35  0.000789732    1.604    0.377
       175  -9.1706     66.8822    184.5959   1.2255803784e+02   3.0162120039e+01    0.3290337    0.1585798  59.09  0.001109146    1.870    0.465
       176  -8.6335    224.2439    183.8165   9.3541669750e+01   4.7159791654e+00    0.1867662    0.1831963  76.16 0.0006621219    1.464    0.317
       177  -8.4317    197.0629    183.4825   9.8101452722e+01   9.5463760643e+00    0.1772534    0.1663822  66.54  0.000569748    1.336    0.252
       178  -9.0654    174.2725    183.1916   1.0211671712e+02   1.3648343343e+01    0.3117203    0.2056644 -51.53  0.001510289    1.916    0.478
       179  -9.2206    241.3273    181.9456   9.0449005193e+01   2.0007326428e+00     0.307594    0.2414759 -73.95  0.001719412    2.882    0.653
       180  -9.0517     44.3543    182.4277   1.2658234708e+02   3.3181605919e+01    0.2859097    0.1388252  70.65  0.001156175    1.954    0.488
       181  -8.4806     19.5330    183.0401   1.3112733744e+02   3.5569495464e+01     0.149839   0.05812091  75.19 0.0008092278    2.506    0.601
       182  -8.0074      2.1583    183.7009   1.3419368750e+02   3.6967320201e+01    0.1777926   0.05381529  42.69 0.0009441723    2.524    0.604
       183  -9.2512    147.6227    180.8228   1.0669501503e+02   1.8678881514e+01    0.3103632    0.2056034  73.12  0.001058819    2.041    0.510
       184  -7.5804     90.3373    182.2654   1.1786632306e+02   2.7470251951e+01    0.0998842    0.0901977  18.21  0.000274154    1.590    0.371
       185  -7.6986    235.2826    181.6549   9.1362242749e+01   3.0588516076e+00    0.1024774   0.09773849 -84.32 0.0004108599    1.641    0.390
       186  -9.6530     25.3928    178.6381   1.2981507624e+02   3.5811903166e+01    0.5511411    0.1818294  77.14  0.002318612    4.284    0.767
       187  -8.6096    137.8001    179.6677   1.0839455880e+02   2.0538893769e+01    0.2241741    0.1518679  86.49  0.001214602    2.103    0.525
       188  -9.3005    191.4175    178.3909   9.8236796550e+01   1.1240636335e+01    0.2754058    0.1939808  55.05   0.00087729    1.495    0.331
       189  -8.4004    169.0803    178.8033   1.0236518207e+02   1.5215133749e+01    0.2020492    0.1601745 -68.86 0.0009210332    1.677    0.404
       190  -9.1571     36.0107    177.0030   1.2774209247e+02   3.5056361858e+01      0.41156    0.1520128  80.22  0.001819189    3.724    0.731
       191  -9.4757    248.5921    176.7996   8.8374756095e+01   1.3243590350e+00    0.3282169    0.2391545 -39.37  0.001794495    1.848    0.459
       192  -8.6584    250.5067    172.8760   8.7350437571e+01   1.4171707362e+00    0.2048516    0.1508328 -18.20 0.0006428133    1.374    0.272
       193  -8.6455    205.2652    177.6474   9.5672230964e+01   8.8312588661e+00     0.201546    0.1475852 -44.30 0.0007950495    1.726    0.421
       194  -8.4916    129.2394    177.6342   1.0975398986e+02   2.2306978376e+01     0.247513    0.1718532  82.91 0.0008815757    1.821    0.451
       195  -8.5615    231.0600    177.0677   9.1222304016e+01   4.3053155019e+00    0.1817491    0.1577793  21.37 0.0005425789    1.126    0.112
       196  -8.4161    217.5938    177.0581   9.3457254015e+01   6.6886099707e+00    0.2047591     0.155209 -45.35  0.001079592    1.759    0.432
       197  -9.2487    183.1567    176.2156   9.9353854533e+01   1.3046159672e+01    0.2238917    0.2058837 -71.30 0.0006029783    1.382    0.277
       198  -9.4080    159.0482    175.3041   1.0368058833e+02   1.7543592518e+01    0.3744648      0.23588  72.99   0.00135118    2.546    0.607
       199  -8.8538     88.8691    176.8110   1.1754403343e+02   2.8654999809e+01    0.2507384    0.1541145  72.19  0.000880464    1.688    0.408
       200 -10.0047     57.2370    173.1580   1.2337059401e+02   3.3427236669e+01    0.6777837    0.2755695  77.75  0.002712836    4.266    0.766
       201  -8.7746     12.8968    176.7716   1.3197863142e+02   3.7296119122e+01    0.2026421   0.08562555  71.68   0.00102654    2.049    0.512
       202  -7.7474    211.5282    176.5285   9.4394484230e+01   7.8432301441e+00    0.1253394    0.1054284  30.10 0.0002507212    1.045    0.043
       203  -9.3524    104.1795    174.5722   1.1425785306e+02   2.6820969455e+01    0.4320206    0.2248371  69.87  0.001496099    2.706    0.630
       204 -10.7524     75.8946    170.3589   1.1940038651e+02   3.1617592730e+01    0.9585123    0.3595324 -79.69  0.003511554    4.858    0.794
       205  -8.7618     78.8491    158.5651   1.1743791803e+02   3.3476059929e+01    0.2878008    0.1466231  32.43  0.001451398    2.415    0.586
       206  -8.5574    224.3008    174.3849   9.1849031065e+01   5.8139478054e+00    0.1847891    0.1467597 -47.19 0.0005175729    1.746    0.427
       207  -9.3846    176.0065    172.1964   9.9983206269e+01   1.4940636366e+01     0.298457    0.2370997 -45.82 0.0009295642    1.481    0.325
       208  -8.4078    142.9800    172.7672   1.0636646339e+02   2.0788301985e+01    0.2049528    0.1581888 -81.38 0.0005857935    1.601    0.375
       209  -8.3130    194.2356    172.4123   9.6693561856e+01   1.1545504098e+01    0.1790537    0.1095625  51.59   0.00077074    1.605    0.377
       210  -8.6363    134.8407    171.7679   1.0780640097e+02   2.2359398100e+01    0.2228215    0.1538311  86.82 0.0009166701    1.971    0.493
       211  -9.4813    121.3422    170.5109   1.1029692559e+02   2.4836134788e+01    0.3204209    0.2201155 -89.79 0.0009978826    1.824    0.452
       212  -9.1074     44.9452    170.7539   1.2555969727e+02   3.5274202402e+01    0.3286112    0.1584819  78.27  0.001431478    2.168    0.539
       213  -8.4261    205.8166    170.4991   9.4297519926e+01   9.6637128854e+00    0.2171033    0.1641035 -53.27 0.0008172499    1.842    0.457
       214  -8.4976    198.5542    170.3480   9.5552726887e+01   1.1029219414e+01    0.1969325    0.1829826 -83.85 0.0006618996    1.437    0.304
       215  -8.2362    237.1354    169.8698   8.8905054340e+01   4.0631458995e+00    0.1716742    0.1627965  29.69  0.000752734    1.338    0.253
       216  -8.7806    230.3264    170.1068   9.0059972052e+01   5.2461005404e+00    0.1713087    0.1436763  -0.85 0.0006966765    1.157    0.135
       217  -9.1803    167.2848    168.8146   1.0104394591e+02   1.7060918669e+01    0.3079333    0.2192303  74.86  0.001070831    1.983    0.496
       218  -8.5220    149.8567    169.7427   1.0455166150e+02   2.0075681852e+01    0.2176971    0.1584479  88.10 0.0007738023    1.914    0.478
       219  -8.4756    244.3478    169.0675   8.7599990392e+01   2.8889919698e+00    0.1690129    0.1375569  -2.58 0.0004764568    1.160    0.138
       220  -8.4439    218.9103    168.3551   9.1641686217e+01   7.5284472444e+00    0.1885368    0.1701671 -26.24 0.0005536535    1.311    0.237
       221  -8.3499     88.7863    168.7394   1.1661890914e+02   3.0152050006e+01    0.2244896    0.1322668  83.23 0.0009281796    2.052    0.513
       222  -7.8530    211.3986    168.1987   9.2901633817e+01   8.9327807520e+00    0.1596333    0.1188882 -42.91 0.0004910361    1.663    0.399
       223  -8.9762    111.4483    167.4174   1.1185108596e+02   2.6985489401e+01    0.2577435    0.1745458  81.01 0.0007748504    1.729    0.422
       224  -8.8164    191.9438    166.6299   9.6067681046e+01   1.2783308442e+01    0.2155079     0.187646 -46.67 0.0005591979    1.390    0.281
       225  -8.5930    185.0533    166.6858   9.7340239106e+01   1.4071359318e+01    0.1981551    0.1780787 -60.28 0.0006915368    1.386    0.279
       226  -9.1615     20.5143    166.2797   1.2995461981e+02   3.8558726286e+01    0.2901404    0.1097011  62.90  0.001198017    2.453    0.592
       227  -9.9752    136.8976    164.3673   1.0625140926e+02   2.3276013765e+01     0.578551    0.2924218  60.55  0.002109453    2.505    0.601
       228 -10.0506     94.8628    162.9087   1.1464206618e+02   3.0366688421e+01     0.663708    0.3295201  76.43  0.002599959    3.882    0.742
       229  -8.5357     95.3351    155.4230   1.1353108153e+02   3.1729029887e+01    0.2983326    0.1920445  11.15  0.001273035    3.873    0.742
       230  -7.7779    250.6561    165.2917   8.5888610009e+01   2.2100179511e+00    0.1596287    0.1058804  -8.10 0.0004728576    1.476    0.323
       231 -10.0656    246.6012    164.0044   8.6274642856e+01   3.0599442023e+00    0.4881585    0.2136421 -38.13  0.002280633    2.748    0.636
       232  -8.2527    233.8442    164.9225   8.8499577014e+01   5.2277918756e+00    0.2022166     0.159846 -24.32 0.0006718218    1.365    0.267
       233  -8.6617    159.6146    164.3567   1.0175470968e+02   1.9184134118e+01    0.2523809    0.1927355  77.87 0.0007542921    1.680    0.405
       234  -8.5099     56.8176    164.2670   1.2261993928e+02   3.5164775037e+01    0.2977038    0.1974195   6.73  0.001515485    3.683    0.728
       235  -9.5716     33.4388    163.4482   1.2723836542e+02   3.7865901089e+01    0.4669764    0.1558822  57.08  0.002269339    2.886    0.653
       236  -8.3354    239.9290    164.1989   8.7373755021e+01   4.2198415425e+00    0.1748061    0.1586204  27.47 0.0006119763    1.241    0.195
       237  -8.5570    213.0114    163.5315   9.1743854729e+01   9.2419025654e+00    0.2170969      0.17621 -44.44 0.0006846104    1.549    0.354
       238  -8.5158    204.8507    162.8463   9.3044945200e+01   1.0872382773e+01    0.2035553    0.1729636 -34.54 0.0005241184    1.354    0.261
       239  -9.3377      3.3666    162.3900   1.3299166556e+02   4.0741789508e+01     0.317358    0.1151442  59.69  0.001837243    2.302    0.566
       240  -9.2180    177.4482    160.8120   9.7695070990e+01   1.6394021403e+01    0.2766896    0.2317572 -76.23 0.0008752151    1.586    0.370
       241  -8.7790    151.7053    161.3095   1.0278611912e+02   2.1143418624e+01    0.2619562    0.1964285  78.88 0.0009669377    1.700    0.412
       242  -7.6417    222.2611    161.6655   8.9799345928e+01   7.7526456402e+00    0.1119197    0.1027186 -70.13 0.0002157062    1.577    0.366
       243  -8.8512     60.6731    160.3307   1.2143454435e+02   3.5467169953e+01    0.3048036    0.1542456  72.74  0.001583015    2.253    0.556
       244  -9.9389    250.0110    158.1264   8.4588624797e+01   3.1184659207e+00    0.3704917    0.2379672  -6.00 0.0009841572    1.573    0.364
       245  -8.6064    227.4505    159.2068   8.8446276074e+01   7.0950745195e+00     0.215236    0.1856091 -53.45 0.0007934315    1.634    0.388
       246  -9.7296    105.8052    158.0300   1.1168361433e+02   2.9619510078e+01    0.4307988    0.2627714  73.86  0.001268189    2.052    0.513
       247  -7.9970    237.2668    158.8293   8.6755032928e+01   5.3308282289e+00    0.1826792     0.153584 -34.17 0.0006683416    1.445    0.308
       248  -8.7730    196.7048    158.2428   9.3629820089e+01   1.3075161995e+01    0.2474033    0.2103302  84.76 0.0007814923    1.644    0.392
       249  -8.2642    128.2340    159.1610   1.0718186724e+02   2.5704361887e+01    0.2395903    0.1468861  65.90 0.0007641719    1.946    0.486
       250  -8.2802    188.0636    158.0195   9.5178081517e+01   1.4777786874e+01    0.2148401    0.1739936 -34.69 0.0008230848    1.374    0.272
       251  -9.1497    167.6475    157.2828   9.8931407014e+01   1.8821686638e+01    0.2949579    0.2223578  87.93 0.0009461606    1.942    0.485
       252 -10.6329    215.8445    153.2807   8.9246186907e+01   1.0062627408e+01    0.4366616     0.323024 -66.74 0.0004084527    2.364    0.577
       253  -9.5430    119.4774    155.2259   1.0837892504e+02   2.7918952318e+01    0.3956625    0.2469637 -84.66   0.00146557    2.322    0.569
       254  -8.3878    204.7731    155.3396   9.1607803620e+01   1.1924718167e+01    0.2232999    0.1581001 -45.65 0.0006424603    1.726    0.421
       255  -8.9571    157.4473    155.9084   1.0069233216e+02   2.0983993573e+01    0.2423532    0.1967244  76.81 0.0008785822    1.452    0.311
       256  -9.3866     81.5840    154.7634   1.1638205936e+02   3.3844008735e+01    0.3973188    0.2207118  70.52  0.001565628    2.120    0.528
       257  -9.2429     49.5834    155.2814   1.2323534548e+02   3.7751179345e+01    0.3215583    0.1602636  68.14  0.001634847    2.089    0.521
       258  -8.7885    242.7359    155.0343   8.5118994184e+01   4.7823082378e+00    0.1744405    0.1636578   8.90 0.0003961599    1.253    0.202
       259  -8.3008    239.7143    153.3376   8.5261634670e+01   5.5383295356e+00    0.2003649    0.1718175  69.75 0.0005202477    1.705    0.414
       260  -8.6287    144.6098    154.9324   1.0311048805e+02   2.3541181567e+01    0.2919573    0.1933333  64.32 0.0009642746    1.727    0.421
       261  -9.7328    132.7642    152.9464   1.0521557135e+02   2.6038211963e+01    0.4394273    0.2952251  79.76   0.00143111    2.057    0.514
       262  -9.2913    133.5114    148.4865   1.0428540106e+02   2.6721248225e+01    0.2714159     0.210529 -41.75  0.001317495    1.475    0.322
       263  -9.7945     68.1029    153.7706   1.1914686746e+02   3.5835312082e+01    0.4273548    0.2149257  72.80  0.001666407    2.530    0.605
       264  -8.0825    232.8021    153.9813   8.6517990042e+01   6.7450177682e+00    0.1856287    0.1438033 -51.85 0.0006839698    1.868    0.465
       265  -8.5159    151.6127    152.7831   1.0130066170e+02   2.2614999406e+01    0.1766723     0.125325 -61.11 0.0008608672    1.683    0.406
       266  -9.2662     20.3141    152.8797   1.2909007590e+02   4.1152897867e+01     0.180156    0.1134847  58.63 0.0008107548    1.375    0.272
       267  -9.7178     29.2534    150.5751   1.2706976585e+02   4.0787673699e+01    0.4222803    0.1646872  70.71  0.001951409    3.103    0.678
       268  -8.7912      2.8921    150.9911   1.3247609372e+02   4.2947335560e+01    0.2382257   0.09897737  81.96  0.001375423    2.086    0.521
       269  -9.7210    248.7968    149.4706   8.3032390044e+01   4.3281384405e+00     0.307818    0.1885995 -21.04 0.0008393924    1.596    0.373
       270  -8.9533    247.0574    144.0102   8.2172514643e+01   5.2923977115e+00    0.2620326    0.1721541 -20.21 0.0005076889    1.473    0.321
       271  -9.7462    242.6863    150.0999   8.4126095391e+01   5.3767585342e+00    0.2955273    0.2468683  49.91  0.001762962    1.410    0.291
       272  -8.9345    189.3776    150.0925   9.3389328672e+01   1.5712902589e+01    0.2431607     0.223493 -76.73 0.0007336729    1.366    0.268
       273  -8.1171    182.4005    151.2274   9.4933913077e+01   1.6918063953e+01    0.1755537    0.1266883 -52.35 0.0007113047    1.694    0.410
       274  -8.1192    162.8926    150.9192   9.8683488233e+01   2.0782020362e+01     0.214752    0.1616454  79.49  0.001124915    1.792    0.442
       275  -8.7520     98.3451    150.7554   1.1221433823e+02   3.2180538699e+01    0.2673634    0.1768158  79.10  0.001057251    1.741    0.426
       276 -10.0476     39.7423    147.0405   1.2453142407e+02   4.0456687854e+01     0.605298    0.2776948  87.31  0.002237755    2.394    0.582
       277  -8.3336    198.8764    149.1142   9.1431725774e+01   1.3973208513e+01    0.1892941    0.1789127  74.98 0.0005023999    1.294    0.227
       278 -10.0410     89.1924    146.3611   1.1357964585e+02   3.4424954531e+01    0.5700047    0.3036211  83.14  0.002404168    3.152    0.683
       279  -8.8406    233.4848    147.6169   8.5105406839e+01   7.4097124021e+00    0.2523903    0.1232675 -28.33  0.001034553    2.093    0.522
       280  -9.1599     78.3243    147.4463   1.1613410290e+02   3.5748908938e+01    0.2715634    0.1580458  70.35  0.001129998    1.935    0.483
       281 -10.4556     54.6468    144.3707   1.2099555742e+02   3.9367525113e+01    0.7230265     0.330168  77.58  0.002778944    3.227    0.690
       282  -9.2302     56.8246    135.5502   1.1945442407e+02   4.0932568612e+01    0.2856922    0.1585069  20.15  0.001386951    3.132    0.681
       283  -8.0495    223.4686    146.9467   8.6642120941e+01   9.4260910058e+00    0.1842475    0.1257719 -26.82 0.0004183077    1.510    0.338
       284 -10.3432    148.8478    144.6139   1.0035184880e+02   2.4573715455e+01    0.5580091    0.3597705 -68.17  0.001667982    2.170    0.539
       285  -8.3682    151.1966    135.6315   9.8091376604e+01   2.5731911224e+01    0.2271171     0.157581  22.00   0.00103277    1.909    0.476
       286  -9.9294    139.2502    145.0376   1.0244811641e+02   2.6304667377e+01    0.4043428    0.2814728 -81.79  0.001414685    2.015    0.504
       287 -10.3584    106.5081    144.0395   1.0938393702e+02   3.2210338559e+01    0.6589049    0.4000076  88.14  0.002266137    2.435    0.589
       288  -9.4253     13.6644    146.4610   1.3000667343e+02   4.2983956924e+01    0.3297465    0.1215321  57.66  0.001634371    2.509    0.601
       289  -9.8303    241.1465    137.2858   8.1678749287e+01   7.2338560090e+00    0.3858971    0.2806624 -39.10  0.001368841    1.598    0.374
       290  -8.6966    240.4393    145.4761   8.3529566337e+01   6.3562475035e+00    0.2274849    0.1808401  -6.35 0.0005488077    1.175    0.149
       291  -9.1051    242.6712    143.3164   8.2719951088e+01   6.1988213915e+00    0.3606562     0.198063 -10.06  0.001700585    2.157    0.536
       292  -7.8650    206.7637    146.5710   8.9482546825e+01   1.2771132742e+01    0.1758034     0.123285  54.61 0.0006223092    1.531    0.347
       293  -8.3986    175.3454    146.0085   9.5264886700e+01   1.9146683586e+01    0.1816543    0.1750907 -28.44 0.0005338973    1.136    0.119
       294  -9.8294    125.0451    142.7840   1.0509284523e+02   2.9305006033e+01    0.5006742    0.3153988 -89.90  0.001692401    2.575    0.612
       295 -10.9802     60.1994    125.3092   1.1729205152e+02   4.2687794395e+01    0.9868633    0.4596951  86.71  0.003575964    3.903    0.744
       296 -10.5465     73.2880    129.6045   1.1476472180e+02   4.0107460780e+01    0.4869689    0.2661567 -74.16  0.001786628    1.880    0.468
       297 -11.1074     69.1083    141.7099   1.1743442961e+02   3.8141205975e+01    0.5668973    0.4222029  83.37  0.002923063    1.232    0.189
       298  -8.8528    165.4978    143.9531   9.6810789723e+01   2.1445259209e+01    0.2443046    0.1996114  71.48 0.0006989259    1.417    0.294
       299  -7.5065    194.2930    143.6842   9.1166323652e+01   1.5699937775e+01    0.1274682    0.1091615 -87.26 0.0002727568    1.599    0.375
       300  -9.5860      2.5520    141.3920   1.3198748182e+02   4.4847199672e+01    0.3906352    0.1449943  83.68   0.00203642    2.525    0.604
       301  -8.4128    250.5100    140.9696   8.0994579383e+01   5.0109416879e+00    0.1864917     0.117271 -22.90  0.000588065    1.530    0.346
       302  -9.7200     23.4750    138.3670   1.2729013747e+02   4.3773296075e+01    0.4332885    0.1776708  68.49  0.001908571    2.726    0.633
       303  -8.3312    235.0000    138.9825   8.3036497647e+01   8.2121135011e+00    0.2045049   0.07207561 -29.82 0.0005241013    2.859    0.650
       304  -8.8141    172.1780    138.5002   9.4361675184e+01   2.1021968097e+01    0.2729702    0.2099875 -74.80 0.0009277916    1.814    0.449
       305  -9.5384    139.1644    138.1165   1.0115915420e+02   2.7599337854e+01    0.3177179    0.2557028  27.18  0.001777136    1.413    0.292
       306  -7.6438    218.5245    138.5588   8.5717993849e+01   1.1536614863e+01    0.1345824    0.1210359  20.73 8.995015e-05    1.046    0.044
       307  -8.2427    207.2749    137.7019   8.7519590386e+01   1.3943334689e+01    0.2362124    0.1590046 -44.91 0.0007226967    1.749    0.428
       308  -8.5583    197.5038    137.6182   8.9288282937e+01   1.5963094180e+01    0.2393562    0.2222174 -70.23 0.0006716714    1.339    0.253
       309  -8.8164     84.7590    122.7738   1.1088686461e+02   3.9937899035e+01    0.3677724    0.2414972  13.78  0.001728449    2.802    0.643
       310 -10.4914     83.4333    132.9163   1.1287120980e+02   3.8004622499e+01    0.5960574    0.2944863 -70.14    0.0012427    2.196    0.545
       311  -8.7533    162.5721    136.3460   9.5862805382e+01   2.3335540245e+01    0.2363493    0.1346983 -47.45 0.0006773821    1.926    0.481
       312  -9.4581     39.1764    136.2580   1.2358182726e+02   4.2718480026e+01    0.2789943     0.152633  78.89 0.0008886886    1.849    0.459
       313  -8.9915    248.4720    135.3079   8.0098993797e+01   6.0729106724e+00    0.2753489    0.2030663 -29.70 0.0007942615    1.402    0.287
       314  -8.8088    250.6599    129.9271   7.8588418405e+01   6.3080048935e+00    0.3731811     0.116352 -27.06  0.001313297    3.164    0.684
       315  -7.6346    192.5153    136.4976   8.9981875558e+01   1.7164936828e+01    0.1392945    0.1261632  26.79 0.0008104793    1.008    0.008
       316  -8.7276    179.4053    134.0332   9.1981039880e+01   2.0277842042e+01    0.2749664    0.2040929 -59.35 0.0008359439    1.716    0.417
       317  -8.3203    237.4893    133.9791   8.1548271722e+01   8.3640935363e+00     0.192964    0.1238155 -26.71  0.000938456    1.537    0.349
       318  -8.0107    231.4856    134.0659   8.2547989490e+01   9.5419641111e+00    0.1928412    0.1263047 -25.54 0.0003871069    1.518    0.341
       319  -9.9767    132.2981    131.5722   1.0138186355e+02   3.0131186893e+01    0.4950291    0.3314751 -83.01  0.001267597    2.221    0.550
       320  -9.2406    112.6796    133.1844   1.0612364903e+02   3.3337040994e+01    0.3334096    0.2451684 -74.44  0.001310123    1.476    0.322
       321  -9.2195    143.1043    131.7737   9.9042240625e+01   2.8026801052e+01    0.3491867    0.2254021 -62.92 0.0007550561    1.911    0.477
       322 -10.4739     98.2793    130.2937   1.0894800160e+02   3.6300594424e+01    0.6518981    0.3300256 -58.42  0.001737427    1.956    0.489
       323  -8.7566     98.8609    120.7629   1.0707563811e+02   3.8182056264e+01    0.4824607    0.2955888  14.06   0.00188253    3.765    0.734
       324  -9.2820    153.0323    129.1829   9.6358481376e+01   2.6536141432e+01    0.3795936    0.2413041 -62.96 0.0009268526    2.092    0.522
       325  -8.4844    153.2417    124.1481   9.5222736444e+01   2.7413339057e+01    0.2820166    0.1931866  18.38  0.001279716    2.092    0.522
       326  -9.8283     13.0397    129.3208   1.2886768040e+02   4.6490843735e+01    0.4552491    0.2012413  74.80  0.002159171    2.292    0.564
       327  -8.2945    246.8703    130.1327   7.9217548189e+01   7.0142388048e+00    0.1903255     0.170527 -28.38 0.0006324133    1.281    0.219
       328  -7.9454    220.7539    129.9718   8.3449300616e+01   1.2271396837e+01    0.1724431    0.1130171 -26.50 0.0005254878    1.541    0.351
       329  -7.8768    204.5312    130.0655   8.6339873384e+01   1.5636875194e+01     0.199554    0.1349896 -33.09 0.0006795534    1.534    0.348
       330  -8.1239    192.7126    130.2014   8.8567079448e+01   1.8105993940e+01    0.2075594    0.1728427 -52.23 0.0006276791    1.417    0.294
       331  -9.2414    168.3753    129.5539   9.3226219969e+01   2.3324956571e+01    0.2791559    0.2291767 -74.09 0.0008097256    1.538    0.350
       332 -10.7223     45.1117    123.8426   1.2076674625e+02   4.4711701808e+01    0.9660892    0.4219642  75.25  0.003795717    3.920    0.745
       333  -8.0791    211.5746    128.8221   8.4794271716e+01   1.4342170168e+01    0.1902732    0.1267897 -42.63 0.0009420053    1.695    0.410
       334  -7.6738    186.2984    129.6613   8.9676716050e+01   1.9546079856e+01    0.1369084    0.1127745 -80.73 0.0003323932    1.661    0.398
       335 -10.0780    118.1800    125.3324   1.0335875622e+02   3.3947398098e+01    0.5822616    0.3841717  87.24  0.001741858    2.242    0.554
       336  -8.4455    181.8853    141.6399   9.3102268602e+01   1.8534826856e+01    0.2514122    0.1774109 -57.67 0.0006882166    1.852    0.460
       337  -7.8386    228.3616    125.2839   8.1106562911e+01   1.1347129744e+01    0.1859068    0.1206929 -36.05 0.0008318908    1.613    0.380
       338  -8.9027    179.3488    124.8634   8.9964634208e+01   2.1809142687e+01    0.2573829    0.2166846  80.72 0.0007290523    1.480    0.324
       339 -10.2701    131.1638    118.5302   9.8925036224e+01   3.2884068721e+01    0.5954781    0.3886656 -74.47  0.001940364    2.198    0.545
       340 -10.2884     28.1468    121.6996   1.2462973437e+02   4.6821075698e+01    0.7822011    0.3166023  86.30  0.003384057    3.249    0.692
       341  -7.8202    243.9810    124.0685   7.8314489578e+01   8.3408243512e+00    0.1641108    0.1361093  -8.99 0.0004508742    1.108    0.097
       342  -8.2476    234.5368    123.9646   7.9792676833e+01   1.0257694763e+01    0.1998586     0.110935  -1.09 0.0008095367    2.609    0.617
       343  -7.7881    188.6947    124.3153   8.8007641811e+01   1.9897073535e+01    0.1371893    0.1141808 -81.58 0.0003856817    1.623    0.384
       344  -9.3835    158.9364    121.7337   9.3462594471e+01   2.6674357321e+01    0.3648284    0.2545338 -84.53  0.001037985    2.350    0.574
       345  -7.7795    195.0000    122.0185   8.6274580467e+01   1.8903434359e+01    0.2184154   0.08069874 -35.08 0.0004148776    2.805    0.644
       346  -8.8163    171.9907    121.7974   9.0750125212e+01   2.3901364577e+01    0.2383205    0.2040201 -40.92 0.0005480699    1.230    0.187
       347  -9.7677     71.5085    120.3648   1.1375771939e+02   4.2306752549e+01    0.4283303    0.2479603  80.57  0.001652085    2.326    0.570
       348  -9.7954    141.6380    118.7407   9.6580804774e+01   3.0780238644e+01    0.4077249    0.2957915 -78.97  0.001161273    1.879    0.468
       349  -8.7246    141.3206    113.3347   9.5423162050e+01   3.1879934218e+01    0.2865752    0.1921514 -27.84 0.0009768371    1.869    0.465
       350  -9.5033      2.9406    117.1584   1.3024289682e+02   4.9729409174e+01    0.4828689    0.1849773  77.82  0.002357066    2.831    0.647
       351  -7.5427    231.4944    117.5210   7.8802421220e+01   1.1747536537e+01    0.1367663    0.1262957   3.61 0.0008092557    1.072    0.067
       352  -8.1159    185.5549    116.0105   8.6676697689e+01   2.1931747551e+01    0.2084497    0.1409648 -36.04 0.0004614181    1.525    0.344
       353  -9.9622    109.2162    114.1477   1.0322016898e+02   3.7813818846e+01    0.4780957    0.3007002 -76.16  0.001335014    2.144    0.534
       354  -9.1340    109.3016    107.6751   1.0180380524e+02   3.9140346187e+01    0.2562674    0.2127346  -9.31  0.001070142    1.630    0.387
       355  -8.6114     59.3434    115.2328   1.1601402620e+02   4.4954118705e+01    0.2542216    0.1835154 -13.29  0.001376347    2.462    0.594
       356  -8.6620    250.1524    115.1582   7.5336079246e+01   8.2300643715e+00    0.2116525    0.1638295  18.23 0.0007978597    1.226    0.185
       357  -8.2480    192.9404    115.1670   8.5048275354e+01   2.0440260980e+01    0.2069643    0.1940127 -63.73 0.0004567654    1.239    0.193
       358 -10.3344     92.6691    111.5958   1.0683537962e+02   4.1104286555e+01    0.7895989    0.3244126 -61.38   0.00278873    2.630    0.620
       359 -10.0170     78.9153    112.7332   1.1057092335e+02   4.2925658394e+01    0.5091817    0.3147115  85.95  0.001933211    2.168    0.539
       360  -8.9622     78.1390    105.0450   1.0932197782e+02   4.4696721126e+01    0.3637592    0.2303941  18.73  0.001746135    2.514    0.602
       361  -8.0681    167.0908    114.5075   9.0060299374e+01   2.6228484652e+01    0.2187534    0.1383652  48.52 0.0006421944    1.525    0.344
       362 -10.0458    122.1888    112.6616   9.9748423065e+01   3.5763507862e+01     0.428558    0.3051788 -66.03 0.0008656495    1.564    0.361
       363  -9.8071    133.6594    109.2012   9.6231866776e+01   3.4228087756e+01     0.550519    0.2952671 -53.92  0.002311583    2.040    0.510
       364  -9.6960     14.1690    111.1528   1.2698493546e+02   5.0200845057e+01    0.3832293    0.1594412  87.30  0.001696962    2.542    0.607
       365  -8.4183    174.7759    111.9527   8.7855004814e+01   2.4991637491e+01     0.267287    0.1977852 -57.21 0.0007818341    1.625    0.385
       366  -8.6368    159.2738    111.9491   9.1110545415e+01   2.8375527315e+01    0.2481343    0.2012656  79.75 0.0006474061    1.507    0.336
       367 -10.1718     66.4262    110.1381   1.1334984553e+02   4.5178109514e+01    0.5014213    0.2545693 -70.01  0.002083619    1.949    0.487
       368  -9.9970    248.1889    108.7035   7.4123895329e+01   9.4413880051e+00    0.3222121    0.2420142 -46.74  0.001748887    1.611    0.379
       369  -9.9319    249.6069    103.6449   7.2714016779e+01   9.7913177133e+00    0.4838734    0.2016235 -17.87   0.00181554    2.859    0.650
       370  -8.5897     43.0909    109.3709   1.1934823230e+02   4.8038332890e+01    0.2685641    0.1228786  13.58 0.0009510818    6.058    0.835
       371  -8.1682    188.9826    107.9944   8.4055846560e+01   2.2481054681e+01    0.2214328    0.1769206 -67.71 0.0005466183    1.634    0.388
       372 -10.7446    109.5221     99.2044   9.9803909499e+01   4.0860291734e+01     1.241035    0.6533383  70.89  0.002724658    5.084    0.803
       373  -8.9846    107.9894     92.7535   9.8631097254e+01   4.2477263577e+01    0.4545718    0.2879628  24.85  0.002026426    2.256    0.557
       374  -9.6589    139.9311    104.2109   9.3564211539e+01   3.3923563843e+01    0.4868325    0.2958938 -52.70  0.001752357    1.769    0.435
       375 -10.6047     45.5871    102.2791   1.1762371965e+02   4.9327609510e+01    0.7686514     0.386146  74.65  0.003216639    3.058    0.673
       376  -8.8062     46.6868     92.4821   1.1568836735e+02   5.1364878067e+01    0.3302585    0.1807022  25.48  0.001736134    2.394    0.582
       377 -10.5573     23.0213    102.8150   1.2378628343e+02   5.1301675869e+01    0.7005028    0.3121063  72.92  0.003024614    3.055    0.673
       378  -8.5676    166.6627    104.4566   8.7684082535e+01   2.8101823328e+01    0.2744738    0.2110951 -67.96 0.0006285951    1.664    0.399
       379  -9.5610    150.4829    102.9529   9.0835249172e+01   3.1929489325e+01    0.4159938    0.2714829 -61.73  0.001218124    1.979    0.495
       380 -10.1783    128.6096    101.3764   9.5557396903e+01   3.6783926601e+01    0.5406197    0.3174372 -37.41   0.00214576    1.860    0.462
       381  -7.6350    175.5485    102.4692   8.5331482370e+01   2.6447873578e+01    0.1446744    0.1428002  36.48 0.0001308103    1.050    0.048
       382  -8.3100    159.8004    101.0985   8.8301350571e+01   3.0231241297e+01    0.2198472    0.1973447 -75.70 0.0004369183    1.260    0.206
       383  -9.2737     82.0065    100.0147   1.0726606964e+02   4.5223206461e+01    0.3343441    0.2233404 -87.16 0.0009491849    1.890    0.471
       384  -9.6287     94.9793     97.0223   1.0311315978e+02   4.3834534830e+01    0.3246635    0.2306127 -66.38 0.0005199778    1.438    0.305
       385 -10.0426     63.9699     95.9273   1.1141348986e+02   4.8596515857e+01    0.5354463    0.3083558  87.44   0.00170277    2.615    0.618
       386  -8.6118     64.4934     88.0074   1.0965105277e+02   5.0266031267e+01    0.3303325    0.2031574 -16.46  0.001385826    3.527    0.716
       387  -8.9771      6.8117    103.2138   1.2808427021e+02   5.2401560199e+01    0.2549322    0.1431787  71.20  0.001026706    1.729    0.422
       388  -8.2779    176.4939     93.4499   8.2776621647e+01   2.7769827754e+01    0.2528946       0.1995 -73.63 0.0006621109    1.666    0.400
       389  -8.4099    164.8809     94.0957   8.5369196528e+01   3.0341287047e+01    0.2306308    0.2007828 -74.61 0.0006400078    1.347    0.258
       390  -9.5817    139.0304     92.0033   9.0643998878e+01   3.6466540245e+01     0.454781    0.2780741 -56.41  0.001264658    1.916    0.478
       391  -7.7471    188.5195     93.5425   8.0426412535e+01   2.4939974064e+01    0.1486591    0.1417483  15.54 0.0002509486    1.005    0.005
       392 -10.5927    124.1239     91.1284   9.4058654543e+01   3.9724529008e+01    0.6365566    0.5398372 -18.58  0.002813148    1.360    0.264
       393  -9.0950      5.2010     92.3790   1.2742341284e+02   5.4815724558e+01    0.2613353    0.1402408  75.53  0.001149048    1.880    0.468
       394  -9.4729     34.9400     89.9559   1.1865862989e+02   5.3082564409e+01    0.4503943    0.2135589 -85.32  0.001650203    2.601    0.615
       395  -7.7007    157.5682     91.5433   8.6269553865e+01   3.2464116017e+01     0.145603    0.1447486   3.54 9.491306e-05    1.018    0.018
       396  -8.9712     22.7708     90.2435   1.2221830699e+02   5.4055037494e+01    0.2366901    0.2085374 -16.11  0.001498622    1.534    0.348
       397  -8.0919    151.0892     89.4481   8.7148285710e+01   3.4307287975e+01    0.2634937     0.168166 -61.56 0.0006779697    2.113    0.527
       398 -10.0292     86.3172     85.9220   1.0287166615e+02   4.7600029873e+01    0.6136167    0.3410934 -59.92  0.001808107    1.795    0.443
       399  -9.7960     48.3596     84.3503   1.1368669387e+02   5.2977296802e+01    0.4277797    0.2554079  75.56  0.001919287    2.338    0.572
       400  -7.5117    179.3014     85.6628   8.0087382406e+01   2.8415124791e+01     0.153171    0.1186329 -68.26 0.0007036486    1.664    0.399
       401  -9.7632    104.8715     83.4073   9.7050089857e+01   4.4978763364e+01    0.4300792    0.2959685 -73.54 0.0009422985    1.912    0.477
       402  -8.4943    105.0181     77.4906   9.5385030828e+01   4.6164964554e+01    0.2666939    0.1844767  27.58   0.00110012    1.793    0.442
       403  -8.2899    157.8793     84.0715   8.4130761790e+01   3.3735872010e+01    0.2239565    0.2014556 -70.84 0.0003810924    1.244    0.196
       404  -9.1848    140.8469     82.5461   8.7601064647e+01   3.7869026947e+01    0.4790466    0.1924902 -44.92  0.001327762    2.526    0.604
       405  -9.7264     24.4789     80.2330   1.2021095852e+02   5.6110995460e+01    0.4453036    0.2142916 -89.13  0.001583891    2.580    0.612
       406  -9.1596      9.6367     80.9008   1.2480201601e+02   5.7014739135e+01     0.260325    0.1471738  68.57  0.001543052    1.982    0.495
       407  -8.5546    150.3212     80.4690   8.4795364975e+01   3.6123406395e+01    0.3219279    0.2071526 -67.34   0.00108945    2.403    0.584
       408  -8.8939    119.4433     80.2299   9.2281828827e+01   4.2832418742e+01    0.3299893    0.2240508 -68.41 0.0008617531    1.965    0.491
       409  -8.9806     74.3558     80.3286   1.0498529048e+02   5.0599232456e+01    0.3045443    0.2038184 -71.91 0.0009671138    1.644    0.392
       410  -8.7791    231.3974     79.9646   6.9491593614e+01   1.6884004776e+01    0.2439959    0.1951444  41.23 0.0003459773    1.263    0.208
       411  -8.5308    166.8259     79.6696   8.0944668407e+01   3.2402737032e+01    0.2545128    0.1995904 -21.85 0.0005680399    1.339    0.253
       412  -9.1572     64.2423     63.9442   1.0389570790e+02   5.5501942930e+01    0.6974983     0.240062 -40.97  0.002453145    3.553    0.719
       413  -8.9359     65.0000     77.9734   1.0724517635e+02   5.2389981982e+01     0.361008    0.1498136 -55.94  0.001432572    2.089    0.521
       414  -9.8140     63.2735     73.6342   1.0673127574e+02   5.3554636852e+01    0.3877535    0.2153278 -66.13  0.001481934    1.857    0.461
       415  -7.5874    174.6914     78.3354   7.8938573239e+01   3.0738365975e+01    0.1554627    0.1191905 -68.20 0.0007042551    1.676    0.403
       416  -8.5483    157.1644     76.7009   8.2160006911e+01   3.5206742611e+01    0.2654724    0.1994203 -47.82 0.0007484093    1.394    0.283
       417  -9.5029    128.1393     75.4662   8.8663901730e+01   4.1963477547e+01    0.3664436    0.2366846 -53.79 0.0008012336    1.695    0.410
       418  -8.5581    163.3586     73.4775   7.9862642136e+01   3.4289177062e+01    0.2942709    0.1782597 -37.82  0.001067993    1.633    0.388
       419  -9.9365     82.6503     71.3881   1.0015686311e+02   5.1258561745e+01    0.8574635    0.3244966 -46.45  0.001837365    2.422    0.587
       420  -7.7864    151.2944     73.6436   8.2562235351e+01   3.7121557664e+01    0.1557457    0.1181959 -68.79 0.0007031822    1.693    0.409
       421  -9.1283    115.5554     72.4906   9.1058099216e+01   4.5136813390e+01    0.3490696    0.2236921 -49.92  0.001095706    1.560    0.359
       422  -9.3327    105.8993     71.2128   9.3322978231e+01   4.7267491644e+01      0.47251    0.1922952 -48.39  0.001472158    2.405    0.584
       423  -9.6063     94.9962     69.9243   9.6061521907e+01   4.9510923519e+01    0.7220278    0.2465754 -48.84  0.002274357    2.774    0.639
       424  -8.1372     42.5059     72.9825   1.1319023261e+02   5.6085789999e+01    0.1907243    0.1045469 -64.71 0.0004521612    1.554    0.356
       425  -7.7394    175.4918     72.5793   7.7098423122e+01   3.1488355315e+01    0.1509017    0.1459225  19.50  5.36472e-05    1.014    0.014
       426  -9.5999     51.4152     69.6440   1.0955461182e+02   5.5858613827e+01    0.4530154    0.2407465 -75.12  0.001477523    2.392    0.582
       427  -8.6792     28.2045     71.0111   1.1742683066e+02   5.7829576411e+01    0.2466356    0.1412249 -41.76  0.001191485    1.875    0.467
       428  -8.0962     32.3016     68.3273   1.1555378002e+02   5.8066674348e+01     0.162426    0.1286064  11.83 0.0007312701    1.650    0.394
       429  -8.8257     16.7523     70.1921   1.2100715152e+02   5.8874471011e+01    0.2487958    0.1454675  88.44  0.001036567    1.824    0.452
       430  -8.5925    140.2657     75.0691   8.5559184955e+01   3.9388984848e+01    0.3076139    0.1882753 -50.39 0.0008497227    1.773    0.436
       431  -8.8090    147.0552     68.3346   8.1911443345e+01   3.9048192696e+01    0.2832807    0.2106998 -44.09 0.0005634645    1.359    0.264
       432  -8.7020    138.7383     66.1596   8.3192278663e+01   4.1352706913e+01    0.3005718    0.1915752 -47.30 0.0008186548    1.635    0.388
       433  -9.0550    121.6782     66.0340   8.7447780725e+01   4.5120255208e+01     0.335292     0.228185 -56.28 0.0009785584    1.672    0.402
       434  -8.7192     37.4011     64.5309   1.1302906352e+02   5.8427516089e+01    0.2553226    0.1667092  86.58 0.0009640852    1.968    0.492
       435  -8.8887    110.2809     63.7571   8.9807100913e+01   4.7882929546e+01    0.2791432    0.2224091 -75.88 0.0007606797    1.598    0.374
       436  -8.2788    158.2492     61.9970   7.7427279975e+01   3.7451980459e+01    0.2097242    0.1963512 -34.23 0.0004084647    1.069    0.065
       437  -9.5051     97.2444     60.4998   9.2509162413e+01   5.0996493804e+01    0.2845138    0.2777697  85.54  0.001053222    1.122    0.109
       438  -9.6876     73.2711     59.5472   9.9675114895e+01   5.5152115495e+01    0.4322836     0.215499 -57.97  0.001460493    2.115    0.527
       439  -7.7299    164.3836     60.1711   7.5557437234e+01   3.6237173345e+01     0.210545    0.1371527 -42.15 0.0003079056    1.565    0.361
       440  -8.6615     88.9848     59.5001   9.4683537855e+01   5.2653926829e+01    0.2218959    0.1702296 -45.87 0.0005353858    1.196    0.164
       441  -8.4117    146.7940     59.0418   7.9016245508e+01   4.0711084090e+01    0.2061617     0.118637 -34.56 0.0005423714    1.706    0.414
       442  -9.9000     23.5098     56.6288   1.1612617694e+02   6.1324929336e+01    0.4602897    0.2439288  89.78  0.002191831    2.805    0.644
       443  -8.8907    130.5950     57.8725   8.2509774823e+01   4.4667660767e+01     0.290189    0.1707224 -48.38 0.0008197169    1.833    0.454
       444  -9.4814      7.5870     57.2387   1.2190907673e+02   6.2249507942e+01    0.2867106    0.1672502  81.42  0.001220257    2.012    0.503
       445  -9.1527    119.0841     55.2382   8.4602197285e+01   4.7658530514e+01     0.475714    0.2092182 -47.52  0.001440987    2.486    0.598
       446  -9.5436     54.3094     55.5138   1.0488422083e+02   5.8539155286e+01     0.372253    0.2013882 -66.81   0.00121291    2.150    0.535
       447  -9.0515    139.8758     55.7799   7.9549525052e+01   4.2897751333e+01    0.3510245    0.1909205 -35.60 0.0009931129    1.791    0.442
       448  -8.7016     43.9796     55.2052   1.0844442474e+02   5.9772496999e+01    0.2983021    0.1571208 -67.28  0.001173456    1.984    0.496
       449  -8.6094    105.8540     53.2504   8.7586780685e+01   5.0742518358e+01    0.3159605    0.1869081 -52.90 0.0009204912    1.911    0.477
       450  -7.8136    147.6929     52.7030   7.6714938518e+01   4.1542301519e+01    0.1549723    0.1156029  18.62 0.0003130551    1.590    0.371
       451  -9.8054     92.3368     49.5226   9.0321149254e+01   5.3998645615e+01    0.7915394     0.213226 -44.45  0.002541906    3.480    0.713
       452  -8.1135    150.2174     48.9500   7.4886783670e+01   4.1523348882e+01     0.204176    0.1211263 -31.97 0.0004078421    1.656    0.396
       453  -8.3275    144.5548     49.0519   7.6183416661e+01   4.2889135288e+01     0.227287    0.1454378 -31.92 0.0005178234    1.535    0.349
       454  -8.1109    129.8441     49.1437   7.9716755434e+01   4.6338441596e+01    0.2222879    0.1954342 -51.96 0.0004546939    1.218    0.179
       455  -8.8011    120.8848     47.6229   8.1473532867e+01   4.8603335129e+01    0.2700161    0.2000663 -40.64 0.0005193763    1.324    0.245
       456  -8.6260    112.1720     46.7824   8.3525220832e+01   5.0617904947e+01    0.2600779    0.1816046 -45.69 0.0007096904    1.452    0.311
       457  -9.0636     82.0620     46.4125   9.2493998627e+01   5.6375572244e+01    0.3077233    0.2010272 -51.68  0.000809619    1.542    0.351
       458  -7.8318    141.3060     45.6699   7.5751548614e+01   4.4209664072e+01     0.153538    0.1168546 -64.58 0.0003058156    1.658    0.397
       459  -8.5529     44.9506     44.5690   1.0502304700e+02   6.1886868798e+01    0.2254179    0.1545628 -66.33 0.0005219277    1.530    0.346
       460  -8.9132     16.6641     44.8769   1.1602804249e+02   6.4324157625e+01    0.2080055    0.1469957 -89.49  0.000656697    1.621    0.383
       461  -8.7179    132.9847     43.5883   7.6973041907e+01   4.6518375848e+01     0.284218    0.1956743 -48.74 0.0007696545    1.599    0.375
       462  -8.8816     58.1700     42.6520   9.9471005240e+01   6.0678150901e+01    0.3213451     0.187922 -64.60   0.00124677    2.212    0.548
       463  -9.1970     69.6484     41.7934   9.5050920659e+01   5.9227935452e+01    0.3015517    0.2153181 -61.04 0.0009832479    1.628    0.386
       464  -9.7052      5.1790     42.1600   1.1993119206e+02   6.5587773045e+01    0.3151376    0.1677516 -80.91  0.001236511    1.895    0.472
       465  -8.5313    105.9989     41.4759   8.3316568455e+01   5.2811598925e+01    0.2744927    0.1851107 -49.31 0.0007009037    1.608    0.378
       466  -7.4547    140.4368     41.5222   7.4480211754e+01   4.5063086834e+01    0.1487794    0.1430855  -6.66 0.0001240148    1.016    0.016
       467  -8.3337     36.8973     41.0718   1.0704919068e+02   6.3441835621e+01    0.1806889    0.1504578 -73.35 0.0005582151    1.318    0.241
       468  -8.6338     95.3112     37.9180   8.5135228171e+01   5.5539388919e+01    0.2480248    0.1592903 -41.01 0.0008520858    1.476    0.322
       469  -8.1186     80.6836     37.0857   8.9506645044e+01   5.8333895220e+01    0.2124037    0.1550037 -52.41 0.0005083912    1.479    0.324
       470  -9.4305     26.2432     35.7106   1.0971783379e+02   6.5506983615e+01    0.2802185    0.1823116 -70.86 0.0007758972    1.628    0.386
       471  -8.1539    125.9381     35.7001   7.5787982368e+01   4.9389672818e+01    0.2001855     0.183925  38.78 0.0003146536    1.099    0.090
       472  -8.8605    111.7375     34.6476   7.9090202217e+01   5.2730911947e+01    0.2879393    0.1813003 -41.93 0.0006179063    1.604    0.377
       473  -8.7533    119.1476     32.8118   7.6399594664e+01   5.1380390932e+01    0.3754859    0.1604635 -39.50  0.001430223    2.312    0.568
       474  -7.8838     88.5271     34.4904   8.5920785156e+01   5.7401710256e+01    0.1378385    0.1246068 -24.84 0.0001644573    1.032    0.031
       475  -8.8709     48.5230     33.3613   9.9865141026e+01   6.3708465933e+01    0.2238025    0.1955537 -81.24 0.0006624255    1.483    0.326
       476  -8.7138     60.5226     32.6464   9.4957714631e+01   6.2279281444e+01    0.2375705    0.1897803 -53.24 0.0006657517    1.306    0.235
       477  -8.6983    225.8741     31.4072   5.6873497840e+01   2.4378021954e+01    0.2934296    0.2068614 -15.50  0.001109174    1.450    0.310
       478  -9.0049     72.1833     31.3726   9.0186914157e+01   6.0757076681e+01    0.2536081    0.1697263 -45.97 0.0006320174    1.437    0.304
       479  -7.6856    139.3320     31.6671   7.1119403859e+01   4.6777638461e+01    0.1546057    0.1145684 -63.16 0.0007052197    1.727    0.421
       480  -9.2226     12.9843     30.3202   1.1378213387e+02   6.7588349187e+01     0.322572    0.1648625 -73.19  0.001567449    2.130    0.531
       481  -7.6747     42.2250     29.9432   1.0115275549e+02   6.5097088642e+01    0.1643671   0.08632632 -50.17 0.0004630068    1.599    0.375
       482  -8.3060    101.6218     29.2268   7.9783484720e+01   5.5713389422e+01    0.2165819     0.164624 -43.81 0.0006406633    1.379    0.275
       483  -8.9272     81.3867     27.3757   8.5357551999e+01   5.9888732501e+01    0.2908562    0.2062068 -49.86 0.0006940711    1.578    0.366
       484  -8.7981      3.7686     27.9190   1.1719684612e+02   6.8613362372e+01    0.2028438    0.1329362 -79.25  0.001025247    1.575    0.365
       485  -8.8370     91.7889     26.0803   8.1439837511e+01   5.8167997256e+01    0.3487652     0.172294 -44.93  0.001318997    2.194    0.544
       486  -7.7272    145.6796     26.2673   6.7741585298e+01   4.5922174828e+01    0.1460275    0.1153137 -67.48 0.0001904032    1.560    0.359
       487  -7.9632    104.3914     23.1726   7.6466961337e+01   5.6043438845e+01    0.2003072     0.121622 -39.21 0.0005026957    1.654    0.395
       488  -8.0332     34.7651     23.2094   1.0177610968e+02   6.7179094313e+01    0.1756082    0.1268763  83.63  0.000938938    2.685    0.628
       489  -8.9760     63.4935     20.9358   8.8975988928e+01   6.3913375242e+01    0.2897708     0.191149 -47.25 0.0008866913    1.566    0.361
       490  -8.7910     48.2943     21.7020   9.5368873783e+01   6.5905503882e+01    0.2224183    0.1835565 -62.83 0.0006808065    1.530    0.346
       491  -7.8355    120.5473     21.0381   7.1326789528e+01   5.2733082898e+01    0.2058574    0.1076203 -48.19 0.0008072709    2.430    0.588
       492  -8.9851     73.9695     19.4074   8.4442540793e+01   6.2465370328e+01    0.2805938    0.1666875 -47.00 0.0009168377    1.866    0.464
       493  -8.1791     12.3046     20.6909   1.1114227816e+02   6.9561446559e+01    0.1025059   0.08236112 -87.97 0.0004160703    1.609    0.378
       494  -8.1203     87.9310     17.9548   7.9102533494e+01   6.0142034654e+01    0.2036299    0.1559314 -52.79 0.0005210452    1.632    0.387
       495  -8.0660     38.8567     18.3565   9.7997504908e+01   6.7634609945e+01    0.1728377    0.1307264 -44.50 0.0007346956    1.174    0.149
       496  -7.9672    112.8300     16.8805   7.1514153034e+01   5.5049606949e+01     0.187128    0.1624497 -45.78  0.000372957    1.296    0.228
       497  -9.3537    211.0542    246.6063   1.0492026524e+02   3.4125208943e-01    0.2150749    0.1612218 -59.82  0.001377093    2.567    0.610
       498  -8.3424     17.1711     14.1729   1.0644375306e+02   7.0467529973e+01    0.1438272    0.1238689 -64.06 0.0005163102    1.344    0.256
       499  -8.2056    191.7403    249.5859   1.0819504003e+02   2.8823017460e+00    0.1472015   0.07370561  48.35 0.0006691972    1.644    0.392
       500  -9.0560    175.7213    247.5107   1.1041094568e+02   5.4426774539e+00    0.2282739    0.1784638  83.49  0.001125984    1.978    0.495
       501  -8.0320      7.3304     15.6593   1.1186358297e+02   7.0860353110e+01    0.1033905   0.08104151  87.67  0.000705155    1.743    0.426
       502  -8.5809    156.3018    248.2924   1.1349075402e+02   8.1951865011e+00    0.1853094    0.1162219  64.86 0.0006087512    1.923    0.480
       503  -8.6454    132.3394    248.3174   1.1720001100e+02   1.1614416805e+01    0.2156975    0.1162661  66.16 0.0006749414    2.310    0.567
       504  -7.9601    113.2880    248.7720   1.2017445912e+02   1.4179277604e+01    0.1568394    0.0851725 -75.46  0.001041944    2.606    0.616
       505  -9.1999    103.8258    247.0261   1.2148950602e+02   1.5666406180e+01    0.3135518    0.1662119 -89.44  0.001965411    2.835    0.647
       506  -9.7860    248.6084    242.3508   9.8813704893e+01  -4.6715066754e+00    0.2303883    0.1813415 -20.60  0.001073516    1.669    0.401
       507 -11.1747    241.8604    242.7189   9.9844905189e+01  -3.7547303182e+00    0.2613762    0.2018536 -29.50  0.000611336    1.837    0.455
       508  -9.5329    246.9068    234.9840   9.8038704798e+01  -3.8472543018e+00    0.4981109    0.1481134  38.35  0.002098225    2.443    0.591
       509  -9.0750    246.4744    229.6024   9.7334074598e+01  -3.3416962133e+00     0.214183    0.1718232 -21.35 0.0007448678    1.611    0.379
       510  -8.6619    218.8718    247.4693   1.0385746481e+02  -8.6894952599e-01    0.2291945    0.1305063 -29.77  0.001627669    2.303    0.566
