#   1 NUMBER                 Running object number                                     
#   2 MAG_AUTO               Kron-like elliptical aperture magnitude                    [mag]
#   3 X_IMAGE                Object position along x                                    [pixel]
#   4 Y_IMAGE                Object position along y                                    [pixel]
#   5 X_WORLD                Barycenter position along world x axis                     [deg]
#   6 Y_WORLD                Barycenter position along world y axis                     [deg]
#   7 A_WORLD                Profile RMS along major axis (world units)                 [deg]
#   8 B_WORLD                Profile RMS along minor axis (world units)                 [deg]
#   9 THETA_WORLD            Position angle (CCW/world-x)                               [deg]
#  10 FWHM_WORLD             FWHM assuming a gaussian core                              [deg]
#  11 ELONGATION             A_IMAGE/B_IMAGE                                           
#  12 ELLIPTICITY            1 - B_IMAGE/A_IMAGE                                       
         1 -11.7262      3.0138     20.9415   7.6325054618e+01   7.0212827949e+01    0.2870664    0.2406571  88.61  0.001705607    1.785    0.440
         2 -10.5448      8.7011      9.1301   6.9223643186e+01   7.1826929843e+01    0.3397824    0.2114322  57.86  0.001646044    5.044    0.802
         3 -11.7641     14.2766     16.6222   6.9343509067e+01   7.0214934901e+01    0.5314193    0.1703382 -53.06  0.002072167    2.916    0.657
         4 -12.1829    125.3761     17.0151   2.9808997159e+01   5.1964376992e+01    0.2618318    0.2278473  57.42 0.0002279958    1.070    0.065
         5 -10.7628    207.9647     12.7864   1.5381881572e+01   3.1388837163e+01     0.222452    0.1881757 -51.03 0.0004217149    1.210    0.174
         6 -11.1118    203.3771     11.9797   1.5687852465e+01   3.2653734883e+01    0.2727282    0.2207805 -60.15 0.0003096711    1.187    0.157
         7 -11.0575     34.8563     12.2563   5.7790088322e+01   6.8958967204e+01    0.2282014     0.187068  20.99 0.0009081131    1.314    0.239
         8 -11.6790     29.7581      7.6282   5.8092649132e+01   7.0186367902e+01    0.5542563     0.306805  46.10  0.003074828    2.899    0.655
         9 -10.3743     16.2558      7.9989   6.4887645645e+01   7.1422410678e+01    0.1664463    0.1283397 -12.78 0.0003788364    1.105    0.095
        10 -12.9802     19.9849      2.4987   6.0531043696e+01   7.1896702864e+01      0.31207    0.1841203 -17.32  0.001479146    1.595    0.373
        11 -10.3633    184.9952     11.9595   1.7922568522e+01   3.7409629995e+01    0.2294874    0.1483066 -67.04 0.0005872638    1.648    0.393
        12 -10.3894    171.7205     11.9656   1.9753877757e+01   4.0864890155e+01    0.1879284    0.1741642 -65.90 0.0004563771    1.135    0.119
        13 -12.3775    125.7994     10.6217   2.7408830370e+01   5.2564128872e+01    0.3201029    0.2783043 -76.11 0.0001897139    1.329    0.247
        14 -10.5439    164.8452     10.9189   2.0461432219e+01   4.2761557526e+01    0.3052304    0.1932672 -72.66  0.001435359    1.869    0.465
        15  -9.7100    135.1327     10.8703   2.5589322048e+01   5.0283991469e+01    0.1916218    0.1461544  38.30 0.0003558546    1.308    0.235
        16  -9.5551    101.0076     10.9552   3.3455172993e+01   5.8132747560e+01     0.155604     0.130504  42.13            0    1.076    0.071
        17  -9.9342     97.1213     10.0885   3.4158789571e+01   5.9045953402e+01    0.2277796    0.1709901 -86.30  0.001217997    2.057    0.514
        18 -11.8392     55.3780      9.7075   4.7894485667e+01   6.6612555264e+01    0.3706878    0.2121024  27.83  0.002104173    1.748    0.428
        19  -9.2442     86.0217     10.0475   3.7354918637e+01   6.1287354857e+01    0.1484088    0.1251055  31.34 0.0003238194    1.062    0.058
        20  -9.4836     65.0000      9.9654   4.4349062380e+01   6.5072505163e+01     0.189394    0.0640002 -32.06 0.0005929375    2.913    0.657
        21 -10.0702     45.7077      9.9260   5.1963995146e+01   6.7949158178e+01     0.178443    0.1338143  -0.94 0.0005487606    1.195    0.163
        22  -9.9743     42.2299      9.3588   5.3204091453e+01   6.8479325656e+01    0.1945159    0.1294913  33.70 0.0001935379    1.566    0.361
        23  -9.7805     22.6909      9.3680   6.2273902041e+01   7.0644688822e+01    0.2219653     0.144025   0.10  0.001484428    1.554    0.357
        24 -10.2476     88.8964      7.0229   3.5219186220e+01   6.1052591673e+01    0.2250545    0.1662771 -15.21 0.0007385793    1.389    0.280
        25 -10.3768      3.6033      7.2104   7.1123215365e+01   7.2468053498e+01    0.2145667    0.1561958 -41.67  0.001660631    1.189    0.159
        26  -9.1622     69.7465      6.9701   4.1311666095e+01   6.4627800750e+01    0.1531589   0.09706139 -23.51 0.0008305279    1.554    0.357
        27 -10.4390    247.1183      5.9695   1.0109061193e+01   2.2635392473e+01    0.1928928    0.1498131 -72.90 0.0003632464    1.039    0.038
        28 -11.7254    194.0267      4.7723   1.4848468119e+01   3.5848963137e+01     0.254624    0.2323616  57.81 0.0002948339    1.231    0.187
        29 -11.1207    148.4883      2.4812   2.0369494766e+01   4.7790399579e+01    0.2529652    0.2429374  38.47 0.0008470946    1.146    0.127
        30  -9.6693    111.6892      5.9627   2.8817568246e+01   5.6308302032e+01    0.1745872     0.163651  15.94 0.0009677791    1.104    0.094
        31 -11.2499    151.5175      5.8675   2.0975801771e+01   4.6698505335e+01    0.2768355    0.2161719  81.20 0.0002536311    1.226    0.184
        32 -10.0500    104.6770      4.2363   2.9827110374e+01   5.8034244225e+01    0.2002502    0.1552884  61.22 0.0003519213    1.281    0.219
        33 -10.2041     47.5248      4.0066   4.8440807159e+01   6.8463587096e+01    0.2935885    0.1532878  36.37  0.001685244    1.865    0.464
        34 -11.1373    224.6392      3.0778   1.1336178965e+01   2.8317079831e+01    0.2980438    0.1728676  37.39  0.001344363    2.827    0.646
        35  -9.9516    173.5286      3.5448   1.7023005467e+01   4.1274268772e+01    0.1393571    0.1190604  83.32 8.080859e-05    1.030    0.029
        36 -10.6299    161.7849      2.1855   1.8239708636e+01   4.4434138386e+01    0.2493071    0.2069311  29.42  0.001444096    1.400    0.286
        37  -9.4743     38.8230      3.5665   5.2005068758e+01   6.9677268974e+01    0.1390802    0.1018165  39.36 0.0009011478    1.641    0.391
        38 -11.1338     12.2231      2.3926   6.4512614149e+01   7.2589744163e+01    0.3423946    0.1679652  40.26  0.001931941    3.194    0.687
        39 -10.1278    138.0663      2.0302   2.1988934499e+01   5.0431723808e+01    0.2073725     0.173999  53.97 0.0003754403    1.067    0.062
        40 -10.5653     29.7609      1.3266   5.5132430753e+01   7.1047777509e+01    0.2125924   0.09262292  36.09   0.00060949    2.448    0.592
        41 -10.6740     11.1338    127.8991   9.3024300197e+01   4.7538595319e+01    0.2888468    0.1393849 -75.31  0.001332281    1.636    0.389
        42 -10.3419    110.0164    250.5664   8.4595280566e+01   9.6054210031e+00    0.1776995   0.08987746  45.88 0.0003979832    1.520    0.342
        43 -10.6166     32.1846    247.8435   9.7581238364e+01   2.0889686175e+01    0.1933984    0.1276241  50.43 0.0006623745    1.386    0.279
        44 -12.8254     10.3445    244.4384   1.0084865061e+02   2.3923541350e+01    0.8387411    0.2355788 -71.53   0.00448342    3.278    0.695
        45 -11.5470      2.1247    248.3830   1.0225102679e+02   2.4094955396e+01    0.3676866    0.2088228  74.65  0.002836546    1.191    0.160
        46 -12.7594      4.8271    241.7491   1.0158738613e+02   2.4963980202e+01    0.5702102    0.3153311  81.40   0.00422817    1.327    0.246
        47 -11.5154     10.7486    121.0990   9.2407125584e+01   4.9082416652e+01    0.3318401    0.2613208 -50.93 0.0009342613    1.407    0.289
        48 -10.3688    247.6395    127.3246   3.7563623683e+01   4.4974211833e+00    0.1404756    0.1058277 -71.16            0    1.782    0.439
        49  -9.3798     30.5795    124.4270   8.7592194466e+01   4.6672089278e+01     0.122629   0.09988312 -77.01            0    1.041    0.039
        50  -9.7919    208.5097    123.4888   4.3444902765e+01   1.3599115033e+01    0.1466575     0.144866 -83.32 0.0005466571    1.007    0.007
        51  -9.6581     82.5181    118.0687   7.2223148469e+01   4.1640781386e+01    0.2072573     0.130231 -59.91 0.0003902391    1.491    0.329
        52 -11.8705     69.3449    116.4458   7.5601013724e+01   4.3989654632e+01     0.310696    0.2521274 -64.04 0.0005603909    1.123    0.110
        53 -10.3491     60.0250    114.9345   7.7963559423e+01   4.5598086069e+01     0.197181    0.1714795 -81.39            0    1.040    0.038
        54 -10.4409     40.3543    114.1147   8.3419324986e+01   4.8071198869e+01    0.2832038    0.1401729 -69.10  0.001307606    1.762    0.432
        55 -12.2136     23.3563    113.2795   8.8068675987e+01   4.9852973431e+01    0.2352844    0.1934231 -79.09 0.0002231369    1.023    0.022
        56 -11.6629      3.1860    112.5677   9.3479944611e+01   5.1486309019e+01    0.3759518    0.1919418  80.16   0.00152459    2.065    0.516
        57 -12.5233     14.3378    106.8322   8.9739795249e+01   5.2005242037e+01    0.5911916    0.2499228 -69.88  0.003043282    1.856    0.461
        58 -10.5502     56.1929    110.6683   7.8280065007e+01   4.7070342698e+01    0.1874305    0.1524405 -81.47 0.0005714969    1.151    0.131
        59  -9.6724     19.7933    107.1735   8.8237136736e+01   5.1518235481e+01    0.1572572    0.1159524 -53.75 0.0002908711    1.304    0.233
        60  -9.2482     39.7110    104.6457   8.2042410252e+01   5.0306750771e+01    0.1303117   0.08321939 -43.36 0.0007025801    1.675    0.403
        61 -11.0633      6.0006    103.7118   9.1702089614e+01   5.3259308323e+01    0.1753464    0.1380619  49.87 0.0007941841    1.460    0.315
        62 -10.3899    109.0021    102.9812   6.1388400591e+01   4.0411405822e+01    0.2193038    0.2106519 -63.59 0.0003158712    1.049    0.047
        63 -10.8304    247.5052    101.9336   3.1918421730e+01   8.6704884525e+00     0.220839    0.1285156 -37.17  0.001033565    1.592    0.372
        64 -10.2029     65.5215    100.5108   7.3481639759e+01   4.8196257496e+01    0.1349206    0.1211844 -65.97 0.0004056514    1.007    0.007
        65  -9.9104    217.9205     98.6292   3.5819060313e+01   1.5896204734e+01    0.2081925    0.1829503  64.51 0.0005176921    1.154    0.133
        66 -11.8800     17.9930     96.3417   8.7201802651e+01   5.4073719200e+01    0.4666736    0.2571175 -80.02  0.001441453    1.703    0.413
        67 -11.0680     21.0583     92.1599   8.5607845789e+01   5.4770480903e+01    0.2448388    0.1615974 -58.73 0.0004894907    1.248    0.199
        68 -10.1207     11.7206     98.3174   8.9356687843e+01   5.4077666698e+01     0.187963    0.1231554 -77.76 0.0004772765    1.272    0.214
        69 -10.7069     10.6848     93.9551   8.9055976098e+01   5.5106407426e+01     0.219383    0.1583951 -77.76 0.0003479933    1.160    0.138
        70 -10.4868      8.0011     90.7825   8.9419371229e+01   5.5969542913e+01    0.2561364    0.1347592 -72.55  0.001028214    1.531    0.347
        71 -10.3232     56.0992     96.9972   7.5614682762e+01   5.0214241183e+01    0.1950349    0.1695947 -68.21 0.0002998615    1.035    0.034
        72  -9.7797     93.1351     94.0497   6.3666761800e+01   4.5341450153e+01    0.3784392    0.2432456  88.54 0.0008284269    2.707    0.631
        73  -9.8450     81.2747     94.5935   6.7348018111e+01   4.7209589112e+01    0.2958397    0.1592358  53.06    0.0012711    2.236    0.553
        74 -10.9381     43.8742     94.1292   7.8834016517e+01   5.2258872735e+01    0.3014364    0.1814358 -39.38  0.001202747    1.837    0.456
        75 -11.3398    125.2943     92.9833   5.4343970883e+01   3.9220396577e+01    0.2593682     0.216539  50.28 0.0002284348    1.191    0.160
        76 -10.7470    105.8981     91.9649   5.9415025179e+01   4.3433449022e+01    0.2661569    0.2255424  70.39 0.0003091694    1.279    0.218
        77 -11.5538     66.6873     91.6410   7.1133013107e+01   5.0038650927e+01    0.2390691    0.2133358 -66.77 0.0002548891    1.052    0.049
        78 -11.4711     58.2027     91.3375   7.3732621271e+01   5.1226919535e+01    0.3081598    0.2292477 -40.96  0.001107689    1.365    0.267
        79 -12.2449    159.3908     89.4198   4.4960317024e+01   3.2003881834e+01    0.4445693    0.3182548  39.11 3.975821e-05    1.531    0.347
        80  -9.1223    180.3767     90.7470   4.0805277084e+01   2.6534577865e+01    0.1610739    0.1194463 -89.15 0.0006961265    1.650    0.394
        81  -9.6009    142.3046     91.9699   4.9707565407e+01   3.5591636815e+01    0.2087973    0.1967843 -52.67  0.000302743    1.082    0.076
        82 -10.3156     95.9841     87.5029   6.1104918363e+01   4.6259800374e+01    0.2461483    0.1906691 -66.91 0.0003741537    1.393    0.282
        83  -9.7732     31.2285     87.1107   8.1495937644e+01   5.5050571466e+01    0.1623641       0.1299 -68.37 0.0003151548    1.083    0.077
        84 -13.6219     65.6104     81.8413   6.9090142424e+01   5.2344582972e+01    0.4220285    0.3833192  77.03 0.0007382407    1.226    0.184
        85 -10.4748     17.3057     85.0145   8.5607541577e+01   5.6615747944e+01    0.2189189    0.1344645 -70.58 0.0003998839    1.365    0.268
        86 -10.1538     18.3095     80.0447   8.4412996019e+01   5.7623469623e+01    0.2572001    0.0705607 -60.02  0.001106527    2.558    0.609
        87 -11.3855      5.1367     75.4420   8.8002269151e+01   5.9435860725e+01    0.3157569    0.1459769 -74.30  0.001501487    1.908    0.476
        88 -10.6851      7.3709     83.7069   8.8575042436e+01   5.7541530770e+01    0.3014778    0.1673216 -55.54  0.001125637    1.452    0.311
        89 -10.6656      8.5665     79.4221   8.7516028071e+01   5.8392019480e+01    0.2793498     0.148942  62.92  0.001402964    2.678    0.627
        90  -9.4060    123.8444     81.2368   5.1434275961e+01   4.1962965895e+01    0.3792916    0.2828335  -8.71  0.001290914    1.930    0.482
        91 -10.6160      3.6340     80.9927   8.9358740297e+01   5.8335386339e+01     0.263449    0.1188002 -54.13  0.001410536    1.750    0.429
        92 -10.5699     48.0030     79.0088   7.4229862448e+01   5.5152965791e+01    0.2190885    0.1616757 -47.31 0.0003669656    1.213    0.175
        93  -9.7368     51.9831     75.4862   7.2027445120e+01   5.5454098488e+01    0.2780563    0.2305766  16.91  0.001468175    1.384    0.278
        94 -10.1491     87.3611     78.3694   6.1209637212e+01   4.9723397358e+01    0.2547775     0.168963  42.97 0.0007435125    1.581    0.367
        95 -10.3153    177.0578     76.8178   3.7700557431e+01   2.9944719259e+01    0.2512916    0.2093767 -85.89  0.001230462    1.275    0.216
        96  -9.9370     11.4918     76.9218   8.6130220300e+01   5.8749219217e+01    0.1726569   0.09183686 -65.98 0.0003400328    1.488    0.328
        97 -10.0008     42.8355     76.8053   7.5465234092e+01   5.6186293651e+01    0.1577245    0.1385857  88.18 0.0002814785    1.276    0.216
        98 -10.5373     17.8182     74.3585   8.3523696499e+01   5.8878920204e+01    0.2870318    0.1433612 -80.66   0.00141267    2.406    0.584
        99 -10.2985    116.8276     72.0318   5.0620984893e+01   4.5307298148e+01     0.386107    0.2529213  16.18 0.0008506201    2.516    0.603
       100  -9.8483     35.2152     73.3782   7.7302900911e+01   5.7673132806e+01    0.1542487    0.1116433  40.07 0.0004824011    1.621    0.383
       101  -9.6903    105.7444     71.9404   5.3754728290e+01   4.7619319775e+01    0.1882111     0.182993  87.59 0.0004189016    1.069    0.065
       102 -13.2678     80.8185     67.3597   6.0084285361e+01   5.3077351117e+01    0.4785584    0.3892061 -12.25 0.0007825473    1.398    0.285
       103  -8.9063    142.4950     71.5123   4.3794994300e+01   3.9548017678e+01    0.1526329     0.147346  47.76 0.0005623141    1.055    0.052
       104  -9.0510    157.6706     70.2810   3.9919765158e+01   3.6038034962e+01    0.1576543    0.1193059 -83.21 0.0002736831    1.604    0.376
       105 -10.0686     45.3807     68.9370   7.2662306663e+01   5.7586571689e+01    0.2679549    0.1558603 -60.07  0.001275594    1.601    0.375
       106  -9.4021      1.3081     70.3268   8.8457862608e+01   6.0712389305e+01    0.1180237   0.06236955 -46.23 0.0004876119    1.655    0.396
       107  -9.7456     12.6656     69.7066   8.4420530853e+01   6.0206140142e+01      0.11909   0.06907601 -40.76  0.000365759    1.640    0.390
       108 -11.8655    211.9962     67.3883   2.8964783014e+01   2.2668877851e+01    0.2652244     0.249627 -64.88 0.0003376607    1.061    0.057
       109  -9.6726     58.5668     67.2779   6.7584511963e+01   5.6362672038e+01    0.2439039    0.1176321 -55.18  0.001123609    1.960    0.490
       110 -11.7976     11.7420     59.7415   8.2753075697e+01   6.2331409269e+01    0.2927178    0.2338191 -86.15 0.0002754001    1.403    0.287
       111 -11.3650     17.0958     44.6923   7.7053913051e+01   6.4978128812e+01    0.7597926     0.266114 -56.27  0.003748421    2.223    0.550
       112 -13.6042     20.9524     58.4060   7.8998709708e+01   6.1983408755e+01    0.4442073    0.2204458 -53.18 0.0008380614    1.576    0.365
       113  -9.0667     62.2912     66.3379   6.6024230572e+01   5.6061993687e+01    0.1345372   0.09349694 -25.13 0.0007024307    1.643    0.391
       114  -9.7188     68.3691     64.7792   6.3474657966e+01   5.5523584500e+01     0.172723    0.1629586 -62.65 0.0007321037    1.142    0.124
       115 -10.8926    128.6312     63.5205   4.4817905313e+01   4.4279799077e+01    0.2793698    0.2496762  62.80 0.0007840107    1.122    0.109
       116 -10.5583     51.1569     62.3740   6.8832543941e+01   5.8281960767e+01    0.4780738    0.2523859 -71.28  0.001971569    3.226    0.690
       117 -11.5510      5.4787     62.2771   8.5564915986e+01   6.2169305869e+01    0.3189029    0.2301071  70.85  0.002147795    1.777    0.437
       118  -9.7803    119.9489     62.4908   4.6795488277e+01   4.6424748241e+01    0.1996204    0.1895511 -32.58 -2.390389e-05    1.072    0.067
       119  -9.5369    153.9236     60.8457   3.7939030585e+01   3.8634474468e+01    0.1966012    0.1698995 -84.38 0.0003293604    1.231    0.188
       120  -9.3116     98.6314     60.8511   5.2411055077e+01   5.1149403482e+01    0.1948922    0.1283569 -51.97 0.0005314804    1.639    0.390
       121  -9.9149     38.5940     59.6326   7.2681657463e+01   6.0207942213e+01    0.2113009    0.1472836  29.20 0.0007567018    1.634    0.388
       122 -11.5690     58.7758     58.8989   6.5073814673e+01   5.8022394428e+01    0.2539199    0.1981984  28.22 0.0005113981    1.391    0.281
       123  -9.7590    109.8734     57.9381   4.8138070046e+01   4.9416573908e+01    0.2079847    0.1854422  15.44 0.0002865312    1.183    0.155
       124 -10.2121    229.2149     56.4147   2.3731570303e+01   2.0146266233e+01    0.2199357    0.1875526 -35.97 0.0006453102    1.246    0.198
       125 -10.3103     72.2151     57.0435   5.9762353036e+01   5.6462650102e+01    0.3090065    0.1767117  56.84  0.001119421    2.666    0.625
       126  -9.5936    170.8679     63.1360   3.5068323835e+01   3.3924886570e+01    0.2043527    0.1796518  30.97 0.0004091905    1.299    0.230
       127  -9.8704     32.8280     55.8510   7.3836549466e+01   6.1519396899e+01    0.2924644    0.1471246 -12.69  0.001214624    3.831    0.739
       128 -13.4514    114.7872     53.3193   4.5226162908e+01   4.9177386024e+01    0.4212631    0.3519109  37.92 0.0007266901    1.186    0.157
       129 -12.5737    106.0941     49.9305   4.6549992390e+01   5.1601016329e+01    0.6605152    0.3910117 -57.67 0.0004768567    2.368    0.578
       130 -10.3080     99.3440     53.5976   4.9802009062e+01   5.2329470875e+01    0.3815154    0.2282763 -54.55  0.001712539    2.054    0.513
       131 -10.2132     75.1245     47.7561   5.5660965380e+01   5.7714905016e+01    0.2238558    0.1974492  66.95 0.0005014238    1.447    0.309
       132 -12.0129     66.4222     52.8722   6.0441244267e+01   5.8120278422e+01    0.4226637     0.259778  32.57  0.001315356    1.742    0.426
       133 -10.5431     61.9531     49.9520   6.1090862915e+01   5.9303349067e+01    0.2092157    0.1676825   5.54 0.0003729602    1.339    0.253
       134  -9.4718      7.3042     55.6440   8.3553763678e+01   6.3422424490e+01    0.1067332    0.0793157  80.78 0.0007040034    1.716    0.417
       135 -11.8566     86.1806     53.9150   5.4049433548e+01   5.4733690400e+01    0.3565525    0.2492061  29.08 0.0002715065    1.544    0.352
       136  -9.3930    130.7065     57.2895   4.2311023301e+01   4.4897772363e+01    0.1456225     0.116222 -80.37 0.0002409093    1.548    0.354
       137  -9.8650    148.4508     52.1517   3.6471979769e+01   4.1450957929e+01    0.1996345    0.1381191 -50.90 0.0004135915    1.565    0.361
       138 -10.5782    137.6136     50.6361   3.8476110065e+01   4.4363704425e+01    0.4365163    0.2581185  25.60  0.001665161    2.667    0.625
       139  -9.6369      9.7667     52.5176   8.1922247216e+01   6.3910078165e+01    0.1200545    0.1048429  41.19 0.0002452552    1.458    0.314
       140 -10.3481     54.2708     48.3830   6.3421996282e+01   6.0622274847e+01    0.2812996     0.224132 -79.87 0.0006222026    1.825    0.452
       141  -9.5293    155.1129     46.8737   3.3395283309e+01   4.0599759807e+01    0.2719296     0.174708  68.20   0.00121303    1.592    0.372
       142 -10.6076     67.1854     45.1250   5.7550433809e+01   5.9420539487e+01    0.2624575    0.1954679  -4.90 0.0008825137    1.520    0.342
       143 -10.1362     70.3299     42.6883   5.5562355508e+01   5.9364806686e+01    0.1823038     0.155341 -89.14 0.0006548697    1.725    0.420
       144  -9.7011     28.6729     45.5395   7.2570123427e+01   6.3906870762e+01    0.3292706    0.1858567  19.33   0.00186238    2.057    0.514
       145 -10.6358     24.3509     44.4077   7.4000463371e+01   6.4486400015e+01    0.4146928     0.214561  -8.74  0.001541435    2.956    0.662
       146  -9.6521     79.0400     45.4782   5.3521985100e+01   5.7466148368e+01    0.1844672    0.1277688  40.48 0.0004309439    1.485    0.327
       147 -10.4603     80.3697     51.6244   5.5198235463e+01   5.6154056101e+01      0.36753    0.2219948  60.70 0.0008779302    2.577    0.612
       148 -10.4768     38.1855     41.5818   6.7485029858e+01   6.3741792736e+01    0.2895696    0.2212804  55.35  0.001812034    1.896    0.472
       149 -13.0289    141.4864     40.5733   3.4309589122e+01   4.4970418786e+01    0.3021449    0.2690139  57.58 0.0005076654    1.052    0.050
       150 -10.4386    116.8035     41.1145   4.0511094876e+01   5.0716131529e+01    0.2532543    0.1914748  45.77 0.0002517716    1.260    0.206
       151 -10.9698    110.2970     40.5624   4.2088536758e+01   5.2229293394e+01    0.2956684    0.2408905  85.47 0.0008849077    1.592    0.372
       152  -9.0796    214.6559     40.7132   2.1727736850e+01   2.6074168092e+01    0.1414636    0.1078233  39.55 0.0007020817    1.647    0.393
       153  -9.5436    170.5491     40.4652   2.8458117012e+01   3.7564046986e+01    0.1491603    0.1367847  80.37 -3.235321e-05    1.009    0.009
       154 -10.8982     17.2521     63.3749   8.1496716907e+01   6.1226781823e+01    0.2219563    0.2128001  68.05 0.0006992691    1.271    0.213
       155 -12.2260    121.4994     37.3438   3.7971732767e+01   5.0217703987e+01    0.3764889    0.3074125 -32.13 0.0006281738    1.284    0.221
       156  -9.9961    117.1172     32.8561   3.7508213733e+01   5.1859406275e+01    0.2524607    0.1809086  52.44  0.001309148    1.320    0.242
       157 -10.6961     81.2687     38.8268   5.0365553028e+01   5.8197269267e+01    0.2549973    0.2119065  26.41 0.0005223182    1.181    0.153
       158 -10.4038     51.4371     39.0188   6.1323104696e+01   6.2676802241e+01    0.2049549    0.1703822  32.47 0.0005729795    1.344    0.256
       159  -9.6325    191.7512     38.3569   2.4343223973e+01   3.2313067049e+01    0.1922596    0.1255653  58.62 0.0001473979    1.454    0.312
       160 -10.6616     82.3260     35.3446   4.8712039570e+01   5.8565064153e+01      0.38605    0.2249137 -33.52  0.001951119    1.696    0.410
       161 -10.7190    131.8917     36.9993   3.5310995662e+01   4.7827407009e+01    0.2065113    0.1974059  42.74 0.0003153294    1.029    0.028
       162 -10.7041    177.3096     35.9632   2.5959740092e+01   3.6430245505e+01    0.2259548    0.1939406  76.09 0.0004134476    1.067    0.063
       163  -9.9062    102.3560     35.7447   4.2611287186e+01   5.4638895733e+01    0.2898119    0.1773093  66.40  0.001069872    2.253    0.556
       164 -12.5361    144.4774     31.1313   3.0562035208e+01   4.5551451436e+01    0.3779267    0.3296869 -25.41 0.0004760685    1.258    0.205
       165 -11.4198     45.2519     32.3295   6.1380552530e+01   6.4590295329e+01    0.2444414    0.1789454 -39.32 0.0005491333    1.234    0.189
       166 -11.2930    184.0620     40.2469   2.6084193519e+01   3.4057804564e+01    0.5595295    0.3093378  75.03  0.002333144    1.922    0.480
       167  -9.4587    213.2247     32.0066   1.9683864440e+01   2.7640343595e+01    0.1760578    0.1140823 -35.85 0.0003974556    1.591    0.371
       168  -9.0858     55.3234     32.7354   5.7501455130e+01   6.3236333327e+01    0.1069074   0.09865952  80.06 0.0002198805    1.561    0.359
       169 -10.0860     89.0677     31.5045   4.5058728083e+01   5.7906657539e+01    0.1913963    0.1243898  44.20 0.0004770821    1.500    0.334
       170  -9.1303     23.6980     31.3577   7.0222187130e+01   6.6947527585e+01     0.102178   0.08786735 -86.95 6.966871e-05    1.714    0.417
       171 -12.5087     11.0551     29.8176   7.5369565029e+01   6.8159766492e+01    0.2268983    0.2105879  -6.64  0.001850332    1.274    0.215
       172 -10.0162      1.4140     30.9400   8.0038739187e+01   6.8503719020e+01    0.1604725   0.08293404 -57.92   0.00035335    1.548    0.354
       173 -11.1656    135.6668     29.0479   3.1744900640e+01   4.8007314548e+01    0.2462117    0.2068291  61.07  0.000289266    1.116    0.104
       174  -9.2151    131.7419     26.3199   3.1676572691e+01   4.9314040125e+01    0.2102784    0.1717541  69.75 0.0007110794    1.232    0.188
       175  -9.8883    226.9890     27.7422   1.7007115886e+01   2.4760842643e+01    0.2771025    0.1624129 -35.91  0.001294151    1.714    0.417
       176  -9.7142     28.2092     33.6461   6.9026170171e+01   6.6147086634e+01    0.1578818    0.1002538 -31.68 0.0005653832    1.396    0.284
       177 -11.8955     90.9441     26.5354   4.2549233087e+01   5.8256819126e+01    0.2768055    0.2312203 -41.01 0.0003329441    1.332    0.249
       178 -11.0967     67.6528     27.0007   5.0592875265e+01   6.2319058923e+01    0.2928452    0.2397063 -11.28  0.001275014    1.125    0.111
       179 -10.1021    221.1065     26.6112   1.7387128375e+01   2.6367314880e+01    0.2343278    0.1666517 -51.07 0.0005915915    1.322    0.243
       180  -9.7521     80.9657     26.9019   4.5900477027e+01   6.0074781728e+01    0.1864774    0.1600001 -72.30 0.0008734887    1.673    0.402
       181 -10.5358    101.5218     22.3335   3.7792655659e+01   5.6674177626e+01    0.2765496    0.2418147 -31.73  0.001683564    1.230    0.187
       182  -9.6261     45.2896     25.9879   5.8946700571e+01   6.5630563344e+01      0.16266    0.1305951 -25.16  0.000352329    1.072    0.067
       183 -10.1796      2.4925     26.4859   7.8280394956e+01   6.9259074609e+01    0.1447762    0.1266675 -83.60 0.0009966261    1.523    0.343
       184 -12.2448     19.3796    248.0845   9.9610649555e+01   2.2315134601e+01    0.5339488    0.1910536  42.33  0.002672902    2.341    0.573
       185  -9.1242      7.6902     20.3658   7.3881292701e+01   7.0038025911e+01    0.1127578   0.08483809 -34.94  0.000710293    1.013    0.013
       186 -10.6044     59.9056     24.1966   5.2364616898e+01   6.3928880624e+01    0.2242904    0.1573394 -25.21 0.0006393708    1.325    0.245
       187  -9.5795     57.1277     20.8368   5.2055886207e+01   6.4832072841e+01    0.1680165    0.1438757 -10.96 0.0005127428    1.043    0.041
       188 -10.0697     51.3575     24.1404   5.5715863006e+01   6.5142625923e+01    0.2378082     0.178018 -57.56  0.001435202    1.887    0.470
       189 -10.0487     84.1986     22.8337   4.3213059864e+01   6.0049253425e+01    0.2611033    0.1648379 -41.63  0.001384855    1.756    0.431
       190 -10.1976     33.2288     24.2000   6.3431460299e+01   6.7282081580e+01    0.1806625    0.1523769  21.63 0.0002808417    1.338    0.253
       191  -9.6262     31.4710     21.0275   6.2980299987e+01   6.7977615426e+01    0.1668449   0.09499037 -40.99 0.0004827642    1.509    0.337
       192 -10.0601    210.8795     21.8893   1.7379039175e+01   2.9549327922e+01    0.1984783    0.1452371 -70.13 0.0004202811    1.294    0.227
       193  -8.8335     26.3159     22.2992   6.5812673616e+01   6.8271086219e+01    0.1166039   0.07124063 -21.19 0.0004424832    1.612    0.380
       194  -9.4773    224.3305    247.3022   6.3906653916e+01  -8.5419634311e+00    0.1181902   0.07326479  17.84  0.000439229    1.650    0.394
       195 -11.9010     17.8906     20.2717   6.8971733864e+01   6.9331266755e+01    0.3501388    0.2498911  13.45 0.0005341237    1.497    0.332
       196 -10.1995    131.3840    247.0554   8.0415521560e+01   6.7265563896e+00    0.1607888    0.1336418  63.38 0.0006198346    1.138    0.121
       197  -9.5883    232.8217     20.8094   1.4740663704e+01   2.4226338922e+01    0.1894058    0.1329121 -70.59 0.0002433567    1.295    0.228
       198 -10.5542    124.4908     20.5781   3.1291443741e+01   5.1755763676e+01    0.2244931    0.2132766  57.59 5.969255e-05    1.065    0.061
       199  -9.9133    115.8760    246.8159   8.3183214316e+01   9.2823358347e+00      0.16887    0.1423315  49.96 0.0005839302    1.240    0.194
       200 -10.8106     43.0457     19.9532   5.7458545691e+01   6.6848687785e+01    0.2862398    0.2201396  60.77  0.001747893    2.281    0.562
       201  -9.9111    163.4841     19.9673   2.3456038112e+01   4.2095461566e+01     0.193885    0.1429095 -30.53 0.0004292142    1.502    0.334
       202 -11.0702     70.6298     18.9401   4.6209126484e+01   6.2981286403e+01    0.2733152    0.1970682   5.83 0.0003599188    1.447    0.309
       203  -9.4486     62.3499     19.7187   4.9575335729e+01   6.4209237829e+01    0.1082039   0.09955642  88.24 0.0004444846    1.648    0.393
       204 -10.5402    224.5047     18.0001   1.4913429740e+01   2.6610943293e+01    0.1921788    0.1294327 -36.54 0.0005424881    1.535    0.349
       205 -10.5171    204.4278     18.2067   1.7189706554e+01   3.1651765515e+01    0.1995119    0.1154971 -47.18 0.0009011452    1.691    0.408
       206 -10.8375    139.8443     18.0077   2.7110806114e+01   4.8338329659e+01    0.2423216    0.1790667  54.36 0.0002498083    1.215    0.177
       207  -9.8880    134.8820     18.1531   2.8167048153e+01   4.9544113557e+01    0.1969872    0.1773802  86.67 0.0003192014    1.171    0.146
       208 -10.5601    238.7569     19.6243   1.3888420715e+01   2.2950018684e+01    0.2164418    0.1889221  74.09 0.0008879419    1.234    0.190
       209  -9.1060     54.9953     17.0497   5.1292300786e+01   6.5682554316e+01    0.1402176    0.1178229  -4.74 0.0009519095    1.002    0.002
       210 -10.6931    215.4413     16.1332   1.5410590533e+01   2.9099633424e+01    0.2270349    0.1625065 -74.17 0.0005258011    1.297    0.229
       211 -10.3101    159.8802     15.9696   2.2811343263e+01   4.3489488315e+01    0.2110402    0.1901873  63.54  0.000412379    1.054    0.051
       212  -9.9610     60.4720     15.5266   4.8496495231e+01   6.5076552520e+01    0.1823401    0.1669165 -73.79 0.0006435075    1.672    0.402
       213  -9.4105    170.5229    246.5206   7.3273466137e+01   2.7100209330e-01    0.1228366   0.09476671  39.14 0.0008085993    1.081    0.075
       214 -10.4139     52.4655    244.5769   9.4066420142e+01   1.8943382445e+01    0.1954368    0.1558604  65.84  0.001002151    1.246    0.197
       215  -9.8283    147.4612    243.5124   7.7087022590e+01   4.5959218122e+00     0.124151   0.09598542  48.99 0.0002147347    1.017    0.016
       216  -9.6543    230.1745    247.2289   6.2903253324e+01  -9.4212557758e+00    0.1456306     0.114526  39.56 0.0004737767    1.293    0.227
       217 -10.3325    188.6260    246.6303   7.0044442491e+01  -2.7582406508e+00    0.2829092    0.1640602 -38.49  0.001663904    2.218    0.549
       218  -9.0693    202.4940    241.5022   6.6860400047e+01  -4.3746453843e+00    0.1216145   0.09471015  32.71 -0.0001680707    1.021    0.021
       219  -9.3951     59.0165    235.9942   9.2350632469e+01   1.9607814789e+01     0.137786   0.09850492  68.95 0.0003371727    1.024    0.023
       220  -9.4934    204.4136    235.5218   6.5641407728e+01  -3.9159487884e+00    0.1211934   0.09730758  31.71 3.689986e-05    1.016    0.016
       221 -10.0475    153.2308     12.4479   2.2810087095e+01   4.5583787281e+01    0.1859353    0.1254835  79.17  0.000281363    1.481    0.325
       222 -10.1054    174.2362    234.9794   7.1055563855e+01   1.2915277553e+00    0.1352616    0.1074322 -47.32 0.0004334517    1.586    0.369
       223  -9.2846    238.9931    234.2612   5.9421900508e+01  -9.2789753671e+00    0.1463155   0.08290127  36.98 0.0005779314    1.464    0.317
       224 -10.1086     32.3543    233.1404   9.6739395875e+01   2.3486061131e+01    0.1640527    0.1181845  57.59 0.0003843654    1.244    0.196
       225 -10.4312     56.5810    229.0525   9.2267243488e+01   2.1207746307e+01    0.2752539    0.1759531 -69.81  0.001805538    1.698    0.411
       226 -10.0195    246.1900    230.3895   5.7591484062e+01  -9.9184603813e+00    0.2145522    0.1332119  35.84 0.0006526405    1.371    0.271
       227  -9.5292    242.6793    230.3039   5.8167181659e+01  -9.3789365410e+00    0.1535039    0.1072239  42.35 0.0003248814    1.446    0.308
       228  -9.8535    230.9948     10.5271   1.2507410186e+01   2.5919795322e+01    0.1935214    0.1168768  77.13 0.0003657267    1.501    0.334
       229 -10.0614    140.0903    228.0307   7.6554836529e+01   8.3363755935e+00    0.2151776     0.134287  66.96  0.001145142    1.794    0.442
       230 -10.8709      1.5926    227.1419   1.0149806525e+02   2.7893820033e+01    0.1702972       0.1342 -79.34 0.0005199037    1.551    0.355
       231 -11.5734      3.1156    220.7059   1.0097230768e+02   2.8930994836e+01    0.4201885    0.1260417  74.54  0.001904577    3.450    0.710
       232  -9.8141    223.4566    226.4883   6.0863373763e+01  -5.8844084403e+00    0.1219641   0.09832847  25.09 6.537977e-05    1.008    0.008
       233 -10.6653      7.8654    221.6325   1.0022914022e+02   2.8288302607e+01    0.2089856   0.08982696  88.01  0.001249935    1.913    0.477
       234  -9.3753    130.4916    221.4856   7.7577328600e+01   1.1133394323e+01    0.1316714    0.1046762  56.94 7.126718e-05    1.014    0.014
       235 -11.7292      3.2916    232.8924   1.0146701064e+02   2.6686136701e+01    0.2783394    0.2211797  53.30  0.001018235    1.505    0.335
       236  -9.9084     85.8279    215.0860   8.5570021453e+01   1.9686360846e+01    0.1817874    0.1315551  69.80    0.0011334    1.135    0.119
       237  -9.1868    205.4979    211.4250   6.1644652482e+01  -7.5206792930e-01     0.130424     0.107409  28.99 0.0001117535    1.056    0.053
       238 -11.7174      3.6619    210.2205   1.0039415728e+02   3.0860817542e+01    0.3757915     0.113014 -87.35  0.001789003    3.034    0.670
       239 -10.4338     39.3242    207.3075   9.3805086705e+01   2.7601390106e+01    0.2144748    0.1442363  70.18 0.0004606831    1.126    0.112
       240  -9.9135    230.3043    209.6473   5.6853176275e+01  -4.8044282333e+00    0.1122103   0.09977966  81.29 0.0007040775    1.708    0.414
       241  -9.3098     21.8198    180.1699   9.5189179880e+01   3.5143838689e+01    0.2325475   0.05236502  39.73 0.0009981475    3.497    0.714
       242  -9.2056    229.4895    165.5144   4.8725320620e+01   1.8827474827e+00    0.1356002    0.1240113  10.77 7.248324e-05    1.019    0.019
       243 -10.4558     15.8446    163.0950   9.5110985818e+01   3.9380479472e+01    0.1501698    0.1160001 -71.47 0.0004288203    1.309    0.236
       244 -10.0690     10.5047    161.4834   9.6127898485e+01   4.0204524218e+01    0.1154243   0.08695619  88.25 -8.211328e-05    1.036    0.035
       245 -10.2531     22.6543    149.6947   9.2413381407e+01   4.1697816898e+01    0.1134505   0.08142093 -50.22 0.0007041867    1.693    0.409
       246 -10.4406     28.9225    139.5475   8.9856448517e+01   4.3384230905e+01    0.3308686    0.1344614 -69.55 0.0006640708    2.009    0.502
       247  -9.2702    235.6796    138.3373   4.1931299938e+01   5.1087222208e+00    0.1400344    0.1095067 -71.85 0.0007049962    1.709    0.415
       248 -10.1250     96.0111    133.9109   7.1723000328e+01   3.5711772631e+01    0.2800249     0.190749 -61.05 0.0008140327    1.416    0.294
       249  -9.8334     21.8435    130.8901   9.0646124176e+01   4.5995903170e+01    0.1716085    0.1174523  79.53 0.0004766794    1.346    0.257
       250  -9.3469    109.4902     12.5669   3.1899089113e+01   5.6111484547e+01    0.1298698    0.1205646  50.66 0.0001568595    1.094    0.086
