#   1 NUMBER                 Running object number                                     
#   2 MAG_AUTO               Kron-like elliptical aperture magnitude                    [mag]
#   3 X_IMAGE                Object position along x                                    [pixel]
#   4 Y_IMAGE                Object position along y                                    [pixel]
#   5 X_WORLD                Barycenter position along world x axis                     [deg]
#   6 Y_WORLD                Barycenter position along world y axis                     [deg]
#   7 A_WORLD                Profile RMS along major axis (world units)                 [deg]
#   8 B_WORLD                Profile RMS along minor axis (world units)                 [deg]
#   9 THETA_WORLD            Position angle (CCW/world-x)                               [deg]
#  10 FWHM_WORLD             FWHM assuming a gaussian core                              [deg]
#  11 ELONGATION             A_IMAGE/B_IMAGE                                           
#  12 ELLIPTICITY            1 - B_IMAGE/A_IMAGE                                       
         1 -14.6692    137.1381     66.3217   5.4682997450e+01   4.1388222300e+01     4.075218     2.866521  24.93   0.01833775    1.832    0.454
         2 -14.7785    176.9562    171.6242   7.2155938478e+01   1.3458020774e+01     3.126143     2.622993 -76.60   0.01797932    1.658    0.397
         3 -15.3849    154.0585    103.3507   6.1654670435e+01   3.0651267030e+01      4.24396     2.925396 -21.48   0.01906331    1.772    0.436
         4 -12.6173    107.6747     51.7807   5.7096968744e+01   5.0678830752e+01     1.363199    0.6366793 -51.30  0.004987151    2.782    0.641
         5 -15.5226    182.5862    135.9254   6.3682246670e+01   1.8546047147e+01     5.168824     2.365156 -34.04    0.0207705    2.303    0.566
         6 -10.4595     12.2357     11.9540   7.8508910500e+01   7.3191406495e+01     0.188767    0.1530484  -1.22  0.000568587    1.215    0.177
         7  -9.3634     91.0442      8.7699   4.3827807890e+01   6.0324037190e+01    0.1758233    0.1058229  59.31 0.0005240113    1.625    0.385
         8  -8.0571    130.3710    247.2911   9.2113615821e+01   9.0151618157e+00    0.1096026    0.0781081  16.42 0.0007024178    1.721    0.419
         9  -8.7006    141.4713    250.0375   9.0436110958e+01   7.0793252610e+00     0.127065    0.1121231 -55.40 0.0003372108    1.472    0.321
        10  -8.2171    132.6806    250.7575   9.2068358682e+01   8.2067627477e+00    0.1041261   0.07377321  22.36  0.000213392    1.519    0.342
        11  -9.0815     89.0210    250.1859   9.9785960508e+01   1.4182138862e+01    0.1511801    0.1237495  38.38 0.0004198813    1.246    0.197
        12  -8.8751     75.8934    250.4958   1.0213614198e+02   1.5802195808e+01    0.1519925   0.08369568  41.02 0.0003688894    1.434    0.303
        13  -8.5540     67.6843    249.7105   1.0352637575e+02   1.6937282954e+01    0.1527376   0.09320239  57.29 0.0005152959    1.308    0.235
        14  -8.8822     70.9834    248.5026   1.0285855553e+02   1.6725263120e+01    0.1475549    0.1061523  48.64 0.0003289725    1.091    0.084
        15  -8.6602     24.6101    250.4993   1.1097385692e+02   2.1647146785e+01    0.1208449   0.08432278  36.70 0.0001317292    1.518    0.341
        16  -9.3165     21.7113    248.1365   1.1135657170e+02   2.2328626414e+01    0.1459982   0.09809061  61.32 0.0004424929    1.047    0.045
        17  -8.1888     15.2543    250.6943   1.1253188766e+02   2.2553740511e+01    0.1019399   0.04995934  62.10 0.0002425832    1.511    0.338
        18 -10.4760     93.5485    246.2643   9.8645135822e+01   1.4196224819e+01      0.39605    0.1969862  42.24  0.001579433    1.542    0.351
        19  -9.6616     81.8108    246.2403   1.0075582257e+02   1.5724960308e+01    0.1647407    0.1545817  58.91 0.0004202444    1.293    0.227
        20 -10.0543     71.7287    242.8985   1.0231281729e+02   1.7535198531e+01    0.1978582    0.1411733  45.98 0.0004367695    1.148    0.129
        21  -9.3068     75.4922    245.0400   1.0179723636e+02   1.6717546239e+01    0.1511473    0.1320876  50.62 0.0004585254    1.221    0.181
        22  -9.1542     78.7757    243.3788   1.0107570994e+02   1.6569347448e+01    0.1778641    0.1453424  19.37 0.0002700841    1.640    0.390
        23 -10.3784     42.3411    245.1889   1.0768356021e+02   2.0625621878e+01    0.2421834    0.1992932  23.78  0.001431078    1.694    0.410
        24 -10.9603     33.3952    246.4058   1.0929497218e+02   2.1399089236e+01    0.2115404    0.1735045  34.76 0.0005757906    1.512    0.339
        25  -9.3820     37.4362    243.5126   1.0844623234e+02   2.1443889543e+01    0.1777727    0.1393193  25.51  0.001191564    1.721    0.419
        26  -8.5155     12.8664    247.1769   1.1279207988e+02   2.3362610981e+01    0.1167341   0.09766079  64.28 0.0003549422    1.285    0.222
        27  -8.5621      7.8043    247.4382   1.1363647080e+02   2.3803985355e+01    0.1103973   0.08179973  40.45 0.0002559341    1.451    0.311
        28  -8.5620    155.5445    246.5149   8.7550321911e+01   5.5672656475e+00    0.1127807   0.08781829  30.16 0.0008076217    1.077    0.072
        29  -9.0185    136.0172    246.0295   9.0966295923e+01   8.3995922413e+00    0.1607875    0.1222679  11.90 0.0005008514    1.604    0.376
        30  -9.2028    134.0076    242.4873   9.0937342049e+01   9.1882355143e+00    0.1671998      0.14126  56.13 0.0003983295    1.209    0.173
        31  -8.9772    119.0378    246.3368   9.4051319801e+01   1.0732011402e+01    0.1595249    0.1123443  41.71 0.0004203298    1.110    0.099
        32 -10.2254    104.3238    245.8092   9.6657923757e+01   1.2826473411e+01    0.2172594    0.1519446  38.77 0.0006568101    1.207    0.171
        33  -8.5101    102.2999    242.3245   9.6700408289e+01   1.3637089720e+01    0.1163193   0.08970005  50.08 0.0005290931    1.025    0.024
        34 -10.2474     58.0147    243.5404   1.0481931242e+02   1.9097852730e+01    0.2087647    0.1827304 -59.53  0.001140232    1.588    0.370
        35  -9.9103     56.7082    239.3753   1.0477505986e+02   1.9946339894e+01    0.2119761     0.188997 -32.61  0.001226253    1.779    0.438
        36  -9.9113     50.2621    245.2106   1.0629816860e+02   1.9727206055e+01    0.1743453    0.1359944  54.78 0.0005428896    1.116    0.104
        37 -10.3713     50.7723    239.6207   1.0585981647e+02   2.0600139049e+01    0.3543214    0.2925588  11.51  0.002627099    1.892    0.471
        38  -8.8198    197.0028    244.5088   8.0154291466e+01  -1.9181891395e-03    0.1569265   0.07618559  21.03 0.0006733185    2.399    0.583
        39  -9.6378    112.9527    243.2718   9.4847364556e+01   1.2031322226e+01    0.1853946    0.1626875  21.69 0.0006705457    1.332    0.249
        40  -9.3721     22.7146    242.5307   1.1094097585e+02   2.3158822446e+01    0.2370793    0.1122359 -76.73  0.001548922    2.144    0.533
        41  -9.5071     17.2417    242.7080   1.1188119604e+02   2.3678077191e+01    0.2549168    0.1719766 -34.80  0.001215241    3.456    0.711
        42  -8.7788    146.3939    242.8222   8.8742674030e+01   7.3712426790e+00    0.1363417    0.1042657 -27.82  0.000942609    1.693    0.409
        43  -8.7880     10.8524    243.1391   1.1297524617e+02   2.4227946344e+01    0.1187468   0.09857015  59.66 0.0003629182    1.283    0.221
        44  -8.6510      3.9394    242.6455   1.1410955442e+02   2.4961094959e+01     0.133947   0.09059432  58.48 0.0008015793    1.069    0.065
        45  -9.2159    141.7728    241.8638   8.9462806044e+01   8.1674647889e+00    0.1600135    0.1332905  23.83 0.0004451081    1.199    0.166
        46  -8.6862     98.4010    241.7728   9.7362581352e+01   1.4250757782e+01    0.1260518     0.104669 -51.81 0.0004947931    1.575    0.365
        47  -8.7099     91.2252    240.8263   9.8592621344e+01   1.5360407175e+01    0.1374723    0.1181888  32.57 0.0004559008    1.314    0.239
        48  -9.6632     87.5533    242.5061   9.9409519442e+01   1.5575811537e+01    0.1544375    0.1375429  89.06 8.808115e-05    1.287    0.223
        49  -9.7349     83.5672    241.2146   1.0002821509e+02   1.6302725741e+01    0.1916387    0.1450044  38.68 0.0003818108    1.254    0.203
        50  -9.1887     63.6300    241.1607   1.0364840411e+02   1.8817547874e+01    0.2483693    0.1251277 -77.54  0.001232021    2.262    0.558
        51  -9.7674     36.9397    235.0923   1.0807053533e+02   2.2929917320e+01    0.1666099     0.130495  85.02 0.0003255044    1.249    0.200
        52 -10.7685     35.8551    229.1556   1.0792707270e+02   2.4088652165e+01    0.2882767    0.1644449  40.80 0.0004239354    1.513    0.339
        53  -9.6438     30.0393    227.9412   1.0892187019e+02   2.4928067802e+01    0.3103469     0.226226 -47.10  0.002174983    2.168    0.539
        54 -10.2195     27.8788    223.8367   1.0909411467e+02   2.5893279999e+01    0.3089941     0.141257 -72.04   0.00164002    2.198    0.545
        55  -9.2604     35.4761    239.4457   1.0857105630e+02   2.2342007556e+01    0.1930641    0.1242877  56.94 0.0002822585    1.142    0.125
        56 -11.5953     31.2945    234.0352   1.0902366890e+02   2.3721100614e+01    0.2678562    0.1874751  83.01 0.0005142913    1.282    0.220
        57  -9.8405     27.5193    241.9482   1.1008750864e+02   2.2762582231e+01     0.157169    0.1417073  47.38 0.0007475885    1.440    0.306
        58  -9.5299     31.4178    240.5341   1.0934024970e+02   2.2591917996e+01    0.2051043    0.1445644  61.20 0.0004469558    1.023    0.023
        59  -8.5981    126.5124    241.4970   9.2191172070e+01   1.0397279503e+01    0.1138425   0.09096996  38.89 -2.017841e-06    1.062    0.059
        60  -8.7751    122.2929    241.3111   9.2941668527e+01   1.1021343084e+01    0.1659199     0.135933  34.46 0.0002659514    1.150    0.131
        61  -8.7741    122.7775    237.9545   9.2493823918e+01   1.1457560729e+01    0.1411697    0.1257898  19.07 0.0003244505    1.287    0.223
        62  -8.4758    130.5513    240.4632   9.1341440558e+01   9.9749839846e+00    0.1139044   0.09110228  39.07 0.0001023536    1.042    0.040
        63  -9.1988     68.0556    220.1554   1.0118336891e+02   2.1909228510e+01    0.1543624     0.136579  49.54  0.000281189    1.221    0.181
        64 -10.5773     67.7854    239.0020   1.0273677301e+02   1.8667173013e+01     0.409579    0.1704639 -67.28  0.002158301    2.701    0.630
        65  -9.2328     66.8466    230.7427   1.0227916490e+02   2.0186964567e+01    0.1585635    0.1413563  85.94 0.0005862423    1.258    0.205
        66  -9.6571     78.9822    223.2146   9.9325652832e+01   1.9945740334e+01    0.1724651    0.1561094 -89.07 0.0003153142    1.246    0.198
        67  -9.9601     73.0011    222.2983   1.0040518473e+02   2.0889940968e+01    0.1955796    0.1719686 -72.04 0.0003778351    1.353    0.261
        68  -9.3200     75.6744    226.9993   1.0029805820e+02   1.9714734264e+01    0.1899189    0.1422646  33.66 0.0003676121    1.406    0.289
        69  -9.8134     75.4143    218.1212   9.9559243470e+01   2.1326535595e+01    0.2053637    0.1430671  44.70 0.0003834354    1.225    0.184
        70  -9.4612     71.5054    216.9138   1.0022230757e+02   2.2056289889e+01    0.1850841    0.1482899  32.84 0.0004407076    1.392    0.281
        71  -9.6760     72.6098    232.1984   1.0131397388e+02   1.9210760864e+01    0.2477401    0.1896127  22.24  0.001405664    1.701    0.412
        72 -10.7853     71.5680    227.4245   1.0111801432e+02   2.0168655713e+01    0.2544389    0.2181834 -59.30 0.0001599956    1.499    0.333
        73  -9.4783    149.6905    246.1683   8.8544467625e+01   6.4439968191e+00    0.2222565    0.1561411 -10.61  0.001416328    2.088    0.521
        74  -9.2489    118.1084    239.1287   9.3479850515e+01   1.1940631367e+01    0.1646175    0.1325546  29.82  0.000440641    1.253    0.202
        75  -9.8644    104.2660    237.4626   9.5871816221e+01   1.4131423029e+01    0.2887315    0.1918287  21.09  0.001754434    1.947    0.486
        76  -9.1658    107.2740    233.6900   9.4932540479e+01   1.4314777824e+01     0.177477    0.1623926  25.13 0.0006411099    1.289    0.224
        77  -9.9965     77.2881    238.2305   1.0093463227e+02   1.7599719269e+01    0.1908548    0.1534496  44.22 0.0004724432    1.184    0.156
        78  -9.1072    208.3369    238.3026   7.7406133605e+01  -8.4738762756e-01    0.1145962    0.0702436  12.51 0.0006616428    1.666    0.400
        79 -10.2694    203.9290    237.6559   7.8047957558e+01  -1.6559133731e-01     0.189421    0.1599897 -29.54 0.0001639533    1.475    0.322
        80  -8.4586    171.0000    238.0403   8.3766984770e+01   4.4661629894e+00    0.1528303   0.06536098 -43.89 0.0007925922    2.875    0.652
        81  -9.8831    130.3788    235.1126   9.0772084688e+01   1.0795045110e+01    0.3153758    0.2141434 -13.21  0.001777537    2.612    0.617
        82  -8.9663    134.1310    232.1276   8.9728020636e+01   1.0698446115e+01    0.1667421    0.1349174  26.92 0.0003353312    1.218    0.179
        83  -9.0505    111.9350    238.2832   9.4532276427e+01   1.2937506647e+01    0.1576588    0.1205548  41.85 0.0004613138    1.083    0.077
        84 -10.0491     42.0805    236.3369   1.0721923759e+02   2.2147737267e+01    0.2708532    0.2179907 -54.80  0.001750664    1.778    0.438
        85  -9.4240     17.3358    237.3692   1.1163887030e+02   2.4575546816e+01    0.1638702    0.1122537  85.80 0.0009005819    1.319    0.242
        86  -8.4029     17.5073    233.5508   1.1144177859e+02   2.5219139710e+01    0.1491179    0.0858889 -86.38 0.0005002744    1.624    0.384
        87  -8.6320     21.3765    238.2699   1.1097902014e+02   2.4017299838e+01     0.122091   0.09143239 -76.85 0.0009603918    1.523    0.344
        88  -8.8481     20.8596    235.1952   1.1092850803e+02   2.4598868173e+01    0.1669433    0.1367973 -88.34 0.0002540498    1.353    0.261
        89  -9.1979    156.9691    236.7601   8.6105768841e+01   6.6790824346e+00    0.1691587    0.1266276  25.73 0.0004498659    1.210    0.174
        90  -9.4621    134.8819    236.8691   9.0142318884e+01   9.8810792342e+00    0.1695911    0.1370117  22.42 0.0006409989    1.289    0.224
        91  -9.9650     95.3973    235.8029   9.7363857809e+01   1.5610902148e+01    0.1858807    0.1745663  63.76 0.0006803702    1.224    0.183
        92  -9.7840     99.4271    232.9054   9.6330498817e+01   1.5532447530e+01     0.228189    0.1866426  78.02   0.00082436    1.280    0.219
        93 -10.0576    101.9196    228.4189   9.5408015849e+01   1.5925484779e+01    0.1949081    0.1763894 -52.75 0.0001593678    1.397    0.284
        94  -8.8667     72.3278    237.0616   1.0175501803e+02   1.8424084486e+01    0.1442261    0.1170735  68.84 0.0005473093    1.128    0.114
        95  -8.4906      8.8041    237.3883   1.1310403238e+02   2.5397287077e+01    0.1178073   0.08520289  36.03  0.000298802    1.550    0.355
        96  -8.9489      1.8680    237.4884   1.1428161331e+02   2.6023397496e+01    0.1315858   0.07883646  42.83 0.0003911112    1.446    0.308
        97  -8.7138    231.3128    236.3128   7.3397798004e+01  -3.7046262284e+00    0.1118177   0.06658774   9.72 0.0004032204    1.634    0.388
        98  -8.1111    189.6978    236.3100   8.0273911731e+01   1.9971372410e+00    0.1018286   0.08276163  53.94 0.0003918679    1.606    0.377
        99  -9.0443    183.3710    235.7968   8.1298189312e+01   2.9679505309e+00    0.1443713   0.09926409 -19.79 0.0007837635    1.718    0.418
       100  -9.2981    125.6431    234.5152   9.1584117246e+01   1.1570426263e+01    0.1930304     0.139437  27.84 0.0005447263    1.384    0.277
       101  -9.1172    126.7174    230.2928   9.0902602143e+01   1.2065685040e+01    0.1773866    0.1555406  32.15 0.0005440881    1.149    0.130
       102  -8.3647    120.2826    235.3291   9.2671870970e+01   1.2215070201e+01    0.1050244   0.08528917   7.36 0.0003132678    1.606    0.377
       103 -10.2942     90.7656    234.2793   9.8088890071e+01   1.6485377421e+01    0.1913966    0.1783278 -36.05 0.0005416258    1.480    0.324
       104  -8.4015     82.2581    235.3811   9.9776626624e+01   1.7429851896e+01   0.09624069   0.08616509 -20.06 0.0006971766    1.670    0.401
       105  -8.9637     52.5602    235.4641   1.0526610233e+02   2.1099370566e+01    0.1657223     0.117117  44.05 6.690043e-05    1.250    0.200
       106 -10.1624     49.3174    234.3012   1.0578152419e+02   2.1676647244e+01    0.2833914     0.193783 -42.48  0.001591348    2.491    0.599
       107 -10.2272     58.3113    221.4063   1.0317680143e+02   2.2894821572e+01       0.4069    0.2716661 -34.95  0.002336003    2.835    0.647
       108 -10.3193     62.8661    221.2692   1.0228507788e+02   2.2359726868e+01    0.1901616    0.1753965  56.45 0.0003365106    1.267    0.210
       109  -9.6390     54.5945    231.2299   1.0460311415e+02   2.1592549301e+01    0.2080564    0.1743056 -57.57  0.001006162    1.615    0.381
       110  -9.5536     57.5985    226.6063   1.0370722446e+02   2.2047448897e+01    0.2318834    0.1815668   0.75  0.001467612    2.236    0.553
       111  -9.6767    146.0957    236.0001   8.7984467841e+01   8.3753996436e+00    0.1699625    0.1396977  31.36 0.0004135542    1.081    0.075
       112  -9.0445    170.2285    233.7873   8.3342762400e+01   5.1407961030e+00    0.1561049    0.1185053   8.68  0.001051664    1.406    0.289
       113  -8.9539    162.4081    233.4035   8.4695041620e+01   6.3432987774e+00    0.1820568    0.1093499 -36.69 0.0008693682    2.049    0.512
       114  -9.3245    140.0923    233.2892   8.8759890574e+01   9.6496992565e+00    0.1637382    0.1463203  10.99 0.0002771258    1.254    0.203
       115 -10.0511     77.1773    233.2738   1.0054695813e+02   1.8442976694e+01    0.1853438    0.1762348 -89.04  0.000513945    1.324    0.245
       116  -9.3157     79.9310    229.3394   9.9690333408e+01   1.8755185632e+01    0.1567699    0.1438652  46.31  0.000384934    1.260    0.206
       117  -9.0510    152.8566    232.9235   8.6367837205e+01   7.8209291820e+00    0.1691771    0.1345231  18.57 0.0003343912    1.272    0.214
       118 -11.0268    114.6440    232.3495   9.3405962173e+01   1.3486682386e+01    0.2413196    0.1773851  34.75  0.000198618    1.244    0.196
       119  -8.4323    212.7285    232.3208   7.5813696921e+01  -7.6833087405e-01   0.09349067   0.08527462  45.75 0.0002538181    1.568    0.362
       120  -8.4923    166.4501    232.4739   8.3844642407e+01   5.8742687813e+00    0.1167785   0.09307882  26.28 0.0004822162    1.076    0.071
       121  -9.4011    121.8376    231.2166   9.1926844822e+01   1.2631421846e+01    0.1730166    0.1601725  15.43 0.0003916617    1.270    0.213
       122  -9.9973     84.0453    231.8023   9.9128932514e+01   1.7794471344e+01    0.2002417     0.163155  55.09 0.0003530169    1.044    0.042
       123  -8.7992     87.6721    229.6974   9.8250746479e+01   1.7666828258e+01    0.1492505    0.1290113   2.45 0.0003637104    1.671    0.402
       124  -8.3949    194.4888    231.4370   7.8763927461e+01   1.9127022902e+00    0.1150289   0.08991186  22.62 0.0002092896    1.017    0.017
       125  -8.8172    187.4851    231.0047   7.9915406152e+01   2.9802365088e+00    0.1539491   0.09014689 -10.50 0.0008102832    2.560    0.609
       126  -9.7162    146.4251    230.5260   8.7248532642e+01   9.1210614295e+00    0.2054364    0.1616347  29.42 0.0006106281    1.143    0.125
       127  -9.4827    132.7554    229.0457   8.9619160430e+01   1.1371141664e+01    0.3510206    0.2060914  10.33  0.001550147    3.679    0.728
       128 -10.2039    176.5408    227.5294   8.1359225934e+01   5.0474667100e+00    0.2690568    0.1663924 -19.29  0.001544496    2.176    0.540
       129  -8.7471    158.7040    228.9097   8.4778355610e+01   7.5225630805e+00    0.1507717    0.1329138  25.79 0.0004557649    1.094    0.086
       130 -10.5289    152.6644    227.4101   8.5693954143e+01   8.6449547348e+00    0.3124788    0.2397938 -21.95  0.001723913    1.632    0.387
       131  -9.4974    156.6140    223.8327   8.4485568877e+01   8.5716999946e+00    0.2149081    0.1709934 -26.57  0.001164242    1.499    0.333
       132 -12.1952    160.0989    206.7088   8.1382984961e+01   1.0623441037e+01     1.307299     0.787087  24.43  0.006123549    1.825    0.452
       133 -12.1845    147.0953    190.3050   8.1414492538e+01   1.5477367900e+01     1.457316    0.9478016  -6.68   0.00666833    2.783    0.641
       134 -12.0493     94.0634    140.2014   8.4942479385e+01   3.4662804824e+01     1.509356    0.6579646  31.48  0.003805085    2.856    0.650
       135 -13.4763    140.9547    216.1750   8.6424369555e+01   1.2149137143e+01     1.862546     1.509558   2.27   0.01208753    1.513    0.339
       136 -12.8789    189.5461    192.6683   7.3554228834e+01   7.9596199136e+00     1.360039     1.085093  76.47  0.004293836    2.047    0.512
       137 -13.5667    125.8734     85.0249   6.3185048105e+01   4.0495037055e+01     2.437695     1.516543  26.29  0.009820824    2.305    0.566
       138  -8.8015    124.1772    249.5711   9.3457042601e+01   9.5524308223e+00     0.151432   0.08801089  30.96 0.0005494848    1.608    0.378
       139  -8.6809     61.7668    227.9369   1.0301910976e+02   2.1305096497e+01    0.1438028     0.126432  34.18 0.0003052263    1.394    0.283
       140 -10.2100     65.6886    225.4043   1.0207501735e+02   2.1267078960e+01    0.1878472    0.1670492  50.16 0.0003218577    1.241    0.194
       141  -8.6236    229.2021    227.5811   7.2417750851e+01  -2.4851364013e+00    0.1455506   0.08407202  25.18 0.0003506988    1.461    0.316
       142  -8.7089    116.4343    226.7743   9.2454022579e+01   1.4123741238e+01    0.1354449    0.1115103 -39.81 0.0004421582    1.562    0.360
       143  -9.4749     46.6584    225.6022   1.0570001876e+02   2.3515292381e+01    0.2328152    0.1813431 -27.25  0.001040767    2.334    0.572
       144  -9.5219     42.1086    225.6387   1.0655538647e+02   2.4025590102e+01    0.1740756    0.1386801 -88.73 0.0004490723    1.278    0.217
       145  -9.1026     19.7954    227.2292   1.1074319343e+02   2.6107725230e+01    0.1544404    0.1043018  64.59 0.0004615079    1.091    0.083
       146  -9.8640      9.6124    225.7883   1.1250270572e+02   2.7353629107e+01    0.2878644    0.2169556  37.54  0.002263553    1.489    0.328
       147  -9.3216     14.9044    223.0883   1.1143310227e+02   2.7334824949e+01     0.158705    0.1258286  86.89 0.0003872047    1.255    0.203
       148  -8.9686    210.1996    226.8809   7.5425790129e+01   2.2216639007e-01    0.1580771    0.1103295   8.51 0.0004429992    1.352    0.260
       149  -8.4213    184.4244    226.4866   7.9808969392e+01   4.0144489648e+00    0.1170188   0.09348822  21.10 0.0006052372    1.061    0.058
       150  -9.3778    162.0115    225.2531   8.3680336973e+01   7.5468794398e+00    0.2033109    0.1732467 -76.43  0.001394327    1.659    0.397
       151  -9.0072    190.4339    224.8209   7.8509097696e+01   3.3420783673e+00    0.1491289    0.1026495 -17.05 0.0006700206    1.653    0.395
       152  -9.0708    167.4524    225.0168   8.2651041106e+01   6.7575508958e+00    0.1751764    0.1303883  34.51 0.0009198935    1.108    0.097
       153  -9.9379    119.9908    224.2271   9.1480474119e+01   1.4017841190e+01    0.1721877    0.1690418  -9.05  0.000287278    1.251    0.200
       154 -10.4808     99.5228    223.7015   9.5382742522e+01   1.7056020524e+01    0.2273337    0.2020919 -17.43  0.001095984    1.567    0.362
       155  -8.8567     95.5675    223.5055   9.6131023392e+01   1.7643419427e+01    0.1847215    0.1425969  47.94 0.0001000773    1.068    0.064
       156 -11.3950     85.8243    222.7787   9.7954954083e+01   1.9107671700e+01    0.4869101    0.3156477 -27.69   0.00165722    3.255    0.693
       157 -10.0094     91.8538    221.8656   9.6689141227e+01   1.8442498726e+01    0.3102407    0.1922285 -48.44 0.0003544727    2.106    0.525
       158 -10.2462     98.4455    218.6127   9.5056667158e+01   1.8086670040e+01    0.3427214    0.1688861  46.12  0.001785708    1.681    0.405
       159  -9.3837    109.0551    219.3324   9.3045638842e+01   1.6435810813e+01    0.1766432    0.1624274 -36.11 0.0002787868    1.385    0.278
       160 -10.1584    115.3475    192.0733   8.8315397694e+01   2.0374694677e+01     0.227338    0.1960987  30.92 0.0004772643    1.205    0.170
       161  -9.2883    109.9597    208.7756   9.1623758687e+01   1.8143299369e+01    0.2203816    0.1746618  24.19 0.0004914866    1.425    0.298
       162  -9.5210    119.6158    194.5313   8.7757190127e+01   1.9237284465e+01    0.2061257    0.1917685  46.25 0.0003041641    1.074    0.069
       163 -10.1514    104.8998    223.1380   9.4278373755e+01   1.6389004500e+01    0.2182927     0.184766  52.60 0.0003822575    1.039    0.037
       164  -9.5893    104.8600    205.6176   9.2281742000e+01   1.9475215876e+01    0.1865995    0.1672397 -76.27 0.0003702927    1.232    0.188
       165 -10.2139    120.9288    202.9808   8.8643877174e+01   1.7497112366e+01    0.2864474    0.2491355  -1.53 0.0003020182    1.449    0.310
       166  -9.3111    119.6932    198.9103   8.8348268013e+01   1.8422924595e+01    0.2334035    0.1832954 -26.51 0.0003937096    1.704    0.413
       167  -9.6558    102.0786    197.0082   9.1795039496e+01   2.1495108658e+01    0.2066857    0.1610578  42.34 0.0003434758    1.169    0.145
       168 -10.8725    103.9944    215.5860   9.3623264887e+01   1.7819670479e+01    0.5029909     0.377896  76.09  0.001463198    1.445    0.308
       169  -9.9195    106.0189    210.1435   9.2587458893e+01   1.8486006241e+01    0.2515503    0.1831082  49.25 0.0003678957    1.168    0.144
       170  -9.6546     89.0552    210.2950   9.6049754387e+01   2.0904032528e+01    0.2269542    0.1675031  55.80 0.0002119736    1.156    0.135
       171  -9.9951    124.8614    210.9440   8.8896503456e+01   1.5499100055e+01     0.203829    0.1816428  39.49 0.0003844578    1.080    0.074
       172 -10.8117    125.1832    206.3800   8.8232335280e+01   1.6235035522e+01    0.6237921    0.2099538  34.78  0.002436547    3.042    0.671
       173 -10.8914     98.6614    211.7268   9.4258883685e+01   1.9276872102e+01    0.3282878    0.2973225 -17.22  0.002173063    1.490    0.329
       174 -10.9315     92.9442    211.5005   9.5390354828e+01   2.0135345851e+01    0.4310164    0.2335206 -49.90  0.001312021    2.293    0.564
       175 -10.6410    111.5936    213.1600   9.1824017154e+01   1.7126358411e+01    0.2336707    0.2217353  38.35 0.0003371128    1.177    0.150
       176 -11.1434    114.9287    207.4744   9.0452784042e+01   1.7623804433e+01     0.595881    0.2871768 -51.59   0.00300755    2.385    0.581
       177  -9.8604    109.7055    196.0107   9.0050646065e+01   2.0518366791e+01    0.2351767    0.1951607  55.84 0.0003484107    1.079    0.073
       178 -10.7983    109.7841    203.1806   9.0964245909e+01   1.9178894732e+01    0.2826505    0.2177032  53.27 0.0006328429    1.149    0.130
       179 -10.5545    105.9519    198.5233   9.1170257632e+01   2.0622776999e+01    0.2653157    0.2096362 -54.66 0.0003141841    1.441    0.306
       180  -9.8731     36.8328    209.9931   1.0654120709e+02   2.7515723296e+01    0.3425782    0.2221463  37.75  0.001629911    1.512    0.338
       181  -9.2710     44.0138    207.1514   1.0490901184e+02   2.7258333580e+01    0.2161412    0.1859343  -3.22 0.0002710789    1.841    0.457
       182  -9.1846     37.4162    221.7462   1.0719091870e+02   2.5252662567e+01     0.165897    0.1539008 -45.47 0.0004111626    1.616    0.381
       183 -10.8018     44.8667    218.9426   1.0558743302e+02   2.4932868152e+01    0.3801845    0.2766024  25.85  0.001773936    1.740    0.425
       184 -10.0106     65.9075    207.1639   1.0046471911e+02   2.4601753161e+01    0.4577225    0.1632354  51.81  0.001666595    2.581    0.613
       185 -11.0124     56.5888    210.4377   1.0263924839e+02   2.5142130513e+01    0.4671497     0.323718  71.21   0.00232736    1.276    0.216
       186  -9.9039     61.2892    214.1894   1.0201211853e+02   2.3856844707e+01    0.1883141      0.16918 -82.81 0.0004407662    1.283    0.221
       187  -9.3733     64.7670    211.4330   1.0107990834e+02   2.3936991645e+01    0.2656923    0.1723447  43.85  0.001151213    1.331    0.249
       188 -10.2502     61.2060    203.7692   1.0112247317e+02   2.5852804919e+01    0.3550704    0.2466635   5.79  0.001762449    2.665    0.625
       189 -11.1305     42.9263    213.9401   1.0561575236e+02   2.6086548372e+01    0.4364122    0.3673257 -70.57  0.001937532    1.420    0.296
       190  -9.5816     46.8494    212.8757   1.0476855163e+02   2.5837830233e+01     0.180583      0.11868  60.47 0.0002429567    1.234    0.190
       191 -10.1853     55.6545    204.0052   1.0228816885e+02   2.6494082523e+01    0.2164989    0.1720534  53.54 0.0004449813    1.117    0.104
       192  -9.3726     56.8958    199.8895   1.0167007553e+02   2.7150142559e+01    0.1870428    0.1501245  88.79 0.0002987128    1.176    0.150
       193 -10.9791     54.1049    216.9110   1.0364715456e+02   2.4227441831e+01     0.450534    0.3653222 -26.56   0.00241743    2.065    0.516
       194 -10.0574     51.8322    212.5549   1.0375837333e+02   2.5313775293e+01    0.1927906     0.179112  60.57 0.0004619012    1.282    0.220
       195  -9.2398      1.9667    221.7879   1.1370601664e+02   2.8776341187e+01    0.1574395     0.116564 -88.92 0.0004851448    1.308    0.235
       196  -9.6021      1.2120    218.0871   1.1370125968e+02   2.9517911457e+01    0.2832164   0.08252028 -73.09  0.001455259    3.124    0.680
       197  -9.2830      6.6749    220.2978   1.1280228356e+02   2.8620097164e+01    0.2128458   0.09979866  57.16 0.0009500775    1.592    0.372
       198  -9.5461      4.7156    215.7529   1.1297158378e+02   2.9634824127e+01    0.2809965    0.1237317  75.77   0.00167335    1.956    0.489
       199  -8.3625    179.3304    221.2776   7.9964043520e+01   5.4781579693e+00    0.1189094   0.08056639  14.00 0.0006350623    1.599    0.375
       200  -9.3565    174.8407    221.1356   8.0755826145e+01   6.1802403286e+00    0.1602995     0.122715  11.82  0.000471155    1.325    0.245
       201  -9.8415    123.9993    220.1750   9.0223689371e+01   1.4085114108e+01    0.2041263    0.1709919 -34.72 0.0004005446    1.506    0.336
       202  -9.3557    126.5117    216.5313   8.9282911110e+01   1.4307189045e+01    0.2017767    0.1624983  34.76 0.0004876774    1.144    0.126
       203  -8.6680    166.7549    220.4784   8.2142256698e+01   7.5098085674e+00    0.1595625   0.09813856  28.85 0.0004256494    1.496    0.331
       204  -9.4293    163.7096    218.1949   8.2382078365e+01   8.3112783940e+00    0.3330751    0.1979503  -3.19  0.001483701    3.446    0.710
       205  -8.9952     79.8785    214.8527   9.8364467071e+01   2.1328088142e+01    0.1598959    0.1456701  46.37 0.0003201883    1.223    0.182
       206  -9.8292     81.8186    218.7015   9.8349769565e+01   2.0370639372e+01    0.1977077    0.1567837  59.09 0.0004243511    1.041    0.040
       207 -10.5484     84.7412    214.2680   9.7332992465e+01   2.0774924532e+01    0.2148738    0.1795079  33.12 0.0002791424    1.317    0.241
       208  -8.7932     16.4712    219.4364   1.1097406705e+02   2.7849605921e+01    0.1072041   0.07898929  65.86 6.335368e-05    1.017    0.017
       209 -13.8383    194.0694    161.2540   6.6867868849e+01   1.2060063657e+01     2.364608     1.068838 -26.12  0.009168865    3.036    0.671
       210  -8.4843    183.6866    218.6499   7.8792561434e+01   5.1760250754e+00    0.1221405   0.08244573   7.50  0.000704631    1.724    0.420
       211  -9.0720    157.0335    217.9103   8.3592632112e+01   9.3875850527e+00    0.1770986    0.1489152  30.83 0.0004203344    1.030    0.029
       212  -9.4330     36.8036    217.2841   1.0702574122e+02   2.6142886979e+01     0.173571    0.1194853  75.83 0.0003676419    1.228    0.186
       213  -9.8197    179.4249    216.0881   7.9179326720e+01   6.1840525155e+00    0.2719669    0.1636951  14.67  0.001436684    2.106    0.525
       214  -9.0211    169.7051    217.1431   8.1117818350e+01   7.5365032159e+00    0.1574045    0.1388091   9.22 0.0004386085    1.136    0.120
       215  -8.7980    160.9799    215.7009   8.2536617306e+01   9.1058879235e+00     0.172058    0.1306637  35.30 0.0003632024    1.110    0.099
       216  -9.7330     65.9065    215.9479   1.0124567732e+02   2.2951078365e+01    0.1676946    0.1383514  61.88 0.0003238806    1.049    0.046
       217  -9.5263     69.1876    212.7957   1.0031335406e+02   2.3116447881e+01    0.1774972    0.1681154  45.19 0.0004494007    1.304    0.233
       218  -9.8704     13.1229    215.4575   1.1140460125e+02   2.8909535016e+01    0.1643405    0.1388582 -82.41 0.0005198345    1.376    0.273
       219  -8.7069    200.3984    214.7531   7.5238176989e+01   3.1656392065e+00    0.1543275    0.1026136 -18.06 0.0008964188    1.651    0.394
       220  -8.9987    193.3328    214.2995   7.6408549463e+01   4.2955775551e+00    0.1223572   0.08103689  11.25 0.0004355765    1.650    0.394
       221  -8.9673    186.9452    214.0361   7.7507639097e+01   5.3101976790e+00    0.1814301    0.1368701  15.14 0.0003799158    1.255    0.203
       222  -8.6865    184.8098    211.0821   7.7436118177e+01   6.0523719306e+00    0.1664192    0.1258468   8.87  0.000713822    1.344    0.256
       223  -9.2422     29.0313    214.0112   1.0831552595e+02   2.7589284955e+01    0.1608127    0.1270425  67.69 0.0003078892    1.066    0.062
       224 -10.3352    170.3994    210.8982   8.0062458126e+01   8.3428411221e+00    0.3268652    0.2201909  -5.40  0.001529017    2.044    0.511
       225  -9.2762    167.5897    208.2494   8.0188936317e+01   9.1862174966e+00    0.2053958    0.1698442  17.58 0.0004044105    1.159    0.137
       226  -9.4872     74.3812    213.1320   9.9301735169e+01   2.2376497418e+01    0.1801092    0.1409527  40.06 0.0004612975    1.259    0.206
       227 -10.6623     78.1175    208.3528   9.8080201807e+01   2.2770395759e+01    0.3819394    0.2086192 -46.27 0.0008441689    2.594    0.614
       228  -9.5600     75.8646    204.5803   9.8164341636e+01   2.3789752720e+01    0.3797432    0.2420681 -30.46  0.001879879    3.138    0.681
       229 -10.4114     79.9246    196.8738   9.6495665936e+01   2.4730433485e+01    0.3561914    0.2099536 -51.10  0.001329167    2.042    0.510
       230 -10.1693     82.6811    201.5097   9.6420128896e+01   2.3446963222e+01    0.2770405    0.2140943 -33.36  0.001649274    1.902    0.474
       231  -8.8121     88.5580    196.5000   9.4610065046e+01   2.3584978490e+01     0.254866    0.1845701  31.98   0.00107917    1.462    0.316
       232  -9.5095     91.0419    187.5078   9.2972682773e+01   2.4998389557e+01    0.2038049     0.172443 -45.37 0.0004680893    1.440    0.306
       233  -9.3020     86.7843    193.1638   9.4597259317e+01   2.4493577969e+01    0.3021376    0.2266655 -27.96 0.0003440679    2.059    0.514
       234  -9.5659     90.4833    191.1427   9.3550475072e+01   2.4356811562e+01    0.1839448     0.148689 -62.93 0.0005327311    1.347    0.258
       235 -10.0845     84.3684    206.3692   9.6591490773e+01   2.2288222422e+01    0.2013979    0.1809715  58.75   0.00141341    1.115    0.103
       236 -10.9589     88.4426    202.6455   9.5339290721e+01   2.2420252685e+01    0.4403348    0.2558154 -71.85  0.002302599    1.941    0.485
       237 -10.5458     80.8372    191.5180   9.5694380884e+01   2.5665058975e+01    0.2416279    0.2221366  13.31 0.0006577687    1.402    0.287
       238  -9.2922     77.6042    188.5622   9.6060695049e+01   2.6712100906e+01       0.1857    0.1639434  63.64 0.0001661556    1.058    0.055
       239 -11.3463     87.7374    164.0315   9.0499990046e+01   3.0393368249e+01    0.8057289    0.4568927 -87.63  0.002650321    2.594    0.615
       240 -13.0465     30.0653    201.9098   1.0735164343e+02   2.9812806813e+01     1.878242     1.208088 -30.58   0.01007266    3.351    0.702
       241 -12.6064     47.8177    200.5938   1.0362089748e+02   2.8101311228e+01     1.038997    0.7321766 -61.52  0.006793099    1.620    0.383
       242 -12.1154     73.1003    181.8143   9.6278703351e+01   2.8722356633e+01    0.8980101    0.6849794 -67.19  0.005552946    1.350    0.259
       243 -11.6128     85.4437    177.5787   9.2941183057e+01   2.7854700289e+01     1.210635     0.792075 -24.50  0.005569816    2.959    0.662
       244 -12.3603      9.6216    201.6216   1.1140196103e+02   3.1878203287e+01     1.378618    0.5609373  71.15  0.005558126    2.258    0.557
       245 -12.7676     62.3256    164.0350   9.6646994400e+01   3.3995739415e+01     1.729573    0.6664252  36.57   0.00753019    2.485    0.598
       246 -13.1813     63.1295    182.1396   9.8565440469e+01   2.9983188708e+01     2.171161    0.8568111 -62.26   0.01003902    2.484    0.597
       247 -10.7222     66.3144    193.0895   9.9015838751e+01   2.7315188609e+01    0.2093928    0.1847215  63.19 0.0003315883    1.101    0.092
       248 -12.3046     18.0758    190.4934   1.0907840817e+02   3.3307087699e+01     1.112602    0.4535604  47.97  0.006095652    1.997    0.499
       249 -13.2769     28.8381    126.5538   1.0072802900e+02   4.6492207639e+01     2.399912    0.8608567  49.56  0.009875675    3.070    0.674
       250 -11.6668     76.8223    170.6964   9.4034374166e+01   3.0559921661e+01    0.5562885     0.468141  84.66  0.001298583    1.109    0.098
       251 -11.2122     83.6208    168.8598   9.2178902650e+01   2.9969732579e+01    0.6037001    0.3506438  85.63  0.002730904    2.409    0.585
       252 -12.1922     30.3188    188.9182   1.0639320138e+02   3.2404117819e+01     1.001552    0.4466982 -62.34  0.005330696    2.292    0.564
       253 -13.6740     17.2969    143.4519   1.0570955050e+02   4.3606826590e+01     1.935157     1.296622  -4.86    0.0108925    2.458    0.593
       254 -12.3460     42.1283    131.7560   9.7655468106e+01   4.3880107052e+01     1.228955    0.6164512 -48.95  0.005785705    2.185    0.542
       255 -13.2662     11.1212    131.4427   1.0622611184e+02   4.6887854234e+01     1.344314     1.016429 -67.13  0.007737346    1.240    0.193
       256 -12.3411     27.2459    177.5890   1.0620777358e+02   3.5094161603e+01     1.265279    0.4204558 -59.89  0.005714798    3.015    0.668
       257 -11.6168     22.9164    171.0117   1.0667434878e+02   3.6935531602e+01    0.5007555     0.363716  89.30  0.002249569    1.159    0.137
       258 -11.3488     78.7589    143.8596   8.9573352011e+01   3.6244588121e+01    0.5941116    0.3583861 -32.14  0.002378467    2.692    0.629
       259 -13.2697     13.5473    174.9668   1.0906164651e+02   3.6961698286e+01     1.462842     0.910926 -55.54  0.009049003    1.908    0.476
       260 -12.1525     47.1135    147.6021   9.8407826707e+01   3.9607620576e+01     1.371046    0.3759285 -72.10  0.004525096    4.133    0.758
       261 -12.8513     56.2241    148.4929   9.6155860278e+01   3.8292370161e+01     1.349226     0.851542  66.65   0.00706577    1.671    0.402
       262 -12.9493     45.4612    176.8893   1.0203543808e+02   3.3267995348e+01     1.133866    0.9822353 -53.64  0.007704451    1.433    0.302
       263 -13.9205     40.2484    162.1818   1.0179750775e+02   3.7079844709e+01      2.00123     1.319501 -87.49   0.01176743    1.386    0.279
       264 -12.0712     75.8796    150.5397   9.1388320955e+01   3.5150687491e+01    0.9002123    0.5469288  18.85  0.004096733    2.480    0.597
       265 -13.3481     69.4456    137.9483   9.1068065289e+01   3.8962972436e+01     2.124005     1.454038 -54.98   0.01131457    1.448    0.309
       266 -12.4826     62.0338    139.6241   9.3335420804e+01   3.9591263808e+01      1.00198     0.677023  69.30  0.003860557    1.593    0.372
       267 -12.8153     63.5514    128.2567   9.1061188328e+01   4.2050415151e+01      1.23368    0.9159899  27.39  0.006752699    1.574    0.365
       268  -9.3699    180.7014    211.1239   7.8191215643e+01   6.6885432204e+00    0.2571289    0.1428887 -35.33  0.001409459    2.043    0.511
       269  -9.2777    183.5452    205.9664   7.6861230043e+01   6.9806264450e+00     0.305828    0.1553783  35.58 0.0009665416    1.741    0.426
       270  -9.3702    181.6830    202.0659   7.6577787166e+01   7.8485605341e+00    0.3385684    0.1761829 -31.30  0.001701827    2.278    0.561
       271 -10.9327     55.3797    169.1917   9.8925574261e+01   3.3746114269e+01    0.2526964    0.2174424  25.51 0.0005795728    1.431    0.301
       272  -9.4305    193.8638    209.5711   7.5570191877e+01   4.8552083940e+00    0.2353262    0.1600385   2.62 0.0009570019    1.688    0.408
       273 -10.3551      1.9392    209.7121   1.1323660266e+02   3.1012737300e+01    0.2600867    0.1708079  86.32  0.001049564    1.270    0.212
       274  -9.5853      4.9687    206.9809   1.1255001845e+02   3.1263365357e+01     0.238374    0.1381798  85.64  0.001065739    1.433    0.302
       275  -8.9884    225.1602    208.3717   7.0011320348e+01   3.0809306130e-01     0.186287    0.1318448 -13.59 0.0006164278    1.347    0.258
       276  -8.9840     72.6893    209.0692   9.9258599621e+01   2.3358972417e+01      0.15412    0.1338196  74.43 0.0003736394    1.108    0.097
       277  -8.9752    176.6498    207.6463   7.8398846475e+01   7.8321223210e+00    0.1779087    0.1275162   7.49 0.0007572164    1.593    0.372
       278  -8.5734    241.7125    206.6223   6.7062424403e+01  -1.8319104324e+00    0.1203377   0.07257453   2.94 0.0007017117    1.729    0.421
       279  -9.6467     39.0424    205.6877   1.0580209294e+02   2.8102470215e+01    0.1810759    0.1428136 -84.10 0.0003741343    1.261    0.207
       280  -9.1499    189.3973    203.7648   7.5438563312e+01   6.3666969531e+00    0.2654144    0.1592785  -6.80  0.001189427    2.509    0.601
       281  -9.7529     70.8249    204.7630   9.9226223159e+01   2.4424464471e+01    0.1846208    0.1627522  68.04 0.0004152888    1.103    0.094
       282 -13.0845    120.0418    139.1110   7.8176283996e+01   3.0323712363e+01     1.894664     1.224422 -44.14  0.009036211    1.620    0.383
       283  -9.5526    175.7651    202.7235   7.7787402825e+01   8.7067405746e+00    0.2008018    0.1636412   9.57 0.0004902224    1.227    0.185
       284 -11.0832     97.4059    202.4818   9.3449246524e+01   2.1157407599e+01    0.2464235    0.2026334  42.57  0.001607222    1.143    0.125
       285  -9.9902     94.6702    193.7515   9.2968080478e+01   2.3228436804e+01    0.2022074    0.1929005  82.18 0.0004899705    1.151    0.131
       286  -9.2431     97.6794    197.9802   9.2848226894e+01   2.1967889698e+01    0.1651126    0.1476981  81.21 0.0002806244    1.121    0.108
       287  -8.6017     98.4334    194.5244   9.2257243782e+01   2.2518335018e+01    0.1722974    0.1521537 -25.11 0.0001372167    1.497    0.332
       288 -10.8581    146.5226    176.2967   7.9199701749e+01   1.8078586657e+01    0.6687765    0.3637782 -31.87  0.002567573    2.533    0.605
       289 -10.3925    139.9977    176.7245   8.0657446375e+01   1.9144180883e+01    0.5699339    0.4136712 -53.01  0.001977694    1.513    0.339
       290  -9.7417    129.6718    194.4207   8.5637819904e+01   1.7637346024e+01    0.2338889    0.2136243 -17.02 0.0003628175    1.290    0.225
       291  -9.9280    129.0847    201.5298   8.6777504750e+01   1.6467279402e+01    0.2280066    0.1890257 -32.88 0.0003975407    1.463    0.317
       292 -10.3991    133.6221    200.0525   8.5643243100e+01   1.5999083243e+01    0.3502289    0.2449213  68.98  0.001266574    1.827    0.453
       293 -10.8262    142.4651    183.4919   8.1267396383e+01   1.7474258004e+01    0.3156133    0.2614244  30.03  0.001893551    1.172    0.147
       294  -9.3059    134.0098    195.5124   8.4901225470e+01   1.6734810177e+01    0.1791583    0.1478925  39.76 0.0003644206    1.081    0.075
       295  -9.4586    134.5292    191.9954   8.4266344445e+01   1.7277088517e+01    0.2292119    0.2059565 -46.42 0.0004092221    1.250    0.200
       296  -9.9354    138.4211    189.7342   8.3110052173e+01   1.7035435976e+01    0.2379584    0.2141305   2.70 0.0004683182    1.250    0.200
       297  -9.3674    138.2614    185.9756   8.2550050655e+01   1.7740081600e+01    0.2437974    0.2355132 -18.87 0.0005420243    1.143    0.125
       298 -10.7666     67.7516    200.9623   9.9496179497e+01   2.5563618201e+01    0.2207341    0.2096982  78.63 0.0003089099    1.237    0.191
       299 -11.9719    109.4791    135.4229   8.0049234979e+01   3.3059675828e+01     2.007703     0.697781 -38.54  0.005208936    5.879    0.830
       300  -9.4027    186.4070    199.2775   7.5248204598e+01   7.4956571912e+00    0.2055108    0.1633018  -0.34   0.00065959    1.291    0.225
       301  -9.4174     93.0176    198.4608   9.3893474590e+01   2.2561024212e+01    0.1868812     0.167722 -51.07 0.0002974671    1.348    0.258
       302 -10.2326     73.8367    198.8177   9.7998086629e+01   2.5179295874e+01    0.2148203    0.1650299  62.57 0.0002725978    1.120    0.107
       303  -8.8572    210.1318    198.2844   7.0845189508e+01   3.8595338360e+00    0.1658606    0.1300607  26.28 0.0004180729    1.126    0.112
       304  -9.4192    180.9332    197.6892   7.6000461591e+01   8.6237787240e+00    0.2083463    0.1706239 -27.32 0.0006415324    1.308    0.236
       305  -9.0148    181.2937    194.3022   7.5367064277e+01   9.0780575093e+00    0.1937854    0.1590109  13.38 0.0003119437    1.166    0.142
       306 -10.1140    124.0402    197.4565   8.7244051611e+01   1.7997072513e+01    0.2029538    0.1852753 -56.23 0.0003451642    1.240    0.194
       307  -9.8623    114.1702    197.7658   8.9345291639e+01   1.9498048152e+01    0.2065574    0.1915492 -18.64            0    1.328    0.247
       308  -9.0834    231.7400    197.1389   6.7029258683e+01   7.2766361584e-01    0.2312107    0.1278203  15.07  0.001210425    2.117    0.528
       309  -9.6663    223.8059    196.0369   6.8138857014e+01   2.0532600253e+00    0.3323942    0.1856192  25.77  0.001733286    1.750    0.429
       310  -9.8372    167.5719    196.1690   7.8291629838e+01   1.1065778185e+01    0.2328912    0.1754634  21.93 0.0005920067    1.313    0.238
       311  -9.4306     12.7408    195.9633   1.1048794872e+02   3.2707485522e+01     0.170101    0.1306493  58.94 0.0003889384    1.138    0.121
       312  -9.4159    202.5614    194.5985   7.1535900200e+01   5.5627093304e+00    0.3779726    0.1862024  23.31  0.001695069    2.601    0.616
       313  -9.7818     74.0693    194.0146   9.7439577230e+01   2.6098798972e+01    0.1816659    0.1541426  63.64 0.0003695747    1.018    0.018
       314  -9.6830    129.9128    177.7385   8.2999520457e+01   2.0696124847e+01    0.3769864    0.1811811 -51.03  0.001372718    2.253    0.556
       315  -9.6783    130.9310    189.0267   8.4566816123e+01   1.8411052305e+01    0.2094087    0.1690302  38.92 0.0002939723    1.131    0.116
       316 -10.1871    124.9152    192.2714   8.6317940301e+01   1.8801720606e+01    0.2306366    0.1996338 -15.11 0.0003582163    1.443    0.307
       317  -9.3764    126.3638    188.1720   8.5402984767e+01   1.9323441545e+01    0.2314755    0.1877487  56.71 0.0004105325    1.192    0.161
       318 -10.1150    129.3214    185.1084   8.4303693039e+01   1.9403800844e+01    0.3414802    0.2332708 -41.58  0.001859414    1.692    0.409
       319  -8.7477    210.4604    192.1128   6.9717104408e+01   4.6473990795e+00    0.1659572    0.1134101 -27.75 0.0003428623    1.475    0.322
       320  -9.0838    226.4050    177.8653   6.4421901956e+01   4.0513062044e+00    0.2062432    0.1264576  -2.68 0.0007417137    1.968    0.492
       321  -9.1737    224.1591    181.8171   6.5529211799e+01   3.8740541413e+00      0.25782    0.1543535 -22.01  0.001337679    1.677    0.404
       322 -10.6887    222.7341    187.4027   6.6786310764e+01   3.3490036198e+00    0.4871002    0.1978238 -38.05  0.001612443    2.546    0.607
       323  -9.6214    110.4356    190.9702   8.9212244264e+01   2.1359513432e+01    0.2158775    0.1860948  42.90 0.0004073165    1.096    0.088
       324  -9.1279    113.8492    187.1768   8.7941035800e+01   2.1545624271e+01    0.1842553    0.1624205  22.08  0.000262222    1.276    0.216
       325 -10.3332    103.2553    189.2108   9.0523334062e+01   2.2816714743e+01    0.3252167    0.2120942 -44.46  0.001405025    1.876    0.467
       326  -9.8710    109.2496    186.9419   8.8906257679e+01   2.2322877392e+01    0.5156281    0.1732348  46.86  0.001197682    2.819    0.645
       327  -9.0031    104.7281    184.6728   8.9577202475e+01   2.3479241818e+01    0.1897539    0.1527516 -40.02 0.0009716912    1.518    0.341
       328  -8.2831    232.4003    190.3031   6.5717354883e+01   1.4877325798e+00    0.1295492   0.07863934  10.04 0.0002369713    1.834    0.455
       329  -9.1452    215.8148    190.3429   6.8482369145e+01   4.0410867586e+00    0.1699815    0.1334901  16.23 0.0007659452    1.114    0.103
       330 -12.2711    188.9116    152.4094   6.6030170332e+01   1.4474626841e+01     1.033005    0.7417821  -4.37  0.005286721    1.700    0.412
       331  -9.2066    206.5462    185.2112   6.9170044317e+01   6.2481379622e+00    0.2294146    0.1476113 -16.65 0.0008126133    1.715    0.417
       332  -8.9546    205.6241    188.8065   6.9977992379e+01   5.8863507470e+00    0.2001102    0.1653789 -21.27 0.0004298973    1.215    0.177
       333  -9.6369    202.4693    187.5288   7.0309708248e+01   6.5844652851e+00    0.2284108    0.1828146  58.96  0.000904114    1.691    0.409
       334 -11.0757    218.8459    183.6036   6.6750230700e+01   4.4781586608e+00    0.4580772    0.3077018 -27.62  0.002731488    1.455    0.313
       335  -8.4124    237.5386    187.4308   6.4377327581e+01   1.0798978292e+00    0.1222387   0.09438647   4.81 -5.335681e-05    1.102    0.093
       336  -8.6678    210.7330    187.3599   6.8824575988e+01   5.2627391379e+00    0.1605279    0.1030331  29.84 0.0002590079    1.443    0.307
       337 -10.9032    120.2787    186.1012   8.6394237063e+01   2.0711382399e+01    0.3058914    0.2176166  44.04  0.001731684    1.263    0.209
       338 -13.4328     16.7910    156.3047   1.0694840754e+02   4.0741936807e+01     2.029819     1.194732 -26.89   0.00998381    3.334    0.700
       339  -8.4998    243.4779    186.0326   6.3190053575e+01   3.7320868468e-01    0.1742632   0.08868135  -9.68 0.0008101391    2.652    0.623
       340 -10.3249     85.9509    185.3214   9.3823459681e+01   2.6185373790e+01    0.2178454    0.1872368 -64.15 0.0003027066    1.271    0.213
       341 -10.7862     89.7212    181.0825   9.2433227350e+01   2.6497106977e+01    0.2291306    0.2084731  30.69 0.0002288725    1.256    0.204
       342 -13.9031    156.3652    129.8699   6.7707780429e+01   2.5032050349e+01      2.18019     1.680176  13.74   0.01076105    1.614    0.381
       343  -8.0670    233.3766    184.2921   6.4473540975e+01   2.1096501352e+00    0.1283106   0.08038399   9.88 0.0007021777    1.737    0.424
       344 -12.2867    113.7900    121.2748   7.5864013064e+01   3.5363944014e+01     1.732271    0.6663284  30.75  0.004699118    5.178    0.807
       345  -9.8621    194.9812    177.9896   6.9928318202e+01   9.2630851305e+00    0.2456975    0.1671921 -19.58 0.0004676825    1.605    0.377
       346 -10.7379    210.4037    180.7499   6.7677147166e+01   6.2515415196e+00    0.3871158    0.2350049 -42.59  0.001770685    1.863    0.463
       347  -9.9936    134.6119    181.7647   8.2644098429e+01   1.9134241230e+01    0.2239622    0.2063778  27.44 0.0004483834    1.103    0.093
       348  -9.8328    199.0102    180.8455   6.9720662250e+01   8.1430987412e+00    0.2039107    0.1692566 -15.29 0.0005247537    1.178    0.151
       349  -8.6061    235.5820    179.9564   6.3320919506e+01   2.3327170404e+00    0.1646044   0.09140899  -7.81 0.0003861406    2.295    0.564
       350  -9.8861    205.2927    167.1834   6.5998567272e+01   9.1241435678e+00    0.3135985    0.2148771 -24.58  0.001181735    1.463    0.316
       351  -9.9276    204.3086    179.5905   6.8537290839e+01   7.4356979879e+00    0.2126968     0.186158 -14.64 0.0005546723    1.127    0.113
       352  -9.2131    205.3820    176.2571   6.7723768473e+01   7.7465037074e+00    0.2109198    0.1621572  21.86  0.001266557    1.215    0.177
       353 -11.1709    202.5259    173.4311   6.7699589784e+01   8.6575711306e+00    0.4998722    0.2948391  24.90  0.002504063    1.871    0.466
       354 -10.6449    122.0581    178.9083   8.4902949139e+01   2.1800126998e+01    0.3859593    0.3124393 -15.50 0.0006147435    1.649    0.394
       355  -9.7904    124.4109    174.8279   8.3728734919e+01   2.2198127671e+01    0.2023151    0.1987731  33.10 0.0003057661    1.096    0.088
       356  -9.5817    218.5196    177.7904   6.5728543944e+01   5.3364058570e+00     0.291114    0.1741223  20.35 0.0009076931    1.856    0.461
       357  -9.4982    230.5073    176.0446   6.3407355898e+01   3.6434964335e+00     0.328487    0.1686584 -47.91  0.001521317    2.883    0.653
       358  -9.2298    134.8556    176.6189   8.1743591821e+01   2.0058259718e+01    0.1965483     0.179025 -24.64 0.0004585685    1.237    0.191
       359 -10.8153    118.9742    169.5813   8.4079631685e+01   2.4165886320e+01    0.3495809    0.2761073 -86.20 0.0005937837    1.476    0.322
       360  -9.1383    109.8453    177.3963   8.7378848833e+01   2.4112989087e+01    0.1845656    0.1544536  42.23 0.0002445213    1.137    0.120
       361  -9.5924    113.0931    174.6946   8.6233055512e+01   2.4123836151e+01    0.2032233    0.1887457 -68.77 0.0003909149    1.142    0.125
       362 -10.1209    112.1828    169.7117   8.5647119924e+01   2.5284452460e+01    0.4137014    0.2106279 -57.34   0.00189013    2.102    0.524
       363  -9.5654    115.3258    166.0432   8.4321323874e+01   2.5505881560e+01    0.1937963    0.1828316   1.85 0.0004301463    1.227    0.185
       364  -8.8964     94.5234    176.9444   9.0779758504e+01   2.6623845310e+01    0.1757084    0.1590109  79.72 0.0003789129    1.060    0.057
       365  -9.2767    103.0142    177.2371   8.8893351649e+01   2.5240493714e+01    0.2239733    0.1763783  52.89 0.0003150359    1.161    0.139
       366 -10.0597     98.7635    175.1503   8.9554796046e+01   2.6337354637e+01    0.2854398    0.1889237  44.46  0.001538313    1.389    0.280
       367  -9.7946    117.8500    175.4046   8.5278986162e+01   2.3191840158e+01    0.2150916    0.1869811 -50.13 0.0003409482    1.260    0.206
       368  -9.6962    224.3490    173.1125   6.3863782316e+01   5.0355866596e+00    0.3846578    0.1098653 -34.60  0.001456035    3.439    0.709
       369  -9.4353    124.9291    170.6420   8.2917999223e+01   2.2932706129e+01    0.2178602    0.1888223 -57.47 0.0004382552    1.229    0.187
       370 -10.4573    107.1301    172.0469   8.7173497109e+01   2.5639239592e+01    0.2521932    0.2214157 -47.53 0.0004012513    1.277    0.217
       371  -9.5057     56.8531    174.0588   9.9120507616e+01   3.2503869379e+01    0.1806006     0.158072  79.95  0.000408181    1.061    0.057
       372 -10.1076    129.6395    173.0012   8.2271808178e+01   2.1655519191e+01    0.2368914    0.1838699  39.41 0.0002061661    1.212    0.175
       373  -8.2874    241.6983    172.6657   6.0986634038e+01   2.3352877262e+00    0.1267031   0.08194336   3.09  0.000703551    1.658    0.397
       374  -9.1857    233.5177    172.0426   6.2161241212e+01   3.7019744727e+00     0.172864     0.109513 -26.56 0.0003352377    1.469    0.319
       375  -9.0107    218.8418    172.1746   6.4609204588e+01   6.0755613704e+00    0.1747653    0.1304311   8.50 0.0004005923    1.319    0.242
       376  -9.3830    133.8817    170.8445   8.0970816854e+01   2.1332124173e+01    0.1905294    0.1754488   7.82 0.0004096854    1.197    0.165
       377 -10.1993    142.8715    169.9519   7.8859361565e+01   1.9906265987e+01     0.257495    0.2165094  -6.17 0.0003107101    1.422    0.297
       378  -9.2631    138.1835    169.9256   7.9869877929e+01   2.0747769707e+01    0.2823465    0.2181195  -2.26  0.001404674    1.752    0.429
       379  -9.1912    135.0113    166.9349   8.0034317837e+01   2.1889832272e+01    0.2187936    0.1943774 -23.70 0.0003479084    1.274    0.215
       380 -10.1080     95.7222    170.7016   8.9603044641e+01   2.7738804679e+01    0.2247171    0.2118165 -54.66 0.0005373958    1.203    0.169
       381  -8.3015    230.3418    170.2997   6.2339729724e+01   4.4481815919e+00    0.1301134   0.08570766   7.89 0.0006752962    1.671    0.401
       382 -10.5269    101.4058    169.3982   8.8083811123e+01   2.7112598838e+01    0.2302076    0.2227174  21.97  0.000800223    1.191    0.160
       383 -10.5318    151.9906    167.2723   7.6423837511e+01   1.8758281953e+01    0.4574253    0.1985106 -46.02   0.00162022    2.450    0.592
       384 -10.2739    229.3669    165.5867   6.1582883490e+01   5.2570169793e+00    0.3671235    0.2119737 -15.33  0.001454044    1.947    0.486
       385  -9.2955    234.1517    162.1127   6.0129491320e+01   4.9498118764e+00    0.1918677    0.1448053  -0.36 0.0003873799    1.260    0.206
       386  -9.3819    124.0103    166.4874   8.2414985255e+01   2.3919717340e+01    0.2194739    0.1846164 -34.25   0.00032616    1.365    0.267
       387  -8.7289    248.1984    167.1947   5.8943615513e+01   2.0399814856e+00    0.1520382    0.1302509 -28.53 0.0004706522    1.302    0.232
       388  -9.8161    165.0083    166.3296   7.3539810856e+01   1.6543691037e+01    0.2333601    0.1921714 -24.10 0.0003336725    1.299    0.230
       389  -9.6526    147.9781    167.0363   7.7233746639e+01   1.9532783770e+01    0.1993213    0.1860697  22.62   0.00120467    1.065    0.061
       390 -10.4402    129.0138    166.1217   8.1224358834e+01   2.3114614857e+01    0.2252167    0.2049423 -43.75  0.000312463    1.185    0.156
       391  -8.6204    129.2126    162.0238   8.0447299675e+01   2.3895754818e+01    0.1654363    0.1534652  49.55            0    1.018    0.018
       392  -9.7430    106.8969    166.2545   8.6308943081e+01   2.6875258348e+01    0.2160916     0.189178 -52.28 0.0002213373    1.236    0.191
       393  -8.4580    217.4158    166.4234   6.3736436662e+01   7.1425620861e+00    0.1287196    0.1087896   2.49 0.0002067686    1.056    0.053
       394  -9.6142    108.8164    157.4244   8.4373792751e+01   2.8412368419e+01     0.229606    0.2192795  20.69  0.000292008    1.173    0.148
       395 -10.4978    100.3702    162.7201   8.7275310793e+01   2.8688347967e+01     0.252768    0.2426472  25.62 0.0003370018    1.185    0.156
       396  -9.2316     92.5753    161.5581   8.8958262566e+01   3.0181092101e+01    0.2006627    0.1828864  55.59 0.0001487977    1.074    0.069
       397  -9.9020    106.9535    150.4542   8.3584260428e+01   3.0224490628e+01    0.2313586    0.2089722 -41.78 0.0003176521    1.222    0.182
       398  -9.6265    104.5253    157.5634   8.5425987308e+01   2.9105921002e+01    0.2729758    0.2283478  65.35  0.001006032    1.176    0.150
       399  -9.5872     95.6774    164.9151   8.8737596144e+01   2.8971318746e+01    0.2072369    0.1791404  30.67 0.0004265513    1.276    0.216
       400  -9.5658     96.4703    161.4657   8.8006390716e+01   2.9584547591e+01    0.2523137    0.2354531 -39.60 0.0005192375    1.248    0.199
       401 -10.4149     99.8935    156.8834   8.6429747009e+01   3.0018820825e+01    0.2702264    0.2355765 -36.33 0.0003194369    1.350    0.259
       402 -10.2449    103.1936    153.7573   8.5091405439e+01   3.0147912602e+01      0.26044    0.2390224 -44.51 0.0005123215    1.207    0.172
       403 -10.1186    146.7655    162.0809   7.6568996793e+01   2.0690354168e+01    0.2563303    0.2036055  37.56 0.0002568624    1.205    0.170
       404 -10.0162    119.7013    162.9887   8.2790862864e+01   2.5378802806e+01    0.2332875    0.1907808  40.50 0.0001982706    1.181    0.153
       405  -9.9163    111.2030    162.4844   8.4678228605e+01   2.6941984722e+01    0.2231968    0.2047964 -31.71 0.0004432733    1.262    0.207
       406  -9.3977    132.8624    161.8670   7.9596053101e+01   2.3271261054e+01    0.1936207     0.180502   9.93 0.0003216208    1.168    0.144
       407  -9.0512    107.0184    161.7025   8.5531239116e+01   2.7809844095e+01    0.1836394    0.1648532  51.83 0.0003646517    1.062    0.058
       408  -9.6644    124.4425    160.2823   8.1219780912e+01   2.5097792784e+01    0.2223797    0.1978467  35.30 0.0003327482    1.131    0.116
       409  -9.0173    213.0269    159.6102   6.3135013265e+01   8.9108998678e+00    0.2839709     0.181637 -68.10     0.001102    4.108    0.757
       410  -9.5243    207.5400    158.7996   6.3930324497e+01   1.0009566586e+01    0.2422523    0.2103586   2.69 0.0008575217    1.057    0.054
       411  -8.8500    203.6612    159.1837   6.4698597255e+01   1.0647482381e+01    0.2228044    0.1536714   8.57 0.0002792467    1.727    0.421
       412 -10.8129     79.5581    157.6483   9.1542562075e+01   3.3018639330e+01    0.2531829    0.2265472 -55.92 0.0005506803    1.231    0.188
       413  -9.4006     75.7814    155.4462   9.2155442326e+01   3.4060204030e+01    0.2220949    0.1816813 -50.69 0.0004420287    1.357    0.263
       414  -9.1795    119.5744    158.4764   8.2020874404e+01   2.6329352616e+01    0.2128699    0.1704354  33.65 6.119945e-05    1.285    0.222
       415  -9.5178    122.2071    155.7930   8.0917077847e+01   2.6417331796e+01    0.2193981    0.2011632 -44.95 0.0004300436    1.165    0.141
       416 -10.3118    111.3539    152.7474   8.2932877813e+01   2.8971733690e+01    0.3099371    0.2462347  23.43 0.0009667497    1.473    0.321
       417 -10.4157    122.9159    148.8738   7.9438577270e+01   2.7728700446e+01     0.250419    0.2260477 -13.37 0.0003617247    1.294    0.227
       418 -10.3247    114.2964    157.1473   8.3022475373e+01   2.7529234303e+01    0.2423158       0.2224  25.23  0.000445958    1.192    0.161
       419 -10.3659    117.0601    151.9417   8.1416167643e+01   2.8139617600e+01    0.4867067    0.3348092  -9.35    0.0015356    2.651    0.623
       420 -10.6461     91.0204    156.9131   8.8601265247e+01   3.1436857657e+01    0.3108947    0.2633886 -71.30 0.0004691087    1.169    0.145
       421  -9.9910     95.8544    153.9740   8.6928356139e+01   3.1310166562e+01    0.2376697    0.2268353  35.44 0.0003108387    1.161    0.139
       422  -9.8828     97.8872    150.0244   8.5745829517e+01   3.1845088781e+01    0.2194819    0.2085862  47.63 0.0003196475    1.110    0.099
       423  -9.0529    237.7451    156.2115   5.8387122039e+01   5.1698610645e+00    0.2083856      0.14209 -15.32 0.0007829604    1.394    0.283
       424 -10.2317    227.8133    154.9357   5.9708558319e+01   7.0231827665e+00    0.3424192    0.1995993 -19.79  0.001272149    1.799    0.444
       425  -9.2170    127.1623    155.7295   7.9754793371e+01   2.5538154254e+01    0.2189449    0.1834792 -64.92 0.0002464562    1.271    0.213
       426  -9.1913    217.6195    155.0104   6.1414061520e+01   8.7891087278e+00    0.1835596    0.1812497   9.31 0.0006159426    1.247    0.198
       427  -9.3435    204.8832    154.0278   6.3425689065e+01   1.1233337969e+01    0.1976341    0.1765637   2.59 0.0004182498    1.021    0.021
       428 -10.2761     84.6429    153.9718   8.9711958033e+01   3.3074132451e+01     0.228061    0.2084309  63.03 0.0003383125    1.060    0.056
       429 -10.4545     84.8594    148.5082   8.8771096932e+01   3.4263501876e+01    0.2636438    0.2362267 -40.50 0.0006169985    1.297    0.229
       430 -10.1559    208.5913    152.2223   6.2395420585e+01   1.0837368190e+01     0.285574     0.218218 -68.89  0.001104001    2.078    0.519
       431  -9.0964    223.7296    150.0438   5.9370181791e+01   8.4453886579e+00    0.1764107    0.1489875 -14.05 0.0002268061    1.062    0.059
       432 -10.4218     91.0822    148.2157   8.7140362710e+01   3.3351513601e+01    0.2222999    0.2057656 -58.77 0.0003497697    1.146    0.127
       433  -9.2420    226.5599    146.3877   5.8146182484e+01   8.4819265470e+00    0.2281581    0.1147032 -22.30 0.0001334435    2.232    0.552
       434  -9.6204    208.6740    142.9533   6.0419679474e+01   1.2275407062e+01    0.2386146    0.1755169  23.86 0.0004412013    1.435    0.303
       435  -9.7865     98.7999    145.3503   8.4680598935e+01   3.2725264656e+01     0.226481    0.2042744 -48.67 0.0003005359    1.191    0.160
       436  -8.9131    206.2313    145.9748   6.1495801135e+01   1.2255948577e+01    0.1859978     0.148191  -4.00 0.0003106015    1.287    0.223
       437  -8.4197    247.7505    142.9892   5.4179885794e+01   5.3209120569e+00    0.1611314   0.09406713 -29.20 0.0002809015    1.505    0.336
       438 -10.7643    214.5141    146.8009   6.0233603682e+01   1.0591340200e+01    0.2929684    0.2576447  41.86 0.0009112011    1.243    0.195
       439  -9.8163    214.8087    141.1530   5.8977424201e+01   1.1407245395e+01    0.1788882    0.1431408   0.83 0.0002459132    1.274    0.215
       440  -9.6855     78.4838    136.5563   8.8393698400e+01   3.7962472404e+01    0.2340943    0.2165372 -47.73  0.001399318    1.198    0.166
       441  -9.1056    219.9494    136.3493   5.7077820492e+01   1.1186305624e+01    0.1769968    0.1593521  15.27 0.0003979817    1.099    0.090
       442 -10.0375    206.0095    134.9842   5.9142134910e+01   1.4056943597e+01    0.2087085    0.1928609  -9.28 0.0005725368    1.014    0.014
       443 -10.7887     97.3685    131.9572   8.2480634708e+01   3.5963677930e+01    0.3884764    0.2422863 -56.62  0.001419068    1.579    0.367
       444  -9.2228    212.5472    132.5337   5.7471556213e+01   1.3181862991e+01    0.1359174    0.1233725 -11.65 -2.688004e-08    1.002    0.002
       445 -10.4906    104.0396    130.0254   8.0330438886e+01   3.5230052743e+01    0.2378258    0.2275939 -54.85 0.0003361205    1.082    0.076
       446  -9.5242    102.1176    126.6194   8.0114827221e+01   3.6333928177e+01    0.2526734    0.1947151 -38.39 0.0001416338    1.435    0.303
       447  -9.5394     87.8868    130.6950   8.4765267392e+01   3.7835325367e+01    0.2138387    0.1836521 -49.51 0.0003355107    1.208    0.172
       448 -10.4479     97.3043    117.7794   7.9473869419e+01   3.9180073227e+01    0.2718193    0.2446562   6.97  0.000450384    1.321    0.243
       449 -10.2863     92.9090    115.2677   8.0128636368e+01   4.0521182989e+01    0.3377897    0.2420333 -53.68 0.0004494566    1.344    0.256
       450 -10.7640     90.7396    121.3094   8.2064633480e+01   3.9513282872e+01    0.7014071    0.3899533  63.39  0.002763977    2.629    0.620
       451  -9.0033     86.4896    121.5438   8.3298776613e+01   4.0167623622e+01    0.2341891    0.2011031 -51.62 1.680827e-05    1.165    0.142
       452 -10.0809     77.0144    123.0066   8.6269066386e+01   4.1332666807e+01    0.5492328    0.2911647 -32.57  0.002016648    3.367    0.703
       453 -10.5843     82.2320    122.7961   8.4752191444e+01   4.0566740999e+01    0.7501433    0.2710536 -57.41  0.002516612    2.670    0.625
       454 -10.8178     81.1625    130.0734   8.6478305540e+01   3.9049371580e+01    0.2851886    0.2311423 -56.35 0.0003783152    1.211    0.175
       455  -9.3387     81.7505    126.6336   8.5652560021e+01   3.9753671122e+01    0.1987019    0.1429004  37.54 0.0004715922    1.465    0.318
       456 -10.2546     92.8280    129.0654   8.3107333532e+01   3.7390127941e+01    0.2455482    0.2169428 -49.03  0.001382228    1.173    0.147
       457 -10.0089    206.4847    129.0007   5.7715945745e+01   1.4929343856e+01     0.194557    0.1788124  22.46   0.00033316    1.098    0.089
       458  -9.3941     50.0332    128.5584   9.4950644518e+01   4.3718101406e+01    0.2325417    0.1634233 -52.44 0.0004758833    1.445    0.308
       459 -10.1861    211.9146    126.7170   5.6270336014e+01   1.4224214003e+01    0.2424026    0.1707469 -23.70 0.0008245466    1.390    0.281
       460 -13.4629    141.1804     90.7298   6.1113627288e+01   3.5965554663e+01     1.996328     1.111048 -36.43  0.008292843    1.827    0.453
       461  -9.8737     87.1945    126.0375   8.4028308761e+01   3.9017557480e+01    0.2148443    0.1978849  47.66 0.0003701235    1.130    0.115
       462 -10.4309     96.7072    123.3362   8.0861781266e+01   3.8027256582e+01    0.2518365    0.2404643 -32.87 0.0002915792    1.150    0.131
       463 -10.1736     33.5701    117.7883   9.8141563083e+01   4.8107839035e+01    0.2203172    0.1971166 -76.68  0.000327735    1.072    0.068
       464 -10.8704     38.9827    118.9308   9.6690247592e+01   4.7270669876e+01    0.6517805     0.210135 -51.35  0.001647801    3.066    0.674
       465  -9.0131     37.1695    114.8509   9.6604040817e+01   4.8437423605e+01    0.1972843    0.1540242 -57.44 0.0002759429    1.223    0.183
       466  -8.6133    208.3307    123.2812   5.6090229702e+01   1.5483959907e+01    0.1400134    0.1036824  11.40 0.0005737059    1.606    0.378
       467 -10.7015    202.3724    121.7094   5.6753250307e+01   1.6944466369e+01    0.4247687    0.2485899   2.66  0.001520833    3.528    0.717
       468  -9.2931      2.9057    123.3553   1.0775270371e+02   4.9364327789e+01    0.1538291    0.1368914 -85.63 0.0005191403    1.143    0.125
       469  -8.6165    113.4320    248.7578   9.5297388237e+01   1.1146980413e+01    0.1176208    0.1065157 -39.53  0.000380389    1.476    0.322
       470  -9.6282     62.7512     95.5647   8.4693348450e+01   4.9865932443e+01    0.2251994     0.191878 -51.69 0.0002621798    1.105    0.095
       471 -10.2827     59.8508    107.1185   8.8169297946e+01   4.7554976812e+01     0.260737    0.2385768  -7.15  0.000410282    1.310    0.236
       472 -10.1712     56.6199    111.8582   9.0113465954e+01   4.6860765944e+01    0.2414817    0.2212256 -57.77 0.0002973086    1.108    0.097
       473  -9.6916     54.2072    107.4793   9.0008554860e+01   4.8212724420e+01    0.2630406    0.2035884 -59.56 0.0003557117    1.174    0.148
       474 -10.4553     41.1062    104.3212   9.3578965352e+01   5.0527310129e+01    0.2799084    0.2195621 -66.15  0.001227842    1.116    0.104
       475  -9.9017     71.7825    105.0527   8.4024433285e+01   4.6326178647e+01     0.243283    0.2352431 -78.75 0.0002813461    1.057    0.054
       476 -10.7670     65.4072    103.3407   8.5621506600e+01   4.7669044649e+01    0.5001584    0.3459823  83.28    0.0011503    1.874    0.466
       477 -10.8476     57.3813    100.7333   8.7603322460e+01   4.9394872884e+01    0.4936819    0.4584937  36.04   0.00155306    1.199    0.166
       478 -10.3590     74.7985    117.7857   8.5857839912e+01   4.2890922691e+01    0.2660181    0.2284721 -62.77 0.0004085359    1.096    0.087
       479  -9.6387     64.9724    117.6008   8.8704144327e+01   4.4369618043e+01    0.3795519    0.2300231 -38.39  0.001456236    2.054    0.513
       480  -9.8327     69.0943    116.4646   8.7262616249e+01   4.4049312461e+01    0.2586625    0.2174964 -48.45 0.0003602603    1.219    0.179
       481  -9.0697     72.7952    114.1335   8.5691505426e+01   4.4049309444e+01    0.2000989    0.1631118 -27.76 0.0003010172    1.494    0.331
       482 -10.1791     62.0972    112.8812   8.8642988213e+01   4.5884771827e+01    0.2726136    0.2260581 -46.03 0.0004362742    1.256    0.204
       483 -10.3939     44.4271    107.8708   9.3165424871e+01   4.9306270552e+01    0.2676118    0.2039651 -49.13 0.0005436615    1.313    0.238
       484 -10.5499     49.5805    105.1397   9.1013595882e+01   4.9346946794e+01    0.3803346    0.2693185  23.56 0.0003789968    1.696    0.410
       485 -10.5701     69.6667    110.3321   8.5826874224e+01   4.5407476635e+01     0.415223    0.2641163 -73.59  0.001186883    1.725    0.420
       486  -9.9353     65.4774    109.4751   8.6920543250e+01   4.6216595663e+01    0.2522686    0.2277836  82.38 0.0005362991    1.108    0.098
       487 -10.3045     58.7356    117.5698   9.0550475410e+01   4.5226283120e+01    0.2474619    0.2104755 -55.93 0.0002893976    1.159    0.137
       488  -8.9785     48.5070    115.0095   9.3171568605e+01   4.7124480345e+01    0.1864346    0.1520746 -69.41 0.0003487919    1.092    0.084
       489  -8.7626     48.5609    111.5623   9.2541828058e+01   4.7940251585e+01    0.2010096    0.1488015  74.87 0.0001133299    1.468    0.319
       490  -9.6510     52.9918    116.3046   9.2042288351e+01   4.6266702263e+01    0.2326536    0.1760493 -61.10 0.0003960197    1.208    0.172
       491  -9.3527     52.2974    112.7033   9.1598911444e+01   4.7211137822e+01     0.235651    0.1698813 -75.91 0.0007484586    1.322    0.243
       492  -9.7241     17.0271    117.0456   1.0299924236e+02   4.9791803930e+01    0.1846454    0.1540547 -79.86 0.0003422434    1.031    0.030
       493  -9.7913     86.7737    116.0154   8.2032005701e+01   4.1393830605e+01    0.2234733    0.2075705  23.47 0.0002935809    1.213    0.175
       494 -13.6279    142.8978    136.4089   7.2189580012e+01   2.6472584298e+01     2.430511     1.355624 -52.40  0.008531853    1.933    0.483
       495 -10.3066     28.4550    114.6102   9.9229483681e+01   4.9365581989e+01    0.2220275    0.1855879 -64.47 0.0004085274    1.129    0.114
       496  -9.6230     32.6784    112.1243   9.7560639705e+01   4.9548677681e+01    0.2399333     0.204935  -7.18 0.0004207702    1.514    0.339
       497  -9.0536      1.4737    115.0318   1.0738994173e+02   5.1393980993e+01    0.1771646   0.09624527 -76.54 0.0003367398    1.474    0.322
       498 -10.3558     43.2303    113.2444   9.4482404003e+01   4.8159629908e+01    0.2304535    0.2031158 -63.77 0.0003051942    1.097    0.088
       499 -10.6312    210.6594    111.9812   5.3051765674e+01   1.6820161159e+01    0.3312776    0.2183003   6.28  0.001481884    2.215    0.549
       500  -9.6267     77.9579    113.0939   8.3946731267e+01   4.3497761856e+01    0.2044358     0.190567 -61.54 0.0003432896    1.055    0.052
       501  -8.9564     17.5115    113.0222   1.0235574409e+02   5.0704811444e+01    0.1766609    0.1400886 -78.10 -4.918278e-05    1.046    0.044
       502  -9.9391     14.1857    112.1908   1.0326755845e+02   5.1165240684e+01    0.3062701    0.1287252 -62.84 0.0009898958    1.930    0.482
       503 -10.3372     17.8543    108.6621   1.0168181307e+02   5.1711136501e+01    0.3234688    0.2097974  36.30   0.00149504    1.709    0.415
       504 -10.5916     24.7224    110.3498   9.9769556728e+01   5.0724320322e+01    0.2337957    0.2220537 -47.94 0.0002454869    1.224    0.183
       505 -10.1255     24.4193    105.4692   9.9146528584e+01   5.1913940054e+01    0.3914435    0.1857863  47.37  0.001396567    2.335    0.572
       506  -9.4801     22.8731    101.1627   9.8987781852e+01   5.3074349260e+01    0.4611266    0.2425704 -21.65  0.001966261    3.462    0.711
       507  -9.5480     81.9035    111.9801   8.2544808881e+01   4.3125905281e+01    0.2058182    0.1922156 -72.42 0.0002867426    1.003    0.003
       508  -9.7040     17.9077    103.0741   1.0089248780e+02   5.3033430372e+01     0.209545    0.1786574 -48.17  0.000337347    1.257    0.204
       509 -11.1418     11.9164    106.2436   1.0323352216e+02   5.2742505970e+01    0.3691321    0.3019856  46.45  0.001505492    1.360    0.265
       510  -9.6457      5.9955    112.0143   1.0573510945e+02   5.1801392081e+01    0.1811949    0.1471544 -83.12  0.000322216    1.009    0.009
       511  -9.9770      9.1338    109.7818   1.0452898836e+02   5.2108316245e+01    0.3469318    0.1736988  81.84  0.001235768    2.166    0.538
       512  -9.6249     89.9900    110.3119   7.9818084239e+01   4.2155528272e+01    0.2691451    0.2095212 -38.34 0.0003505773    1.384    0.278
       513  -9.0450     90.7152    106.7240   7.8756772155e+01   4.2845658657e+01    0.2198507    0.1904262 -42.89 0.0002012446    1.173    0.148
       514  -9.7839     38.9578    110.3004   9.5310836278e+01   4.9334090388e+01    0.2345677    0.1653715 -62.86 0.0003770979    1.247    0.198
       515  -9.1778     35.5727    108.4491   9.6066419820e+01   5.0133036513e+01    0.1939217    0.1757784 -88.51 8.741528e-05    1.072    0.067
       516  -8.9821     74.3820    110.1320   8.4363971247e+01   4.4743999324e+01     0.194647    0.1675068 -66.63 0.0004915639    1.087    0.080
       517 -11.2698     96.3219    106.9098   7.7191976665e+01   4.1806513930e+01    0.5236411     0.330974 -24.02  0.002124777    2.521    0.603
       518 -10.1093    100.1806    100.0335   7.4351399910e+01   4.2622899910e+01    0.3750726    0.2817518  33.54 0.0008577464    1.462    0.316
       519  -8.7305     29.0130    109.0200   9.8227557319e+01   5.0645920003e+01    0.1541779    0.1298545 -76.55 0.0003288571    1.009    0.009
       520 -10.2671    249.8062    106.2112   4.5983157496e+01   1.0044015342e+01    0.2501675    0.1789254 -49.74  0.001255714    1.507    0.337
       521  -8.7507    210.3098    107.2861   5.1983880203e+01   1.7639141008e+01    0.1388712    0.1058941  10.81 0.0002124319    1.574    0.364
       522 -13.5202    134.6818    148.6534   7.6647556339e+01   2.5588446633e+01     3.046509     1.279194 -60.83  0.009719891    4.058    0.754
       523 -10.2188     74.8958    100.7198   8.2056585670e+01   4.6850563532e+01      0.45217    0.2395655  26.19  0.001280339    2.537    0.606
       524  -8.9194     80.7896     99.0084   7.9823343046e+01   4.6291722292e+01    0.2036141    0.1827305 -88.92  0.001139903    1.163    0.140
       525 -10.9774     85.1258    105.1108   8.0007229143e+01   4.4172941449e+01    0.3291637    0.2710537 -75.17  0.000590649    1.264    0.209
       526 -10.2748     85.8744     98.8168   7.8230556185e+01   4.5476337099e+01    0.3425588     0.255833 -22.91 0.0008678162    1.726    0.421
       527  -9.3382     88.4235     94.1467   7.6247009424e+01   4.6078579072e+01     0.221072    0.1966797  19.17 0.0004255847    1.269    0.212
       528 -10.7086     77.5634    105.1885   8.2291746611e+01   4.5395436299e+01    0.2669386    0.2303888 -36.36 0.0003709822    1.248    0.199
       529  -8.8869      4.5375    106.5441   1.0558226749e+02   5.3182316592e+01    0.1219372   0.09813288 -80.31 7.482518e-05    1.004    0.004
       530 -10.4799     92.3656    102.0178   7.7115347166e+01   4.3616311523e+01    0.4864069    0.3209854  55.44  0.001415587    1.707    0.414
       531  -8.3042      1.2672    103.6425   1.0628583041e+02   5.4067875896e+01    0.1241485   0.07600621  73.98 0.0006364318    1.636    0.389
       532  -9.0898     32.1468     96.1321   9.5039061048e+01   5.3414297241e+01    0.2535779     0.169034  73.29 0.0002961325    1.776    0.437
       533  -9.6485     36.1555    102.1421   9.4793324749e+01   5.1578008229e+01    0.1907504    0.1873068 -78.82 0.0004364261    1.154    0.133
       534  -9.2488     34.7048     98.7269   9.4654924448e+01   5.2540821123e+01    0.1964059    0.1429014 -61.55 0.0001855144    1.192    0.161
       535  -9.0032     46.3607    100.9528   9.1228973668e+01   5.0728566929e+01    0.1871574    0.1495565 -63.91 0.0004097237    1.107    0.097
       536  -9.0812     30.4955    100.0784   9.6294387050e+01   5.2636621146e+01    0.1754308    0.1630953 -76.37 0.0003525603    1.094    0.086
       537  -9.4375     67.2035     98.3055   8.3902891518e+01   4.8583106973e+01    0.2207031     0.191678 -38.75 0.0005566006    1.204    0.170
       538  -8.8589     71.2856     97.3989   8.2388701265e+01   4.8178382641e+01    0.1860247    0.1729074  56.08 0.0004324351    1.139    0.122
       539 -10.1482     74.8130     94.3880   8.0525241524e+01   4.8317742967e+01    0.2793129    0.2354509  -3.04 0.0004590532    1.470    0.320
       540  -8.8533     17.4882     98.0282   1.0029044867e+02   5.4263903745e+01    0.1730822    0.1580176 -77.60 0.0004540136    1.103    0.094
       541  -9.8199     13.8375     97.3594   1.0141035441e+02   5.4702149198e+01    0.3592808    0.1698375 -37.91   0.00165771    2.709    0.631
       542  -9.0040     18.5217     93.9630   9.9309314787e+01   5.5144665143e+01     0.176644    0.1371222 -70.28 0.0003197159    1.073    0.068
       543  -9.3199     15.1847     93.3765   1.0036017668e+02   5.5542770671e+01    0.2502557    0.1864001  76.16 0.0003696327    1.396    0.284
       544 -10.1715     50.6897     97.3469   8.9060860663e+01   5.1057237480e+01     0.229319    0.1993212 -52.31 0.0003126862    1.108    0.098
       545 -10.0311     40.2930     96.4630   9.2350840473e+01   5.2486223198e+01    0.4567488    0.1593754 -50.41  0.001088887    2.619    0.618
       546  -9.0891      8.5412     98.5075   1.0332521759e+02   5.4807500685e+01    0.1239308    0.1003032 -74.82 8.343034e-05    1.015    0.014
       547  -9.8769     45.6637     96.3880   9.0532316087e+01   5.1892710879e+01    0.2337016    0.1942211 -50.47 0.0003589183    1.158    0.137
       548  -8.8477     22.6154     96.7648   9.8371981742e+01   5.4141583706e+01    0.1676186    0.1335654  78.45  0.000191214    1.281    0.219
       549  -9.7539     27.5555     94.8517   9.6369510016e+01   5.4156372315e+01    0.3096719    0.1876142  16.91 0.0009198778    2.110    0.526
       550 -10.8869    241.4988     96.5085   4.4869501578e+01   1.2967209487e+01    0.2242766    0.2068782  49.67 0.0008474507    1.241    0.194
       551 -11.4501    243.0109     93.0206   4.3869260989e+01   1.3166070277e+01    0.2850631    0.2393136 -55.82  0.001741831    1.282    0.220
       552 -12.8070    135.9454    123.5488   7.0885243658e+01   3.0495508868e+01     1.092626     1.042854  -0.64  0.004055705    1.116    0.104
       553  -9.6700    104.9768     90.5665   7.0410857379e+01   4.3744178999e+01    0.4404088    0.2615489 -65.53  0.001748578    2.341    0.573
       554  -8.8557    100.7600     89.9394   7.1439812303e+01   4.4705287934e+01    0.2160376    0.1924276 -20.69 0.0003547196    1.225    0.184
       555  -8.8379     94.7046     91.2796   7.3587710892e+01   4.5567788819e+01    0.2280905    0.1984868  47.63 0.0001909929    1.198    0.166
       556 -10.3024     94.2999     95.7493   7.4921847948e+01   4.4661942345e+01    0.3225336    0.2622412 -76.07 0.0006719559    1.380    0.275
       557 -10.5942    100.3483     94.0143   7.2692465936e+01   4.3906437083e+01    0.7058086    0.3205175  51.16  0.002650061    2.527    0.604
       558 -10.2024    227.9522     95.3212   4.6431750885e+01   1.5829707822e+01    0.1806892    0.1743015  16.93 0.0005219258    1.123    0.110
       559  -8.8328      7.5084     95.5495   1.0327609634e+02   5.5573337581e+01    0.1231058     0.100256 -74.29 0.0001147755    1.012    0.012
       560  -9.2493      3.4442     95.5093   1.0462901722e+02   5.5841306374e+01    0.1768774   0.09771176 -84.37 9.009356e-05    1.612    0.380
       561  -9.7300      3.4947     92.0421   1.0416820306e+02   5.6650810235e+01    0.1811738   0.09849413 -73.34 0.0003127517    1.479    0.324
       562 -10.2347     80.9842     93.2753   7.8299624721e+01   4.7559332765e+01     0.241657    0.1932626 -46.59 0.0003144852    1.198    0.165
       563  -8.6389     68.5784     94.2162   8.2476800180e+01   4.9324388443e+01    0.1884031    0.1219959 -46.25 0.0003300016    1.488    0.328
       564  -9.7158     55.6723     93.3228   8.6507805009e+01   5.1361670217e+01    0.3526239    0.2150272 -40.98  0.001262902    1.750    0.428
       565 -10.2295     60.6933     89.6779   8.3952913984e+01   5.1521424019e+01    0.4110911    0.2682644  59.63  0.001482073    1.938    0.484
       566 -10.7696    249.0673     92.0993   4.2898995398e+01   1.2133019879e+01    0.2458696    0.1960154 -55.35  0.001002173    1.355    0.262
       567 -10.0144     35.1799     91.5277   9.3117003296e+01   5.4199324951e+01    0.2308882    0.2227549  39.40 0.0008977421    1.193    0.162
       568  -9.2440    108.7870    247.7585   9.6035740366e+01   1.1927540197e+01    0.1530695       0.1451 -36.73 0.0007681386    1.414    0.293
       569  -8.8135     66.5060     91.0353   8.2359950127e+01   5.0366501250e+01    0.2027228    0.1281924 -54.70 0.0003776764    1.449    0.310
       570  -9.1900     22.0201     91.2994   9.7656547616e+01   5.5487061167e+01    0.1630784    0.1520365 -74.81 0.0003054966    1.111    0.100
       571  -9.3233     43.1923     89.7809   8.9966958232e+01   5.3737261713e+01    0.1863924     0.166306 -80.52   0.00042502    1.101    0.092
       572 -11.3009    198.9926     88.2854   4.9074204363e+01   2.3124328497e+01    0.4177215    0.2284589  48.42  0.001200356    1.932    0.482
       573  -9.7071     88.0784     88.3009   7.4758033392e+01   4.7431918144e+01    0.2420096    0.1944841 -47.88 0.0004964227    1.183    0.155
       574 -10.4982     71.3788     88.7647   8.0178489352e+01   5.0139752301e+01    0.2398325     0.219126 -29.62 0.0004288851    1.154    0.134
       575  -8.6350     29.5350     89.4513   9.4683358871e+01   5.5249033630e+01    0.1297591    0.1106379 -64.30 8.539611e-05    1.021    0.020
       576  -8.4683     17.4685     89.5326   9.8949853618e+01   5.6274560721e+01    0.1265309    0.1048957 -68.41 0.0001387041    1.015    0.015
       577  -9.4453     12.0640     89.1394   1.0078642716e+02   5.6770082846e+01    0.1870152    0.1390616 -53.69 0.0003713373    1.240    0.194
       578  -9.6276     83.2405     87.0081   7.5899421598e+01   4.8571276725e+01    0.4388894    0.2202356 -36.35  0.001052649    2.427    0.588
       579  -9.6698     49.0039     91.5001   8.8346093110e+01   5.2641544912e+01    0.2314608    0.1639569 -47.51 0.0003783196    1.341    0.254
       580  -8.8892    207.2993     87.2873   4.7497938508e+01   2.1432945414e+01      0.13831    0.1085163  13.44            0    1.555    0.357
       581 -10.9074     94.8486     85.8464   7.2008212277e+01   4.6715151533e+01    0.4111349     0.248946  42.15  0.001069498    1.729    0.422
       582 -10.0947     65.1224     85.6854   8.1442777924e+01   5.1793927437e+01    0.3982852    0.3141862  76.24  0.001439275    1.555    0.357
       583  -8.5077     67.4313     82.5798   7.9827726847e+01   5.2145854587e+01    0.1983574    0.1608822 -23.16 0.0001403014    1.408    0.290
       584  -8.6746     47.0078     87.5263   8.8129501801e+01   5.3814312584e+01    0.1797702    0.1335355  34.28 0.0004171049    1.501    0.334
       585  -9.6925     34.8201     86.4170   9.2194112826e+01   5.5439637311e+01    0.3113088    0.1946788   4.16  0.001547434    2.328    0.570
       586  -8.7179     21.9504     86.6931   9.6860808978e+01   5.6579368594e+01    0.1623125    0.1495989 -66.20 0.0003546734    1.099    0.090
       587  -9.4295      5.8642     87.1477   1.0267157980e+02   5.7651076392e+01    0.1722981    0.1426387 -87.87  0.000327016    1.129    0.114
       588  -9.3271     76.2003     86.1489   7.7906964955e+01   4.9953391281e+01    0.2043653    0.1826784 -29.80 0.0005823993    1.170    0.145
       589  -9.5332    107.4948     85.0502   6.8106122194e+01   4.4394851928e+01    0.2392924    0.2046985  21.47 0.0004288615    1.321    0.243
       590  -9.3623     15.9712     85.0962   9.8729929042e+01   5.7433453909e+01    0.1856779    0.1546052 -64.15 0.0003616954    1.039    0.038
       591 -10.6678    213.9767     84.5212   4.5791930087e+01   2.0391807754e+01     0.310286    0.1229426  50.77  0.001209705    2.662    0.624
       592  -9.0151     40.9284     83.8326   8.9432991255e+01   5.5384997073e+01    0.1914533    0.1587576 -40.45 0.0003223207    1.213    0.175
       593  -9.2045     27.5620     84.0887   9.4331428996e+01   5.6695144077e+01     0.231558    0.1635892  32.51  0.001004167    1.619    0.382
       594 -10.4827    243.7023     82.9788   4.1452554452e+01   1.4428439826e+01    0.1957592    0.1561304 -33.78 0.0007786216    1.083    0.077
       595  -9.4771    102.8748     82.8030   6.8754428468e+01   4.5794198463e+01    0.2316879    0.1932221 -31.72 0.0003481826    1.235    0.190
       596  -9.0063    104.5237     78.9432   6.7110710328e+01   4.6254481653e+01    0.2043711    0.1764175 -42.45 0.0003217396    1.122    0.108
       597  -9.3964     88.9822     82.4382   7.2799708873e+01   4.8539468209e+01    0.2251365    0.1881525 -35.76  0.000181521    1.199    0.166
       598 -10.4191     93.0767     78.3750   7.0323274257e+01   4.8633265891e+01    0.4571005    0.3167675  -0.55  0.001901072    2.356    0.576
       599  -8.6391     97.7290     81.3152   6.9814286670e+01   4.7121011654e+01    0.1851963    0.1416238  32.72  0.000246304    1.434    0.303
       600  -9.3739     99.0060     78.0211   6.8433359424e+01   4.7552886421e+01     0.250951    0.2320335 -34.89  0.000328254    1.060    0.057
       601  -9.0662     71.5017     83.1869   7.8630458767e+01   5.1374334108e+01    0.2033086    0.1301399 -50.69  0.000583253    1.443    0.307
       602  -8.5757     59.5339     83.5165   8.2779949284e+01   5.3097075467e+01    0.1383782    0.1250077 -52.23  0.000143658    1.019    0.019
       603  -8.7273     80.1378     84.1441   7.6078958039e+01   4.9736981266e+01     0.182154    0.1620861 -86.80    0.0002776    1.241    0.194
       604  -9.7671    115.5200     81.6480   6.4881013165e+01   4.3411608981e+01    0.2557673    0.2405882  11.84 0.0005482592    1.134    0.118
       605  -8.5908     56.2073     81.8527   8.3503653152e+01   5.3937756028e+01    0.1814592    0.1452585 -36.48 0.0002845855    1.275    0.216
       606  -8.7696     51.7185     81.8966   8.5101448659e+01   5.4525332398e+01    0.1850349    0.1537352 -59.97 0.0003096778    1.093    0.085
       607  -8.5636     34.4657     82.3971   9.1453869332e+01   5.6415907455e+01    0.1289138    0.1130528 -59.04  0.000132823    1.025    0.025
       608  -9.7897    109.7380     81.0398   6.6278740884e+01   4.4753794818e+01    0.2444262    0.2118762  32.91 0.0002119188    1.225    0.184
       609  -9.4147     14.5771     81.1786   9.8551912235e+01   5.8454709777e+01    0.1724164    0.1499019  -3.64   0.00028864    1.399    0.285
       610  -9.1986      2.4751     80.9468   1.0298219447e+02   5.9299700033e+01    0.1900922   0.09723865 -70.79 0.0007029056    1.557    0.358
       611  -9.1843    113.6221    223.1614   9.2588203463e+01   1.5125785655e+01    0.2103539    0.1918281  10.03 0.0001185395    1.343    0.256
       612  -9.7734     95.6290     58.9016   6.3130595347e+01   5.1984827202e+01    0.5439847    0.2462854  34.09  0.001924899    3.056    0.673
       613 -10.2441    114.3806     75.0205   6.3142141527e+01   4.4963181658e+01    0.5992182    0.4330415   5.76  0.002646815    2.037    0.509
       614 -10.5519    122.5564     67.8854   5.8707284813e+01   4.4496118195e+01    0.4939439    0.3478722   2.34  0.001623678    2.125    0.529
       615 -10.8434    120.1247     63.8441   5.7996097274e+01   4.5778383987e+01    0.4206851     0.317558  32.26  0.001216826    1.473    0.321
       616 -11.1386     94.2024     65.7250   6.5918136776e+01   5.0972910716e+01     1.022806    0.4878624  33.56  0.003808232    2.771    0.639
       617 -10.0122    115.0542     59.3152   5.7779219759e+01   4.7728315522e+01    0.3576041    0.2395665 -25.19  0.001516691    1.649    0.394
       618 -10.1438     61.5268    247.6771   1.0447218391e+02   1.8005137428e+01      0.18306    0.1385818  54.57 0.0004620711    1.049    0.046
       619 -10.5388    110.0946     70.7597   6.2953094174e+01   4.6709074001e+01    0.7449409    0.3138917 -42.76  0.002776905    2.307    0.567
       620 -10.2103    115.9880     68.7072   6.0684094646e+01   4.5815432555e+01      0.30502    0.2459301   5.17 0.0003439201    1.527    0.345
       621 -10.4078    104.8991     69.0298   6.3851308349e+01   4.8143905329e+01    0.4562301    0.3485697  -4.64  0.001291052    1.702    0.412
       622  -9.5897    101.2115     66.4110   6.4049999189e+01   4.9416777258e+01    0.2691212    0.2214829 -68.85 0.0006476648    1.428    0.300
       623 -10.8120    103.2371     62.8463   6.2254578896e+01   4.9668207695e+01    0.6185023    0.5336609 -18.33  0.003327911    1.215    0.177
       624  -9.9791     75.2024     79.2967   7.6294164155e+01   5.1631362147e+01    0.2411264    0.2098355 -32.01  0.001068528    1.165    0.142
       625  -9.2871     38.3125     79.9457   8.9481480661e+01   5.6576569423e+01    0.1978323    0.1766633  57.16 0.0003714382    1.261    0.207
       626  -8.5771     23.6184     80.1482   9.4988542428e+01   5.7969718370e+01    0.1778683   0.09571135 -55.63 0.0001580834    1.544    0.352
       627  -9.9403    248.6832     79.5850   4.0075905540e+01   1.3914627857e+01    0.2248991    0.1223768  54.51  0.001133014    2.084    0.520
       628 -11.4666    193.8380     78.0573   4.7210565114e+01   2.5919533160e+01    0.3284081    0.2759802 -62.90  0.001653248    1.262    0.208
       629 -12.5246    105.2832    112.8755   7.6147852007e+01   3.8823592151e+01     1.773083    0.8902133 -41.09  0.005192135    2.179    0.541
       630  -9.5100     63.8787     78.9931   8.0049160429e+01   5.3485441187e+01    0.2839042    0.1878867 -60.90  0.001151146    1.505    0.336
       631  -8.9053     60.1663     79.5939   8.1509771297e+01   5.3894488496e+01    0.2231674    0.1433828  27.62 0.0004027245    1.810    0.448
       632  -8.9836     58.0079     76.9824   8.1552152074e+01   5.4787157458e+01    0.2021765    0.1851751 -54.53 0.0003157099    1.024    0.024
       633  -9.1191     28.2200     78.8811   9.2998931292e+01   5.7848605393e+01    0.1804334    0.1553533 -77.64 0.0005272236    1.130    0.115
       634  -8.8465     69.7021     78.4488   7.7894612819e+01   5.2709828311e+01    0.1675694    0.1380837  17.81 0.0003725231    1.402    0.287
       635  -9.7377     43.7514     77.3976   8.6848549652e+01   5.6543125651e+01    0.2364313    0.2068756 -39.73 0.0007825537    1.127    0.112
       636  -8.2614     34.3610     78.2358   9.0550416561e+01   5.7392089677e+01    0.1265878   0.09147822 -28.31 0.0003139324    1.588    0.370
       637  -8.9877      7.8919     78.3411   1.0055692412e+02   5.9576390547e+01    0.1623997    0.1384107 -57.99 0.0004356109    1.100    0.091
       638  -8.6910     53.9912     77.2498   8.3066166127e+01   5.5280869847e+01    0.1772442    0.1646874 -44.42  0.000292897    1.051    0.048
       639  -8.7329     17.8169     77.1861   9.6586027403e+01   5.9138027960e+01    0.1732564    0.1221766 -46.80  0.000349278    1.321    0.243
       640  -9.2222     48.6792     76.0565   8.4680955653e+01   5.6244317171e+01    0.1910269    0.1516938 -52.87 0.0003400653    1.117    0.105
       641  -9.5036    102.4953     74.3213   6.6253295883e+01   4.7601050170e+01    0.2336804    0.2182733   8.29 0.0003330618    1.137    0.120
       642  -9.1545     65.7595     75.4200   7.8371469551e+01   5.3990738940e+01    0.1696185    0.1359814  18.12  0.000272066    1.450    0.310
       643  -9.9585     73.8990     73.0889   7.4871445298e+01   5.3189711260e+01    0.2210562    0.2136971 -77.02 0.0003077303    1.101    0.092
       644  -8.8936     70.6556     70.0881   7.5051209511e+01   5.4365010884e+01    0.3310717    0.1345291 -55.32 0.0007092822    2.696    0.629
       645 -10.6154     10.0989     72.8372   9.8732785039e+01   6.0705079814e+01    0.3762921    0.1474625 -69.65  0.001656714    2.160    0.537
       646 -10.1414    116.0508    219.9424   9.1745018698e+01   1.5306187440e+01    0.3269145     0.254554  59.44  0.001373853    1.225    0.184
       647 -10.0719     97.3364     71.7814   6.6963483842e+01   4.9151067333e+01    0.2672151    0.2333107  14.57 0.0004334849    1.274    0.215
       648  -8.7210     63.9002     72.3092   7.8103814558e+01   5.4954590058e+01     0.200477    0.1678914  64.70 0.0004480311    1.422    0.297
       649 -10.7082    207.1947     71.1077   4.3324780210e+01   2.3907564487e+01    0.4744906    0.1537703 -31.30  0.001635383    2.920    0.658
       650 -12.9167    116.0315    108.2463   7.2128072639e+01   3.7754939827e+01     2.025289     1.004099 -30.07  0.006727239    3.405    0.706
       651  -9.3929     79.3937     70.3004   7.2153098382e+01   5.2833651327e+01    0.2316023    0.1976923 -24.05 0.0005744833    1.220    0.180
       652  -9.2606     50.3307     71.0438   8.2687282973e+01   5.7154974476e+01     0.185874    0.1551114 -49.61 0.0004457012    1.068    0.064
       653  -8.3519     42.5486     71.5250   8.5767644994e+01   5.8016810983e+01    0.1326945    0.1169237 -54.60 5.024879e-05    1.020    0.020
       654  -9.7320     37.0402     70.2103   8.7545290969e+01   5.8939963667e+01    0.2837131     0.175611 -68.07  0.001142013    1.629    0.386
       655  -8.7677     23.2783     71.5452   9.3277871563e+01   5.9988071702e+01    0.1485905    0.1191034 -14.43 0.0004594336    1.461    0.315
       656  -8.4862     58.5224     69.0758   7.9069172545e+01   5.6456178385e+01    0.1935736    0.1237344 -49.88 0.0003120315    1.415    0.293
       657 -13.7109    133.1932    107.9304   6.7694656061e+01   3.4286664590e+01     1.732794       1.6464  70.50  0.009573089    1.079    0.073
       658  -8.5076     44.4479     66.8074   8.3720567760e+01   5.8838937050e+01     0.179832    0.1102864 -46.03 0.0004074764    1.459    0.315
       659  -8.6901     64.5261     66.0092   7.5927246727e+01   5.6208515620e+01    0.2026313    0.1264364 -47.76 0.0003645449    1.470    0.320
       660  -9.7399    112.8388     64.1896   6.0030659215e+01   4.7346270250e+01    0.2473947    0.2224474 -20.86  0.000274158    1.136    0.120
       661  -9.1186     81.8412     65.3471   6.9722383969e+01   5.3408517448e+01     0.186512     0.173029  13.57 0.0003645599    1.130    0.115
       662  -8.7184     76.5350     64.9388   7.1364039810e+01   5.4440498108e+01    0.2048136    0.1319414 -46.67   4.1272e-06    1.465    0.317
       663  -9.0527     71.7586     64.8647   7.2985927433e+01   5.5275183783e+01    0.2014943    0.1733762 -27.37 0.0003364602    1.154    0.134
       664 -12.0358    160.3022    195.3332   7.9574112535e+01   1.2411348618e+01    0.8985974    0.8279948  10.48  0.005995308    1.097    0.089
       665 -10.1168     87.1353     62.9283   6.7180966426e+01   5.2898699971e+01     0.347252    0.2602137 -56.37  0.001181713    1.445    0.308
       666  -9.8730     88.6999     58.9219   6.5286530871e+01   5.3367705418e+01    0.3787373    0.3070366  79.79  0.001955026    1.629    0.386
       667  -8.8715     74.0246     68.6990   7.3450003694e+01   5.4096592837e+01    0.1821404    0.1737388   0.40 0.0002599558    1.093    0.085
       668 -10.6723     92.4429    227.7824   9.7158532183e+01   1.7344664056e+01    0.3346928    0.2154099  54.85   0.00107591    1.334    0.250
       669  -8.8136     66.8250     62.2724   7.3874642669e+01   5.6622386757e+01    0.1803534      0.15043 -15.33  0.000348588    1.297    0.229
       670  -8.6306     41.2068     61.1473   8.3335726810e+01   6.0469534034e+01    0.1663216    0.1499997 -83.26 0.0009688726    1.265    0.209
       671 -10.8176    109.6852    226.3623   9.3702678971e+01   1.5165150650e+01    0.2618334    0.2050723 -38.69 0.0005749391    1.708    0.414
       672  -9.6995     79.9314     60.2748   6.8625698891e+01   5.4765960292e+01    0.4012786    0.1831779  39.80 0.0009066891    2.352    0.575
       673  -8.3147     72.7065     60.7220   7.1258272293e+01   5.5957421177e+01     0.136277    0.1060415 -10.19 0.0001702141    1.528    0.345
       674  -8.6274     62.1984     60.1817   7.4865012078e+01   5.7786036070e+01    0.1704609    0.1535947 -67.78 0.0002993966    1.227    0.185
       675  -8.9869    207.5222     58.4713   3.9936520886e+01   2.5646404319e+01    0.1400518    0.1285238 -49.01 0.0001136592    1.006    0.006
       676 -11.9903    166.5442     53.8203   4.4837422860e+01   3.6216929366e+01     0.576601      0.39287  89.12  0.001465696    1.857    0.462
       677 -10.6559    172.0500     50.4539   4.2882270823e+01   3.5339906299e+01    0.3242673    0.2055688 -26.88 0.0009574685    1.625    0.385
       678  -8.3403     49.3032     58.7298   7.9333529847e+01   5.9958269524e+01    0.1228231    0.1037372  82.80  0.000275024    1.532    0.347
       679  -8.7345    104.8975     57.1721   5.9804528090e+01   5.0349306765e+01    0.1939529    0.1665669  14.26 0.0003777835    1.279    0.218
       680  -8.5169     57.4269     57.5576   7.5774853781e+01   5.9051213516e+01    0.1354325    0.1207359 -34.08 0.0001149753    1.024    0.024
       681  -9.6742     82.7276     55.9399   6.6154651251e+01   5.5081363459e+01    0.2494235    0.2229127 -43.81  0.001107169    1.106    0.096
       682  -9.9681    176.2165     55.0168   4.3569491603e+01   3.3650342106e+01    0.2639748    0.1517038 -57.52  0.001090978    2.094    0.522
       683  -8.9292     62.7319     55.0429   7.2887027976e+01   5.8743539704e+01    0.1921184    0.1593819 -37.46 0.0003749676    1.105    0.095
       684  -9.7140     99.9160     53.5836   5.9947724099e+01   5.2052966213e+01    0.3483964    0.1827807 -34.86 9.105218e-05    1.909    0.476
       685  -9.7258    108.1691     76.0075   6.5164579190e+01   4.6091107268e+01    0.2894556    0.2724609  12.30 0.0008206888    1.123    0.109
       686  -9.0038     69.0126     53.8011   7.0125160553e+01   5.7955020650e+01    0.3095185    0.1853855  30.53  0.001457744    1.917    0.478
       687  -8.1099     43.3108     54.7006   8.0435741637e+01   6.1585368813e+01    0.1233199    0.1024241  84.76 0.0002622975    1.602    0.376
       688 -10.9954    114.0032     53.0143   5.5846887725e+01   4.9049779778e+01    0.6137361    0.3521656  -5.29  0.002038146    3.748    0.733
       689 -10.9263    113.3760     47.7581   5.4110864942e+01   5.0056873257e+01    0.4406148    0.2826211 -55.27  0.001967604    1.905    0.475
       690 -11.0933    115.4951     44.5136   5.2377584189e+01   5.0079725847e+01    0.4380593    0.2960501 -83.89   0.00185861    2.381    0.580
       691  -8.7864     86.8749     52.5048   6.3544533332e+01   5.4917853150e+01    0.1956535    0.1391625  42.37 0.0003153065    1.451    0.311
       692 -10.5873    122.6298     50.3284   5.2720584667e+01   4.7494030087e+01    0.2711439     0.218756 -22.48  0.001393424    1.290    0.225
       693 -11.9886    123.6411     46.1810   5.1001989320e+01   4.7905975674e+01    0.6850638    0.3383135 -39.39  0.002502556    2.002    0.501
       694  -8.2378     19.7129     48.3312   8.8750372052e+01   6.5446363289e+01    0.1162179   0.09288355  84.93   0.00032385    1.620    0.383
       695  -9.1399     91.1133     51.3625   6.1780612991e+01   5.4275637870e+01    0.2221947    0.1859674 -22.08 0.0003883377    1.200    0.167
       696  -9.2114     90.9998     47.0562   6.0186321272e+01   5.5050272046e+01    0.1693902     0.154979 -24.87 0.0004208726    1.052    0.050
       697  -8.8957     73.7278     46.2602   6.5590836277e+01   5.8538788205e+01     0.186464     0.151661  -3.93 0.0005861717    1.339    0.253
       698 -12.6691    156.4708    179.0169   7.7607443978e+01   1.5838222116e+01     1.353123     1.102143 -32.38  0.008021456    1.338    0.252
       699 -10.1505    224.2675    247.0049   7.6053905576e+01  -3.9029300991e+00    0.1787745    0.1184259  -9.90 0.0007707108    1.510    0.338
       700  -8.8748    127.3384     44.2855   4.9468479310e+01   4.7308126007e+01    0.1510914    0.1097464  26.19 0.0002668152    1.632    0.387
       701 -10.4817     82.0275     78.0707   7.3698837155e+01   5.0727648280e+01    0.4983581    0.3914779 -71.65  0.001589416    1.481    0.325
       702  -9.6312     84.8930     43.8152   6.0854229092e+01   5.6838266120e+01    0.2001775    0.1785204   2.16 0.0002917515    1.126    0.112
       703  -9.2649     71.8405     41.8210   6.4495308526e+01   5.9669312883e+01    0.1995616    0.1699528  -7.20 0.0003713573    1.182    0.154
       704  -8.8491    120.2869    219.2956   9.0840692289e+01   1.4785315001e+01    0.1821828    0.1302706  30.61 0.0002188667    1.375    0.273
       705  -8.6435     90.4843     41.4810   5.8165396431e+01   5.6087753913e+01    0.1405572    0.1315437  -0.73 0.0002214934    1.026    0.026
       706 -10.3227    119.9717    215.2714   9.0413633252e+01   1.5508078613e+01    0.2322223    0.2122941 -43.24 0.0003493092    1.326    0.246
       707 -10.3733    133.0560     39.9535   4.6675011839e+01   4.6546432618e+01    0.2538585    0.2044179  41.14 0.0003747171    1.269    0.212
       708  -8.4403     77.5434     40.4464   6.1941900336e+01   5.8842398464e+01    0.1378813    0.1259948  -6.36 0.0001050308    1.038    0.037
       709  -9.1254    126.9852     39.0214   4.7651274009e+01   4.8161355113e+01    0.1702463    0.1645217  50.50            0    1.023    0.022
       710 -10.1887    108.4701     38.7300   5.1987562355e+01   5.2579274417e+01    0.2855544    0.2457763 -31.36 0.0007488847    1.159    0.137
       711  -8.9810     97.0617     38.7727   5.5128614870e+01   5.5119079387e+01     0.192055    0.1748031  24.93 0.0003051975    1.083    0.077
       712  -8.1999     85.3304     39.3298   5.8913399853e+01   5.7494422557e+01    0.1459665     0.105452   9.29 0.0007051709    1.716    0.417
       713  -9.0581    190.0222     37.3186   3.6376587624e+01   3.2653730338e+01    0.1945368    0.1797032 -78.06 0.0007521291    1.045    0.043
       714  -8.8756    103.7957     37.0443   5.2566554695e+01   5.3891083135e+01     0.191297     0.176742 -10.65 0.0003058562    1.068    0.064
       715 -10.5053    149.8978     34.3920   4.1503430776e+01   4.3094566953e+01    0.2589168    0.1926233 -43.12 0.0008590192    1.351    0.260
       716  -8.2363     80.2864     34.7034   5.8629570507e+01   5.9243763618e+01    0.1290079    0.1084543 -68.37  0.000213911    1.549    0.354
       717 -10.0334    105.2392     32.9028   5.0537481848e+01   5.4162196638e+01    0.2066365     0.191272 -59.52  0.000604024    1.195    0.163
       718  -9.6991     76.9929     29.7824   5.7599805896e+01   6.0651149406e+01    0.2063293    0.1689532  14.11 0.0005000163    1.246    0.197
       719 -10.3163    100.0172     33.5037   5.2176635524e+01   5.5255542593e+01    0.2136764    0.1818155 -24.60 0.0006560637    1.166    0.142
       720 -10.1946    112.7134     34.6712   4.9343429027e+01   5.2183749581e+01    0.2379781    0.2225102 -71.25 0.0006037488    1.176    0.150
       721  -8.3539    105.4544     26.4193   4.7855800297e+01   5.4988375212e+01    0.1384741    0.1295611  27.24 0.0002636996    1.024    0.024
       722  -9.1495    102.0000     24.9381   4.8119585857e+01   5.5973864532e+01    0.2226582   0.07788663 -28.53 0.0007952723    2.893    0.654
       723  -8.9766      4.6651     24.6783   8.8548698040e+01   7.1462475017e+01    0.1263404   0.06858685 -32.97   0.00070502    1.707    0.414
       724  -8.2132    123.6919     23.2520   4.2461454779e+01   5.1021028131e+01    0.1360439    0.1065063 -71.99 0.0002154277    1.512    0.339
       725 -10.8899     87.2262     73.4325   7.0607915951e+01   5.0763833983e+01    0.6726075     0.501382 -72.64  0.002542399    1.723    0.419
       726  -9.7960    119.8559    211.0669   8.9912619838e+01   1.6244660998e+01    0.2146955     0.177996  25.11 0.0004215843    1.296    0.229
       727  -8.8196     73.4347     16.5365   5.2665686636e+01   6.3195571661e+01    0.1322355    0.1171659   9.26 5.121615e-05    1.030    0.029
       728 -11.0177    227.5151    243.5248   7.5047371695e+01  -3.9630092669e+00     0.276229    0.1299223  32.12  0.001079085    1.713    0.416
