#   1 NUMBER                 Running object number                                     
#   2 MAG_AUTO               Kron-like elliptical aperture magnitude                    [mag]
#   3 X_IMAGE                Object position along x                                    [pixel]
#   4 Y_IMAGE                Object position along y                                    [pixel]
#   5 X_WORLD                Barycenter position along world x axis                     [deg]
#   6 Y_WORLD                Barycenter position along world y axis                     [deg]
#   7 A_WORLD                Profile RMS along major axis (world units)                 [deg]
#   8 B_WORLD                Profile RMS along minor axis (world units)                 [deg]
#   9 THETA_WORLD            Position angle (CCW/world-x)                               [deg]
#  10 FWHM_WORLD             FWHM assuming a gaussian core                              [deg]
#  11 ELONGATION             A_IMAGE/B_IMAGE                                           
#  12 ELLIPTICITY            1 - B_IMAGE/A_IMAGE                                       
         1 -13.4333     12.2780     47.5023   6.2892700716e+01   6.7292356240e+01    0.6316529    0.5077139  62.67  0.001498624    1.878    0.468
         2 -11.5920      7.6665     30.1028   5.9335517083e+01   7.1073483927e+01    0.5150541    0.2590351 -63.42  0.002439347    2.805    0.644
         3 -12.6775    249.4803     21.5386   3.5689827815e+02   2.2313844504e+01    0.6551225    0.1457875 -39.73 0.0005813651    2.993    0.666
         4 -12.0748    249.3712      9.5351   3.5466151345e+02   2.3642915801e+01    0.4038236    0.2291087 -31.82  0.002563911    1.868    0.465
         5 -11.7829     25.5820      3.3677   3.4357793266e+01   7.3100354572e+01     1.018757    0.3484069  40.71  0.004631162    2.627    0.619
         6 -13.0729     13.0456     15.3094   4.9000479745e+01   7.3111863531e+01    0.7351079    0.6058187 -64.68  0.003619893    2.135    0.532
         7 -12.6910      3.2403     12.6609   5.4419942851e+01   7.4479879294e+01    0.6443176    0.3024492 -45.02  0.002027361    1.973    0.493
         8 -12.8453     28.5101     20.0956   4.2020960006e+01   7.0478966802e+01    0.3068038    0.2311888  11.29 0.0004299329    1.128    0.114
         9 -10.2804    193.0818     20.9323   1.0584756811e+00   3.3924804848e+01    0.1833233    0.1537049 -77.73 0.0003111683    1.010    0.010
        10 -11.4406    111.9500     26.8985   1.4638713390e+01   5.2786366237e+01    0.3604883    0.2976542  30.36  0.001502892    1.279    0.218
        11 -10.5365     81.7191     19.3574   1.9383673713e+01   6.0659830596e+01    0.3883907    0.2076281 -28.64  0.001901712    2.064    0.516
        12 -12.7673    240.6381     14.2201   3.5603854077e+02   2.4772366042e+01    0.3345833    0.2387545 -80.52  0.002376876    1.214    0.176
        13 -11.5451    137.1577     14.7767   5.9766836648e+00   4.7859922714e+01    0.3017889    0.2205743 -61.68 0.0002492128    1.460    0.315
        14 -11.2199    139.2957     11.0259   4.5091280108e+00   4.7683775143e+01    0.2657141    0.1655505  63.37 0.0009871372    1.381    0.276
        15 -10.8277    169.0240     14.8022   1.9464570198e+00   4.0134466160e+01    0.2415099    0.1413637 -48.82  0.001291014    1.670    0.401
        16 -11.8623     82.1971      6.8908   1.3873728422e+01   6.1736121731e+01    0.2234654    0.1875194  40.74 0.0002654071    1.056    0.053
        17 -12.3821     76.0394     10.4892   1.7168731798e+01   6.2797622616e+01    0.5135425    0.2956548  32.89  0.001516281    1.724    0.420
        18 -13.1513     65.4533     11.6601   2.1072249189e+01   6.4958414721e+01    0.4207868    0.2373952  44.27 0.0004985108    1.480    0.324
        19 -11.2794     54.0767     13.7791   2.6360414333e+01   6.7018518996e+01    0.3250079    0.2303732  26.29  0.001058509    1.250    0.200
        20 -11.4088    145.5494     12.1880   4.0155160112e+00   4.6047589309e+01    0.3605406     0.174316 -42.24  0.001398044    2.143    0.533
        21 -10.1496     26.7963     13.2098   3.9344290693e+01   7.1691800167e+01    0.1732221    0.1193083  -2.12 0.0005039165    1.353    0.261
        22 -11.8421    234.8449      9.4839   3.5546301666e+02   2.6388485356e+01    0.2305126    0.1547294 -54.28 0.0009639301    1.188    0.158
        23  -9.7942     90.4902      9.5081   1.2902405650e+01   5.9609700222e+01     0.201371    0.1132183 -37.14 0.0007285377    2.074    0.518
        24 -12.6808    243.5507      4.5845   3.5404569309e+02   2.5235250928e+01    0.4122085    0.3582546 -43.57  0.003267608    1.383    0.277
        25 -11.2907    154.6429      8.4642   1.8199247344e+00   4.4181316388e+01    0.3048506    0.2089272  84.52  0.001754745    1.291    0.225
        26  -9.8130    113.9937      8.8126   7.7587684589e+00   5.4066717050e+01    0.1809659    0.1477775  65.53 0.0004085572    1.044    0.042
        27 -10.4465    178.0720     12.1296   3.3308189320e-01   3.8276619063e+01    0.1817493    0.1542415  65.53 0.0002883522    1.249    0.199
        28 -10.1471     96.4744      6.4723   1.0316578083e+01   5.8462088111e+01    0.2159566    0.1694189  54.62 0.0004946387    1.068    0.063
        29 -10.9216     97.5766      3.2321   8.8097786980e+00   5.8455293132e+01    0.2710946    0.2043387  49.77 0.0006875322    1.146    0.127
        30 -10.1099     35.9018      6.2975   3.0541534257e+01   7.1119963203e+01    0.3157785    0.1392136  25.12  0.001364809    2.786    0.641
        31 -10.7548     58.2755      5.2887   2.0451740679e+01   6.7038287452e+01    0.2815017    0.2251044  66.91  0.001749567    1.503    0.335
        32 -10.3711     68.3565      5.4167   1.7144958394e+01   6.4918724974e+01    0.2375633    0.1712089  32.50 0.0007659096    1.237    0.192
        33  -9.5310    222.9926      5.2816   3.5533345448e+02   2.9169094871e+01    0.1551304    0.1196612 -71.05 0.0008261187    1.015    0.015
        34 -10.3597    164.2882      4.5622   3.5972317706e+02   4.2223126038e+01    0.1987596    0.1603324 -43.97 0.0004885602    1.320    0.242
        35 -11.3714    179.4053      3.5258   3.5807062841e+02   3.8785841375e+01    0.3436559    0.1856598  64.52 0.0005415789    1.712    0.416
        36  -9.4832    126.4396      2.5180   3.6226848219e+00   5.1543345329e+01    0.1293957    0.1079779  66.62 0.0001444604    1.051    0.048
        37  -9.9827     91.0586      2.0874   9.7282097726e+00   6.0073737094e+01    0.1955471    0.1581603  52.25 0.0004855474    1.033    0.032
        38 -10.3546     33.0575      1.8743   2.9403053267e+01   7.2068959688e+01    0.2103916    0.1484161  32.26  0.001028852    1.184    0.155
        39 -10.3456    230.0304      1.4454   3.5416237982e+02   2.8147086752e+01    0.1613418   0.09317232  84.40 0.0004922123    1.573    0.364
        40  -9.7950    120.9013      1.4436   4.0757422752e+00   5.2974339580e+01    0.2042672    0.1065856  68.42  0.001022682    1.584    0.369
        41 -10.5730     73.0048      1.4218   1.3899157161e+01   6.4229374421e+01    0.3029001    0.1077419  61.21  0.001271832    2.450    0.592
        42  -9.3544     50.4860    197.4972   7.5685798256e+01   2.6563168391e+01    0.1365992    0.1198771  63.44 3.428997e-05    1.027    0.026
        43 -11.9208    225.3590    247.0217   4.3599273271e+01  -7.0291107228e+00    0.5522922    0.2362356 -25.36  0.002849171    2.365    0.577
        44 -11.5894     21.9871    248.9089   8.6072489106e+01   1.8590598387e+01    0.4929478    0.1724293  40.82  0.002497835    2.075    0.518
        45 -10.8307     11.7491    248.8054   8.8112162946e+01   1.9623985477e+01    0.3796413    0.1012167  47.28  0.001680972    2.569    0.611
        46  -9.8255      6.9445    249.2936   8.9075816314e+01   1.9985396381e+01    0.1575808    0.1158992  53.68  0.000520452    1.063    0.059
        47  -9.5609     40.2403    197.0047   7.8257877199e+01   2.7867941372e+01    0.1663687    0.1060034 -75.52 0.0002184842    1.543    0.352
        48 -11.9417     15.2343    192.2651   8.4165275430e+01   3.1512164742e+01    0.3692407    0.3155782   1.62  0.001705133    1.499    0.333
        49  -9.2412    209.7470    193.0466   3.7226586484e+01   2.9566972319e+00    0.1564418    0.1007725 -35.41 0.0002960894    1.438    0.305
        50 -10.0944     61.9863    184.9444   7.1191536281e+01   2.8144430353e+01    0.2151867    0.2032104  65.69 0.0007658094    1.024    0.024
        51 -11.8985     15.5735    182.1136   8.3329687289e+01   3.3921359719e+01    0.4651521    0.2321106  59.04   0.00221847    1.984    0.496
        52 -11.5435     28.6529    180.6301   7.9747724393e+01   3.3062291189e+01    0.4449609    0.2427313  42.35  0.001477549    1.718    0.418
        53 -11.0607     23.7849    180.6601   8.1050701739e+01   3.3528242700e+01    0.3647284    0.1796654  50.89  0.001176824    1.959    0.490
        54  -9.3569      1.3355    180.3223   8.6858400265e+01   3.5506305033e+01    0.1251739   0.08581581 -47.57 0.0007050464    1.709    0.415
        55  -9.4650    100.9900    176.0145   5.9158126895e+01   2.4528417631e+01    0.1702727    0.1630235  36.27 0.0009344032    1.004    0.004
        56  -9.3119    216.6037    173.4004   3.2200617398e+01   5.2170182107e+00    0.2561976    0.1072153 -50.02 0.0009602476    3.300    0.697
        57 -10.5204     17.9983    173.0434   8.1944583026e+01   3.5941923105e+01    0.2247786    0.1316598  62.92 0.0009317149    1.702    0.412
        58 -12.0761     17.5394    159.7314   8.0859699800e+01   3.9333838273e+01    0.3899653    0.3002604 -61.12  0.001291333    1.258    0.205
        59 -10.2550      2.0447    157.4586   8.5097784534e+01   4.1076833389e+01    0.1728825    0.1277753  21.59 0.0006019169    1.552    0.356
        60 -10.5293    250.4008    155.8109   2.3302527022e+01   3.0649153116e+00    0.1843014   0.09574962 -29.09 0.0006667281    1.708    0.414
        61 -10.8653     12.0617    153.7996   8.1896253505e+01   4.1284618600e+01    0.3875624    0.1777626  59.88  0.001647338    2.472    0.595
        62  -9.4848    158.4879    153.5433   3.9910609894e+01   1.9161058050e+01    0.1508337    0.1414926  -6.26 5.226913e-05    1.016    0.016
        63 -12.0950     13.7730    147.9793   8.0815962559e+01   4.2643635826e+01    0.2489436    0.2170681 -87.34  0.000301369    1.022    0.021
        64 -10.9864    233.8740    147.0878   2.4058551902e+01   6.9151087859e+00    0.1965401    0.1545722 -42.99 0.0006651588    1.232    0.188
        65 -10.7234      6.5214    145.4836   8.2778856542e+01   4.3806656746e+01    0.2410066     0.131233  18.85 0.0008899988    2.097    0.523
        66  -9.3644    218.4880    144.5307   2.6007910629e+01   9.8576508242e+00    0.1345849    0.1169899 -31.73 9.618978e-05    1.052    0.049
        67 -11.2257     17.3588    143.1713   7.9193173520e+01   4.3603089179e+01    0.2759277    0.1748464  67.70  0.001113078    1.699    0.411
        68 -11.3863    239.6787    140.2466   2.1806528112e+01   7.1157247254e+00    0.2519988    0.1818999 -28.40 0.0005234844    1.198    0.165
        69  -9.7008    189.2810    140.0047   3.0309703813e+01   1.5943023454e+01    0.2056809    0.1725859 -34.59 0.0004882886    1.102    0.093
        70  -9.3832    207.6814    136.2992   2.6096796294e+01   1.3198541949e+01    0.1328329    0.1068465 -69.56 0.0002381667    1.618    0.382
        71 -12.4536     37.6379    135.3545   7.1558286034e+01   4.3773962415e+01    0.2602884    0.2457466 -75.20   0.00031751    1.021    0.021
        72 -10.9406     36.4130    131.2113   7.1320756790e+01   4.4986410567e+01    0.3042513    0.2319171 -73.18 0.0008418122    1.246    0.197
        73 -11.4819    241.5902    134.5821   2.0390450228e+01   7.7242872883e+00    0.2417346    0.1892002 -42.35 0.0006935871    1.158    0.137
        74 -10.7492     19.9966    134.3245   7.7287475201e+01   4.5686737866e+01    0.3188553    0.1468158  53.30  0.001293695    2.616    0.618
        75 -11.1302     16.3792    131.1453   7.8090466424e+01   4.6796781604e+01     0.309952    0.2170425  38.01  0.001677728    1.532    0.347
        76 -10.4523     53.1209    133.0515   6.5965604874e+01   4.2578517854e+01    0.2264675    0.1833111 -37.31  0.000311829    1.287    0.223
        77  -9.6553     47.0740    133.5367   6.8089977796e+01   4.3194369539e+01    0.2041196     0.145472  23.98 7.787147e-05    1.506    0.336
        78 -11.6396      4.9121    130.0755   8.1768964598e+01   4.7856827371e+01    0.2515847    0.2120793 -62.70  0.000337028    1.091    0.083
        79 -10.3906    217.0478    129.3055   2.3010189574e+01   1.2735900925e+01    0.2288739    0.1658927 -29.60 0.0004259497    1.277    0.217
        80 -10.7634     24.4772    127.0847   7.4791707412e+01   4.7196719496e+01    0.2291576    0.1843721  57.27  0.001260438    1.338    0.253
        81  -9.7924     82.6382    124.5337   5.4320698932e+01   4.0377351069e+01     0.258967    0.1453734 -55.10 0.0008168624    1.767    0.434
        82 -10.4987     73.7754    129.1461   5.8271402217e+01   4.0657646723e+01    0.2549129    0.2491284 -72.67 0.0006709064    1.034    0.033
        83 -10.8150     47.2337    124.0255   6.6317229515e+01   4.5655239714e+01    0.2215767    0.2065553  13.33 0.0004153963    1.143    0.125
        84 -11.8956      9.4381    121.1447   7.9216159449e+01   4.9868005518e+01    0.5164576    0.2644091  78.16  0.001481079    2.450    0.592
        85  -9.8110     68.3758    121.7693   5.8477781104e+01   4.3365971297e+01    0.2131065    0.1341884 -48.55 0.0005917594    1.531    0.347
        86  -9.8987     61.2356    121.3695   6.0864285648e+01   4.4513326026e+01    0.2044868    0.1774176 -46.05 0.0004695945    1.110    0.099
        87 -10.0929     56.2483    120.7991   6.2495589652e+01   4.5345959241e+01    0.2532441     0.146987  65.09 0.0009459344    2.717    0.632
        88  -9.3461     35.4908    121.5429   7.0035971109e+01   4.7603839412e+01    0.1420512      0.13093 -60.27 2.109761e-05    1.004    0.004
        89 -11.3817    248.9070    118.2412   1.6117350638e+01   9.1347741694e+00     0.217027    0.1732439  17.80  0.001377344    1.620    0.383
        90 -10.3859      1.4092    117.7840   8.1620669240e+01   5.1199301727e+01    0.2593442    0.1378574 -59.05 0.0009482497    1.573    0.364
        91 -10.8043      4.7973    115.1880   8.0118815716e+01   5.1675235271e+01    0.2548795    0.1380663 -33.68 0.0007073109    2.035    0.509
        92  -9.4353     73.4123    116.8028   5.5603558927e+01   4.3831278458e+01    0.2000392    0.1389589 -44.51 0.0003510774    1.416    0.294
        93 -10.9095     16.4206    115.3204   7.5936016466e+01   5.0887156467e+01    0.2469399    0.2306468 -49.45 0.0006830247    1.083    0.076
        94  -9.6323     70.6759    114.3119   5.5959413018e+01   4.4887598631e+01    0.1547046    0.1191961  70.40 0.0003026769    1.658    0.397
        95 -11.0064    248.2113    111.6008   1.4871093245e+01   1.0273253457e+01    0.1531964    0.1167471  36.91 0.0009539686    1.666    0.400
        96 -10.5488     55.2004    110.0644   6.0532279462e+01   4.8220267020e+01    0.2786504     0.220096 -44.38 0.0006505934    1.205    0.170
        97 -12.1767     12.5307    109.3342   7.6492127998e+01   5.2693324786e+01    0.4173233    0.3378271 -72.38   0.00135412    1.122    0.109
        98 -10.5769     44.1843    109.0883   6.4435640188e+01   4.9858146003e+01    0.2741145    0.2072046 -47.08 0.0009784296    1.231    0.188
        99 -10.5159     62.1441    107.7180   5.7423662559e+01   4.7827620718e+01    0.2997206    0.1728947 -33.64  0.001218993    2.030    0.507
       100 -10.7577     20.1951    108.4307   7.3449646612e+01   5.2368875684e+01    0.2421572    0.1380058  10.15  0.001138756    2.053    0.513
       101 -10.6405      3.4029    105.4060   7.9377944631e+01   5.4234510655e+01     0.291032    0.2257887 -84.11   0.00171896    1.239    0.193
       102 -11.4621     75.0859    104.3093   5.1889651424e+01   4.6619009349e+01    0.2797563    0.2578484  72.60 0.0003128315    1.234    0.189
       103  -9.0659    106.0188    103.2101   4.1376131620e+01   4.1038243262e+01    0.1953049    0.1249567  40.76            0    1.555    0.357
       104  -9.5221     50.3372    103.6694   6.0880921179e+01   5.0464885429e+01    0.1502422    0.1126467  67.68  0.000705204    1.735    0.424
       105 -11.8195     31.1312    107.4855   6.9091349339e+01   5.1658215255e+01    0.4974748    0.3304123  84.69  0.002341449    1.931    0.482
       106  -9.6322     91.7971    101.1635   4.5309442820e+01   4.4338721527e+01    0.2196686    0.1839396 -11.96  0.001069423    1.327    0.246
       107 -11.9400    249.0019     98.8837   1.2212739912e+01   1.2079394971e+01    0.3091875    0.1771142 -39.25   0.00104604    1.415    0.293
       108 -10.9901     62.5425     98.0456   5.4821686511e+01   5.0131271748e+01    0.3292445     0.250618 -40.17 0.0008261781    1.270    0.213
       109 -10.0590     10.1905     99.1631   7.5826170480e+01   5.5418667637e+01    0.1687644    0.1455546  78.94 0.0002832262    1.278    0.218
       110 -10.2791     76.8575     97.8436   4.9504898642e+01   4.7846838893e+01    0.2262366    0.1973529 -15.15 0.0003265791    1.185    0.156
       111  -9.7451     52.1412     97.1037   5.8581276623e+01   5.1845325763e+01    0.2204166     0.175021 -30.60 0.0002750119    1.252    0.201
       112 -10.7990     15.2336     96.9036   7.3416730794e+01   5.5652483406e+01    0.2720514    0.1440777 -30.89  0.001242651    2.062    0.515
       113 -11.1339      8.3484     93.0650   7.5569480394e+01   5.7050960256e+01    0.3549582    0.1526302  43.45  0.001476646    2.942    0.660
       114 -11.7012     57.4101     90.7448   5.4827368467e+01   5.2630881056e+01    0.3674914    0.2724484 -33.32  0.000727513    1.343    0.256
       115  -9.5348     31.5321     92.5580   6.5824617029e+01   5.5361484561e+01    0.1388269    0.1265413 -43.42 3.772119e-05    1.024    0.024
       116 -11.0504     14.7546     91.7132   7.2666052140e+01   5.6976702554e+01    0.3406606    0.1706274 -37.87  0.001114452    1.958    0.489
       117 -11.1386     35.2197     90.5266   6.3814630446e+01   5.5480964538e+01    0.2509453    0.2306131 -67.22 0.0002501988    1.157    0.135
       118  -9.5647     49.1187     89.8917   5.7914857528e+01   5.3983454764e+01    0.1952211    0.1569813 -22.36            0    1.255    0.203
       119 -10.4548     22.4488     88.7363   6.8811383890e+01   5.7123988561e+01    0.3566129    0.2235477 -85.13  0.001681179    2.038    0.509
       120  -9.4795    114.5687     88.4033   3.4548938019e+01   4.2362658358e+01    0.1516929    0.1468361  30.08 1.058852e-05    1.010    0.010
       121 -11.5063    249.3141     86.3069   9.6435918664e+00   1.3892169196e+01    0.3435023    0.1650549 -63.58  0.001477159    3.187    0.686
       122  -9.4376    109.4635     86.0282   3.5311929210e+01   4.3966453569e+01    0.2148119    0.1517399 -42.68 3.253059e-05    1.443    0.307
       123 -11.6250    239.5309     84.5193   1.0356886781e+01   1.5883620394e+01    0.2271103    0.1895266 -48.59 0.0007591633    1.019    0.019
       124 -10.6768      8.3860     85.0766   7.4141682836e+01   5.9011274717e+01    0.2287167     0.172537  51.35   0.00112185    1.620    0.383
       125 -10.1738     76.2603     82.5061   4.5187560393e+01   5.1404947902e+01    0.3614518    0.2058412  27.01  0.000831048    1.975    0.494
       126 -11.3314     18.0754     81.5572   6.9154939546e+01   5.9210901404e+01    0.3102666    0.2712606  46.22  0.001887911    1.361    0.266
       127 -10.2190     26.5249     78.4101   6.4611975741e+01   5.9244312666e+01    0.2186943    0.1555265 -49.71 0.0001352108    1.242    0.195
       128 -11.8509     21.9667     76.4898   6.6206532196e+01   6.0100290404e+01    0.3620765    0.2628721  15.60  0.000387437    1.462    0.316
       129 -11.2463    184.8232     85.3034   1.8097019281e+01   2.6834687822e+01      0.23633    0.2102534 -48.43 0.0002655131    1.060    0.057
       130 -10.0608      1.7397     80.5501   7.6237432648e+01   6.0457371157e+01    0.3408358   0.09096731 -52.95   0.00134188    2.581    0.612
       131 -10.3090    120.0614     79.8979   3.0438319177e+01   4.2791719925e+01    0.2362323    0.2204982  31.34 0.0008061489    1.069    0.064
       132 -11.6340     88.1713     77.1952   3.9272663822e+01   5.0237002157e+01    0.2536549    0.2416226  -6.36 0.0002219663    1.030    0.029
       133  -9.5660    100.0000     76.9690   3.5340216872e+01   4.7820677575e+01    0.2438225    0.0865149 -41.92 0.0007952794    2.893    0.654
       134  -9.6269    212.0057     76.2740   1.1902042118e+01   2.2455504129e+01    0.1765206    0.1555941 -62.68 0.0003563988    1.036    0.035
       135  -9.4922     36.9860     76.5110   5.9404692257e+01   5.8601938946e+01    0.1950405    0.1346667  20.59 0.0003824382    1.499    0.333
       136  -9.9072    168.4663     74.5811   1.8154878171e+01   3.2346210392e+01    0.3104722    0.1824663 -54.24  0.001368143    1.850    0.459
       137  -9.9635     44.5053     74.4487   5.5475029918e+01   5.8150925925e+01    0.2188148    0.1913268  23.92 0.0001039309    1.195    0.163
       138  -9.7675     45.0338     70.7486   5.4098067289e+01   5.8897979474e+01     0.189198    0.1882139 -51.99 0.0002624771    1.206    0.171
       139 -10.5564      7.0068     73.1928   7.2404854021e+01   6.1933824677e+01    0.2755496    0.1612303  -6.52  0.001002709    1.888    0.470
       140  -9.7793    160.0631     71.6832   1.8913378854e+01   3.4799028993e+01    0.1930406    0.1770805  68.77 0.0002884414    1.072    0.067
       141 -13.5235     16.3762     67.3736   6.6540216818e+01   6.2657249768e+01    0.4363659    0.3066953 -56.51 0.0006069361    1.303    0.232
       142 -11.3897    102.8269     69.5200   3.2029030816e+01   4.8614820084e+01    0.3010937    0.2459825 -39.25 0.0003781996    1.272    0.214
       143 -11.7391    245.7931     68.7676   6.4639483125e+00   1.7020575237e+01     0.358909    0.1188198  55.20   0.00157373    3.519    0.716
       144 -11.2388     50.4307     68.0526   5.0852527931e+01   5.8727564560e+01    0.3160294    0.2269082 -30.22 0.0008578172    1.359    0.264
       145 -10.3094     92.7240     67.8211   3.4622447989e+01   5.1116895048e+01    0.2496051    0.2274919  26.08 0.0006301256    1.044    0.042
       146 -11.2831      6.4206     67.7906   7.1500985785e+01   6.3224578067e+01    0.2375482    0.1845425 -34.85  0.000253445    1.120    0.107
       147 -10.7192    129.7684     66.0326   2.3670075404e+01   4.2985490243e+01    0.3811654     0.244661  38.42 0.0008484201    1.699    0.412
       148 -12.3798     29.9708     62.8171   5.8591995451e+01   6.2426864266e+01    0.5171727    0.4756116 -12.93  0.001420211    1.101    0.092
       149 -11.2200    160.0752     63.8916   1.6739585816e+01   3.6040685744e+01    0.4575782    0.3047343  16.17  0.001639019    2.603    0.616
       150  -9.7395     81.6202     64.7907   3.7345545171e+01   5.3965953548e+01     0.189041    0.1385361 -48.93 0.0002519854    1.516    0.340
       151 -10.6452    154.9912     63.6399   1.7607974957e+01   3.7299209190e+01    0.2626785    0.2077677 -43.78  0.000415829    1.272    0.214
       152 -10.8647    122.9170     62.7150   2.4280196446e+01   4.5168544146e+01     0.401634    0.2074095 -37.22  0.001665705    2.019    0.505
       153  -9.7846    109.1713     64.2227   2.8410761769e+01   4.8127227524e+01     0.223298    0.1948428  23.10  0.000699062    1.189    0.159
       154 -11.7701     46.5870     60.7182   5.0058921828e+01   6.0799498121e+01    0.4591131    0.2620507 -26.54  0.001047323    2.011    0.503
       155 -12.0208      4.1369     61.5160   7.1179585516e+01   6.4781711756e+01     0.855751    0.3518581  -4.40 0.0007203273    3.032    0.670
       156 -11.3698     17.0327     42.3182   5.8421634787e+01   6.7939276925e+01    0.4514714     0.273591 -54.85  0.002454493    1.707    0.414
       157 -11.4696      3.1113     52.9928   6.9568578721e+01   6.6725764536e+01    0.4256089    0.2804836 -47.76  0.002428535    1.238    0.192
       158 -11.4255      7.9132     51.4185   6.6513301524e+01   6.6778409757e+01    0.4624819    0.3099031  77.23  0.002017608    2.650    0.623
       159 -11.5691     12.6837     53.6554   6.4594879882e+01   6.5966339903e+01    0.5385165    0.2422549 -40.81  0.001675577    1.897    0.473
       160 -11.3614    248.5240    248.2865   3.9833733613e+01  -9.6651539486e+00    0.4096845    0.1798276 -16.78  0.002154873    2.455    0.593
       161 -10.5063    209.9528     63.0338   9.1197121889e+00   2.4849381998e+01    0.1975953    0.1667612 -59.35 0.0003907109    1.032    0.031
       162 -10.0014     90.6840     61.1192   3.2954729200e+01   5.2763812062e+01    0.3345309      0.17952  53.46 0.0007668489    2.008    0.502
       163 -12.8779    231.5932     56.9330   5.4093794122e+00   2.1314733534e+01    0.6164848    0.2339424 -53.33  0.002663297    2.632    0.620
       164  -9.9465    189.1011     60.0110   1.1098138846e+01   2.9846724227e+01    0.1967778    0.1755688 -70.27 0.0003340945    1.012    0.012
       165  -9.8237    167.1084     59.0488   1.4182943431e+01   3.5098824759e+01    0.2278142    0.1543447 -67.93 0.0005477708    1.684    0.406
       166 -10.5509    135.3205     58.5364   2.0073255874e+01   4.2854332443e+01    0.2944807    0.2275023  83.43  0.001477013    1.461    0.316
       167 -11.3253    115.5727     55.1218   2.3629485920e+01   4.8128719622e+01    0.2634774    0.2237431  62.78 0.0003873997    1.167    0.143
       168 -10.6705     89.3028     55.2552   3.1292975873e+01   5.4066724336e+01      0.27866     0.257646 -70.17  0.001107603    1.301    0.231
       169  -8.9316     99.3564     55.2900   2.8169338864e+01   5.1851776643e+01    0.1530191     0.108009  22.09 0.0004069523    1.683    0.406
       170 -13.4311    149.6066     51.2015   1.4997019005e+01   4.0463413938e+01     0.361682    0.3313138 -65.58 0.0006513416    1.093    0.085
       171  -9.4394    128.9710     53.4607   1.9872376496e+01   4.5167198191e+01    0.2050002    0.1257437  85.25 0.0006396987    2.487    0.598
       172 -11.1375    105.1539     52.5029   2.5510334146e+01   5.0973954615e+01    0.2442664    0.2397243  24.73 0.0002734328    1.062    0.059
       173 -11.6655     54.1194     49.1539   4.2350929816e+01   6.1857622891e+01      0.50775    0.3811392 -14.25  0.002566542    1.353    0.261
       174 -12.1994     44.6038     43.6034   4.4462919873e+01   6.4345649305e+01    0.5101244    0.3694595 -51.86 0.0001080515    1.705    0.414
       175 -11.8280     52.5227     43.1275   4.0610399661e+01   6.3172406425e+01     0.585534    0.3180031  24.72  0.001799502    2.006    0.502
       176 -10.0669     38.4586     51.6688   5.0607658197e+01   6.3713295967e+01    0.2969457    0.2208336 -69.13 0.0007774644    2.023    0.506
       177  -9.4171     89.6572     50.7046   2.9496323903e+01   5.4733909118e+01    0.1502821    0.1057938  19.68 0.0003943642    1.663    0.399
       178 -12.6494    247.3360     35.3951   3.5969813007e+02   2.1090520283e+01    0.4208507    0.2035108 -41.94  0.001708415    1.658    0.397
       179 -10.7976    247.8489     46.8595   1.9032880912e+00   1.9572575440e+01    0.2881736    0.2270742 -76.00  0.001326571    1.182    0.154
       180 -12.1377    246.4183     42.0902   1.0773011683e+00   2.0437056868e+01    0.4384259    0.2858805  81.99  0.002084391    1.605    0.377
       181 -10.5144    180.0947     47.0007   9.0281826644e+00   3.3739080338e+01    0.1965177    0.1751606 -78.69 0.0002961863    1.004    0.004
       182 -12.0988    121.4947     46.7556   1.9373818740e+01   4.7954184397e+01    0.2739525    0.2349326  63.86 0.0002157143    1.108    0.097
       183  -8.8412     86.3266     47.3205   2.9297735022e+01   5.5985882048e+01    0.1493582    0.1048605  17.37 0.0007047225    1.683    0.406
       184 -10.5623    222.1664     45.8855   3.9599247367e+00   2.4662014056e+01    0.1860334    0.1389683 -63.17 0.0002763531    1.152    0.132
       185 -10.4335    236.9939     44.4114   2.3097395033e+00   2.1918171903e+01    0.2158672    0.1320662 -50.71   0.00089914    1.332    0.249
       186 -10.9098    142.7766     43.2116   1.3848324011e+01   4.3235651916e+01    0.5509605    0.2917378  33.71   0.00214959    2.878    0.653
       187 -10.3193     72.8458     43.0696   3.2310400965e+01   5.9445289349e+01    0.1920485    0.1880427  47.28  0.000240919    1.213    0.176
       188 -11.2141    108.1018     42.6037   2.1200787458e+01   5.1740317396e+01    0.2914281     0.221812  47.00 0.0003262974    1.205    0.170
       189  -9.8535     90.5558     41.8814   2.5867600208e+01   5.5873735051e+01    0.2870841     0.185973  68.78  0.001308676    2.013    0.503
       190 -11.9218     55.9205     36.8585   3.6446676895e+01   6.3606533518e+01    0.5854005     0.365796  -3.95  0.002759939    2.109    0.526
       191 -10.5021     97.9385     40.7645   2.3267850778e+01   5.4363394728e+01    0.3010925    0.2564205  39.48  0.001136214    1.078    0.072
       192 -10.7640     75.9280     33.4066   2.7215367656e+01   6.0217440722e+01    0.3932559    0.2515609  67.06  0.001539674    2.178    0.541
       193 -10.0198     68.4856     41.5274   3.3319942237e+01   6.0544400189e+01    0.1381301    0.1243085  20.30 9.040223e-05    1.041    0.039
       194 -11.1466    225.4591     39.2321   2.2272860622e+00   2.4841766254e+01    0.2285366    0.1134048 -30.32  0.001149292    2.161    0.537
       195 -10.3985    148.8417     39.7538   1.1738648946e+01   4.2197455358e+01    0.2423655    0.1914983 -48.55 0.0005987959    1.303    0.232
       196 -11.9052     84.6818     36.4745   2.5577177905e+01   5.7925623781e+01    0.6803825    0.4069022  17.59  0.002418832    2.377    0.579
       197 -10.7412    233.2105     39.3621   1.5906459383e+00   2.3286602790e+01    0.1973111    0.1342347 -83.82 0.0007912035    1.428    0.300
       198 -11.5430     27.6704     37.5717   5.0609164540e+01   6.7714370807e+01    0.2386954    0.2054113   9.73 0.0001782865    1.163    0.140
       199 -11.2948     24.0067     34.7289   5.1448061890e+01   6.8652620901e+01     0.433786    0.2516359  -4.85  0.002171345    2.004    0.501
       200  -9.5542    214.2410     36.0253   2.5458561433e+00   2.7551468490e+01    0.1522954   0.09439212 -38.20  0.000244293    1.523    0.343
       201  -9.1293    140.7275     36.7018   1.2217228888e+01   4.4576783751e+01    0.1339393    0.1019353  34.28 0.0002377237    1.527    0.345
       202  -9.9307    109.4701     35.2049   1.8201796646e+01   5.2393307319e+01    0.4467526    0.2374392  30.22  0.001795938    2.624    0.619
       203  -9.9522    105.9817     47.7785   2.3608277893e+01   5.1498053604e+01     0.254986    0.1914871  73.05 0.0007004792    1.546    0.353
       204 -10.1895     92.7491     33.5718   2.1989183142e+01   5.6508986625e+01    0.2443636    0.1851583  -6.03 0.0007786384    1.524    0.344
       205  -9.7112     64.0466     34.5268   3.2079771183e+01   6.2452806627e+01    0.1969418    0.1223005  42.46 0.0003141494    1.483    0.326
       206 -10.1387     34.1606     33.0872   4.5169417998e+01   6.7657490499e+01    0.1962275    0.1681848  -5.67 0.0008426456    1.068    0.064
       207 -10.8188     10.1586     24.8616   5.5517496397e+01   7.1812429501e+01    0.4607702    0.1980847   6.17  0.001986208    3.041    0.671
       208 -10.9499    181.2162    250.0111   5.2377043565e+01  -2.0733028620e+00    0.2359393    0.1316736  17.11  0.001284357    1.655    0.396
       209 -10.1915     12.0624     29.1442   5.6173537130e+01   7.0877545500e+01    0.2428098    0.1563499   4.25 0.0007072787    1.467    0.318
       210  -9.8275    119.7141     31.3294   1.4525362103e+01   5.0390278744e+01    0.2171973    0.1623295  14.45 0.0005980697    1.687    0.407
       211 -10.4234     19.0555     30.9478   5.2690839610e+01   6.9868938549e+01    0.2365651    0.1770537  -5.21 0.0009621026    1.162    0.139
       212  -9.8921    162.7512     29.1711   6.5974534118e+00   4.0092084604e+01    0.2877409    0.1189099 -26.38  0.001177605    2.846    0.649
       213  -9.4575    125.9382     29.2069   1.2551220877e+01   4.9113297396e+01    0.1894122    0.1008832  64.45 0.0008578722    1.701    0.412
       214 -10.1542     48.9934     28.4415   3.5715607812e+01   6.6076193948e+01    0.2308475    0.1614893  -8.40 0.0002262549    1.495    0.331
       215 -12.3825    231.6619     26.4998   3.5907305501e+02   2.5136453152e+01    0.3897809    0.2179939 -84.76  0.001211599    1.797    0.444
       216 -10.3504    198.1314     28.2428   2.3039319260e+00   3.1970733977e+01    0.2550093     0.150184 -82.21  0.001344645    1.738    0.425
       217 -10.0844    176.7933     26.8516   4.2268200153e+00   3.7011418107e+01    0.1778581    0.1636361  77.83 0.0003485838    1.149    0.129
       218 -10.5279    120.6765     26.9658   1.2828966799e+01   5.0656422644e+01    0.5266848    0.1398648  53.22  0.001823223    3.029    0.670
       219 -10.5734     68.9696     25.7750   2.6360025380e+01   6.2652737860e+01    0.3661866    0.1390336  42.65  0.001487031    2.352    0.575
       220  -9.6364     72.2948    250.0347   7.5584632468e+01   1.2603636999e+01     0.157995    0.1469586  67.82 0.0008478731    1.172    0.147
       221 -10.8174     72.8688    244.8805   7.4996787232e+01   1.3516287448e+01    0.2613554    0.2472151  61.83  0.001017223    1.158    0.137
       222 -10.1769    218.7903     25.4068   3.5983576792e+02   2.7864150319e+01    0.1522024    0.1021477  67.59 0.0002978783    1.552    0.356
       223 -10.1426     91.2538     25.1094   1.9053503348e+01   5.7873027607e+01    0.3472354    0.1418518  49.13  0.001454478    2.077    0.518
       224 -10.1107     55.0363     24.9444   3.1413734595e+01   6.5481540420e+01    0.1890859    0.1622513  16.63            0    1.028    0.027
       225 -10.9362      1.7759     23.6843   6.0560325480e+01   7.2692277079e+01    0.3776181    0.1748009 -34.89  0.002001407    1.819    0.450
       226 -12.0239     74.5774    239.6195   7.4124437908e+01   1.4325874191e+01    0.5294624    0.4390089 -72.88  0.002922539    1.371    0.271
       227  -9.6919     45.4446    244.4808   8.0922157995e+01   1.6922430775e+01    0.1227421   0.09721121  53.88 9.936102e-05    1.026    0.025
       228 -11.4092     34.7494    237.6085   8.2748016861e+01   1.9498830043e+01    0.2978079    0.1726005  44.86  0.001051915    1.400    0.286
       229 -10.6901    159.9346     22.0709   4.9925194995e+00   4.1560413896e+01    0.2667621    0.2171548  20.25  0.001239199    1.636    0.389
       230 -10.2706    156.4964     21.5470   5.2914642180e+00   4.2449116323e+01     0.211741    0.1775195  76.26 0.0006864475    1.065    0.061
       231 -11.6369     34.1098     22.6454   4.0243331284e+01   6.9301710332e+01    0.2330975    0.1795306  10.52 0.0001903517    1.106    0.096
       232 -10.9869     30.6669    233.9055   8.3389915378e+01   2.0699243972e+01    0.3454662    0.1849728  81.85  0.001527316    1.963    0.491
       233  -9.3030     48.3609     22.2619   3.3042008764e+01   6.7041552678e+01    0.1353665   0.08589146  17.96 0.0006980334    1.633    0.388
       234  -9.9993      3.7092    237.9816   8.9249226652e+01   2.2512219008e+01    0.1598657    0.1193672  75.21  0.000446187    1.141    0.123
       235 -11.4291    183.0358    234.5494   4.9661421289e+01   2.3228340321e-02    0.2605592    0.1935383  27.31 0.0009189391    1.250    0.200
       236 -10.5530    160.9783    234.8468   5.4281526925e+01   3.0526226422e+00    0.2235833    0.1324943   6.79   0.00099283    2.039    0.510
       237 -10.1225     58.9815     21.0000   2.7928140013e+01   6.5234475739e+01    0.2161687   0.06658559  48.85 0.0008007337    2.931    0.659
       238  -9.7964    210.7617     19.3610   3.5916681263e+02   3.0228550363e+01    0.1586239   0.09845512  68.11 0.0004269084    1.606    0.377
       239  -9.9548     44.8187     19.5998   3.3350523145e+01   6.8006767606e+01    0.1799439     0.112884  49.95 0.0009494793    1.834    0.455
       240 -11.2798     69.3694     21.4901   2.4291137769e+01   6.3085971447e+01    0.3142112    0.2136299  64.00  0.001650193    1.759    0.431
       241 -10.7481    217.1334     16.1338   3.5798220046e+02   2.9240567037e+01    0.3817518    0.1457936  63.93  0.001860673    2.576    0.612
       242  -9.3418    165.2747     17.3246   3.0393883822e+00   4.0772070865e+01    0.1225149   0.09365478  41.37 0.0002710761    1.582    0.368
       243 -10.8505    131.9585     16.1533   7.2109917515e+00   4.9006102432e+01    0.1988918    0.1852738 -56.93  0.000305155    1.177    0.150
       244 -10.4669     99.9848     21.6870   1.5457507675e+01   5.6214473757e+01    0.3059114    0.2373561  52.37  0.001756675    1.118    0.105
       245  -9.9353    196.2371    238.4197   4.7656959812e+01  -2.3163569567e+00    0.1624372    0.1015473  33.56 0.0006130415    1.575    0.365
       246 -10.0207    229.4914     16.4541   3.5718505540e+02   2.6695351707e+01    0.1170975   0.08993094 -66.76 7.123713e-05    1.012    0.012
       247  -9.3423    120.4939     21.4246   1.0962496214e+01   5.1296237610e+01    0.1356882     0.118317  68.13  6.66442e-05    1.029    0.029
       248 -10.3002    248.3992    229.1994   3.6793294766e+01  -7.2683086840e+00     0.148857   0.09180884 -36.34 0.0009479854    1.686    0.407
       249  -9.9202      4.3412    243.9440   8.9368570668e+01   2.1268337729e+01    0.1553053    0.1156211  74.33 0.0004876411    1.147    0.128
       250  -9.3925    109.8495     16.7354   1.1405012101e+01   5.4354573328e+01    0.2379655   0.04686257  48.89 0.0005471744    4.308    0.768
       251  -9.4752     39.6582    229.3185   8.1091467890e+01   2.0678641389e+01    0.1376149   0.07383729  57.46 0.0005427057    1.716    0.417
       252 -10.3333    192.7837    227.2579   4.6537484992e+01  -1.6668626373e-01    0.1812577     0.125759  -3.48 0.0007761578    1.363    0.266
       253 -10.5130      3.5107    226.0300   8.8770741555e+01   2.4989902613e+01    0.1653547    0.1576417  89.60 0.0005783371    1.302    0.232
       254  -9.8021     78.8680    223.8651   7.1515529805e+01   1.6978166974e+01    0.1971826    0.1763409  -4.13  0.001214617    1.327    0.246
       255 -10.0485     15.9830    222.0370   8.5879951142e+01   2.4695175476e+01    0.1480885    0.1192713  60.73 0.0004585853    1.025    0.024
       256  -9.4035    126.3396    220.6526   5.9880883181e+01   1.0751267701e+01    0.1402874    0.1004395  60.09 0.0007046587    1.787    0.441
       257 -11.0355     49.4906    218.4838   7.7949428670e+01   2.1883607596e+01    0.3496772    0.2132079   6.70  0.001652453    2.504    0.601
       258  -9.4744     56.0057    216.9916   7.6261085597e+01   2.1425719450e+01    0.1513602    0.1325334  59.85 0.0009435327    1.023    0.023
       259  -9.8553     38.9507    217.4822   8.0346296738e+01   2.3316080237e+01    0.1890526    0.1126893  33.75 0.0004836394    1.543    0.352
       260  -9.3063    204.6621    216.6786   4.2439070818e+01  -1.3349207394e-01    0.1351497   0.08423899  -3.73 0.0007050348    1.713    0.416
       261 -10.2893     23.9119    215.9999   8.3724469742e+01   2.5236741129e+01    0.1847476     0.150939  64.40 0.0002949451    1.019    0.019
       262  -9.5641     62.7367    212.3414   7.4164729746e+01   2.1615300358e+01    0.1380681   0.09032136  64.33 0.0002326721    1.595    0.373
       263  -9.9741     20.3084    211.6597   8.4267948123e+01   2.6559923280e+01    0.2106882    0.1099081  59.02 0.0008709878    1.747    0.428
       264 -11.6531      4.8986    210.0364   8.7692507624e+01   2.8331379862e+01    0.3374331     0.181639  60.63   0.00163446    1.611    0.379
       265 -11.3161      5.0641    204.6311   8.7367240749e+01   2.9530186966e+01    0.3563866    0.2507204 -29.29  0.001546421    2.104    0.525
       266 -10.9362    217.3899    208.9186   3.8697537361e+01  -6.5068768462e-01    0.3732218    0.1614944 -29.87  0.001723791    2.277    0.561
       267  -9.2699    193.5111    210.5044   4.3544716062e+01   2.4277318914e+00    0.1323976    0.1099671  -0.55 0.0003473551    1.005    0.005
       268 -11.6337     11.2605    208.9563   8.6187064843e+01   2.8014194699e+01    0.2974542      0.21872  71.31  0.001142833    1.154    0.133
       269  -8.9735    123.7547    206.2461   5.8312615269e+01   1.4060780591e+01    0.1274482    0.1034661  57.56 0.0006704286    1.402    0.287
       270  -9.4636     28.2613    205.3159   8.1936826534e+01   2.7207032789e+01    0.1179222   0.09326166 -47.12  0.000169042    1.541    0.351
       271  -8.9756    174.3134    202.2910   4.6053123986e+01   6.7520023433e+00     0.140157   0.09724818  -2.62 0.0003386394    1.590    0.371
       272 -10.1495    152.8702     24.0757   6.5089488226e+00   4.3061175381e+01    0.2092403    0.1605295 -72.32 0.0002849384    1.301    0.231
       273  -9.5646    238.3586    200.7823   3.3576450384e+01  -2.1562345963e+00     0.168219   0.09232356 -27.21 0.0003531532    1.563    0.360
       274  -9.2071    120.3240    200.2917   5.8204334982e+01   1.5865793423e+01    0.1441058    0.1085137  -5.76 0.0005502574    1.614    0.380
       275  -9.6197    134.8114    196.3998   5.4016823979e+01   1.4323507375e+01    0.1795208    0.1776597  -5.13 0.0004799938    1.126    0.112
       276 -11.1811     22.1891    198.6475   8.2911312966e+01   2.9360066287e+01    0.3448384    0.2174079  -9.34  0.001547094    2.620    0.618
       277  -9.7628    177.4258    198.1962   4.4648314979e+01   7.0064047806e+00    0.1835143    0.1303214 -51.85 0.0009477383    1.719    0.418
