#   1 NUMBER                 Running object number                                     
#   2 MAG_AUTO               Kron-like elliptical aperture magnitude                    [mag]
#   3 X_IMAGE                Object position along x                                    [pixel]
#   4 Y_IMAGE                Object position along y                                    [pixel]
#   5 X_WORLD                Barycenter position along world x axis                     [deg]
#   6 Y_WORLD                Barycenter position along world y axis                     [deg]
#   7 A_WORLD                Profile RMS along major axis (world units)                 [deg]
#   8 B_WORLD                Profile RMS along minor axis (world units)                 [deg]
#   9 THETA_WORLD            Position angle (CCW/world-x)                               [deg]
#  10 FWHM_WORLD             FWHM assuming a gaussian core                              [deg]
#  11 ELONGATION             A_IMAGE/B_IMAGE                                           
#  12 ELLIPTICITY            1 - B_IMAGE/A_IMAGE                                       
         1 -19.1463    170.6443    137.6768   1.0653490957e+02   2.0539971970e+01     7.106557     6.198905  72.57   0.01447499    1.359    0.264
         2 -10.3131    143.6669     25.7315   7.9642633950e+01   4.5875162820e+01    0.2538138    0.2246854  31.79 0.0003018107    1.064    0.060
         3  -9.1036    115.8188     12.4036   8.0686151181e+01   5.3932234621e+01    0.2751231    0.1997281  41.56   0.00112681    1.241    0.194
         4 -10.5215    120.5393      9.0545   7.8306453194e+01   5.3182600428e+01     0.447069    0.3736338  30.55  0.002012308    1.071    0.067
         5  -9.6478    172.0847      2.7003   6.7295656828e+01   4.1057298958e+01    0.3124156    0.1681354 -40.43   0.00145084    1.978    0.494
         6 -10.0138    108.7251    233.9168   1.3483818317e+02   1.4142235492e+01    0.3053139    0.1290534  57.40  0.001459809    2.597    0.615
         7  -8.9046    247.5101    250.4924   1.1316735039e+02  -9.0641527021e+00    0.1115352   0.07899226  19.78  0.000810556    1.006    0.006
         8 -10.6465    188.9898    227.0292   1.1953564871e+02   2.4809150801e+00    0.4308371    0.2036088  36.56   0.00145313    1.775    0.437
         9 -12.2428    172.6742    221.6233   1.2169008268e+02   5.9234829350e+00     1.099977    0.5224948  51.71  0.004441676    2.240    0.554
        10 -11.9167    162.2228    223.1511   1.2382902148e+02   7.4340718071e+00     1.212854    0.2834542  37.10  0.003736933    5.009    0.800
        11 -11.3664    179.2355    228.1448   1.2144784695e+02   3.9272976299e+00       1.3194     0.203534  43.13  0.003929631    5.327    0.812
        12 -11.5159    168.5839    228.5536   1.2342558680e+02   5.6113899078e+00     1.423908    0.1718332  43.64  0.003735615    6.863    0.854
        13 -11.6235    146.5726    223.8127   1.2680154432e+02   9.8941373377e+00    0.6901619    0.4423562  55.93  0.002123908    1.543    0.352
        14 -11.6796    154.0177    217.8436   1.2460466317e+02   9.5945814048e+00    0.9842957    0.3974562  40.91  0.004013133    2.090    0.521
        15  -8.5825     42.0090    225.2545   1.4561556215e+02   2.4237876115e+01    0.1420003    0.1060089  65.41 0.0003659281    1.063    0.059
        16 -10.6595    202.9523    221.5566   1.1620163194e+02   9.0636753994e-01    0.4190981    0.1848419  32.34  0.001387737    2.135    0.532
        17  -9.4628    209.8700    218.7878   1.1452829191e+02   1.2571476343e-01    0.3468986    0.1643338  26.16  0.001308964    2.377    0.579
        18 -14.4710    200.9961    147.0674   1.0243289939e+02   1.2512817890e+01    0.7778478     0.578665  -7.54  0.002200815    1.501    0.334
        19  -8.3046     82.2970    247.3041   1.4056622560e+02   1.5684561217e+01   0.08845455   0.08115849  26.97 0.0003999865    1.583    0.368
        20 -10.1824    117.4381    199.9580   1.2919672902e+02   1.8606312262e+01    0.3158611    0.2082745  51.04  0.000616415    1.346    0.257
        21 -10.9743     66.5587    106.1311   1.2559648533e+02   4.6047009497e+01    0.2895688    0.2447369 -58.10 0.0009254896    1.047    0.045
        22  -9.8034    139.9362    216.8755   1.2711608513e+02   1.2064838074e+01    0.2826377     0.171571  45.13 0.0009489135    1.382    0.276
        23  -9.3091    128.5736    196.1848   1.2644405434e+02   1.7475314281e+01    0.2325834    0.2005348  71.91 0.0007862892    1.167    0.143
        24  -9.1650    236.3599     82.9304   8.0672139287e+01   1.5189466218e+01    0.3367142    0.2025348 -43.67  0.001080819    1.641    0.391
        25  -9.1375    232.2000     79.4830   8.0414741284e+01   1.6631140225e+01    0.3130845    0.2616143 -86.86  0.001256288    1.444    0.307
        26  -9.4970    222.3156     73.6487   8.0393977506e+01   1.9770358956e+01    0.3185005    0.2401472 -88.92 0.0008372936    1.704    0.413
        27 -10.3215    218.5103     74.4809   8.1202216377e+01   2.0539673825e+01    0.3508715    0.2597048  57.65  0.001764517    1.414    0.293
        28  -9.9973    217.1026    214.2242   1.1249369564e+02  -4.8225535065e-01    0.4126057    0.1819976  29.24   0.00169677    2.351    0.575
        29 -11.5514    206.3810     65.2152   8.0626235644e+01   2.4834002105e+01    0.7990895    0.4931876 -63.47  0.003306421    2.261    0.558
        30 -10.9013    208.2048     61.5795   7.9332438757e+01   2.4921944605e+01    0.6211691    0.3821361 -65.29  0.002567822    2.298    0.565
        31  -9.2626    235.4290     66.9619   7.6769073945e+01   1.7708046057e+01    0.2593187    0.1981403 -87.30 0.0008044755    1.607    0.378
        32  -8.7640      1.9538    168.0393   1.4900085631e+02   3.8889513245e+01    0.1570881    0.1094975 -55.90  0.001134929    1.695    0.410
        33 -11.1663     42.7833     66.6139   1.2375490128e+02   5.7443068558e+01    0.2456597    0.2264114 -31.82 0.0009849492    1.130    0.115
        34 -15.1071    133.9940    143.6292   1.1608719048e+02   2.6764758884e+01     1.464694    0.5860527 -48.61  0.003798163    2.552    0.608
        35 -10.9260     69.5575    159.9686   1.3392512624e+02   3.3674306584e+01    0.3631238    0.2456557  85.55  0.001094294    1.561    0.359
        36 -11.2707     69.7233    155.0228   1.3320420675e+02   3.4719611946e+01    0.3610276    0.2241703  53.93   0.00141862    1.629    0.386
        37 -10.5629     60.1006    156.1099   1.3555596940e+02   3.5701520528e+01    0.3613265     0.163174 -70.75  0.001225104    2.159    0.537
        38 -10.4931    249.8408    149.0599   9.4109585227e+01   2.6471632374e+00    0.5605138    0.1733834 -30.81   0.00204096    3.107    0.678
        39 -10.5276    133.2973    204.6562   1.2671587364e+02   1.5195789075e+01    0.4789768    0.3600211 -70.46  0.002907742    1.582    0.368
        40  -9.3076     73.3853    140.8734   1.3019343526e+02   3.7339206452e+01    0.2601201    0.2241628  61.91  0.001299231    1.170    0.145
        41 -11.4516     69.1925    125.7245   1.2867423927e+02   4.1288509940e+01    0.7562809    0.2753054 -54.77  0.003005357    2.398    0.583
        42 -11.3428    134.2094     49.9034   9.0168900012e+01   4.4846893358e+01    0.5232818     0.344796  69.95  0.001418208    2.027    0.507
        43  -9.6976    210.7183     49.3406   7.5580902116e+01   2.6020222651e+01    0.2816503    0.2427191 -85.61 0.0005531807    1.245    0.197
        44 -12.6579     68.1716    143.7990   1.3192328160e+02   3.7381557494e+01    0.9613893     0.601858  88.51  0.004897834    1.911    0.477
        45  -9.4747    248.9971     45.9290   6.9860427466e+01   1.7469169194e+01    0.1911777     0.183663 -44.26 0.0004447144    1.065    0.061
        46 -11.0109    141.5861     44.8998   8.6738085834e+01   4.3859281047e+01    0.4759304     0.254969  44.64  0.001049258    1.821    0.451
        47 -10.4900    246.4811    216.7510   1.0789088997e+02  -5.4452286787e+00    0.3162982    0.2080138  35.15  0.001395796    1.362    0.266
        48 -10.4514    221.1889     39.9196   7.1619280372e+01   2.4695568999e+01    0.3594964     0.240531 -60.43  0.001071378    1.653    0.395
        49 -10.6683    194.0180     39.8723   7.5371793331e+01   3.1437009382e+01    0.3596946    0.2448794  74.53  0.001377928    1.585    0.369
        50 -11.4965    152.1444     37.2965   8.1906117417e+01   4.2341526833e+01    0.6945041    0.3551638  49.16  0.001444764    1.838    0.456
        51 -10.0610    165.1366     35.0500   7.8682456763e+01   3.9380060477e+01    0.4670455    0.1823177  56.34  0.001243813    2.333    0.571
        52  -9.8528    121.7708    204.0770   1.2889397525e+02   1.7174379242e+01    0.3023212    0.1841727  65.90  0.001574073    1.962    0.490
        53 -11.4139     65.3029    131.5921   1.3069023861e+02   4.0471471386e+01    0.7399329    0.4278966  84.38  0.003312316    2.557    0.609
        54  -8.2746    196.2654     27.6433   7.1502753638e+01   3.2366686734e+01    0.1478064     0.100132 -57.05 0.0003520631    1.631    0.387
        55  -9.1662     64.1349    246.6386   1.4346353064e+02   1.8089224178e+01    0.1583704    0.1282538  89.89 0.0004789443    1.289    0.224
        56  -9.3992    178.6351     23.3015   7.2740991355e+01   3.7344600847e+01    0.2433773     0.210922 -67.93 0.0006602572    1.238    0.192
        57 -10.4358     53.2132    129.9889   1.3351104970e+02   4.2286277077e+01    0.2996196    0.1559596 -64.97  0.001082709    1.676    0.404
        58 -10.4017    148.5211    238.6322   1.2833052783e+02   7.3897520641e+00    0.4597604    0.1831037  45.49  0.001884378    2.020    0.505
        59  -9.8320    145.3356    233.9408   1.2832049229e+02   8.5686207262e+00    0.1538418    0.1423812  53.63   0.00102481    1.159    0.137
