#   1 NUMBER                 Running object number                                     
#   2 MAG_AUTO               Kron-like elliptical aperture magnitude                    [mag]
#   3 X_IMAGE                Object position along x                                    [pixel]
#   4 Y_IMAGE                Object position along y                                    [pixel]
#   5 X_WORLD                Barycenter position along world x axis                     [deg]
#   6 Y_WORLD                Barycenter position along world y axis                     [deg]
#   7 A_WORLD                Profile RMS along major axis (world units)                 [deg]
#   8 B_WORLD                Profile RMS along minor axis (world units)                 [deg]
#   9 THETA_WORLD            Position angle (CCW/world-x)                               [deg]
#  10 FWHM_WORLD             FWHM assuming a gaussian core                              [deg]
#  11 ELONGATION             A_IMAGE/B_IMAGE                                           
#  12 ELLIPTICITY            1 - B_IMAGE/A_IMAGE                                       
         1 -12.1309      4.0654     19.0343   1.1549423080e+02   7.0213612479e+01     1.361246    0.2963425 -62.62  0.005479021    3.453    0.710
         2 -12.1130    128.9994     23.1962   7.1301803132e+01   5.0416101166e+01    0.4133217    0.2711397 -30.00  0.000408489    1.489    0.329
         3 -10.0332     34.9909     15.3879   9.9574302507e+01   6.8450629406e+01    0.3225371    0.1841765 -25.85 0.0008129933    1.862    0.463
         4 -11.0675     18.8943     17.1882   1.0779751992e+02   6.9601341527e+01     0.349847     0.243932 -36.82  0.001194624    1.205    0.170
         5 -10.9035     75.6544     16.6696   8.3768657108e+01   6.2506386938e+01    0.6301059    0.3137173 -15.27  0.002432079    3.128    0.680
         6 -11.8829     81.2150      6.2262   7.6895372533e+01   6.2963757191e+01    0.2715576    0.2165333 -16.66 0.0002554143    1.121    0.108
         7 -10.8271     78.1237      9.8082   7.9677158768e+01   6.3062187054e+01    0.3988077      0.19705  49.41  0.001599018    2.221    0.550
         8 -11.3230     75.0770      5.4782   7.8576333876e+01   6.4201024467e+01    0.4647659    0.2666078 -33.36  0.001530709    1.624    0.384
         9 -11.5205    166.7167     15.0037   6.0823736016e+01   4.1759190470e+01    0.4825193    0.3653902  78.55  0.002377314    1.434    0.303
        10 -11.6687    132.2088     14.7654   6.7191256813e+01   5.0684683984e+01    0.5600904    0.2730438 -25.20  0.002320175    2.007    0.502
        11 -10.4096     70.6369     14.4405   8.4516819902e+01   6.3702951707e+01    0.2358369    0.1742675 -31.10 0.0005651028    1.212    0.175
        12 -10.6219    114.8988     12.4236   7.0204762030e+01   5.5090420698e+01    0.3928993    0.3140584  73.64  0.001067052    1.528    0.346
        13 -10.7004     99.8567     13.0319   7.4456496832e+01   5.8339251466e+01    0.3169772    0.2506896 -20.97  0.001172892    1.185    0.156
        14 -11.3041     25.9544     13.8150   1.0311098760e+02   6.9633643552e+01    0.2121249    0.1636411 -16.83 0.0004570496    1.301    0.231
        15 -12.1036     62.1755     11.7906   8.6421899258e+01   6.5477436377e+01    0.3385683    0.2781877  64.83 0.0004838583    1.838    0.456
        16  -9.9501    175.5871     12.2236   5.8477071812e+01   3.9677924821e+01    0.2029438    0.1407763   0.06 0.0006336698    1.607    0.378
        17 -12.0429     10.9362      3.9414   1.0651688640e+02   7.2663413478e+01    0.6441631    0.2550305 -38.89  0.003408424    2.090    0.521
        18 -12.4366     16.9026      5.0974   1.0386098531e+02   7.1997228180e+01    0.6978543    0.4195584  39.26   0.00401423    2.312    0.567
        19 -12.2664     26.5356      3.5270   9.8169388603e+01   7.1392790364e+01    0.2232535    0.1722798 -30.42 0.0007135523    1.007    0.007
        20 -12.8811     31.0196      2.0472   9.5187178665e+01   7.1166589274e+01    0.3083115    0.2213144  29.97  0.001413376    1.651    0.394
        21 -10.1687    116.8620      7.8830   6.7749849326e+01   5.5160840498e+01    0.2468936    0.1984015 -33.14  0.000386298    1.301    0.231
        22 -10.2560    115.2855      4.0123   6.6407183701e+01   5.5948946190e+01    0.3019201     0.215157   9.39 0.0006579954    1.442    0.307
        23  -9.7357     92.3643      7.9914   7.4288089245e+01   6.0539543695e+01    0.2147535     0.150212 -38.12  0.001136411    1.513    0.339
        24  -9.7154    122.4409      8.9731   6.6933885097e+01   5.3717809615e+01    0.2171296    0.1347872 -21.91 0.0008660991    1.579    0.367
        25  -9.2462     43.2955      7.6780   9.2261832947e+01   6.8799300608e+01    0.1104925   0.09207351 -57.79 0.0006832373    1.617    0.382
        26  -9.1876    155.5232      6.4459   5.9512426415e+01   4.5602091261e+01    0.1460865    0.1373148  36.87 1.937654e-05    1.005    0.005
        27 -10.5846    132.8363      4.9271   6.3021315906e+01   5.1596945194e+01    0.2280022    0.1782494  25.04 0.0004953973    1.251    0.201
        28  -9.0429     93.2965      4.3506   7.2270877917e+01   6.0787487322e+01    0.1448851   0.09389699  15.63 0.0007034116    1.684    0.406
        29  -9.6711    249.4706    227.4350   9.7512786838e+01  -3.0613149051e+00    0.1092384   0.07453978  25.86 0.0002816869    1.036    0.035
        30 -10.8157    247.2404    249.9847   1.0094731087e+02  -4.4862880247e+00    0.2792323     0.143131  26.12  0.001938117    1.546    0.353
        31 -10.8883    250.5364    245.1753   9.9840065307e+01  -4.5867842202e+00    0.3655286    0.1259494 -24.10  0.002053743    3.653    0.726
        32 -11.0009    238.2352    246.4194   1.0177533966e+02  -2.9640359286e+00    0.1408185   0.07484797  45.03 0.0009445904    1.633    0.388
        33 -12.4599    226.5779    245.9119   1.0341258471e+02  -1.2646313877e+00    0.5102543    0.2858279  21.01  0.003480357    1.744    0.427
        34 -11.5068     14.2128    244.5160   1.3519369049e+02   2.6576325387e+01    0.3253533    0.1241291 -89.60  0.002319794    2.433    0.589
        35 -12.2838      6.9549    243.5221   1.3616156748e+02   2.7377719266e+01    0.4984107    0.2680134  77.75  0.004385984    1.401    0.286
        36 -11.0974     73.7504    232.9860   1.2585400978e+02   2.1867955684e+01    0.1784974    0.1086784  51.02  0.000733701    1.221    0.181
        37  -9.4502    140.1650    227.3596   1.1470433290e+02   1.3620944771e+01    0.1621769   0.07470226  50.10    0.0009427    1.714    0.417
        38 -10.1865    129.8175    226.9544   1.1635486197e+02   1.5197098220e+01    0.2769223    0.1056483  54.21  0.001400322    2.518    0.603
        39 -10.2464     88.1181    227.1628   1.2315776298e+02   2.0910732712e+01    0.1491433    0.1184727  52.35  0.001229152    1.215    0.177
        40 -10.2825     66.3095    226.5690   1.2659845051e+02   2.3694383223e+01    0.2198044   0.09884826  48.36 0.0009337764    1.634    0.388
        41 -10.4297      5.4857    226.5045   1.3584656601e+02   2.9973750568e+01    0.2580107   0.02294986  55.15  0.001195918    4.392    0.772
        42 -10.6176    115.9772    225.7509   1.1850571675e+02   1.7346014277e+01    0.1501775   0.09760871  72.27 0.0007055537    1.650    0.394
        43 -10.3681    180.6948    224.4453   1.0776354123e+02   7.7587359374e+00    0.1521441    0.1027706 -38.85 0.0005667898    1.959    0.490
        44  -9.8753     81.1301    224.4345   1.2407719459e+02   2.2199346176e+01    0.1947576    0.1102828  81.44  0.001315622    1.922    0.480
        45 -10.9677    141.3837    221.3993   1.1386125415e+02   1.4216521632e+01     0.240459    0.1662086  28.79  0.001586657    1.658    0.397
        46 -10.0803    174.1659    219.8477   1.0824659679e+02   9.3215493958e+00    0.1570911    0.1075209  31.60 0.0006103876    1.338    0.253
        47  -9.9978     22.0022    220.4768   1.3316698968e+02   2.9370045996e+01    0.1295906   0.06887817  47.38 0.0004355558    1.507    0.336
        48  -9.7193    250.4866    219.1024   9.6125051577e+01  -2.5214433783e+00    0.1368673   0.09528656  -9.04 0.0004709116    1.499    0.333
        49 -10.1602    191.5557    217.2884   1.0506386336e+02   6.8458590572e+00    0.1677156    0.1116678 -42.50  0.001108894    2.000    0.500
        50 -11.0278     10.0218    217.0613   1.3485085461e+02   3.1008547153e+01    0.2206847    0.1072825  59.90 0.0006204583    1.422    0.297
        51 -10.8698    123.0940    221.4797   1.1691518413e+02   1.6918914165e+01    0.2734473    0.1618364  53.15  0.001392463    1.334    0.250
        52 -10.6273    234.6889    216.3666   9.8097831142e+01   1.1454063775e-01    0.1530408    0.1276227  57.25  0.001116585    1.749    0.428
        53  -9.7305    201.4702    215.7457   1.0324290157e+02   5.4255827386e+00    0.1329577   0.09974516   0.36 0.0009245166    1.560    0.359
        54 -10.1864     31.1040    215.8283   1.3154420063e+02   2.9198349442e+01    0.1582124   0.09073189  64.86  0.001049776    1.259    0.206
        55  -9.8573    194.5408    215.4731   1.0432893124e+02   6.5698365866e+00    0.1147153   0.08697601  36.15 5.729687e-06    1.007    0.007
        56  -9.4763    137.1882    215.6279   1.1392516583e+02   1.5631362063e+01    0.1606462   0.08508784  38.01 0.0009413314    1.706    0.414
        57 -10.3460     13.2053    221.9087   1.3455165520e+02   2.9974795184e+01    0.1463257   0.09611728  58.78 0.0005208928    1.150    0.131
        58  -9.8986    170.4746    213.4629   1.0804014155e+02   1.0688067106e+01    0.1150243   0.08863669  42.52 0.0003667383    1.005    0.005
        59  -9.4455    142.8654    213.3843   1.1270365882e+02   1.5067240928e+01    0.1574598     0.086349  37.80 0.0006458523    1.638    0.390
        60 -11.0163     20.6682    211.8040   1.3299690776e+02   3.0852649153e+01    0.2525676    0.1079745  68.42 0.0009392236    1.879    0.468
        61 -10.3580    208.9709    212.0835   1.0150848951e+02   4.6109356134e+00    0.1752855    0.1315363  32.32 0.0004692978    1.018    0.017
        62 -11.9155      4.6447    207.2095   1.3531587177e+02   3.3032877102e+01     0.353427    0.1875848  72.99  0.002808708    1.358    0.263
        63 -10.3017    237.5233    208.4877   9.6454654972e+01   4.0873441335e-01    0.1165993    0.0834259  24.93 4.846346e-05    1.068    0.064
        64  -9.5475    184.3863    208.8048   1.0507977822e+02   8.9963344930e+00       0.1374    0.1061288 -13.05 0.0007694379    1.648    0.393
        65  -9.3936    218.4995    206.5059   9.9142563695e+01   3.6538797956e+00    0.1190122   0.08687248  27.52 0.0008089133    1.095    0.087
        66  -9.2361      2.3053    212.3045   1.3585249537e+02   3.2425323595e+01   0.07448319   0.06282732 -80.68 0.0003514042    1.601    0.375
        67 -10.7378     19.4096    202.4771   1.3277375071e+02   3.2477374422e+01    0.2739883    0.1439671 -87.19    0.0020364    1.630    0.387
        68 -10.1189    175.1522    202.6540   1.0578356663e+02   1.1290310981e+01    0.1852766    0.1213959  52.60 0.0006629901    1.418    0.295
        69  -9.6230    223.5634    201.7832   9.7595506434e+01   3.3193743887e+00    0.1305796    0.1092106 -37.11 0.0005613519    1.634    0.388
        70  -9.2484    238.3678    201.3064   9.5180402093e+01   9.6342451275e-01    0.1243754    0.0689913  21.69 0.0002771952    1.752    0.429
        71  -9.5783    218.2590    201.3775   9.8385583084e+01   4.2365100367e+00    0.1172467   0.07524504  15.06 0.0006974524    1.663    0.399
        72  -9.4673     34.6797    200.9962   1.3017675390e+02   3.1228956407e+01    0.1338385   0.09583067  73.59 0.0003183455    1.051    0.049
        73  -9.9060    227.1311    196.8892   9.6237544001e+01   3.2428985994e+00    0.1698508    0.1378277  31.31  0.000644667    1.127    0.112
        74 -10.6333    215.6326    194.4522   9.7708527737e+01   5.4353861144e+00    0.1902092    0.1280097   5.55 0.0006346406    1.699    0.412
        75  -9.8145    203.6372    195.8569   9.9925871120e+01   7.3140279455e+00    0.3013779    0.1101357  39.19  0.001380252    2.300    0.565
        76 -10.8309    187.2502    190.3701   1.0186463346e+02   1.0815226292e+01     0.202357    0.1481704 -16.68 0.0009886706    1.709    0.415
        77  -9.4606    246.3143    190.3279   9.2112767023e+01   7.5231518149e-01    0.1239633   0.07201291  18.28  0.000517539    1.672    0.402
        78  -9.2845    205.5186    190.4680   9.8746993993e+01   7.6294887823e+00    0.1223218   0.09729728  31.78 0.0001192913    1.004    0.004
        79  -9.7124    145.7759    190.1220   1.0924493542e+02   1.7939243976e+01    0.1539703    0.1274139  26.65 0.0003744178    1.349    0.259
        80  -9.1936      1.6666    188.2676   1.3507811299e+02   3.6410605265e+01    0.1001191   0.04668113  62.86 0.0003005546    1.586    0.370
        81 -10.3900    167.8465    184.0676   1.0433665991e+02   1.5064167859e+01    0.3607005    0.1838995  62.20  0.001548634    3.091    0.677
        82  -9.4558     61.6499    184.8336   1.2428563000e+02   3.1014713137e+01    0.1496614   0.08546068 -87.98 0.0009450191    1.729    0.422
        83 -11.5809     16.0720    182.7057   1.3236537770e+02   3.6140510195e+01    0.3305246    0.1515017  78.74  0.002141023    1.865    0.464
        84  -9.8763    236.4830    182.5363   9.2301820387e+01   3.1893656514e+00    0.1216306   0.09611782  23.78 0.0001545289    1.020    0.020
        85  -9.3421      8.0217    184.0000   1.3382320498e+02   3.6615354142e+01    0.1364456   0.04761879  34.59 0.0005769216    2.893    0.654
        86  -9.9024      2.0058    180.2911   1.3469399743e+02   3.7757863221e+01    0.1345615   0.09290516  67.07 0.0005086666    1.098    0.089
        87 -10.5322    244.4154    178.2537   9.0278705082e+01   2.2922914358e+00    0.2094644    0.1087183 -18.37  0.001117221    2.107    0.525
        88  -9.4766     36.0397    178.4970   1.2852521336e+02   3.4980342336e+01    0.1376704   0.08738164  46.49 0.0004280639    1.463    0.316
        89 -10.5046    200.2602    176.6169   9.7322082179e+01   1.0284480936e+01    0.2022933    0.1434407   1.87   0.00091203    1.702    0.412
        90  -9.7132     70.1903    177.6035   1.2202245653e+02   3.1254948057e+01    0.1367316   0.09870538  37.24 0.0005490711    1.561    0.359
        91  -9.2095     24.4752    174.5283   1.3039360721e+02   3.6828913748e+01     0.102843   0.07592161  75.85 0.0001653252    1.017    0.017
        92 -11.0128    224.4625    178.3495   9.3512159551e+01   5.7369659007e+00    0.2599023     0.194069  41.37 0.0005129466    1.236    0.191
        93  -9.4643      8.3142    173.3141   1.3326420000e+02   3.8476800896e+01   0.08653091   0.06769557 -64.32 0.0007034027    1.640    0.390
        94  -9.7861     74.7290    171.2692   1.2050079939e+02   3.1826987833e+01    0.1342616    0.1290741  78.80 0.0009007781    1.337    0.252
        95 -11.1943     12.7941    170.1443   1.3228537000e+02   3.8672074841e+01    0.2675947    0.1036163  87.33  0.001514306    2.363    0.577
        96  -9.6793    209.8667    166.2069   9.3773751475e+01   9.8635579997e+00    0.1813683    0.1305333  22.30 0.0004774882    1.333    0.250
        97  -9.6220     67.1707    165.1328   1.2136572949e+02   3.3930386858e+01    0.1640518    0.1092991  68.49 0.0006304798    1.338    0.253
        98 -10.7465     51.2243    164.7188   1.2452198379e+02   3.5897366740e+01     0.236044    0.1720498 -29.13  0.001454858    2.667    0.625
        99 -10.7147     44.6451    163.0002   1.2568084905e+02   3.6944935537e+01    0.2804441    0.1368804  89.24  0.001580482    2.085    0.520
       100  -9.4626    200.2437    162.6492   9.4804316537e+01   1.2144112218e+01    0.1811537    0.1041025  38.81 0.0004831062    1.529    0.346
       101 -11.4395     37.1096    158.8640   1.2684114575e+02   3.8518827507e+01    0.3225739    0.1554699 -72.83   0.00195307    1.834    0.455
       102  -9.8620      4.6936    168.4988   1.3368181087e+02   3.9640922498e+01    0.1769864   0.07013857 -81.98  0.001084356    2.054    0.513
       103  -9.1061    115.6484    159.2997   1.1068015112e+02   2.8048346424e+01    0.1309131   0.08718635  70.59 0.0007037176    1.694    0.410
       104  -9.4486     48.3437    159.2954   1.2460635893e+02   3.7250598847e+01   0.09726436   0.08379461 -45.23 0.0004505132    1.665    0.399
       105 -10.6301    247.4871    158.4909   8.6056775608e+01   3.8860161416e+00     0.125889    0.1039534  16.40 9.174163e-05    1.040    0.039
       106 -11.1569     22.6213    155.6206   1.2949662189e+02   4.0524002694e+01    0.3180764    0.2402088  83.87  0.002494562    1.043    0.042
       107  -9.1500    147.5465    156.5122   1.0371597561e+02   2.3019036939e+01    0.1300319    0.1154686  55.20 0.0001046022    1.038    0.037
       108  -9.0600    216.9819    155.0000   9.0387419273e+01   9.9682178787e+00    0.2197989   0.06678266  47.66 0.0008070943    2.975    0.664
       109  -9.7392    197.3214    153.6686   9.3610662536e+01   1.3956856094e+01     0.125455    0.1057669  86.49 0.0004696632    1.697    0.411
       110  -9.4656    151.5258    153.0417   1.0230312278e+02   2.2874021919e+01    0.1722865    0.1141248 -76.33 0.0007476029    2.410    0.585
       111 -10.3291     11.4978    153.1577   1.3154495484e+02   4.1947274993e+01    0.2335138    0.1161108  41.30  0.001556383    1.941    0.485
       112 -10.4513    178.1864    151.4940   9.6765122802e+01   1.8022850929e+01    0.2708054    0.2221719  66.75   0.00143737    1.415    0.293
       113  -9.7814     26.6766    149.4153   1.2820807715e+02   4.1356077737e+01    0.1900699   0.08126044 -75.84 0.0008788442    1.981    0.495
       114  -9.6267     16.3468    147.2929   1.3018041833e+02   4.2677511995e+01   0.09479613   0.07277965 -55.02 0.0007029684    1.667    0.400
       115  -9.2576    233.5303    146.5162   8.5876964084e+01   7.8679057686e+00    0.1326451    0.1111339  17.34 3.405309e-05    1.008    0.008
       116 -10.4690    206.9867    146.0566   9.0335574836e+01   1.3122658188e+01    0.2108969    0.1800746  24.69 0.0007008116    1.035    0.034
       117 -10.9207      9.4223    145.9513   1.3150854595e+02   4.3499426032e+01    0.3609661   0.06693322  42.83  0.001709513    3.675    0.728
       118 -10.4920      2.9471    143.8598   1.3269971167e+02   4.4395373489e+01    0.1878453    0.1002085 -69.09  0.001277127    1.683    0.406
       119 -12.5417      9.7971    136.6971   1.3081026253e+02   4.5285718886e+01    0.3537831    0.2424516  58.75 0.0007315149    1.335    0.251
       120 -11.2913      3.2548    136.9078   1.3221324450e+02   4.5728806205e+01    0.3812562    0.1401758 -63.25  0.001650311    2.469    0.595
       121 -10.1643    236.5544    138.9439   8.3788166377e+01   8.2189122082e+00    0.2000911    0.1578313  33.07 0.0005521382    1.153    0.132
       122 -10.6984     55.3081    136.7348   1.2072881814e+02   4.0945253580e+01    0.5240732    0.2361932  70.32  0.002262459    3.271    0.694
       123 -10.9898     21.8836    135.4069   1.2808798458e+02   4.4564076130e+01    0.3296948    0.2071803 -85.37  0.001888595    1.278    0.218
       124  -9.8647    137.8837    135.3676   1.0185118099e+02   2.8562790829e+01    0.2001946    0.1195361  36.33 0.0009494834    1.782    0.439
       125 -10.5748    106.9645    133.1988   1.0834020134e+02   3.4443208963e+01    0.2360566     0.205492  54.78 0.0009722387    1.111    0.100
       126 -11.5932     36.4857    130.4348   1.2432630852e+02   4.4241959887e+01    0.3421955    0.2753614  82.76  0.002292959    1.041    0.039
       127 -10.4242     73.9642    129.2341   1.1538493628e+02   4.0174693945e+01    0.2125432    0.1645788 -71.13 0.0007719144    1.192    0.161
       128  -9.4584    243.0060    128.4787   8.0473704798e+01   8.2461512548e+00    0.1872191    0.1232851  45.22 0.0004300635    1.482    0.325
       129 -10.7541      1.6323    126.0211   1.3185157835e+02   4.8005290660e+01    0.2215945     0.107031 -84.66 0.0005808052    1.607    0.378
       130 -10.2799    226.2107    124.3858   8.2283567640e+01   1.2173389322e+01    0.1853221     0.129247  57.85 0.0008218682    1.654    0.395
       131  -9.6529    219.5289    124.5323   8.3452149852e+01   1.3546962415e+01    0.1400228    0.1233564  16.51 0.0002511436    1.012    0.012
       132 -12.1200     16.1921    109.0426   1.2698183487e+02   5.0463703273e+01    0.3973687    0.2704928  26.43  0.002131167    1.889    0.471
       133 -11.5764     23.7698    107.4887   1.2488984936e+02   5.0196715617e+01     0.339846    0.1826458  64.82  0.001491072    1.987    0.497
       134 -11.2586     10.3323    122.6331   1.2963024835e+02   4.8078602178e+01     0.250076    0.1479259  63.26  0.001206176    1.558    0.358
       135 -12.1431     17.4347    117.1524   1.2747536194e+02   4.8670827475e+01    0.4963005    0.2796296 -48.98   0.00303789    2.126    0.530
       136 -10.4029     20.1138    121.7567   1.2727373585e+02   4.7501309855e+01    0.1712711    0.1494733 -23.93  0.001307497    1.690    0.408
       137 -10.4939     86.1071    116.6505   1.1035524911e+02   4.1094372487e+01    0.2129291    0.1605688 -74.48 0.0005472131    1.289    0.224
       138  -9.1406    166.3143    115.6904   9.1519266057e+01   2.6375204340e+01    0.1414968    0.1145414 -86.99   0.00023903    1.631    0.387
       139 -11.8632     35.4244    110.3381   1.2224870242e+02   4.8564428733e+01    0.4971264    0.3050023 -87.66  0.002757315    1.504    0.335
       140  -9.0980    179.3215    116.6849   8.9093305224e+01   2.3394433055e+01    0.1412516    0.1153414 -83.84 0.0004940499    1.659    0.397
       141 -10.2765    248.8156    112.1870   7.5867411950e+01   9.0882580249e+00    0.1920369    0.1424362  11.77 0.0005333622    1.311    0.237
       142  -9.1223    107.7066    112.2883   1.0414887675e+02   3.8541330633e+01    0.1337115    0.1016733  82.55  0.000181084    1.546    0.353
       143 -10.7207     44.0026    109.7121   1.1995721445e+02   4.7854948696e+01    0.2818389    0.1835261 -39.65 0.0005671583    2.033    0.508
       144 -10.4146     55.7712    109.6302   1.1689251438e+02   4.6589212549e+01    0.2552857    0.1809749  -8.49  0.001384783    2.532    0.605
       145 -11.0340      3.6120    100.2414   1.2932932420e+02   5.3175871752e+01    0.3361197    0.1919827  79.61  0.001694208    1.582    0.368
       146 -10.1245      3.0323    105.1557   1.2991705860e+02   5.2184975202e+01    0.2052331    0.1188296 -80.25 0.0004465069    1.310    0.237
       147 -10.4100      1.2722    109.6933   1.3072955414e+02   5.1354471619e+01    0.1458513   0.06827481 -79.82 0.0002366087    1.630    0.386
       148 -11.0684      5.6239    107.6416   1.2948831708e+02   5.1500988550e+01    0.2813804     0.194666 -24.96  0.001914768    2.279    0.561
       149  -9.4624    133.4552    107.5046   9.6878153451e+01   3.4712620714e+01    0.1379826    0.1366295  48.17 0.0001062977    1.036    0.034
       150 -10.8399    243.7357    104.2458   7.4753314158e+01   1.1130225039e+01    0.1969014    0.1460196  13.83  0.001050037    1.351    0.260
       151 -10.1091    223.3710    103.9446   7.7909133929e+01   1.5568865671e+01    0.2180046    0.1987269  54.60 0.0005054462    1.227    0.185
       152 -11.0197     70.0495    102.5504   1.1189958119e+02   4.6348381433e+01    0.2484908    0.2009528  19.78 0.0008214295    1.610    0.379
       153 -10.8042    247.8305    102.1591   7.3639322370e+01   1.0533293365e+01    0.2043192    0.1862977 -33.38 0.0007625135    1.239    0.193
       154 -10.5873     35.6875    101.4388   1.2098521844e+02   5.0450313983e+01    0.2214249    0.1753438  48.13  0.001533433    1.395    0.283
       155 -11.0206     27.4811    101.1250   1.2314405244e+02   5.1247290292e+01    0.1984066    0.1646345 -59.06  0.001437799    1.265    0.209
       156  -9.9625      9.6513    102.5445   1.2799200671e+02   5.2300340161e+01    0.1596555    0.1126237  14.85  0.001000123    2.021    0.505
       157  -9.8562    119.8029    101.3994   9.8720839091e+01   3.8566185558e+01    0.1963517    0.1316413  33.31 0.0008929051    1.710    0.415
       158  -9.7289     84.8213     99.4893   1.0732567689e+02   4.4918630978e+01    0.2244741    0.1437424 -52.69  0.001179836    1.466    0.318
       159  -9.8549     50.1874     99.6703   1.1677672421e+02   4.9367599893e+01    0.2330378    0.1190175 -54.63     0.001223    1.779    0.438
       160 -11.6682     20.4895     97.5671   1.2457668078e+02   5.2575442229e+01    0.3365413     0.187761 -87.35 5.202885e-05    1.631    0.387
       161 -10.7652     63.4576     98.8899   1.1300309511e+02   4.7985708187e+01     0.353358    0.1922071  30.34  0.001792758    2.260    0.557
       162  -9.7211     94.8034     96.8131   1.0407285624e+02   4.3920958071e+01    0.1800669    0.1496323  83.60  0.000245363    1.310    0.237
       163 -10.6379      1.7673     92.8818   1.2911616994e+02   5.4834164792e+01    0.3805487     0.102056 -70.75   0.00180185    2.587    0.613
       164  -9.8912     66.9056     93.4595   1.1099530998e+02   4.8723282865e+01    0.1868989     0.153107 -65.38 0.0004851399    1.079    0.073
       165  -9.9270     31.4498     92.9594   1.2092755556e+02   5.2668059877e+01    0.1803397   0.09552689 -70.33 0.0003778675    1.547    0.353
       166 -11.9192     11.4213     91.1212   1.2628957877e+02   5.4606088449e+01    0.3423418    0.2106343  22.22   0.00224802    2.144    0.534
       167 -10.6036     26.3004     91.2222   1.2212969732e+02   5.3480965397e+01    0.2319403    0.1972739 -29.85   0.00167359    1.520    0.342
       168 -10.7147     95.9677     90.4928   1.0227844491e+02   4.5054627431e+01    0.3889644    0.2663783  -9.77  0.001724664    2.663    0.624
       169  -9.1728     21.3022     91.3321   1.2355529580e+02   5.3853365461e+01    0.1151322   0.07138485 -50.01 0.0006056407    1.654    0.395
       170 -10.0043    171.3408     90.6911   8.4138685299e+01   2.9564554186e+01    0.1508537    0.1195731 -78.43 0.0003541478    1.690    0.408
       171  -9.3920    158.3069     90.3213   8.6821833426e+01   3.2619863898e+01    0.1522015    0.1159625  11.66 0.0005233363    1.640    0.390
       172  -9.5896    103.5244     88.5345   9.9754474290e+01   4.4164944495e+01    0.1374688    0.1296544 -67.98 0.0002992221    1.024    0.023
       173 -12.1837     48.5820     85.6244   1.1473827685e+02   5.2598459091e+01    0.3997982    0.2843261  59.68  0.001422653    1.585    0.369
       174 -10.3255     22.9292     86.6774   1.2244645963e+02   5.4733292326e+01    0.2369298    0.1159715 -57.77 0.0007787902    1.710    0.415
       175 -10.8179    112.6278     85.6690   9.6592502306e+01   4.3087153106e+01    0.3184646    0.2482755 -55.00  0.001693269    1.273    0.214
       176 -10.6836     67.1054     85.5769   1.0928279587e+02   5.0402577954e+01    0.2668608    0.1681264 -52.52  0.001449898    1.428    0.300
       177 -10.2863      3.4564     85.9940   1.2793973885e+02   5.6194131992e+01    0.1799798    0.1616185  60.50 0.0006893401    1.322    0.243
       178 -10.8681    117.9864     82.6613   9.4377256058e+01   4.2657092899e+01    0.4507561    0.1902744 -44.22  0.001743958    2.299    0.565
       179  -9.3264    130.3807     81.8603   9.1002462741e+01   4.0297662790e+01     0.198818    0.1358149 -30.47 0.0005147023    1.587    0.370
       180  -9.3723     29.9900     81.9872   1.1963688278e+02   5.5177642189e+01    0.1430603    0.1138623 -72.12 0.0004448511    1.011    0.011
       181 -11.5175     19.5111     81.1816   1.2265453131e+02   5.6179878989e+01    0.3738059    0.1964583 -83.16 0.0008749921    1.790    0.441
       182 -11.3328     23.2690     80.0161   1.2134702244e+02   5.6150189429e+01    0.4220559    0.1910897 -79.08  0.001497191    2.151    0.535
       183 -10.7202     74.7078     81.0439   1.0601343999e+02   5.0340084613e+01    0.2628848    0.2001188 -43.79  0.001087283    1.293    0.227
       184 -10.7694     71.1840     79.1718   1.0660941523e+02   5.1233242983e+01    0.2450285    0.2113241 -56.29 0.0006210889    1.043    0.041
       185 -11.1934     39.5177     80.9735   1.1657984449e+02   5.4535512620e+01    0.2126339    0.1945603  70.64  0.000431479    1.209    0.173
       186 -10.0523     12.3197     77.6718   1.2431782971e+02   5.7432738734e+01    0.1990538    0.1085375  78.62  0.001117288    2.073    0.518
       187 -10.2317      2.0730     72.4850   1.2676134052e+02   5.9147814162e+01    0.2417857    0.1240391 -60.19 0.0008428136    1.543    0.352
       188 -11.4724      3.0488     78.0480   1.2715012075e+02   5.7908597907e+01    0.3218998    0.2463429  66.42 0.0009610824    1.381    0.276
       189 -11.6786      7.5224     74.0481   1.2528641886e+02   5.8508098223e+01    0.3926459     0.288528 -64.44  0.002510922    1.142    0.124
       190  -9.6633     81.3022     78.9978   1.0357094491e+02   4.9808023921e+01    0.1814851    0.1542603 -53.76 0.0003314243    1.070    0.066
       191 -10.6568    150.0994     77.5115   8.5046381545e+01   3.6768403014e+01    0.2758511    0.2134025 -36.71 0.0005322325    1.286    0.223
       192 -10.4564     92.3408     77.8277   1.0006704091e+02   4.8298270344e+01    0.2569075    0.2097424  30.21  0.001140743    1.388    0.280
       193 -10.4356     88.2948     76.2221   1.0080458998e+02   4.9295706142e+01    0.2635081     0.195772 -27.64  0.001242395    1.584    0.369
       194 -11.6575     58.9225     75.5983   1.0949744925e+02   5.3592550491e+01    0.4447648    0.3086671  72.66  0.002439047    1.880    0.468
       195  -9.8482     54.5385     72.5076   1.1015353315e+02   5.4781231456e+01     0.215871    0.1083471 -59.23 7.493801e-05    1.712    0.416
       196 -11.1087     65.2199     73.7721   1.0711244030e+02   5.3189901327e+01    0.3598502    0.2657259 -57.55 0.0004048825    1.188    0.158
       197 -10.8052     62.3063     71.6872   1.0750787395e+02   5.4011831214e+01    0.2290236    0.2004246 -57.60 0.0003561359    1.012    0.011
       198  -9.4995     45.2912     64.5986   1.1130118777e+02   5.7505914148e+01    0.1698231   0.09713148  58.40 0.0003941976    2.497    0.600
       199 -11.2982     44.5747     75.0196   1.1384892400e+02   5.5328357898e+01    0.2668937    0.1876744  43.21 0.0003213269    1.636    0.389
       200 -10.3828     40.4957     71.6599   1.1444414089e+02   5.6466581328e+01    0.2531452    0.1953116  75.97  0.001613227    1.474    0.322
       201 -10.9867     37.6783     67.2256   1.1442220050e+02   5.7697087918e+01    0.3650022     0.203827 -47.47 0.0004071041    1.644    0.392
       202 -10.1960     41.2298     64.1623   1.1255828168e+02   5.8013997199e+01    0.1818445    0.1613219  86.50 0.0003740793    1.227    0.185
       203 -11.0168    108.8589     73.1909   9.4131288696e+01   4.6293724146e+01    0.3914908    0.2070418 -48.87  0.001701378    1.853    0.460
       204  -9.7968     75.6483     75.6999   1.0441197108e+02   5.1343018332e+01    0.1322184   0.09981112 -21.96 0.0001566835    1.695    0.410
       205 -11.3220    152.4048     72.2254   8.2952944009e+01   3.7163441295e+01    0.3088987    0.2631101 -25.24 0.0008669576    1.182    0.154
       206 -11.1187    102.6146     72.9755   9.5801621167e+01   4.7497896315e+01    0.2457268    0.2184547  32.73 0.0004126215    1.212    0.175
       207 -11.0951     16.9398     72.5947   1.2213497847e+02   5.8218852055e+01    0.2975566    0.1599863 -89.91 0.0007124986    2.006    0.502
       208 -10.1378     16.6688     67.9331   1.2146262116e+02   5.9243591319e+01    0.1701088    0.1463029  66.82 0.0003288345    1.318    0.241
       209 -11.0422     20.8329     65.8405   1.1972815204e+02   5.9401647949e+01    0.3742414    0.2052573  23.83  0.002215346    2.320    0.569
       210  -9.7015    245.2932     72.6761   6.6629633750e+01   1.4767062150e+01    0.1412166    0.1032515 -52.40 0.0003864095    1.617    0.381
       211  -9.9262    175.1424     71.8473   7.8014189864e+01   3.1770795273e+01    0.2091582    0.1745639  13.55 0.0003140836    1.290    0.225
       212 -11.0161     78.1731     72.0083   1.0268457678e+02   5.1750666716e+01    0.3061972    0.1882339  47.27 0.0003737948    1.833    0.454
       213 -11.3146     27.3366     70.4264   1.1844111046e+02   5.7909217011e+01    0.2667341    0.1761074 -70.04 0.0002153306    1.241    0.194
       214 -10.8306     31.1564     66.2977   1.1638768912e+02   5.8484574102e+01    0.3280387    0.1718891 -67.97  0.001144875    1.623    0.384
       215 -11.3177     49.6134     70.8362   1.1133773841e+02   5.5698986822e+01    0.3640741    0.1891946  49.95  0.001743043    2.413    0.586
       216 -10.2250     50.7030     67.6742   1.1024811271e+02   5.6259279888e+01    0.2040744     0.154789 -44.87  0.001147904    1.251    0.201
       217 -10.4258    140.5470     69.2122   8.4784190039e+01   4.0421660259e+01    0.2819907    0.1409477 -40.53 0.0007660412    1.966    0.491
       218 -10.8996    129.5385     66.0190   8.6492856881e+01   4.3440814339e+01    0.5818847     0.242701 -32.90  0.002068209    2.646    0.622
       219 -11.6528     95.7020     66.8593   9.5986243379e+01   4.9960557209e+01    0.4841824    0.4075336 -20.42  0.002285159    1.297    0.229
       220 -10.7391     68.7732     67.4756   1.0438328980e+02   5.4051317619e+01    0.2932646    0.2212283 -50.83  0.001072434    1.167    0.143
       221 -11.8846      4.0185     65.1350   1.2515145812e+02   6.0613150179e+01     0.504151    0.2663143  71.87  0.002852618    2.321    0.569
       222  -9.9615     56.1147     66.8535   1.0828520122e+02   5.5809144495e+01    0.1725866    0.1335669 -37.98  0.000450268    1.321    0.243
       223  -9.3546    146.7295     65.9921   8.2331896800e+01   3.9566693549e+01    0.1872681    0.1302654 -33.92 0.0006150694    1.423    0.297
       224 -10.4751     76.9349     65.1432   1.0116748507e+02   5.3366461609e+01    0.2902662    0.2226497 -49.35  0.001370749    1.166    0.142
       225 -11.6498     83.3535     61.3617   9.8050236348e+01   5.3143404135e+01    0.5375617    0.4119181  16.58  0.001841564    1.626    0.385
       226  -9.4329    189.1294     64.1490   7.3062875517e+01   2.9482448726e+01    0.1959919    0.1766717 -68.43  0.001016742    1.262    0.208
       227  -9.7794    173.9357     63.8946   7.5858392172e+01   3.3324301263e+01    0.2330635    0.1970602  22.48 0.0004592614    1.233    0.189
       228 -11.2060     56.2437     62.2890   1.0706854567e+02   5.6764229285e+01     0.265456     0.209362 -37.41 0.0001754365    1.270    0.212
       229 -11.3847     56.9906     54.3522   1.0461136719e+02   5.8335265181e+01    0.4478359    0.2441676 -70.29  0.001970421    2.582    0.613
       230 -10.6838     51.7707     62.3802   1.0858633933e+02   5.7270465455e+01    0.2568136    0.1723382 -41.31 0.0005990466    1.446    0.309
       231 -12.0178     10.1834     62.0588   1.2263146126e+02   6.0921874523e+01    0.4902611    0.2390297  59.93 0.0008860294    2.868    0.651
       232 -11.4591      5.0431     52.5480   1.2279768134e+02   6.3240586875e+01    0.3582604    0.2115632 -35.78  0.002284885    1.892    0.472
       233  -9.7962    160.8703     61.3437   7.7736988057e+01   3.6957653175e+01    0.2135959    0.1915972  37.11 0.0005832013    1.105    0.095
       234 -10.5505     70.2192     58.8774   1.0149242083e+02   5.5639531096e+01    0.4020366    0.2604843 -67.91  0.002027557    1.861    0.463
       235 -10.9342     64.9469     60.0277   1.0355992118e+02   5.6130268681e+01    0.3461397    0.2240675  25.90  0.001539928    1.918    0.479
       236 -11.5554     29.7498     60.7392   1.1569879651e+02   5.9802160038e+01    0.5683086    0.2581022  13.29  0.002518311    3.688    0.729
       237 -12.4393     38.0870     51.4067   1.1050762076e+02   6.1036538687e+01    0.5596601    0.3557955 -46.04   0.00147992    1.364    0.267
       238 -10.1261     18.1095     59.9696   1.1955726364e+02   6.0858862305e+01    0.2482717    0.1609614  77.35  0.001506947    1.862    0.463
       239 -11.4035    123.2123     56.6584   8.5081290067e+01   4.6498295031e+01    0.3124037    0.2391995 -55.35 0.0008532707    1.465    0.317
       240 -10.2900     43.9310     57.4381   1.0999801902e+02   5.9176012197e+01    0.2302005    0.1537158 -70.99 0.0006180335    1.513    0.339
       241 -10.5202     44.9921     51.3963   1.0800379801e+02   6.0335542451e+01    0.2793397    0.1928095 -37.45 0.0005798909    1.419    0.295
       242 -10.6239    114.4304     57.2497   8.7624187599e+01   4.8239889637e+01    0.2957958    0.1981842  38.14 0.0009481963    1.599    0.375
       243  -9.4815    146.4675     56.0103   7.9180585850e+01   4.1311314401e+01    0.2283202    0.1464585 -32.20 0.0005260892    1.539    0.350
       244 -10.6888    100.9816     55.7428   9.0927051623e+01   5.1167017184e+01    0.4821215    0.1732618  44.20  0.001760846    2.971    0.663
       245  -9.7955     75.6304     56.2782   9.8938502245e+01   5.5374032925e+01    0.2181768    0.1631244  56.61  0.001201184    1.649    0.393
       246 -12.3106    128.1949     51.1287   8.1919661360e+01   4.6362458138e+01    0.5408919    0.3477567 -25.81  0.001000589    1.623    0.384
       247 -10.9447     12.8934     51.3171   1.1971944385e+02   6.3050197430e+01    0.3474008    0.1817284 -67.53  0.001598021    1.492    0.330
       248 -10.3392     87.1278     52.4955   9.4041662123e+01   5.4272147046e+01     0.202142    0.1847302 -71.66 0.0008792166    1.243    0.195
       249  -9.7687    157.7053     52.0115   7.5388712479e+01   3.9211857411e+01    0.2121751    0.1927458 -22.90 0.0003169673    1.087    0.080
       250 -11.3371    153.8597     48.1946   7.4928376213e+01   4.0752103905e+01    0.4057135    0.2883989 -70.84  0.001116042    1.994    0.499
       251 -10.7470    121.5857     51.5765   8.3778341254e+01   4.7743360531e+01    0.3103326    0.2109358  18.84  0.001072547    1.948    0.487
       252  -9.5696     50.1615     51.8381   1.0627825256e+02   5.9671174982e+01     0.164614    0.1287552 -32.75 0.0003802711    1.292    0.226
       253 -10.3658     51.3103     48.4974   1.0488014804e+02   6.0227116617e+01    0.2547196    0.1744135 -87.75 0.0009270175    2.302    0.566
       254 -11.2529    114.2985     50.0189   8.5191245874e+01   4.9566658534e+01    0.4300264    0.2728668 -44.21  0.001408175    1.567    0.362
       255 -10.3685     71.4214     50.9514   9.8635108406e+01   5.7069603080e+01    0.3720535    0.2193487  42.90  0.001229861    1.936    0.484
       256 -10.3272     77.0349     50.2056   9.6522437083e+01   5.6365033821e+01    0.2076868    0.1703831 -17.58 0.0008221212    1.308    0.235
       257 -10.5797    196.9785     48.2421   6.6904635799e+01   2.9718512975e+01     0.257396    0.2074908 -33.74 0.0001952619    1.229    0.186
       258 -11.1032    101.1723     48.3683   8.8341013499e+01   5.2497567398e+01    0.2530365    0.2088045  55.60  0.001385378    1.378    0.274
       259 -10.7020     62.6285     47.3312   1.0047818074e+02   5.9034020676e+01    0.2355314    0.1871568 -33.18 0.0003503554    1.188    0.158
       260 -10.5020    142.7430     45.9681   7.6621193037e+01   4.3814008998e+01    0.2895347    0.2594338 -47.32 0.0008381567    1.185    0.156
       261 -10.3753     86.0466     45.3447   9.1914523457e+01   5.5814658092e+01    0.3014008    0.1915085 -52.37  0.001484398    1.662    0.398
       262  -9.9546     19.1066     47.0839   1.1649158551e+02   6.3534051643e+01    0.1823927    0.1266847  81.74  0.001132605    1.802    0.445
       263 -10.5369      4.7644     47.3794   1.2195915117e+02   6.4349162141e+01    0.1701386    0.1377525 -31.68  0.001285163    1.413    0.292
       264 -10.4046    121.8692     44.1332   8.1066157370e+01   4.8942284590e+01    0.4536167    0.2397322 -32.46  0.001916479    1.844    0.458
       265  -8.9339    233.3109     45.2955   6.0857146451e+01   2.0920922586e+01     0.147326      0.10455  25.75 0.0005269244    1.594    0.373
       266 -10.1223     91.9019     45.0149   8.9949205445e+01   5.4840778730e+01    0.2067683    0.1839289 -32.44 0.0002985735    1.033    0.031
       267 -11.3620     11.6002     43.7204   1.1860702150e+02   6.4734835565e+01    0.2773251    0.2194801 -43.13  0.001050993    1.238    0.192
       268 -10.9899      7.0409     41.4166   1.1988558334e+02   6.5481170587e+01    0.3247607    0.1380074 -69.61 0.0007831275    1.916    0.478
       269 -11.8175     97.1190     40.8806   8.6827085785e+01   5.4609860412e+01    0.5002556    0.3467851 -57.94  0.002446115    1.815    0.449
       270 -10.2878     50.2496     44.4037   1.0400154234e+02   6.1185072135e+01     0.231633    0.1193631  38.12  0.001084607    2.280    0.561
       271 -10.7580     52.1438     41.1646   1.0224574255e+02   6.1608827994e+01    0.2295655    0.1453063 -59.51 0.0006599415    1.594    0.373
       272 -10.5236     64.1205     41.4856   9.7974303352e+01   5.9978779965e+01     0.273214    0.1797627 -46.40  0.001153318    1.327    0.247
       273 -10.7618     70.9532     35.5109   9.3358013934e+01   6.0099557233e+01    0.1818671    0.1610765 -22.42 0.0003390872    1.049    0.047
       274 -10.3000    163.0600     42.3351   7.1049895088e+01   3.9297697327e+01    0.2103643    0.1915386  51.01 0.0003701506    1.100    0.091
       275  -9.9999    110.9497     42.0263   8.3235334903e+01   5.1644124250e+01    0.2094185    0.1986972 -19.91 0.0003008311    1.043    0.041
       276 -10.5336     81.3220     42.3327   9.2364080139e+01   5.7175883805e+01    0.3221224    0.2641065  56.96    0.0018534    1.496    0.332
       277 -11.0003     85.0204     38.7664   8.9828914481e+01   5.7195806245e+01    0.4755011    0.2028267  35.07 0.0007769539    2.946    0.661
       278  -9.7686     28.7045     40.7265   1.1114688647e+02   6.4115556601e+01    0.1548268    0.1384237 -37.80 0.0005041071    1.162    0.139
       279 -10.4540     23.9169     41.4969   1.1324584610e+02   6.4346934382e+01     0.256322    0.2110907   2.98  0.001824016    1.502    0.334
       280 -11.2564     20.6748     37.9070   1.1357991446e+02   6.5336602083e+01    0.2474155    0.1853994 -58.85 0.0005387262    1.077    0.072
       281 -11.6362     24.5051     35.6855   1.1139288116e+02   6.5497361512e+01     0.315572    0.2318269  49.77  0.001180453    1.806    0.446
       282 -10.6591     89.8413     39.5895   8.8593954164e+01   5.6191850541e+01    0.4315859    0.1693411 -44.74  0.001673798    2.482    0.597
       283  -9.9293    226.2772     40.2281   6.0323439255e+01   2.3253867552e+01    0.1972694     0.159264 -51.82 0.0004602564    1.304    0.233
       284 -10.0102    135.5544     39.8019   7.6092040329e+01   4.6485306240e+01    0.2099666     0.133878 -41.56 0.0005067118    1.612    0.380
       285  -9.6485     44.2614     39.4523   1.0467661644e+02   6.2861208213e+01    0.2341215   0.09146453 -53.40 0.0008428193    2.142    0.533
       286  -9.2219    234.7428     38.3030   5.8741847028e+01   2.1384972370e+01    0.1429264    0.1006194 -51.03 0.0001505174    1.511    0.338
       287 -10.4839    149.2127     38.0122   7.2382989865e+01   4.3416922522e+01    0.2249555     0.195368 -48.24 0.0003991343    1.241    0.194
       288 -10.7021    105.7853     34.9520   8.2000945080e+01   5.3886650482e+01    0.4105764    0.2662582 -56.45  0.001507711    2.069    0.517
       289 -10.7042     80.5913     36.9216   9.0586998823e+01   5.8286567399e+01    0.3019665    0.2187921  19.96  0.001192228    1.623    0.384
       290 -10.0569     84.7962     35.3282   8.8581035827e+01   5.7844151110e+01    0.2245923    0.1620513  38.14  0.000882342    1.495    0.331
       291  -9.5647    154.7088     35.9988   7.0524231519e+01   4.2315600621e+01    0.2128799     0.188242 -14.58 0.0004760459    1.120    0.107
       292  -9.7174     56.7601     35.9652   9.8705039678e+01   6.2041371486e+01    0.1695559   0.09317841 -46.00  0.000465144    1.548    0.354
       293 -10.8652      9.4998     15.9721   1.1189032931e+02   7.0498173729e+01    0.2265173    0.1578998 -27.78 0.0008534617    1.418    0.295
       294 -11.4679      7.4848     29.5168   1.1687870381e+02   6.7917452617e+01    0.6752723    0.4062231 -84.99  0.004011028    2.039    0.510
       295 -10.2177      9.7295     25.3232   1.1472796494e+02   6.8635626238e+01    0.3228147     0.201378 -37.25  0.001536421    1.477    0.323
       296 -10.5663    181.0202    248.4938   1.1054938143e+02   5.1374214096e+00    0.1976531    0.1081412 -22.98  0.001198886    3.332    0.700
       297 -10.3198    110.9649     34.8622   8.0509935505e+01   5.2814249934e+01    0.2300494    0.1924905 -29.39 0.0002889186    1.138    0.121
       298 -11.3375    101.7420     36.9564   8.3952959370e+01   5.4377948052e+01    0.2558191    0.2019535  42.73 0.0005719144    1.331    0.249
       299 -10.0656     31.6193     33.9829   1.0794910489e+02   6.5231027808e+01    0.2067739    0.1578613  36.96 0.0006945144    1.633    0.388
       300 -10.3244     96.7209     32.6157   8.3748197942e+01   5.6088599828e+01    0.3457751    0.1973307  23.25  0.001066148    2.545    0.607
       301  -9.9352    178.7979     31.8452   6.4651677678e+01   3.6594973991e+01    0.2125161    0.1723615 -55.47  0.000412665    1.365    0.267
       302  -9.2224    118.4946     32.5277   7.7579263784e+01   5.1531045287e+01    0.1437682    0.1365004 -34.97 0.0008072231    1.121    0.108
       303 -10.6378     18.3605     31.5100   1.1274703393e+02   6.6814615692e+01    0.2361239    0.1782965 -85.22  0.001572487    1.601    0.375
       304  -9.3582      1.2701     32.3109   1.2022602665e+02   6.7666730193e+01    0.1139568   0.05959896 -47.78 0.0001522734    1.547    0.353
       305 -10.1390     73.7232     31.1961   9.0695821957e+01   6.0438075132e+01    0.2022724    0.1771925   2.33 0.0003905674    1.164    0.141
       306 -10.5440     56.2042     30.7552   9.6968617320e+01   6.3098529656e+01    0.2245134     0.156895 -38.96  0.001018513    1.213    0.175
       307 -10.3124    212.8959     28.9093   5.8728427716e+01   2.7966557769e+01    0.2239446     0.186454  30.33 0.0003615964    1.261    0.207
       308 -10.5133    154.6270     27.6218   6.7534909628e+01   4.3450938599e+01    0.3184845    0.1878406  -4.16 0.0006036503    2.141    0.533
       309 -10.6444    100.9692     28.6770   8.0885645373e+01   5.5870700228e+01    0.2436664    0.1878407 -35.56 0.0003204765    1.254    0.202
       310  -9.3912    216.6884     28.2823   5.8063601967e+01   2.7057341193e+01    0.1486681    0.1061193 -59.22 0.0001416527    1.570    0.363
       311 -10.2922    124.9354     27.9227   7.4144410398e+01   5.0732336515e+01    0.2148651    0.1922447  11.19  0.001180791    1.078    0.072
       312 -11.4228     71.0425     26.1697   8.9585655796e+01   6.1740741825e+01    0.4396257    0.3006676  25.15  0.002332775    1.663    0.399
       313  -9.8358     50.3132     27.9879   9.8205756426e+01   6.4373360146e+01     0.182744    0.1311211 -38.60 0.0005196276    1.162    0.140
       314  -9.7703     24.8451     26.9177   1.0851058380e+02   6.7230840440e+01     0.179969    0.1276629 -38.81  0.000575731    1.208    0.172
       315 -10.0045     16.5607     26.0735   1.1189374000e+02   6.8037280329e+01    0.2643748   0.07176524 -54.28  0.001179214    2.484    0.597
       316  -9.2231    128.2654    249.3490   1.1869014512e+02   1.2587815038e+01   0.08760545   0.06964593  26.84 0.0004218297    1.614    0.381
       317  -9.8481    124.2801     22.0473   7.1954774916e+01   5.1689031953e+01    0.2008762    0.1798565 -17.63  0.001111548    1.088    0.081
       318  -9.2049     90.5278     26.5276   8.3168505356e+01   5.8264505307e+01    0.1374159    0.1239029 -17.91 -3.004897e-05    1.037    0.036
       319 -11.6870     62.1180     24.7204   9.2273514015e+01   6.3360079882e+01    0.4413713    0.3797592 -49.09  0.002810849    1.281    0.219
       320 -10.5872     65.3778     20.7552   8.9335511596e+01   6.3544882083e+01    0.2158768    0.1813044  29.38 0.0007089003    1.308    0.236
       321 -10.0704    162.9435     29.0082   6.6456683728e+01   4.1118692694e+01    0.2207979    0.2108129   9.34  0.001204991    1.020    0.020
       322 -10.1625    174.8996     24.4868   6.2808656662e+01   3.8517416268e+01    0.2319858    0.1461827  63.45  0.001027738    1.575    0.365
       323  -9.6941    162.1235     23.7642   6.4742167520e+01   4.1979175952e+01    0.2086401    0.1659868  25.53  0.001033654    1.301    0.231
       324  -9.3129     97.3362     24.3216   8.0145860711e+01   5.7273484848e+01    0.2638058     0.161247  20.41  0.001171013    2.145    0.534
       325  -9.5207     99.3251     21.7104   7.8441936576e+01   5.7255688068e+01    0.1953577    0.1316588 -42.87 0.0004476543    1.583    0.368
       326 -10.5944     54.1191     23.3591   9.4816560411e+01   6.4722682341e+01    0.2142863    0.1772682 -43.26 0.0003351444    1.180    0.152
       327 -10.2521    246.0204     23.0008   5.3343472497e+01   2.0315567976e+01    0.1970636     0.182811 -34.65            0    1.009    0.009
       328  -9.8234    120.1436     22.0037   7.2946494041e+01   5.2659911974e+01    0.3152709    0.1800991   8.45  0.001043922    2.642    0.621
       329 -10.7542     35.6942     21.6408   1.0183211945e+02   6.7230565666e+01    0.3137547     0.171465 -48.51  0.001477497    1.499    0.333
       330 -10.0337    136.9899    247.6868   1.1720673037e+02   1.1571684545e+01    0.1467627   0.09758794  47.55 0.0004229847    1.067    0.063
       331 -10.3519     23.7844     21.5037   1.0710225030e+02   6.8376448864e+01    0.3957258    0.1258602 -54.43  0.001781093    2.461    0.594
       332 -10.9196     28.7479     18.6511   1.0376251964e+02   6.8477434013e+01    0.3581172    0.2180189 -17.00 0.0007913026    2.014    0.503
       333 -10.0735     72.5943    250.1567   1.2710834788e+02   1.9637235729e+01    0.1401541    0.1130261  39.94  0.001246118    1.592    0.372
       334 -11.4667     84.9711     20.4572   8.2333210830e+01   6.0252998537e+01    0.4068325    0.2789207   0.82  0.001706059    1.724    0.420
       335  -9.3420     45.5032     20.5129   9.7155140262e+01   6.6331905412e+01    0.1256715    0.1011192 -30.88 0.0008103915    1.027    0.027
       336  -9.8569    103.6481     19.1714   7.6106195750e+01   5.6711427022e+01     0.295524    0.1617902  28.79  0.001244978    2.254    0.556
       337 -10.2572    147.7611    245.2196   1.1531225453e+02   1.0328693857e+01    0.1270167   0.08290113 -33.84 0.0008910861    2.491    0.599
       338  -9.6105    115.4324    244.3014   1.2023032239e+02   1.4964007122e+01    0.1169894    0.0859122  82.42 0.0009393113    1.521    0.343
       339 -11.9256     74.1815    238.3839   1.2614206698e+02   2.1052242389e+01    0.4397117    0.2469502  56.75  0.003342855    1.280    0.219
       340 -10.1068    109.6020    242.8628   1.2101293118e+02   1.5933239994e+01    0.2107879   0.09046331  54.10  0.001076912    1.864    0.464
       341 -10.2673    108.2850     17.2322   7.3994301198e+01   5.5970833138e+01    0.2382376    0.2082602 -53.08  0.000598314    1.364    0.267
       342 -10.5447    216.9729     16.5967   5.4569736956e+01   2.8231887917e+01    0.4940018    0.1303804  56.05  0.001614958    3.270    0.694
       343 -10.2040     88.5479    241.4532   1.2414919039e+02   1.8858394443e+01    0.1397418   0.08503141 -54.73  0.001027545    2.377    0.579
       344 -12.1131     35.4658    241.5209   1.3207616906e+02   2.4924280667e+01    0.5642104    0.1533988  50.82  0.003493542    2.302    0.566
       345  -9.7579     56.6790     16.3316   9.0719087418e+01   6.5574772859e+01    0.2179253    0.1402882 -50.29 0.0007396986    1.739    0.425
       346 -10.6478     55.4740     13.4529   8.9868930756e+01   6.6218562695e+01    0.1808946    0.1632358  77.13 0.0005619958    1.679    0.404
       347  -9.6301     24.3723    232.2598   1.3330120817e+02   2.7369098523e+01    0.1515508   0.06746707  61.77 0.0008423764    1.592    0.372
       348 -10.2900     31.4413    237.2218   1.3247436757e+02   2.5946900715e+01     0.187009   0.08884933  78.88  0.001109582    1.843    0.457
       349  -9.8090    119.6458     11.7170   6.8753813298e+01   5.4069084724e+01    0.2347393    0.1252878  52.26 0.0005416271    1.794    0.442
       350 -10.4579     29.2111    233.1545   1.3262725098e+02   2.6761234272e+01    0.2259918   0.09537633  54.27  0.001225819    1.613    0.380
       351 -10.9238    156.1955    240.7380   1.1354541952e+02   9.6188623344e+00    0.1757312    0.1288501  79.97   0.00128922    1.902    0.474
       352  -9.4603    139.6837     13.3473   6.5068923092e+01   4.8981237157e+01    0.1521541    0.1095179 -57.14 0.0007047976    1.724    0.420
       353  -9.3776     50.2914    240.3419   1.2985271975e+02   2.3521636601e+01   0.07401029   0.06982361  71.17 0.0004046564    1.652    0.395
       354 -10.1432    195.8239    238.5043   1.0712126529e+02   3.9401184009e+00    0.2012046    0.1305169  25.99  0.001304187    1.451    0.311
       355 -10.3360      8.0075     21.2589   1.1430841169e+02   6.9550588599e+01    0.1890923    0.1141378 -52.07 0.0003339267    1.218    0.179
       356  -9.0823    108.2901     10.6536   7.1099222593e+01   5.6802270594e+01    0.1392281    0.1056278 -53.03 0.0003846119    1.660    0.397
       357  -9.6769     30.5225     12.9924   1.0060228342e+02   6.9343321943e+01    0.1838547   0.09405703 -45.40  0.000745062    1.554    0.356
       358 -11.4128    177.1367    235.4503   1.0966863257e+02   7.0822756592e+00    0.3333465    0.2040688  10.04  0.001801848    2.975    0.664
       359 -12.1389     15.8699    238.3012   1.3475310905e+02   2.7302653805e+01    0.6293309    0.1585585  41.04  0.003839904    2.840    0.648
       360 -12.7176     20.9572    248.8820   1.3441008338e+02   2.5334029411e+01    0.5744961    0.1680451  42.68  0.003788039    2.409    0.585
       361 -10.3525    159.8851    235.8748   1.1244413947e+02   9.6334736007e+00    0.1637074    0.1163446  35.91 0.0006351355    1.237    0.192
       362 -10.5496      1.4204    245.0314   1.3695611062e+02   2.7656201770e+01    0.1321888   0.06284679 -84.48 0.0004829127    1.927    0.481
       363 -11.1033    153.4218    233.7626   1.1324416290e+02   1.0848309326e+01    0.1875234    0.1593405 -11.29  0.001021225    1.697    0.411
       364 -10.1755    167.0551    233.5529   1.1104570919e+02   8.8221363172e+00    0.1474213    0.1291288  41.43 0.0006921939    1.195    0.163
       365  -9.9638     79.7353    231.4043   1.2480735407e+02   2.1360736097e+01    0.1650025     0.098787  44.54 0.0006755584    1.406    0.289
       366  -9.3384     58.3527    230.2906   1.2807626517e+02   2.4069692631e+01   0.08001579   0.07238127  38.45 0.0004801129    1.675    0.403
       367 -10.2962    190.5243    227.2828   1.0654758254e+02   5.9105146429e+00    0.2677583    0.1102561 -38.88  0.001482187    3.223    0.690
       368 -10.0466    127.4822    233.4869   1.1737173699e+02   1.4675918401e+01    0.1055843   0.07856791  49.03 0.0004075516    1.060    0.056
