#   1 NUMBER                 Running object number                                     
#   2 MAG_AUTO               Kron-like elliptical aperture magnitude                    [mag]
#   3 X_IMAGE                Object position along x                                    [pixel]
#   4 Y_IMAGE                Object position along y                                    [pixel]
#   5 X_WORLD                Barycenter position along world x axis                     [deg]
#   6 Y_WORLD                Barycenter position along world y axis                     [deg]
#   7 A_WORLD                Profile RMS along major axis (world units)                 [deg]
#   8 B_WORLD                Profile RMS along minor axis (world units)                 [deg]
#   9 THETA_WORLD            Position angle (CCW/world-x)                               [deg]
#  10 FWHM_WORLD             FWHM assuming a gaussian core                              [deg]
#  11 ELONGATION             A_IMAGE/B_IMAGE                                           
#  12 ELLIPTICITY            1 - B_IMAGE/A_IMAGE                                       
         1 -14.9408    162.0167     42.5305   8.0489825900e+01   3.9353955348e+01     1.457033     1.117875  -8.59  0.003769305    1.474    0.321
         2 -14.6463    175.3295      9.6174   6.7322546212e+01   3.9551381944e+01     1.161696     1.062604  50.97  0.003969145    1.132    0.117
         3 -11.8556    189.8528     14.6822   6.7327186316e+01   3.5162837747e+01    0.2364708    0.2006896  -4.94   0.00076815    1.316    0.240
         4 -13.0053    196.8508      6.3086   6.4105303780e+01   3.4132937323e+01    0.4904851     0.243463 -74.84  0.002012609    2.386    0.581
         5 -10.1393    150.8541    243.5267   1.2636858799e+02   8.3829327660e+00    0.1583354    0.0816743  33.15 0.0003627736    1.378    0.274
         6 -20.0772     76.6006    174.6753   1.3495243423e+02   3.0138946522e+01     15.54091     6.895929 -70.24   0.07141642    2.605    0.616
         7 -11.3370     21.8125    240.4383   1.5084611747e+02   2.4162566286e+01    0.1311429   0.09611284  58.50 0.0005912342    1.123    0.109
         8 -11.1907    131.2646    237.1429   1.2946025197e+02   1.1878849170e+01    0.2233328    0.1456408 -49.45  0.000963631    2.099    0.524
         9 -10.8424     27.1349    180.1617   1.4748297422e+02   3.4526107630e+01     0.314159    0.2004504 -26.03  0.001718097    2.835    0.647
        10 -14.1503    138.8489    171.8824   1.1931017919e+02   2.1064674776e+01     0.812576    0.4336751  45.62  0.003229719    1.742    0.426
        11 -14.7973    143.0359    168.3359   1.1773845618e+02   2.0976503776e+01     1.046553    0.6009542  52.37  0.004838965    1.976    0.494
        12 -11.7206    203.4000    171.4413   1.0550049855e+02   9.9526689580e+00    0.4245282     0.231114  28.43  0.002138708    1.666    0.400
        13 -13.5763    195.6989    170.5487   1.0681876664e+02   1.1382590023e+01    0.5321473    0.4042274 -34.09  0.001945007    1.512    0.339
        14 -12.2086    193.8056    165.5750   1.0625135675e+02   1.2427372521e+01    0.3307872    0.2563551  28.69  0.001142005    1.126    0.112
        15 -13.5121    178.2325    171.2073   1.1046971380e+02   1.4308002992e+01    0.4990845    0.3654116 -42.07  0.002831422    1.650    0.394
        16 -11.5747     26.1385    173.6981   1.4739111096e+02   3.5943349977e+01    0.1968572    0.1709894  79.08  0.000280479    1.161    0.138
        17 -11.0984      7.8309    238.3426   1.5332575549e+02   2.5724255164e+01   0.09393071   0.04666236  62.73  0.000655703    1.514    0.339
        18 -10.6015     30.3999    232.6307   1.4899877811e+02   2.4611329321e+01     0.184225    0.1416595  46.90  0.001107885    1.147    0.128
        19 -10.4889    140.0220    230.5197   1.2702712088e+02   1.1578143029e+01    0.3064222    0.1749521  55.90  0.001688694    2.320    0.569
        20 -11.6035    201.1632    164.4799   1.0460566035e+02   1.1303847989e+01    0.3965835    0.2766297 -38.99  0.002197261    1.700    0.412
        21 -12.7221    122.1613    165.5544   1.2229192188e+02   2.5083573253e+01    0.6021706    0.2031262  46.48  0.002015068    2.997    0.666
        22 -11.3939    139.1275    250.1490   1.2926134961e+02   9.1241354933e+00    0.2053231    0.1825979   5.59  0.001447347    1.370    0.270
        23 -10.9171    222.4638    161.6676   1.0013882344e+02   8.0716743790e+00    0.2272765    0.1902065 -48.98 0.0007903859    1.841    0.457
        24  -9.5333     14.2852    159.3029   1.4962745178e+02   3.9974525262e+01    0.1047729   0.08396363 -52.94 0.0002072932    1.558    0.358
        25 -12.9359    164.2691    157.0042   1.1080927044e+02   1.9129618114e+01    0.3373557    0.2793621  14.98 0.0009631735    1.137    0.120
        26 -14.6695    143.6330    143.9638   1.1305897456e+02   2.5398431599e+01     1.045012    0.6131663 -58.45  0.004505392    2.329    0.571
        27 -14.2452    135.6469    124.6263   1.1093965171e+02   3.0809541608e+01     2.696336    0.4274958 -48.92  0.005451724    8.629    0.884
        28 -11.3687     22.4658    221.1030   1.5014127463e+02   2.7286800260e+01    0.1557181    0.1116312 -69.85  0.001173532    1.756    0.430
        29 -10.4925     22.9825    156.1185   1.4722977493e+02   3.9975291724e+01     0.177345    0.1456821  64.50 0.0004102242    1.014    0.014
        30 -11.3227     23.5524    215.3537   1.4973224076e+02   2.8186803051e+01    0.1321825    0.1173872  84.25 0.0006111861    1.349    0.259
        31 -12.7510    159.9165    151.1658   1.1064456788e+02   2.0960741184e+01    0.3290262    0.2497545 -30.79  0.001674026    1.436    0.304
        32 -13.1124     11.3357    206.0150   1.5191802972e+02   3.0926260024e+01    0.3905058    0.2262047  25.71  0.002169714    1.774    0.436
        33 -12.5479    174.1026    148.8481   1.0701189944e+02   1.8655398583e+01    0.3565544    0.3148776 -20.29  0.001296026    1.195    0.163
        34 -12.8224    161.3044    197.7358   1.1841525818e+02   1.3105789434e+01    0.3243626    0.2805212  82.39  0.001835314    1.795    0.443
        35 -14.7232    134.2988    146.6739   1.1592087092e+02   2.6634582994e+01     1.676729    0.5690664 -56.96  0.004833829    5.170    0.807
        36 -12.1094    163.7946    203.0544   1.1868848942e+02   1.1935484410e+01    0.2964991    0.2191328  48.60 0.0006750478    1.511    0.338
        37 -11.7323    173.8770    140.2967   1.0525637455e+02   2.0142485654e+01    0.2248065    0.1750507  53.84 0.0009569498    1.475    0.322
        38 -10.7034      8.5228    137.9264   1.5019477056e+02   4.5116672663e+01    0.2015512    0.1619475 -20.24  0.001012362    1.677    0.404
        39 -12.8332    160.5442    127.8747   1.0550008273e+02   2.5048072275e+01    0.4055401    0.3559794 -56.54  0.001849612    1.371    0.270
        40 -13.3592    156.5569    199.7248   1.1970039360e+02   1.3559442032e+01    0.7109327    0.4969512  88.62  0.003364056    3.508    0.715
        41 -11.7473    140.6445    120.7097   1.0872699390e+02   3.0576283538e+01    0.3573896    0.2352338  63.77  0.001070508    2.075    0.518
        42 -10.8683    167.4346    112.4520   1.0019261254e+02   2.6382408431e+01    0.2840265    0.2155778 -84.64  0.001249784    2.163    0.538
        43 -11.8211    168.8437    202.1836   1.1753185646e+02   1.1272366121e+01    0.1858093    0.1511117  39.93  0.001069269    1.281    0.219
        44 -10.7916    205.4801    110.2018   9.1919355318e+01   1.8523221645e+01     0.253464    0.1923362  40.76 0.0006485402    1.307    0.235
        45 -11.0350    139.3181    200.9840   1.2354161340e+02   1.6059004500e+01    0.2753401    0.2141632  71.12 0.0008532213    1.798    0.444
        46 -10.6118    135.6561    196.3373   1.2370656416e+02   1.7379140903e+01    0.2297231    0.1724024  81.19  0.001298329    2.060    0.515
        47 -12.7837    154.0675    185.6597   1.1809816926e+02   1.6150945391e+01    0.2825204    0.2563859  49.83  0.001530826    1.289    0.224
        48 -13.9852    206.8318    177.6671   1.0600110373e+02   8.5477004362e+00    0.8943719    0.5338223 -40.77  0.004829815    2.104    0.525
        49 -10.1516    137.6512    244.6317   1.2898917382e+02   1.0020971257e+01    0.1766659    0.1368839  63.39 0.0006435443    1.719    0.418
        50 -11.0113     31.4535    183.6104   1.4665073998e+02   3.3428636608e+01    0.3401221    0.2350682  76.60  0.002262841    1.301    0.231
        51 -14.3719    150.6962     57.1233   8.7798886355e+01   4.0167615870e+01     1.212234     1.032011  15.62  0.000963476    1.280    0.219
        52 -10.4171    160.1026    246.4414   1.2495971476e+02   6.7829846211e+00    0.2067238     0.113664 -25.42  0.001218912    2.743    0.635
        53 -12.9554    165.7124     34.1085   7.6958915523e+01   3.9472636285e+01    0.4052382    0.3866171 -26.25 0.0008571816    1.081    0.075
        54 -10.8910     13.5426     59.9680   1.4172900112e+02   6.3739919447e+01    0.2146411    0.1663471  47.06 0.0004979571    1.447    0.309
        55 -11.4299     16.4672    250.1397   1.5204550755e+02   2.3147089487e+01    0.1213632   0.07883722  76.71  0.000990679    1.473    0.321
        56 -11.4565    133.8535    245.7872   1.2982777493e+02   1.0377861420e+01    0.1498643    0.1207162  23.41 0.0003084425    1.207    0.172
        57 -11.8933    125.1232    243.4693   1.3127645896e+02   1.1843376252e+01    0.3206427    0.1530767 -49.95  0.001581087    2.883    0.653
