#   1 NUMBER                 Running object number                                     
#   2 MAG_AUTO               Kron-like elliptical aperture magnitude                    [mag]
#   3 X_IMAGE                Object position along x                                    [pixel]
#   4 Y_IMAGE                Object position along y                                    [pixel]
#   5 X_WORLD                Barycenter position along world x axis                     [deg]
#   6 Y_WORLD                Barycenter position along world y axis                     [deg]
#   7 A_WORLD                Profile RMS along major axis (world units)                 [deg]
#   8 B_WORLD                Profile RMS along minor axis (world units)                 [deg]
#   9 THETA_WORLD            Position angle (CCW/world-x)                               [deg]
#  10 FWHM_WORLD             FWHM assuming a gaussian core                              [deg]
#  11 ELONGATION             A_IMAGE/B_IMAGE                                           
#  12 ELLIPTICITY            1 - B_IMAGE/A_IMAGE                                       
         1 -14.6022    165.5650     53.4937   7.2700691092e+01   3.6832189684e+01     2.176503     1.485627  10.02  0.006784118    2.006    0.502
         2 -14.1847    179.0962     36.9394   6.5012227214e+01   3.5689574390e+01    0.9749037    0.9705854 -79.06  0.002886023    1.018    0.018
         3 -13.5716    183.3795     30.3466   6.2283981031e+01   3.5409097228e+01    0.6183094    0.5691348  26.52  0.001319504    1.151    0.131
         4 -13.6721    187.5288     13.2471   5.6461592725e+01   3.6256505655e+01     1.034313    0.5900216 -75.74  0.004387937    2.253    0.556
         5 -14.3576    198.8272      5.5571   5.2879792033e+01   3.4102897707e+01      1.09842    0.7951421  69.25  0.005194935    1.298    0.229
         6 -11.8192    152.8854    185.8652   1.0779375859e+02   1.5212835986e+01    0.2679853    0.1955358 -55.61  0.001183166    1.582    0.368
         7 -18.2564     58.4835    239.5274   1.3138556587e+02   2.0281741807e+01     7.129937     5.825528  82.99   0.05937499    1.258    0.205
         8 -13.0829    156.6774    199.9725   1.0928227476e+02   1.2165346986e+01    0.6431641    0.4036472  84.97  0.002721798    3.555    0.719
         9 -12.0752    152.7856    194.5621   1.0920466855e+02   1.3744062180e+01    0.3260079    0.1987047  52.90 0.0009775552    1.574    0.365
        10 -10.1561    206.8867    178.1561   9.5951503873e+01   6.4155578804e+00    0.2884481    0.1589985  22.02  0.001261358    2.370    0.578
        11 -11.1849     73.1948    174.6164   1.2281894854e+02   3.0336608483e+01    0.2806989      0.17858 -69.01  0.000595313    1.512    0.338
        12 -10.7070    202.9062    170.0665   9.5119839089e+01   8.3929795571e+00    0.3875403    0.2181126  29.59  0.001505838    1.907    0.476
        13 -10.4357    204.3885    166.2010   9.4070499697e+01   8.7077856057e+00     0.250321    0.1898869 -63.14  0.001160124    1.955    0.489
        14 -12.4751    194.3513    167.4083   9.6218823816e+01   1.0466625260e+01    0.6116185    0.4109468 -58.68  0.002957005    2.160    0.537
        15 -11.6494    230.5313    167.2623   8.9566916555e+01   3.6103148760e+00    0.3569482    0.1117828 -39.48  0.001309204    3.460    0.711
        16 -10.2201    163.4456    169.1474   1.0271265312e+02   1.6186678581e+01    0.3318574    0.1823127  60.97  0.001366504    2.513    0.602
        17 -11.1881     60.4848    202.4537   1.2820748538e+02   2.6512021051e+01     0.186337    0.1402461  63.35 5.350398e-05    1.079    0.073
        18 -11.6694    113.4891    160.6828   1.1197347137e+02   2.7031658266e+01    0.3370157    0.2393213 -82.56  0.001696596    1.653    0.395
        19 -11.0924    120.3237    157.8362   1.0994871831e+02   2.6425071474e+01    0.3394496    0.1555211 -47.15 0.0009729883    2.369    0.578
        20 -10.6416    130.3960    157.8772   1.0770100018e+02   2.4595710886e+01    0.2408652    0.1775336  56.98 0.0006065224    1.341    0.254
        21 -11.1596    189.9996    155.3206   9.4600638191e+01   1.3330780962e+01    0.3576713    0.3381957  34.62  0.001748316    1.077    0.072
        22 -12.7250    133.9884    146.0376   1.0462794030e+02   2.6320950658e+01     1.271821    0.3244298 -54.82  0.003209707    6.070    0.835
        23 -11.2932    165.6025    153.6767   9.9234364000e+01   1.8572694803e+01    0.3615852    0.2373493  71.56  0.001422882    2.341    0.573
        24 -11.4145    151.8589    151.4492   1.0172612109e+02   2.1749336006e+01    0.3949782    0.2677428  87.82  0.001488979    2.519    0.603
        25 -10.7929    174.4978    148.9739   9.6392085550e+01   1.7617648029e+01    0.2629533    0.2445747  54.22  0.000769271    1.110    0.099
        26 -19.1291     37.2404    102.5273   1.2154308654e+02   5.0521958656e+01     15.73271    0.9456378 -64.82   0.02823349   13.716    0.927
        27 -12.1849    144.5826    146.4810   1.0232167182e+02   2.4167077898e+01    0.4287463    0.2880673 -73.62  0.001915943    2.126    0.530
        28 -12.8818    100.5991    138.4234   1.1106381230e+02   3.3952104033e+01    0.3943312    0.2935742  47.19  0.000655606    1.341    0.254
        29 -12.1974    135.6376    126.4740   1.0005952035e+02   3.0038501594e+01    0.9139235    0.1555607 -48.18  0.002116215    6.283    0.841
        30 -12.3169    106.0613    130.8690   1.0824579803e+02   3.4677598248e+01    0.4435933    0.3362374 -67.28  0.001236546    1.338    0.253
        31 -11.4167    105.8003    125.4403   1.0719096297e+02   3.5915540471e+01    0.2719319    0.2397758 -44.01 0.0006022283    1.191    0.160
        32 -11.7049    117.4470    129.4472   1.0512715899e+02   3.2938566102e+01    0.3178198    0.2553668 -38.55 0.0006866464    1.355    0.262
        33 -11.1837    160.8236    127.9227   9.4608418306e+01   2.4470398272e+01     0.412927    0.3085745 -80.91  0.001882879    1.913    0.477
        34 -10.9933    121.3489    123.9554   1.0296255362e+02   3.3384401247e+01    0.2544702     0.210568   6.28 0.0008816458    1.567    0.362
        35 -10.6343    112.3929    118.6904   1.0403188565e+02   3.6207680951e+01    0.2460577     0.217782  55.72 0.0005696589    1.147    0.128
        36 -11.2636    167.9699    112.8964   8.9356480543e+01   2.5784380396e+01    0.4136493    0.3136415 -73.35  0.001406148    1.777    0.437
        37 -11.1329    134.6722    105.6675   9.5220024386e+01   3.4560751260e+01    0.4998233    0.1398841 -45.09  0.001479451    3.540    0.717
        38 -10.8170    205.3198    110.2763   8.1192267291e+01   1.7716401890e+01    0.3481823    0.2500657  38.37  0.001100619    1.428    0.300
        39  99.0000     12.6413    205.8897   1.3702605804e+02   3.1092125767e+01    0.4058219    0.1772704  39.27  0.002567405    2.170    0.539
        40 -11.7118     81.0639    105.5977   1.0951659775e+02   4.4407928521e+01    0.3678305    0.1839029 -58.75  0.001612999    1.906    0.475
        41 -10.2796     67.0508     98.6819   1.1203180602e+02   4.7972191922e+01    0.1801213    0.1752023 -67.07 0.0005484145    1.106    0.096
        42 -10.3653    150.0481     80.5403   8.4459355367e+01   3.6061781045e+01    0.2527563    0.1994134 -35.70   0.00122239    1.256    0.204
        43 -10.6682     83.2115     76.5297   1.0147089977e+02   5.0452593013e+01    0.2452128    0.1795282 -48.19 0.0004004352    1.252    0.202
        44 -11.0824    176.6401     74.7743   7.7023109991e+01   3.0620106215e+01    0.2961486    0.2469531 -79.87 0.0002651596    1.430    0.300
        45 -11.5625    248.7500    247.8922   1.0055890276e+02  -8.5743941137e+00    0.2315138    0.1372982 -18.50  0.001597389    1.815    0.449
        46 -12.0866    158.4410    235.5155   1.1386805105e+02   6.5530077767e+00    0.3670395    0.1947617  35.72  0.001265773    1.667    0.400
        47 -10.2437     19.2963    213.8934   1.3632147152e+02   2.9006083593e+01    0.1211302   0.08901358  75.61 0.0009667071    1.069    0.064
        48 -10.4359     13.5015     59.9299   1.2115735541e+02   6.1862263541e+01    0.1739319    0.1540917  74.14 0.0004168309    1.377    0.274
        49 -10.3228    112.4801     21.6742   7.3108960952e+01   5.4179200532e+01    0.3108321    0.1730148  70.54    0.0012784    2.570    0.611
        50 -12.1968    193.7068    195.9563   1.0161892839e+02   6.2012630018e+00     1.058358    0.5782713 -63.45  0.003616463    5.765    0.827
