#   1 NUMBER                 Running object number                                     
#   2 MAG_AUTO               Kron-like elliptical aperture magnitude                    [mag]
#   3 X_IMAGE                Object position along x                                    [pixel]
#   4 Y_IMAGE                Object position along y                                    [pixel]
#   5 X_WORLD                Barycenter position along world x axis                     [deg]
#   6 Y_WORLD                Barycenter position along world y axis                     [deg]
#   7 A_WORLD                Profile RMS along major axis (world units)                 [deg]
#   8 B_WORLD                Profile RMS along minor axis (world units)                 [deg]
#   9 THETA_WORLD            Position angle (CCW/world-x)                               [deg]
#  10 FWHM_WORLD             FWHM assuming a gaussian core                              [deg]
#  11 ELONGATION             A_IMAGE/B_IMAGE                                           
#  12 ELLIPTICITY            1 - B_IMAGE/A_IMAGE                                       
         1 -10.8693    201.4971     16.4785   6.4357013264e+01   3.2761378665e+01     1.007098     0.649834 -74.21  0.005000627    1.610    0.379
         2  -9.6569    191.6700     18.4324   6.6044889528e+01   3.5073505996e+01     0.463222     0.271677 -26.78  0.002196449    1.837    0.456
         3 -11.4367    148.5163     10.5737   6.9659953734e+01   4.7111555491e+01    0.5349584    0.2686071  56.30  0.002405732    1.735    0.424
         4  -8.9428    247.1606      7.9292   5.8126607203e+01   2.2646912158e+01    0.2303087    0.1816465 -62.46  0.001155203    1.054    0.052
         5 -11.3671    214.6075     42.4608   6.9809086875e+01   2.6231208004e+01     2.283253     1.454517 -68.62   0.01011801    1.745    0.427
         6 -10.9360    184.9780      3.3682   6.2502090976e+01   3.8345391396e+01    0.7355195    0.3618827 -85.24  0.003049845    2.392    0.582
         7  -8.2604      2.2822      1.6458   1.1678322916e+02   7.4722494739e+01   0.09035536   0.08061282 -55.94 0.0007016508    1.660    0.398
         8  -9.5441    176.0402    202.2075   1.1465687318e+02   7.2189594000e+00    0.1946558    0.1922398 -34.72 0.0002526909    1.176    0.150
         9 -12.2734    244.7900    248.0993   1.0965811693e+02  -1.0017355670e+01    0.8138056    0.4359729  31.90  0.005144914    1.468    0.319
        10 -12.5976    204.8633    247.5876   1.1633576382e+02  -4.0943307048e+00     1.110098    0.4583288  35.50  0.005675569    1.974    0.493
        11 -11.4880     50.2525    178.1685   1.3823100411e+02   3.2692785275e+01    0.6801261    0.5672895  70.17  0.002894671    1.102    0.092
        12  -8.7849    122.0264    147.4928   1.1650465267e+02   2.8404943297e+01    0.2023127    0.1886716 -72.09  0.001119136    1.071    0.067
        13  -8.4894     69.5108    145.0222   1.2939463962e+02   3.7756630903e+01    0.2727236     0.157428  70.15   0.00122924    2.149    0.535
        14  -8.5739     66.5085    142.9367   1.2984530227e+02   3.8660779630e+01    0.2020086    0.1665067 -79.32  0.001188514    1.075    0.070
        15  -8.2366    187.2351    139.1504   9.9757754209e+01   1.6356090317e+01    0.1911222    0.1723596 -76.38 0.0002546865    1.276    0.216
        16 -10.5424    233.4207    131.8274   8.9407922484e+01   7.7524997947e+00    0.2812174    0.2676249  81.01 0.0002678912    1.247    0.198
        17  -8.1580    119.7701    132.4238   1.1389200632e+02   3.2241532636e+01    0.1850094    0.1452838  32.72 0.0002344504    1.411    0.291
        18 -10.2147    243.0019    113.8284   8.3699963437e+01   8.6930541379e+00    0.3702764    0.1821764  28.45  0.001256829    3.893    0.743
        19  -8.9008    167.7103    113.7085   9.7703443061e+01   2.5805810031e+01    0.3090119    0.2235125 -83.42 0.0009121411    1.997    0.499
        20  -8.3229    250.6524    113.0058   8.2361791414e+01   7.2637800467e+00    0.2019077    0.1180381 -33.09  0.000964641    1.537    0.349
        21  -8.4290    148.7879     96.4059   9.7398949989e+01   3.3765495293e+01    0.2234399     0.145991  39.18 0.0004573628    1.647    0.393
        22  -8.9207    242.3239     93.6534   7.9020260642e+01   1.2038859094e+01    0.1494556    0.1017132 -61.70 0.0007049884    1.742    0.426
        23  -7.6963    134.6762     93.7248   1.0014937246e+02   3.7581268635e+01    0.1541891    0.1238341  11.06 0.0005436786    1.581    0.367
        24  -9.3030    159.9063     87.3389   9.2210127989e+01   3.2865027967e+01    0.4798067    0.2549659  33.15  0.001662835    2.702    0.630
        25  -8.9215    142.1185     84.9321   9.5691941538e+01   3.7627662852e+01    0.2408755    0.2244257   7.94 0.0007278882    1.159    0.137
        26 -10.4956    157.3653     76.4420   8.9550533313e+01   3.5521236996e+01    0.3757547    0.2776853 -29.33 0.0008331257    1.433    0.302
        27 -10.6575    175.4017     74.5396   8.5194226974e+01   3.1308863867e+01     0.566103    0.4023426  25.90  0.001474249    1.832    0.454
        28  -7.9205    151.3004     72.2651   8.9640342545e+01   3.7782535631e+01    0.1524384    0.1202037  22.03 0.0001839535    1.519    0.341
        29  -7.9014    188.5333     69.0170   8.1131073211e+01   2.8889263546e+01    0.2075775    0.1492729 -34.44 4.861471e-06    1.394    0.283
        30  -9.1742    182.6160     68.3313   8.2004389351e+01   3.0515649943e+01    0.2615783    0.2458614  34.92 0.0004127937    1.137    0.121
        31 -11.3422    174.6622     57.4895   8.0256499639e+01   3.4309897593e+01    0.6239039    0.4535825  13.91  0.002780671    1.901    0.474
        32  -9.3540    192.3543     60.1466   7.7939768174e+01   2.9324123841e+01    0.2968166    0.2068497  38.23  0.001354443    1.678    0.404
        33  -9.4948    198.0848     55.9626   7.5832995078e+01   2.8492148687e+01    0.4115414    0.2522366  40.13  0.001697927    1.973    0.493
        34  -8.9486    244.0090     56.8755   6.9911118776e+01   1.7195985456e+01    0.1951113    0.1777498 -62.06 0.0003384502    1.040    0.039
        35  -8.9834    129.7886     56.8306   8.9788959252e+01   4.5701236614e+01    0.2179688    0.1984301  18.14 0.0003842733    1.132    0.117
        36 -12.6060     22.1783    192.8661   1.4530258847e+02   3.2671068735e+01    0.6153195    0.3441714  69.93  0.003819367    1.482    0.325
        37 -11.3099    224.3591     33.7135   6.6380019207e+01   2.4973222663e+01    0.9606155    0.5411191  63.47   0.00459974    1.754    0.430
        38 -10.7727    162.0367     52.3189   8.1064631286e+01   3.8378890806e+01    0.4877125    0.3057771 -87.86   0.00191225    2.380    0.580
        39 -10.3050    150.3224     43.7959   8.0649274309e+01   4.2655461517e+01    0.3044903    0.2597022  47.79   0.00159995    1.140    0.123
        40  -9.9546    126.0288     38.6971   8.4302313662e+01   4.9411752627e+01     0.215755    0.1895531  47.04   0.00118047    1.089    0.081
        41 -10.4970    139.9358     33.3244   7.9217289305e+01   4.6726078283e+01    0.2557579    0.2392216 -23.15 0.0004044954    1.123    0.110
        42  -9.0440    150.9697     28.9871   7.5526757632e+01   4.4464852558e+01    0.1742628    0.1646014  60.84 0.0003865852    1.008    0.008
        43 -12.6020     38.0389    188.6899   1.4180187455e+02   3.1854141245e+01    0.6562989    0.5818188  80.27  0.003395247    1.240    0.193
        44  -8.4433     31.4599    229.4639   1.4588096527e+02   2.4527158914e+01    0.1099057   0.07865878  70.08 7.437549e-05    1.019    0.019
        45  -7.8900     53.0494    250.8055   1.4350734842e+02   1.8205043286e+01    0.1370539   0.06455609  44.94 0.0003433357    1.681    0.405
        46 -12.5411      7.3338    213.5363   1.4922623762e+02   3.0013649546e+01    0.7840701    0.5426512  85.29  0.004280373    1.148    0.129
        47 -10.1410    123.9942    206.0112   1.2582015328e+02   1.5860019684e+01    0.1860023    0.1569269  56.71            0    1.005    0.005
