#   1 NUMBER                 Running object number                                     
#   2 MAG_AUTO               Kron-like elliptical aperture magnitude                    [mag]
#   3 X_IMAGE                Object position along x                                    [pixel]
#   4 Y_IMAGE                Object position along y                                    [pixel]
#   5 X_WORLD                Barycenter position along world x axis                     [deg]
#   6 Y_WORLD                Barycenter position along world y axis                     [deg]
#   7 A_WORLD                Profile RMS along major axis (world units)                 [deg]
#   8 B_WORLD                Profile RMS along minor axis (world units)                 [deg]
#   9 THETA_WORLD            Position angle (CCW/world-x)                               [deg]
#  10 FWHM_WORLD             FWHM assuming a gaussian core                              [deg]
#  11 ELONGATION             A_IMAGE/B_IMAGE                                           
#  12 ELLIPTICITY            1 - B_IMAGE/A_IMAGE                                       
         1 -12.2425    215.9078     29.7889   1.5315674934e+00   2.6907525477e+01     1.979093    0.6246338 -47.16   0.00787633    2.720    0.632
         2 -12.1166    205.0603     17.7897   3.5934328316e+02   3.0670839482e+01     0.979775    0.4766652  69.31  0.004766076    2.072    0.517
         3 -13.5439    238.3671      6.8013   3.5464845462e+02   2.4626338872e+01     2.651059     1.429963  79.26   0.01537044    1.958    0.489
         4 -13.5624    210.3237      5.6265   3.5587948433e+02   3.0705993437e+01     3.040715     1.162971  82.61   0.01336686    2.682    0.627
         5 -11.1158    190.9481     25.3262   2.5874983667e+00   3.3167514939e+01    0.7364816    0.3223015  45.02  0.002846164    3.253    0.693
         6 -11.0992    119.4046      9.6663   6.3996077691e+00   5.3546588543e+01    0.6837288     0.441713  54.37  0.002274694    1.452    0.311
         7 -10.0736    166.7100    207.1284   4.9159489927e+01   9.0044730130e+00    0.2663136    0.2374465  77.98 0.0009425341    1.783    0.439
         8 -18.7552    235.7838    137.8373   2.4046754193e+01   8.5457614251e+00     5.318631     4.360404 -23.08   0.02038708    1.089    0.081
         9 -10.7489    162.2311    200.8357   4.9099071265e+01   1.0643364482e+01    0.3902201    0.3028025 -74.74  0.001424124    2.303    0.566
        10 -10.2849    158.1886    194.9253   4.9004754235e+01   1.2214944150e+01    0.2787808    0.2672507  57.76 0.0004078918    1.362    0.266
        11 -10.7147    155.0636    189.2207   4.8741611251e+01   1.3660140067e+01    0.3278424    0.3101326 -64.94  0.001487057    1.389    0.280
        12 -10.9454    152.5912    184.7947   4.8539941305e+01   1.4820221719e+01     0.429323     0.279925  50.12 0.0009214794    1.772    0.436
        13  -9.7302     78.4674    201.1781   6.8310760137e+01   2.2977984974e+01    0.5191264    0.2281671 -83.40  0.001928419    4.202    0.762
        14 -15.9441    191.7442    166.5946   3.7180673306e+01   1.1402549920e+01     5.121401     1.389122  45.22   0.01149599    4.318    0.768
        15  -9.6117     37.8336    192.5680   7.7653378809e+01   2.9747781954e+01    0.1969492    0.1847348 -40.72 0.0004748392    1.382    0.276
        16 -11.0427    155.5501    178.3740   4.6783739978e+01   1.5458824632e+01    0.4554691    0.3541214  73.10  0.002384454    2.049    0.512
        17 -10.2439    128.3322    178.0084   5.2973307612e+01   2.0074731755e+01    0.2994778    0.2344155   2.45  0.001109634    1.465    0.317
        18 -10.2004    158.2912    224.9530   5.3431822094e+01   7.5629665661e+00    0.2982514    0.1800654  31.26 0.0008950675    1.327    0.246
        19 -11.2343    113.3633    152.0628   5.2203904251e+01   2.8052714802e+01    0.5358701    0.3908941  69.76  0.002287496    1.759    0.431
        20 -10.1368    170.4682    236.0008   5.2535824238e+01   4.4123118595e+00     0.393151    0.2098751  46.00  0.002122354    2.355    0.575
        21 -10.9893     68.1314    144.2534   6.3956374937e+01   3.7309136893e+01     0.715601    0.4154213  59.93  0.002720858    1.953    0.488
        22 -10.4198    124.6917    141.2728   4.7048929120e+01   2.8316140489e+01    0.2659376    0.2349159  67.37  0.001222328    1.251    0.201
        23 -10.8949    163.1191    229.8754   5.3139789029e+01   6.2093723183e+00    0.4393452    0.2780996  54.58  0.001830798    2.574    0.611
        24 -10.2816    174.0825    220.6760   4.9718558741e+01   5.9968312343e+00    0.2535677    0.1762497  36.56 0.0006588568    1.394    0.283
        25 -10.4662    240.7525    224.1165   3.8602735258e+01  -2.7349823048e+00    0.3338963    0.1727379  15.37  0.001375547    1.715    0.417
        26 -10.2185     22.5752    132.4095   7.7221452370e+01   4.5651249447e+01    0.2330396    0.2143058  87.00 0.0002255792    1.070    0.065
        27  -7.7082     74.7188    130.2657   5.9502874482e+01   3.9804182950e+01     0.148788    0.1088603  64.60 0.0002168756    1.486    0.327
        28  -9.4958     98.9159    107.5594   4.6678824016e+01   4.1061623233e+01    0.4141564    0.2205928 -49.94  0.001424134    1.907    0.476
        29  -9.2047     72.9135     91.2754   5.1379346335e+01   4.9899268582e+01    0.2301059    0.2057396  73.37 0.0003624678    1.187    0.157
        30 -13.1639     69.7010    100.8707   5.5033500344e+01   4.8048494856e+01     1.794937     1.184211  45.54  0.008134722    1.528    0.345
        31  -9.0343    235.4105    219.3241   3.8704765468e+01  -1.6181900438e+00    0.1576727    0.1158828  33.55 0.0005780993    1.707    0.414
        32 -10.7314    182.4863    213.0606   4.6968081882e+01   5.8945532581e+00    0.3366877    0.2757243  -7.66  0.001675863    1.181    0.154
        33 -11.0596    165.1955    100.5558   2.7583481926e+01   2.8009601150e+01    0.5453228    0.3687275  34.76  0.002504406    1.663    0.399
        34 -11.1470    168.2148     94.6319   2.5404620488e+01   2.8393457485e+01    0.6869644    0.5027872 -29.00  0.003227963    1.395    0.283
        35 -12.7506     35.0081     93.0228   6.7169020251e+01   5.4807772254e+01     1.003885    0.8910015 -71.92  0.003656697    1.055    0.052
        36  -9.6137    184.0971    207.8199   4.5847452997e+01   6.4017251311e+00    0.2130108    0.1905339  45.30  0.001084206    1.553    0.356
        37  -8.0644     84.7897     86.9355   4.5775017522e+01   4.8737394873e+01    0.2009717    0.1245068 -49.45 0.0003896293    1.619    0.382
        38 -12.0273     57.3479     97.1236   5.8869656198e+01   5.0923389943e+01    0.5837577    0.5525643  80.14 0.0006537169    1.048    0.046
        39  -8.3388    139.4866     82.4565   2.8182898946e+01   3.7392339224e+01    0.1539023    0.1507143  26.22 0.0003382886    1.056    0.053
        40  -9.5169     93.7995    213.3888   6.5967164966e+01   1.8529553285e+01    0.1923494    0.1819051  17.87  0.000285482    1.201    0.167
        41  -9.3539    161.8945     82.6168   2.3349630523e+01   3.1981859126e+01    0.3708122    0.2745362  71.43  0.001761497    1.539    0.350
        42  -9.7128    165.0708     76.6619   2.1034860536e+01   3.2245996209e+01    0.4059222    0.2750598  11.60  0.001673552    2.363    0.577
        43  -9.3685    208.3900    211.9553   4.2053049004e+01   2.5539096000e+00    0.2261666    0.1491052  25.48  0.001009063    1.298    0.230
        44  -9.0537    145.3459    210.1636   5.4049092860e+01   1.1671489173e+01    0.3955872    0.2424971  66.32  0.001647574    3.880    0.742
        45  -9.4692    213.5225     65.3586   1.0659248231e+01   2.2922914177e+01    0.3796448    0.2529362 -87.15  0.001944185    1.924    0.480
        46  -8.9592    142.1279    205.3978   5.4056928722e+01   1.2933697814e+01    0.2140345    0.1746691  61.73 0.0008547063    1.607    0.378
        47  -8.8798    186.1730     61.8771   1.3347376767e+01   2.9538442116e+01    0.2718645    0.2011565 -23.73 0.0006012789    1.422    0.297
        48  -9.1243    187.3258     58.6922   1.2303688583e+01   2.9729046363e+01    0.3685457    0.2455529 -13.90  0.001730634    1.875    0.467
        49  -8.9943    217.1991     56.9516   8.1589484595e+00   2.3276428418e+01    0.3237225     0.147697  45.34  0.001367513    2.927    0.658
        50  -8.9522    154.1586     56.4125   1.6986751430e+01   3.8251557117e+01    0.2465262    0.2097788 -17.82 0.0006313713    1.311    0.237
        51 -10.7626    228.2612     48.3896   4.9781000154e+00   2.2071261589e+01     1.118281    0.6178128  78.35  0.005762754    2.158    0.537
        52 -11.9343    236.2155     25.7393   3.5905682982e+02   2.3096244183e+01     1.784268    0.2169608  70.38   0.00538543    6.942    0.856
        53 -10.6176    197.5118    249.6061   4.9403351098e+01  -5.6494035219e-01    0.3422017    0.1042383  32.46  0.001686866    2.564    0.610
        54 -11.1064    205.4307     35.0598   3.8095039965e+00   2.8629978520e+01     1.037152    0.2161028  54.35  0.003148545    5.276    0.810
        55 -10.7928    185.6148    246.5874   5.1118072640e+01   1.1945244514e+00    0.3718885    0.2181341  44.57  0.001416293    2.246    0.555
        56  -8.6158    125.0726    209.7006   5.8410466006e+01   1.4736418119e+01     0.181478    0.1402864  28.94 0.0004229385    1.076    0.070
        57 -11.4149    146.4184    185.1425   4.9964821500e+01   1.5763220800e+01    0.6250607    0.4631011  58.58  0.002527297    1.753    0.429
        58  -9.1657    125.2536     41.0472   1.7593820326e+01   4.8127664432e+01    0.4848016    0.2638965  20.53  0.001473479    4.217    0.763
        59 -10.0216    141.9653     41.2916   1.4267617036e+01   4.3677584002e+01    0.3052751    0.2135712 -83.68  0.001390918    1.660    0.397
        60  -9.9206    148.5176     49.9959   1.5972213973e+01   4.0687170317e+01    0.2993706    0.2047257  45.64  0.001298409    1.565    0.361
        61 -10.4794    148.5675     35.4945   1.1124101208e+01   4.2725631816e+01    0.3198236    0.2538996 -22.60 0.0009872924    1.386    0.278
        62  -8.7238    176.2430     46.5346   1.0396237742e+01   3.4121431679e+01    0.2552072    0.1879771 -33.84 0.0006611806    1.325    0.245
        63 -10.7285    181.8786     23.8831   3.0850006867e+00   3.5551312750e+01    0.3594998    0.2167822 -36.22  0.001790253    1.540    0.351
        64 -10.0782    187.0736    236.8319   4.9551503212e+01   2.1861147238e+00    0.2564937    0.1766864  41.82   0.00169184    1.767    0.434
        65  -9.2931    151.3106     27.5575   8.0148232864e+00   4.3000987589e+01    0.2265473    0.1764925  13.60 0.0005941624    1.662    0.398
        66 -10.1948    184.1578     28.8667   4.2807847014e+00   3.4412474347e+01    0.3152699    0.2611244  67.94 0.0008671529    1.249    0.200
        67  -8.5266     92.4809     13.9165   1.3981464218e+01   6.0267159647e+01    0.1971883    0.1435683 -24.41 0.0004147277    1.485    0.326
        68 -10.3681    153.1364    220.0428   5.3804122003e+01   9.0057708279e+00    0.3313021    0.2695563  76.79  0.001501773    2.077    0.519
        69  -7.9021    108.7174     13.3077   9.9374937927e+00   5.6060204399e+01    0.1456121    0.1051241 -64.50 0.0002752297    1.563    0.360
