#   1 NUMBER                 Running object number                                     
#   2 MAG_AUTO               Kron-like elliptical aperture magnitude                    [mag]
#   3 X_IMAGE                Object position along x                                    [pixel]
#   4 Y_IMAGE                Object position along y                                    [pixel]
#   5 X_WORLD                Barycenter position along world x axis                     [deg]
#   6 Y_WORLD                Barycenter position along world y axis                     [deg]
#   7 A_WORLD                Profile RMS along major axis (world units)                 [deg]
#   8 B_WORLD                Profile RMS along minor axis (world units)                 [deg]
#   9 THETA_WORLD            Position angle (CCW/world-x)                               [deg]
#  10 FWHM_WORLD             FWHM assuming a gaussian core                              [deg]
#  11 ELONGATION             A_IMAGE/B_IMAGE                                           
#  12 ELLIPTICITY            1 - B_IMAGE/A_IMAGE                                       
         1 -10.8165    143.2614     20.7912   5.0369301409e+01   4.6921252005e+01    0.5712222    0.3672819  69.64  0.002667112    1.579    0.367
         2 -10.8865    111.2589     19.1467   5.5717883507e+01   5.5401113963e+01    0.4075412    0.3772187 -61.76  0.001438754    1.137    0.121
         3 -10.0399    102.4834     13.4760   5.5066598070e+01   5.8271977249e+01    0.3408213    0.2501409  85.72 0.0005330032    1.621    0.383
         4  -9.6335    154.6952     17.2653   4.7370440042e+01   4.4315512789e+01    0.3683704    0.2177191   2.27  0.001230018    2.297    0.565
         5 -10.3213     43.2745     15.7526   7.7668096674e+01   7.0589517799e+01    0.3814265     0.217049 -39.13  0.001909319    1.600    0.375
         6 -11.2181     21.3003     15.1285   9.0487343951e+01   7.3776981081e+01     0.468244    0.2813423  33.45  0.002576425    1.897    0.473
         7 -10.5893      7.0216      3.3409   9.4137015722e+01   7.7510877169e+01    0.4260349    0.3106818   6.98  0.002249752    1.490    0.329
         8 -10.4048     10.3825     15.2192   9.8261942283e+01   7.4837965664e+01    0.3459797     0.225464 -36.69  0.001059973    1.344    0.256
         9  -9.6078      8.2141     12.0677   9.8279630569e+01   7.5671165646e+01      0.23661    0.1447923 -54.06 0.0003713212    1.379    0.275
        10 -10.4300     19.2377     10.8304   8.9379806406e+01   7.4839400440e+01    0.2236665    0.2109111 -20.14 0.0004577116    1.190    0.160
        11 -10.1975     15.5394      8.4971   9.0627493539e+01   7.5689948301e+01    0.2311042    0.1887206 -15.21 0.0007254808    1.165    0.142
        12 -11.2952     11.6096      6.9195   9.2659553681e+01   7.6393811276e+01    0.3975363    0.3064749 -42.10  0.002587324    1.104    0.094
        13 -10.9580    182.3908     13.3398   4.2835724291e+01   3.7573910746e+01    0.5977963    0.2808468  62.74  0.002497224    2.125    0.529
        14 -10.7727    149.6129     18.1454   4.8404748537e+01   4.5553090864e+01    0.3946779    0.3054802 -38.98 0.0009535089    1.241    0.194
        15 -10.7273     58.0769     13.3909   6.9196489388e+01   6.8292191635e+01    0.4384502    0.2359926  34.24  0.001299044    2.115    0.527
        16 -10.2273    123.4821     11.5128   4.9898333996e+01   5.3123829012e+01    0.3132538    0.2895913  17.26  0.001778092    1.119    0.107
        17 -10.0537    120.2780     12.7506   5.1017865442e+01   5.3825884024e+01    0.3940981    0.2554751 -49.10  0.001420792    1.648    0.393
        18 -10.3664    210.5320      9.7228   3.9378873344e+01   3.1068327656e+01    0.4356654    0.1861623 -36.10  0.001954156    1.895    0.472
        19  -9.1746    212.5886      5.7473   3.8122712404e+01   3.0971073327e+01    0.1924938    0.1005426 -36.60 0.0009387954    1.589    0.371
        20  -9.6183    249.3234     10.0835   3.7052384149e+01   2.2542248740e+01    0.1839159    0.1345145 -37.47 0.0008363434    1.093    0.085
        21  -9.8607    192.8630     10.1032   4.0872097059e+01   3.5282813627e+01    0.2320451     0.165261 -53.78  0.001238909    1.295    0.228
        22 -10.3599     47.9578      8.6413   7.0809088880e+01   7.0895272384e+01    0.3266569    0.2140326   3.51  0.001056894    1.905    0.475
        23 -10.7159    238.8415      7.7412   3.7050902542e+01   2.4941786362e+01    0.4168473    0.1546395 -26.58  0.001857982    2.214    0.548
        24 -10.6239    219.5216      7.3024   3.8096325045e+01   2.9227416639e+01    0.3483866     0.210893  84.68  0.001843979    1.764    0.433
        25  -9.2908     78.9235      6.9974   5.7890548894e+01   6.4655390828e+01    0.2386366    0.1505913  27.17  0.001132313    1.767    0.434
        26 -10.4163     25.2624      6.1427   8.2131978848e+01   7.4929816284e+01    0.3575998    0.1859564 -37.16  0.001307827    1.686    0.407
        27  -9.6465     22.4658      3.4533   8.2144744358e+01   7.5759704090e+01    0.2232506    0.1790933  42.69 0.0009760204    1.565    0.361
        28  -9.6392    105.3076     17.3430   5.6249301337e+01   5.7113164600e+01    0.2982336     0.209693  -5.11  0.001063931    1.595    0.373
        29  -9.1446    108.1607      6.1480   5.0315881692e+01   5.7613959337e+01    0.1993484    0.1607118 -51.20  0.000774849    1.326    0.246
        30  -9.5909     30.3489      4.0856   7.7361537016e+01   7.4532322374e+01    0.2965273    0.1379695 -28.66  0.001345628    2.199    0.545
        31  -9.1007     37.9936      4.5713   7.3195467890e+01   7.3235354644e+01    0.1706884    0.1241792  42.83 1.463816e-05    1.507    0.337
        32  -9.9585     17.2732      3.4867   8.5965342027e+01   7.6410495555e+01    0.2938924    0.2041624 -59.27  0.001675018    1.872    0.466
        33 -10.5846    243.9873      1.8818   3.5332032040e+01   2.4417413372e+01    0.4522677    0.1721262 -83.68  0.001916776    3.303    0.697
        34  -8.7525    175.2208      3.5802   4.0337619420e+01   4.0334521239e+01    0.1515093   0.08378308 -46.43 0.0006854055    1.683    0.406
        35  -9.6842     90.4825      3.2447   5.2697398766e+01   6.2304270780e+01    0.3009735    0.1877594 -86.14  0.001339992    2.256    0.557
        36 -10.3500    229.9549      2.1248   3.6110254823e+01   2.7386388517e+01    0.2407973    0.1467113  83.75  0.001327452    1.757    0.431
        37  -9.8858    187.4313      8.3160   4.0785407156e+01   3.6804729447e+01    0.2505711     0.230256   9.64 0.0007544527    1.245    0.197
        38  -9.6709     52.8216      2.3581   6.4353376029e+01   7.0806053762e+01    0.1885213     0.109901  40.73 0.0008489198    1.709    0.415
        39  -8.7341     48.3197      2.6899   6.6597455145e+01   7.1639688770e+01    0.1241818    0.1013507 -57.82 0.0007035019    1.644    0.392
        40  -8.8662    188.7218      1.3266   3.8513453715e+01   3.7128699482e+01    0.1467303   0.08537104 -52.01 0.0001819846    1.592    0.372
        41  -8.7803    137.6235      1.3112   4.3505983759e+01   5.0361894953e+01    0.1569104   0.09553897 -59.14 0.0007029367    1.789    0.441
        42  -9.4183     85.2784      1.2848   5.2905261477e+01   6.3747412257e+01     0.220855    0.1224574  67.36 0.0005271235    1.889    0.471
        43 -10.0105    220.0812    100.4337   6.2719747249e+01   1.7296549133e+01    0.2793821    0.2426324  53.95  0.001005945    1.352    0.261
        44  -8.3431     94.6529    101.6956   9.0309764477e+01   4.3208748336e+01    0.1495836    0.1190232 -13.86 0.0007041163    1.694    0.410
        45 -10.6870     53.6258     98.9759   1.0292609935e+02   5.0318797241e+01    0.4476208    0.2981226 -58.96  0.002267649    1.358    0.263
        46 -10.3891     69.3013     97.2629   9.7235903274e+01   4.8534592529e+01    0.3429635    0.2197378 -59.96 0.0008588352    1.437    0.304
        47  -9.3829     18.7478     97.9850   1.1504464045e+02   5.4197584127e+01    0.1903438     0.144909 -80.69  0.000355031    1.092    0.084
        48  -9.8175     16.0733     95.4606   1.1567834064e+02   5.5044093786e+01    0.2104858    0.1572932  77.95 0.0006530941    1.246    0.197
        49  -9.1148    191.6703     96.7096   6.6292537971e+01   2.3710029422e+01    0.1456239    0.1090576  11.62 0.0006034587    1.623    0.384
        50  -9.0616    147.7196     96.3140   7.4894892266e+01   3.3454731925e+01    0.1506934    0.1182702 -71.87  0.000698342    1.571    0.363
        51  -9.5085     79.9686     94.9708   9.3171418356e+01   4.7381962323e+01    0.2339023    0.2153609 -75.00 0.0008461724    1.030    0.029
        52  -9.1832    132.7328     93.6322   7.7687294592e+01   3.7289156129e+01    0.2029879    0.1864417 -30.73 0.0006826882    1.095    0.087
        53  -9.4680     37.9314     93.7048   1.0745964605e+02   5.3511107030e+01    0.1807094    0.1666704  84.89 0.0002625015    1.097    0.089
        54  -9.4819      1.2012     93.9901   1.2086911985e+02   5.6374386734e+01    0.2494998   0.09972613 -81.53 0.0003445665    2.045    0.511
        55  -9.9216      1.4842     90.5117   1.2043954959e+02   5.7232028236e+01    0.2252445    0.1597497 -73.42  0.000763244    1.164    0.141
        56  -9.1689      9.2885     93.3459   1.1788339470e+02   5.6054188799e+01    0.1603952    0.1100521  40.72 0.0003983694    1.584    0.369
        57  -9.4360    236.6499     91.6353   5.8320911440e+01   1.5342374803e+01    0.2797791    0.1184759 -44.40  0.001166523    2.448    0.591
        58  -9.7192     89.0684     92.0159   8.9491609780e+01   4.6493459193e+01    0.2268931    0.2140995 -58.64 0.0004928476    1.032    0.031
        59  -9.7655    230.9118     90.6950   5.8837105996e+01   1.6569169015e+01    0.2605088    0.1672495 -35.46 0.0006737958    1.342    0.255
        60  -8.9765     51.8199     91.5751   1.0200154831e+02   5.2414738713e+01    0.1801733    0.1274941  50.62 0.0003141824    1.522    0.343
        61 -10.4552    171.3510     89.6873   6.8095287292e+01   2.9376835728e+01    0.3948783    0.3110149 -28.30  0.001999073    1.227    0.185
        62 -11.6304    174.1460     82.1427   6.5431887236e+01   3.0038772878e+01    0.4816597    0.3398581 -35.63  0.002067932    1.316    0.240
        63 -11.0312    180.2618     88.3995   6.6073931886e+01   2.7591135461e+01    0.3375054    0.2540665 -33.60  0.001697669    1.232    0.188
        64 -10.3949    177.4495     86.4798   6.6052402952e+01   2.8549195450e+01    0.2628027    0.2355136   0.10 0.0007130954    1.180    0.152
        65  -9.2015    109.0000     90.0013   8.2951061606e+01   4.3097974194e+01    0.2577654   0.08410016 -46.61 0.0004926525    2.932    0.659
        66 -10.3455    120.9708     87.8374   7.9022452546e+01   4.1048624625e+01    0.3065262    0.2271548 -55.72 0.0002864944    1.381    0.276
        67  -9.8605    124.8713     85.6868   7.7356795114e+01   4.0648255308e+01    0.2474161     0.230829  13.99 0.0003822287    1.175    0.149
        68  -8.9424      1.3535    100.5203   1.2138746948e+02   5.4732416644e+01    0.1281977   0.09687047  89.15 4.194041e-05    1.066    0.062
        69  -9.2535     16.5305     88.9920   1.1464460402e+02   5.6654276396e+01    0.1937019   0.07415552 -53.29 0.0004497893    2.390    0.582
        70 -10.8011    131.7338     86.7022   7.5918543444e+01   3.8920989408e+01     0.302822    0.2529907 -32.19 0.0004224373    1.205    0.170
        71  -9.9615    162.3327     86.5758   6.8995770494e+01   3.1982036996e+01    0.3232751    0.2210708 -58.66  0.001440414    1.732    0.423
        72  -9.4086    240.0471     85.7695   5.6488141778e+01   1.5487071238e+01    0.2006702    0.1605821 -46.31 0.0008970108    1.280    0.219
        73  -9.3525     66.0082     84.3672   9.5163869621e+01   5.2203098059e+01    0.1885671    0.1817096  59.75  0.001047313    1.123    0.109
        74 -10.0888     46.0266     83.8999   1.0242936552e+02   5.5070993618e+01    0.2290995    0.1807933 -56.21  0.001262382    1.159    0.137
        75  -9.9224     75.8742     82.6935   9.1245024362e+01   5.1014501615e+01    0.3005365    0.2031739 -62.05  0.001412424    1.454    0.312
        76 -11.7011    156.3182     80.2971   6.8388247407e+01   3.4506757976e+01    0.6695662    0.3500775  62.82  0.002571602    2.361    0.577
        77 -11.0318      5.9107     79.5337   1.1751207880e+02   5.9754597912e+01    0.5443175    0.2908305  89.64  0.001421233    1.724    0.420
        78 -10.7706    144.1867     80.9699   7.1229134026e+01   3.7209364697e+01    0.4344433    0.2352503  54.65  0.001115666    1.974    0.493
        79 -10.9214    104.5689     78.4396   8.0747043239e+01   4.6540757718e+01    0.5723747    0.3966582 -11.24   0.00125513    2.298    0.565
        80  -8.5434     51.3119     81.2595   9.9787250692e+01   5.5063601122e+01    0.1364767    0.1042473 -31.60 0.0002870262    1.531    0.347
        81  -9.3398    195.6731     80.6830   6.1335815415e+01   2.5391364320e+01    0.1475807    0.1098497  12.45 0.0003525035    1.676    0.403
        82  -9.2477     96.5860     79.2797   8.3431291075e+01   4.7981577157e+01    0.2823299    0.1412326 -51.45  0.001096546    1.955    0.488
        83  -9.4689     55.6832     79.7951   9.7753879761e+01   5.4835807665e+01    0.2808993    0.1487427 -49.63  0.001231147    1.748    0.428
        84 -10.2166    217.3884     77.0327   5.7190065593e+01   2.1222424911e+01    0.3208507    0.2483256 -38.80  0.001343579    1.162    0.139
        85  -8.3863     28.3106     78.2807   1.0820369174e+02   5.8395750273e+01    0.1350506   0.09163857 -41.93 0.0002318807    1.565    0.361
        86 -10.0095     50.1095     76.8838   9.9140957952e+01   5.6306935768e+01    0.2851994    0.1888731 -18.18  0.001284101    2.285    0.562
        87  -9.0305     80.3924     80.7872   8.9150608062e+01   5.0683072937e+01    0.2061528    0.1307805 -43.25            0    1.558    0.358
        88 -10.6560     77.5920     75.1049   8.8397766847e+01   5.2502009333e+01    0.4471427    0.2318219  31.46 0.0009883837    2.420    0.587
        89  -9.1226     21.2622     75.6105   1.1059259016e+02   5.9687900962e+01    0.2148777    0.1367106  68.58  0.000768983    1.794    0.443
        90 -10.1652    173.1056     74.2962   6.3335015547e+01   3.1596067294e+01    0.2598085    0.1966035 -23.09  0.000709274    1.334    0.250
        91 -11.3790    152.6402     73.4605   6.7066593442e+01   3.6601279490e+01    0.3727218    0.3690632 -51.55  0.000877626    1.044    0.042
        92 -11.3672    158.2505     73.4467   6.5910864260e+01   3.5266039468e+01    0.5282709    0.3101283 -16.69   0.00203487    2.329    0.571
        93 -10.5110    136.7821     72.3648   7.0239346694e+01   4.0565157618e+01    0.4645069    0.2127356 -37.59  0.001723889    2.089    0.521
        94  -9.7647     58.1327     71.1188   9.4392088611e+01   5.6598877123e+01    0.2188248    0.1876563 -31.51 0.0005912076    1.255    0.203
        95  -9.8394    163.4477     73.2823   6.4836030671e+01   3.4055671127e+01    0.2187763    0.1337062 -44.23 0.0009422427    1.579    0.367
        96  -9.5455    238.9962     72.4918   5.3372867586e+01   1.7438419042e+01    0.1793171     0.133676  59.14 0.0009261598    1.603    0.376
        97  -8.8668    124.6875     72.3049   7.3193762667e+01   4.3391368164e+01    0.1566209    0.1207572 -75.03 0.0002507544    1.617    0.382
        98  -9.6917    230.9108     70.7089   5.3860188296e+01   1.9289448377e+01    0.2331649    0.1821704 -71.63  0.001320988    1.565    0.361
        99  -9.5938    110.4724     70.9954   7.6604813590e+01   4.6848974182e+01    0.2435121    0.1463654 -42.19   0.00102988    1.585    0.369
       100 -10.2840     65.0085     70.6823   9.1610333031e+01   5.5649509003e+01    0.4580915    0.2393361  49.69  0.001900983    2.278    0.561
       101  -8.6796     38.5130     71.4907   1.0245801101e+02   5.9056578653e+01    0.1410832    0.1200824 -56.67 0.0001298618    1.067    0.063
       102  -9.5827     17.3196     70.7152   1.1135401893e+02   6.1233810559e+01    0.3370568    0.1825944 -51.23  0.001691291    1.672    0.402
       103  -9.6079     97.0539     69.2243   8.0012626577e+01   5.0080346983e+01    0.2708013    0.1988394 -45.22 0.0006899107    1.286    0.222
       104 -10.4794    141.9274     68.9024   6.7933594241e+01   3.9981786234e+01    0.2786935    0.2132864  63.82  0.001155126    1.423    0.297
       105  -8.9812     27.7701     68.7615   1.0639461113e+02   6.0845000887e+01    0.2770442    0.1203846 -36.13  0.001038474    3.232    0.691
       106  -9.9918    159.1621     58.6778   6.1048362742e+01   3.7522034157e+01    0.3234148    0.2577646  -4.63  0.001573628    1.461    0.316
       107 -11.3352    163.4052     66.2867   6.2683547791e+01   3.5242098529e+01    0.4997219    0.3355501 -50.21  0.001704354    1.527    0.345
       108 -11.2987    163.5347     59.7098   6.0576048804e+01   3.6278005835e+01     0.504663    0.3381701   8.78  0.002085288    2.237    0.553
       109 -10.1043     89.4647     67.3763   8.1820816939e+01   5.2013982132e+01    0.3768709     0.265666 -77.24 0.0008226683    2.000    0.500
       110  -9.1168     15.0989     67.6507   1.1175209517e+02   6.2167733359e+01    0.1531008    0.1208497 -14.74 0.0001834975    1.559    0.359
       111 -11.6680    151.8261     63.9868   6.4213024830e+01   3.8448418849e+01     0.555402    0.3137818 -44.07  0.002312396    1.716    0.417
       112  -9.6002    201.6898     63.9450   5.5790452684e+01   2.6537527358e+01    0.2817724    0.1777105 -33.61  0.001354015    1.397    0.284
       113 -10.2012     44.7224     63.1731   9.7528425312e+01   6.0353613371e+01    0.3489974    0.2397448  39.46  0.001078369    1.629    0.386
       114  -9.4097     32.5845     63.6639   1.0301101991e+02   6.1636255671e+01    0.2444719    0.1628208 -75.99  0.001253432    1.494    0.331
       115 -10.5833    172.0296     61.8456   5.9749516170e+01   3.3861634299e+01    0.3227817    0.2003175 -37.93 0.0007551645    1.480    0.325
       116 -10.0504    109.7297     62.6154   7.3912789594e+01   4.8699705689e+01    0.4236075    0.3090945  75.53  0.001906659    1.784    0.439
       117  -8.8514     66.6368     62.8477   8.8433746250e+01   5.7203070232e+01     0.196288    0.1293298 -60.14 0.0001153394    1.534    0.348
       118 -10.1155      2.1535     62.5053   1.1674377254e+02   6.4232625210e+01    0.2073904    0.1679896 -87.98 0.0004098046    1.129    0.115
       119 -11.0610      6.1145     58.6863   1.1423697020e+02   6.4977739692e+01    0.3694462    0.2045545 -39.67  0.001166563    1.885    0.469
       120  -9.1056    147.2758     62.6531   6.4715221211e+01   3.9788953460e+01    0.1602097     0.113802 -61.14 0.0003769166    1.630    0.387
       121  -9.8980    132.5054     62.4907   6.7953866577e+01   4.3405594415e+01    0.2263495    0.1537202  69.19 0.0009063839    1.754    0.430
       122  -9.0547    219.2611     61.6263   5.2885227065e+01   2.2952161150e+01    0.1778941    0.1276478  50.43 0.0009433276    1.588    0.370
       123  -9.2046    120.5004     60.9790   7.0400767809e+01   4.6537994640e+01    0.2348708    0.1477301 -37.04 0.0005470657    1.529    0.346
       124 -10.5282     95.9740     57.5096   7.6158997732e+01   5.2732184957e+01     0.539632    0.2978958 -39.27  0.002252867    1.738    0.424
       125  -9.2607    237.3904     59.2309   5.0236010709e+01   1.9460517091e+01    0.2007752   0.09939282 -36.47 0.0009508301    1.636    0.389
       126  -8.7738     50.5089     59.5673   9.3902923551e+01   6.0439371726e+01    0.1419779    0.1261138 -48.25 0.0001613451    1.035    0.034
       127  -9.6329    179.1733     58.3613   5.7495307833e+01   3.2660848488e+01    0.1986351    0.1425854  79.80 0.0004913235    1.654    0.395
       128  -9.3839    210.4788     64.4937   5.4759636218e+01   2.4484087467e+01    0.2331169    0.1408879  82.09   0.00103429    2.332    0.571
       129 -10.4353    145.6602     56.7044   6.3047779356e+01   4.1191411162e+01     0.367842    0.2457187  11.76  0.001166987    2.306    0.566
       130  -9.8540     60.7268     57.2060   8.8806652529e+01   5.9449056520e+01     0.259997    0.2126876 -44.64 0.0005792951    1.117    0.105
       131 -10.2380    199.8878     56.3859   5.3889386620e+01   2.8020330242e+01    0.3551613    0.2160369  30.22  0.001308244    2.302    0.566
       132  -9.4761    125.4081     56.7964   6.7659309223e+01   4.6136518985e+01    0.2504971    0.2066754  68.43 0.0005117261    1.320    0.243
       133  -9.2278     91.2521     57.5951   7.7709870534e+01   5.3710101317e+01    0.1956586    0.1441612  34.44 0.0003643439    1.521    0.343
       134  -9.2008    183.9720     57.0000   5.6335973768e+01   3.1702797753e+01    0.2280214   0.08539618  62.17 0.0004607053    2.894    0.654
       135  -9.3444    105.2502     56.0442   7.2790459013e+01   5.0982573085e+01    0.2082775    0.1887182 -47.35 0.0001926471    1.069    0.065
       136  -8.5827     78.3118     56.2851   8.1678510596e+01   5.6561166682e+01    0.1452669    0.1152189  -7.80 0.0002809242    1.576    0.365
       137  -8.8265     26.0469     56.2301   1.0404682619e+02   6.4105041023e+01    0.1491372    0.1145336  19.03 0.0004321519    1.544    0.352
       138 -10.5673    204.9522     53.1709   5.2317205951e+01   2.7289232016e+01    0.4916116    0.2387072 -48.08  0.002057542    2.069    0.517
       139 -11.0751    174.0275     52.2678   5.6417557223e+01   3.4825492879e+01    0.6481028     0.223795 -31.19  0.002219618    2.623    0.619
       140 -10.5974    163.6143     52.7981   5.8322318720e+01   3.7334790236e+01     0.339637    0.2759228 -21.91 0.0007981189    1.245    0.197
       141  -9.9397     36.0761     53.4655   9.8424752435e+01   6.3723065660e+01    0.3170755    0.2089095 -70.74    0.0008841    1.563    0.360
       142 -10.9745    137.8272     51.8103   6.2994285730e+01   4.3947496617e+01    0.5569879    0.4072362  71.14  0.002119439    1.533    0.348
       143  -8.9614    117.4630     52.5161   6.8090124096e+01   4.8801861312e+01     0.152457    0.1463019 -34.23 0.0001571892    1.012    0.012
       144  -8.7129    234.2845     51.3023   4.8534174055e+01   2.1089217566e+01     0.126029   0.09827505   8.92 0.0003282665    1.556    0.357
       145  -9.4709    237.8353     50.1427   4.7891164102e+01   2.0496892454e+01    0.2126293    0.1724058 -64.69 0.0006830455    1.319    0.242
       146  -9.4253    148.9184     50.1872   6.0146092993e+01   4.1427762766e+01    0.3427356    0.1617976 -52.93  0.001190472    2.674    0.626
       147  -9.9775    126.1012     49.3574   6.4753704646e+01   4.7257410471e+01    0.4240942    0.2191064 -32.62  0.001021459    1.889    0.471
       148 -10.3119    106.7341     51.0297   7.0439858701e+01   5.1583703318e+01     0.245097    0.2178543  73.30 0.0003121044    1.238    0.192
       149  -9.1080     18.3888     51.1548   1.0646474441e+02   6.6005920545e+01    0.2072429    0.1121633 -64.86 0.0004470365    1.538    0.350
       150  -9.2122     14.9688     51.5139   1.0830247210e+02   6.6180327105e+01    0.2132815    0.1326871   6.01 0.0005945209    2.051    0.512
       151  -8.7768    190.6992     50.6855   5.3463795229e+01   3.0983558000e+01     0.143993    0.1107961  18.29 0.0002625842    1.612    0.380
       152  -8.9976     55.2741     50.3612   8.8567055631e+01   6.1838446270e+01    0.1464217    0.1310149 -47.30 0.0003756845    1.022    0.021
       153 -10.4283     58.8540     47.8854   8.6055552895e+01   6.1807686876e+01     0.280425    0.2391226  23.07 0.0005811783    1.304    0.233
       154  -8.7245    213.3939     49.2545   5.0211530784e+01   2.5881705343e+01    0.1372361    0.1014457  29.53 0.0006958824    1.691    0.409
       155  -9.2179     95.1999     48.7925   7.3002932450e+01   5.4592086125e+01    0.1995386    0.1727785  -4.32  0.000379441    1.280    0.219
       156  -9.4198     49.2742     49.3362   9.0838534132e+01   6.2965015752e+01    0.1934363    0.1739454  23.99 0.0004385128    1.240    0.194
       157  -9.9760     46.1591     47.1815   9.1452228704e+01   6.3889828895e+01    0.3509175    0.2474662 -14.29 0.0002277297    1.854    0.461
       158  -9.0353    121.9648     48.5518   6.5448360315e+01   4.8405248916e+01    0.2257723    0.1518874  58.00  0.001014102    1.554    0.356
       159 -10.1899     84.4629     47.6206   7.6063671186e+01   5.7101431952e+01    0.3137442    0.1388646 -41.06  0.001195692    2.123    0.529
       160  -8.7255     11.2876     48.3452   1.0942582829e+02   6.7208182348e+01    0.1388813    0.0768057 -45.32 0.0006466287    1.651    0.394
       161  -9.0571      6.2680     48.2863   1.1206699929e+02   6.7530094748e+01     0.128925   0.07681902 -47.53 0.0002109608    1.498    0.333
       162 -10.9585    139.8051     46.2184   6.0559290794e+01   4.4347216502e+01    0.4363739    0.3157312  -8.95  0.001463943    1.658    0.397
       163 -10.6476    167.4247     43.2673   5.4549604173e+01   3.7769213490e+01    0.4063551    0.2990675  19.19 0.0008172847    1.733    0.423
       164 -10.9876    150.3548     45.0879   5.8091206828e+01   4.1843605132e+01    0.3037947    0.2301313  76.00  0.001465514    1.452    0.311
       165  -8.7498    129.3226     44.6762   6.2242608152e+01   4.7224994799e+01    0.1604433    0.1146263 -64.70 0.0007047062    1.682    0.405
       166  -9.5906    216.5191     42.3067   4.7953658767e+01   2.6055043550e+01    0.2943937    0.1847476 -63.08  0.001441236    1.783    0.439
       167  -8.4226    122.6452     43.3051   6.3259368451e+01   4.9104347266e+01    0.1596214     0.115848 -68.71 0.0007040891    1.715    0.417
       168  -9.4428    109.1694     43.6807   6.6835588949e+01   5.2311132628e+01    0.3120162    0.1458948  63.61  0.001105897    2.719    0.632
       169  -9.3184     56.4285     41.5513   8.4474440547e+01   6.3543532224e+01    0.2481648    0.1883299  79.98 0.0007301752    2.006    0.501
       170  -9.4534    205.3083     41.1431   4.8841355022e+01   2.8775207899e+01    0.2584646    0.1928063  68.63  0.001383138    1.472    0.321
       171  -9.4158    197.2094     41.2564   4.9816545239e+01   3.0678242650e+01    0.2396575    0.1766161  63.52 0.0009902396    1.468    0.319
       172 -10.0023     63.6032     41.0440   8.1171723313e+01   6.2417824864e+01    0.2322812    0.2030382  21.34  0.001305399    1.238    0.193
       173  -9.8843    177.8806     39.2905   5.1707836127e+01   3.5675817435e+01    0.2598237    0.1860659 -40.95 0.0007112137    1.284    0.221
       174  -8.4611     92.3711     40.7086   7.0515264390e+01   5.6688560091e+01    0.1508977    0.1167859 -76.66 0.0007024448    1.722    0.419
       175 -10.6756     32.6379     36.9471   9.4163782743e+01   6.7911993915e+01    0.5892929    0.2005701 -45.22  0.002267116    2.610    0.617
       176  -9.1179      2.7518     39.7257   1.1202366486e+02   6.9785112529e+01    0.1844529   0.08731848  33.86 0.0003632107    2.487    0.598
       177  -9.8230    161.5053     37.9595   5.3696360205e+01   4.0008415195e+01    0.2524016    0.1992645  44.07 0.0003916591    1.378    0.274
       178  -9.7076    149.1270     37.8149   5.5723993311e+01   4.3210170922e+01    0.2794921    0.1997784 -19.18 0.0003844613    1.473    0.321
       179  -8.6300    122.3996     38.4766   6.1408979458e+01   4.9923439431e+01    0.1500671    0.1418629 -40.02 0.0001707442    1.030    0.029
       180 -10.2749     82.1264     36.0046   7.1813829473e+01   5.9739253646e+01     0.397468    0.2321445 -39.88  0.001245573    1.622    0.384
       181  -9.0925     75.0242     37.9143   7.5248166217e+01   6.0859152041e+01    0.1921331    0.1829885 -20.65 0.0004604313    1.030    0.029
       182 -10.9271     78.2101     31.8143   7.1226361387e+01   6.1289499372e+01    0.4834738    0.2767452 -30.37  0.001638619    1.738    0.425
       183 -10.4433    185.0157     32.5318   4.8634972384e+01   3.4754249670e+01    0.3573236    0.2391027 -10.99  0.001372533    1.700    0.412
       184  -9.9924    127.5326     36.6861   5.9544887556e+01   4.8901509044e+01     0.324366    0.2792925  81.98  0.001683721    1.254    0.202
       185  -8.9424     94.5846     36.8455   6.8135644752e+01   5.6855431055e+01    0.2165412    0.1287521 -45.79 0.0009350204    1.724    0.420
       186  -9.2470     69.0329     36.9878   7.7131145680e+01   6.2203661447e+01    0.2282471    0.1701808  -4.78 0.0008073006    1.677    0.404
       187  -9.3537     27.5452     36.3339   9.6700603343e+01   6.8624923152e+01    0.2240414     0.117072 -59.21 0.0002934207    1.737    0.424
       188  -9.2336     62.9014     36.3211   7.9327859641e+01   6.3471613798e+01    0.1898722    0.1800009   9.76 0.0003749705    1.103    0.093
       189  -9.1314    191.4171     34.7718   4.8558795238e+01   3.2897890507e+01    0.1974919    0.1339557 -14.25 0.0007211478    1.601    0.375
       190  -9.5274    107.0018     35.2605   6.3899455645e+01   5.4202566475e+01     0.198599    0.1900137  53.73 0.0002291679    1.080    0.074
       191  -8.9539    215.9686     35.0000   4.5992114791e+01   2.7063844311e+01    0.2049917   0.07863779  70.07 0.0007993652    2.921    0.658
       192  -8.8995    166.8319     34.1801   5.1599260345e+01   3.9144329097e+01    0.1970119    0.1712859  27.96  0.000509369    1.297    0.229
       193 -11.0264    236.4859     30.1241   4.2895919114e+01   2.3115618254e+01    0.6191342    0.3025461 -19.64  0.002862318    2.046    0.511
       194  -9.2198    205.3852     33.1734   4.6537604014e+01   2.9733465163e+01    0.2136313    0.1054491 -37.84 0.0005158592    1.718    0.418
       195  -8.9405    194.3107     32.6523   4.7581270265e+01   3.2450878228e+01    0.1567443   0.09304028 -54.48 0.0007045379    1.711    0.416
       196  -9.4059    222.0630     31.1172   4.4362777986e+01   2.6141361893e+01    0.2594203    0.1800067  88.74 0.0009657795    1.633    0.387
       197  -9.3839    125.5082     29.9125   5.7257694312e+01   5.0380422240e+01    0.2159494     0.145469 -25.58  0.000281331    1.481    0.325
       198  -8.8640     65.4810     29.9944   7.5205323361e+01   6.4162897137e+01    0.2039428    0.1147204 -57.41 0.0008101811    2.580    0.612
       199 -10.2575     47.4126     28.7861   8.2742777724e+01   6.7556338461e+01    0.2854382    0.2132022 -37.17 0.0006401059    1.198    0.165
       200 -10.1300    180.8672     28.4050   4.7830640257e+01   3.6292759133e+01    0.3435349    0.2201134  35.62  0.001568847    1.960    0.490
       201  -9.4887    184.6183     24.6371   4.6195140879e+01   3.5790675722e+01    0.2905801    0.1723771  47.48 0.0009574579    1.917    0.478
       202  -8.9852    110.9549     29.4666   6.0379665591e+01   5.4105053920e+01    0.2027837    0.1299436 -83.54 0.0008076478    2.403    0.584
       203 -10.4143     16.1811     26.9181   9.9634169573e+01   7.1828612342e+01     0.365694    0.2388763 -66.73  0.002029943    1.531    0.347
       204  -9.5337    194.1296     26.7003   4.5800155606e+01   3.3198218837e+01    0.3123637    0.1364976  44.34  0.001170605    3.007    0.667
       205 -10.7513     82.1629     26.3365   6.7182469650e+01   6.1331858974e+01    0.3615982    0.2678877  45.14 0.0009487027    1.384    0.277
       206  -9.1432    206.5962     26.1814   4.4401197429e+01   3.0259101846e+01     0.188423    0.1265796 -13.60 0.0009398321    1.608    0.378
       207  -8.9478    120.8394     26.2211   5.6716697694e+01   5.2068648007e+01    0.2066691    0.1677987  28.15 0.0006172624    1.345    0.256
       208 -10.9692     30.3090     23.3699   8.9243081723e+01   7.1063178309e+01    0.4159208    0.2347611 -44.12  0.002129592    1.522    0.343
       209  -9.7857    228.4862     24.0491   4.1939854486e+01   2.5506331177e+01    0.3189214    0.1942577 -62.55  0.001662202    1.683    0.406
       210 -10.6272      2.2018     22.0531   1.0713330041e+02   7.3922982790e+01    0.3017288    0.2193039 -61.91  0.001074289    1.157    0.135
       211  -9.5787      8.0483     22.2812   1.0312655164e+02   7.3499729817e+01    0.2185776    0.1703545  13.32 0.0006910237    1.489    0.328
       212 -10.3538    239.2165     22.5519   4.0763041706e+01   2.3361869944e+01    0.2484667     0.223795  89.38 0.0008870033    1.256    0.204
       213 -10.2363    180.0299     22.4419   4.6010777236e+01   3.7195561103e+01     0.470739    0.2306951  43.80  0.001584281    2.519    0.603
       214 -12.4301     76.6041    219.3989   1.1235271850e+02   2.0879812425e+01    0.6593608    0.4963587  33.89  0.003215028    1.290    0.225
       215 -10.0706     99.0885     22.2497   6.0128468063e+01   5.8010049787e+01    0.3596927    0.2275891 -32.32  0.001512993    1.525    0.344
       216  -9.0657    200.4730     22.5154   4.3912102818e+01   3.2129577648e+01     0.140095      0.12296 -47.45 0.0007759502    1.010    0.010
       217 -10.2802    164.3679     22.0854   4.7798393022e+01   4.1254021045e+01    0.3450673    0.2148111  70.66 0.0008250664    1.641    0.391
       218  -9.4756    131.9164     20.4826   5.2161528716e+01   4.9927275868e+01    0.3510597    0.1883933 -54.30  0.001406744    2.205    0.546
       219 -12.2163     69.1939    218.5199   1.1374997525e+02   2.1930650976e+01    0.5387783    0.3955993  71.69  0.002309676    1.294    0.227
       220  -9.6985     87.2108     17.7318   6.1230451134e+01   6.1428266637e+01    0.3496332    0.2187776  62.49  0.001642201    1.734    0.423
       221  -9.1982     50.8233     21.1500   7.7018976135e+01   6.8390183396e+01     0.187225     0.150692   0.85 0.0005815732    1.320    0.242
       222  -9.5019    222.3702     19.5426   4.1206970384e+01   2.7346711668e+01    0.2637853     0.140359 -29.61  0.001294797    1.599    0.375
       223 -10.2674     69.6242     19.1915   6.7902603106e+01   6.5105126784e+01    0.2460076     0.226518  -9.04 0.0005481337    1.002    0.002
       224 -10.3516    101.0619     16.6957   5.6963671382e+01   5.8242958810e+01    0.2683335    0.2591188 -17.26 0.0003508948    1.031    0.030
       225 -10.8000     60.0670    209.5812   1.1490855347e+02   2.4611734575e+01    0.3405275    0.1568868  46.51  0.001902739    1.708    0.415
       226  -9.2924    124.0378    205.8007   1.0144902237e+02   1.6830250771e+01    0.1600315    0.1298485  36.37  0.001071929    1.062    0.058
       227 -10.9057     38.6134     17.7357   8.1363718530e+01   7.0981270301e+01    0.2725716    0.2266204  22.33 0.0001687228    1.276    0.216
       228 -10.4194      2.6456    153.1663   1.2432338603e+02   4.2035830763e+01    0.2310888    0.2214681 -27.48  0.001352402    1.460    0.315
       229  -9.9430     28.9478     18.2487   8.7316976170e+01   7.2244347685e+01     0.178535    0.1542169 -26.09  0.000476051    1.034    0.033
       230 -10.6747    248.8715    144.3643   6.8343725131e+01   6.3135181759e+00    0.2682654    0.1681088 -24.87   0.00160703    1.337    0.252
       231  -9.2490     21.9637    141.9587   1.1855662631e+02   4.3058562275e+01    0.1856363    0.1503179  74.48 0.0003561573    1.036    0.035
       232  -9.1900      5.6821    140.7159   1.2288188944e+02   4.4677647985e+01    0.1125986   0.08404974 -54.22 0.0003887556    1.586    0.369
       233 -10.7982    246.2449    136.4851   6.7092978880e+01   7.7141674396e+00    0.3489417    0.1949019   4.53  0.001667049    2.475    0.596
       234  -9.0555     29.5386    138.2659   1.1613368766e+02   4.3233556015e+01    0.2043425    0.1088682  28.79 0.0009274834    2.038    0.509
       235 -11.9448    224.5713    134.7737   6.9932748355e+01   1.1523920724e+01     0.533075    0.3270019  43.99  0.002369291    1.769    0.435
       236 -10.5623    240.6369    134.9667   6.7570397587e+01   8.8095567325e+00    0.2198558    0.1982885 -19.45  0.001103613    1.221    0.181
       237  -8.9834    185.0327    134.0366   7.6563551802e+01   1.8833287197e+01    0.1655902     0.149582 -12.83 0.0003393287    1.027    0.026
       238  -8.9349    144.4126     14.4743   4.7764017793e+01   4.7318582724e+01    0.1406147    0.1383434 -45.87 0.0002355487    1.030    0.029
       239  -8.7928    241.0465    129.9993   6.6454761864e+01   9.3955085251e+00    0.1496033    0.1226908 -12.20 0.0003251783    1.009    0.009
       240  -9.3099     33.0291    127.7352   1.1402122193e+02   4.5450077728e+01    0.2367546    0.1544616 -67.17 0.0007339111    1.400    0.286
       241 -10.4985     30.9591    122.6292   1.1405578317e+02   4.6915730438e+01     0.431197    0.1707557 -74.82 0.0007388942    2.247    0.555
       242 -11.5214    230.0680    123.6071   6.6649047654e+01   1.2130649086e+01    0.5418812    0.4315889 -25.79  0.003208485    1.113    0.101
       243 -10.0843     37.6460    125.8386   1.1241438106e+02   4.5443600321e+01    0.1940321    0.1852542  -0.15 0.0007694169    1.338    0.252
       244  -8.9932     12.8407    122.9045   1.1959109210e+02   4.8417431377e+01     0.180034    0.1192062  71.40 0.0003871717    1.338    0.253
       245  -9.5035    250.5284    119.9795   6.2994717341e+01   9.1377503711e+00    0.1988201    0.1026789 -28.86  0.001031435    1.593    0.372
       246  -9.3179     69.7666    118.3516   1.0149777521e+02   4.3273768938e+01    0.2689984    0.1656663 -77.70  0.001106186    1.754    0.430
       247  -9.6611     98.3932    117.3901   9.2931393805e+01   3.8876426100e+01    0.2448504    0.2164801  33.41 0.0008412974    1.227    0.185
       248 -10.0836     58.1502    117.5028   1.0490494501e+02   4.5090569574e+01    0.2557516    0.2020279 -42.82  0.001057757    1.451    0.311
       249  -9.1300    209.5055    117.5127   6.8452085665e+01   1.6794784471e+01    0.1370276    0.1214779 -19.58 -0.0001215502    1.035    0.034
       250 -10.6555     26.5633    116.3133   1.1468366484e+02   4.8904512023e+01    0.4744523    0.2167511  21.64  0.002138424    2.687    0.628
       251 -10.8318     11.5099    114.6393   1.1928183488e+02   5.0556561332e+01    0.2373981    0.2125634 -63.83 0.0006633253    1.248    0.199
       252 -10.1829    191.9574    114.5865   7.0752402232e+01   2.0712192782e+01    0.2709098     0.212099 -36.72 0.0005663108    1.213    0.176
       253  -9.7611     38.8357    115.0719   1.1061139448e+02   4.8000255204e+01    0.2192106     0.161758  74.67  0.001216653    1.306    0.234
       254  -9.4177    249.4626    114.4522   6.1923294400e+01   1.0026526583e+01    0.1273903    0.1029034 -18.46  0.000122076    1.009    0.009
       255  -9.5704     66.9157     13.0583   6.5450861280e+01   6.6549012204e+01    0.2175545    0.1737257   9.73 0.0006207941    1.291    0.225
       256  -9.7314      1.9978    113.4510   1.2218317897e+02   5.1488790208e+01    0.3209452    0.1698051  77.46  0.001684104    1.674    0.403
       257  -9.2392    175.6769    112.3725   7.3250771125e+01   2.4433168161e+01    0.1497799    0.1132765 -69.14  1.54063e-05    1.812    0.448
       258  -8.9800     50.2379    111.9987   1.0646947148e+02   4.7467448240e+01    0.1839305    0.1058438 -68.23  0.000399026    1.566    0.361
       259  -9.3375     90.9420    111.2913   9.3702984836e+01   4.1607504643e+01    0.1982529    0.1914378  88.13 0.0005001249    1.047    0.045
       260 -10.7698      7.1901    108.0340   1.2008222821e+02   5.2499926289e+01    0.2417997    0.2245569 -58.15 0.0002349913    1.273    0.214
       261 -10.6023      8.2341    102.0487   1.1917404073e+02   5.3929115356e+01    0.3287427    0.1739339 -88.40 0.0009029148    1.633    0.388
       262  -9.8090    240.4385    106.3893   6.1291981988e+01   1.2652018800e+01    0.2457412    0.2070163 -34.79  0.001046556    1.184    0.155
       263 -10.4954     79.9710    103.4140   9.5221587566e+01   4.5342116456e+01    0.3275137    0.2806259 -15.59  0.001732217    1.471    0.320
       264  -8.7233    179.6833    103.6753   7.0269317796e+01   2.5107654305e+01    0.1499424    0.1118655   6.43 0.0005696813    1.670    0.401
       265  -9.2722    123.4844    103.4833   8.2736054133e+01   3.7181309567e+01    0.1499994     0.145598 -43.28 0.0008100381    1.032    0.031
       266 -10.1567    108.4484    103.0410   8.6669304510e+01   4.0296081419e+01    0.3527043    0.2171155  34.37 0.0006958557    1.858    0.462
       267 -10.0065     17.9898    103.9402   1.1604454623e+02   5.2748408892e+01    0.2048033    0.1350254 -48.56 0.0007565491    1.640    0.390
