#   1 NUMBER                 Running object number                                     
#   2 MAG_AUTO               Kron-like elliptical aperture magnitude                    [mag]
#   3 X_IMAGE                Object position along x                                    [pixel]
#   4 Y_IMAGE                Object position along y                                    [pixel]
#   5 X_WORLD                Barycenter position along world x axis                     [deg]
#   6 Y_WORLD                Barycenter position along world y axis                     [deg]
#   7 A_WORLD                Profile RMS along major axis (world units)                 [deg]
#   8 B_WORLD                Profile RMS along minor axis (world units)                 [deg]
#   9 THETA_WORLD            Position angle (CCW/world-x)                               [deg]
#  10 FWHM_WORLD             FWHM assuming a gaussian core                              [deg]
#  11 ELONGATION             A_IMAGE/B_IMAGE                                           
#  12 ELLIPTICITY            1 - B_IMAGE/A_IMAGE                                       
         1 -13.9249    217.5988      8.2298   3.8021788541e+01   2.9815376461e+01     2.722637     1.620303  41.66   0.01353541    2.338    0.572
         2 -13.2534    177.3250     52.8305   5.5222172209e+01   3.4126534314e+01     2.130856     1.372244  32.51  0.005836762    2.030    0.507
         3 -12.9472    197.2201     33.6143   4.6743126060e+01   3.1792980757e+01    0.7840249    0.7161485  86.80  0.001409244    1.040    0.039
         4 -11.0924    190.4943      3.1946   3.9353935169e+01   3.6888565987e+01    0.3857846    0.2119688  80.02  0.001901957    1.684    0.406
         5  -9.6903    157.0088    234.1824   1.0044919087e+02   4.0229565837e+00    0.2114858     0.135319  17.60  0.001093068    2.003    0.501
         6 -12.1980    248.4003    246.5691   8.5515137554e+01  -1.1443844961e+01    0.8085244    0.5540702   6.10  0.005651238    1.184    0.156
         7 -19.5258     17.6854    144.9722   1.2052325342e+02   4.2693518634e+01     19.22405      4.60765 -75.99   0.06591939    3.923    0.745
         8  99.0000     42.2367    205.8896   1.2051514539e+02   2.6483472670e+01    0.2580449    0.2103799 -25.28  0.001642358    2.090    0.522
         9 -11.8243     33.0294    206.9607   1.2242833340e+02   2.7301413865e+01    0.3534999    0.1539534  60.36  0.001407823    2.094    0.522
        10 -11.9302    195.9613    204.7249   8.8022096053e+01   2.1940343168e+00    0.9273299    0.3589371  28.01  0.003082302    3.931    0.746
        11  -8.4550     93.4796    205.5291   1.0976605712e+02   1.9632468219e+01    0.1841237    0.1230473  29.92 0.0008007341    1.720    0.419
        12 -10.1019     96.4469    201.8660   1.0866638037e+02   1.9937420933e+01    0.2948342    0.2183669 -71.34 0.0008950972    1.397    0.284
        13 -12.4049     56.9718    197.0010   1.1666045031e+02   2.6586964371e+01    0.8756887    0.2773093 -52.85  0.003282241    4.037    0.752
        14 -12.2381     67.6323    183.5010   1.1282997304e+02   2.8177979965e+01    0.6924902    0.6116587 -74.38  0.003381183    1.186    0.157
        15  -8.2971     70.5153    199.9786   1.1406527130e+02   2.4149560262e+01    0.1677714    0.1160066 -71.70 0.0007217102    1.418    0.295
        16 -10.8007    192.9577    195.0316   8.6856857946e+01   4.3357021355e+00    0.9794267    0.5384805 -63.93   0.00328967    4.879    0.795
        17 -10.0026     35.0571    197.3936   1.2128967413e+02   2.9100860267e+01    0.1590657    0.1106861  55.44 0.0003833669    1.272    0.214
        18  -9.5287     81.9110    194.7305   1.1097128172e+02   2.3662906023e+01    0.2247042    0.1775621  88.36 0.0007408909    1.194    0.163
        19 -11.2286     99.0132    181.4345   1.0526429556e+02   2.3957514421e+01    0.5428476    0.3398955 -48.43    0.0019757    1.797    0.443
        20  -9.4847     97.2832    190.6913   1.0699436648e+02   2.2192540748e+01    0.2123149    0.1929589  56.42 0.0004677142    1.099    0.090
        21 -10.2767     94.8005    187.4764   1.0711345459e+02   2.3289756398e+01    0.2781372    0.2471714 -61.79 0.0003165528    1.230    0.187
        22 -10.8827     66.1117    204.5658   1.1548157295e+02   2.3770996655e+01    0.2731144    0.1654342 -58.91  0.001014739    1.793    0.442
        23 -11.4597    149.1952    187.6906   9.4790393407e+01   1.3774818153e+01    0.3718597    0.3234928  71.18  0.001334404    1.264    0.209
        24  -9.0064    238.3154    185.3307   7.6380947132e+01  -1.9614811860e+00    0.1373605   0.09063548   1.54 0.0005542866    1.681    0.405
        25 -11.4019    249.0279    230.8754   8.2831353516e+01  -9.7237294667e+00    0.3333937     0.175223 -23.01  0.001911476    1.877    0.467
        26 -10.3476    150.0831    178.0941   9.2850200838e+01   1.5552830608e+01    0.3669931    0.2330823 -64.43  0.001145444    2.028    0.507
        27 -11.3547    144.0473    178.2224   9.4245127956e+01   1.6673315084e+01    0.4647093    0.3194513 -58.05  0.001381995    1.611    0.379
        28 -10.3849    189.1965    177.2852   8.4202343447e+01   8.1730330286e+00    0.4411802    0.3471333 -56.65    0.0023172    1.549    0.354
        29  -9.9615     58.7194    176.4755   1.1405555871e+02   3.0958494319e+01    0.2129032    0.1770743  73.52 0.0002910288    1.059    0.055
        30 -10.1672     58.8795    229.5771   1.1917938940e+02   1.9670824658e+01    0.1616066     0.129635  82.61 0.0003057233    1.145    0.127
        31  -9.5912     84.0976    173.4049   1.0762765904e+02   2.8126421387e+01    0.2281378    0.1734157 -60.00 0.0006715943    1.330    0.248
        32 -10.3132     43.6708    172.4820   1.1711019755e+02   3.3696941147e+01    0.5918251    0.2045223  49.02  0.001900472    2.823    0.646
        33  -8.5542    194.4744    172.4967   8.2146029403e+01   8.0355427406e+00    0.1439243    0.1316041   8.12 5.452992e-05    1.019    0.019
        34 -10.7855    139.0835    171.5979   9.4160414309e+01   1.9018076267e+01    0.4518234    0.2908698  43.00  0.001233288    1.477    0.323
        35  -8.7399     63.6250    172.2967   1.1238967527e+02   3.1288199229e+01     0.216694    0.1323991  72.89  0.001069762    1.773    0.436
        36  -8.7064    186.2879    170.3610   8.3402345028e+01   1.0023970018e+01    0.1500766    0.1104839  -2.33 0.0007024081    1.689    0.408
        37 -10.2084    240.0696    169.4935   7.2884785179e+01   1.8532871899e-01    0.1919571     0.126905  37.81  0.000498087    1.561    0.359
        38  -9.0495    188.0222    163.6144   8.1627827502e+01   1.0959899462e+01    0.2734612    0.1588933 -56.98   0.00110804    2.359    0.576
        39  -9.3390    167.9916    231.8114   9.7956854905e+01   2.5976851283e+00    0.1865868    0.1776997  -7.82 0.0005001635    1.204    0.169
        40 -11.6370     95.2913    151.4677   1.0124822650e+02   3.1526293136e+01    0.6579465    0.5565619 -33.31  0.002435607    1.405    0.288
        41  -9.7646    187.7743    152.1961   7.9197602862e+01   1.3211577362e+01    0.2841307     0.240865  84.18  0.001436029    1.544    0.352
        42 -10.8325    133.8071    145.4100   9.0139977364e+01   2.5854685400e+01      1.32608    0.3315588 -55.11  0.002985171    6.309    0.842
        43  -9.4819    112.9453    150.9426   9.6579856526e+01   2.8576119370e+01    0.2438636    0.1781279  79.60  0.000712186    1.701    0.412
        44  -9.6928    174.5356    149.3139   8.1406937491e+01   1.6552300097e+01    0.2809203    0.2438798  34.62 0.0007926633    1.141    0.124
        45 -11.0309     50.3992    224.7345   1.2040564327e+02   2.1676742024e+01    0.2086219    0.1289023  75.92 0.0006698496    1.433    0.302
        46  -9.8407    109.0398    147.2050   9.6849481557e+01   3.0163519831e+01    0.2455018    0.2106185 -84.77 0.0002473189    1.205    0.170
        47  -9.5923     87.3278    143.6968   1.0193359732e+02   3.4688464398e+01      0.36966    0.2257517  81.50  0.001495033    2.456    0.593
        48 -10.9137    107.3145    137.8051   9.5378592687e+01   3.2706978065e+01    0.4870146    0.3834743 -35.50  0.002131514    1.430    0.301
        49 -11.6916     95.1226    137.4927   9.8619144589e+01   3.4915479309e+01    0.3016702    0.2636667 -49.33 0.0004517852    1.161    0.139
        50 -10.6418    105.9404    130.7085   9.4218918104e+01   3.4648295629e+01    0.3903309    0.3259193 -63.78  0.001132841    1.178    0.151
        51 -10.2559    135.7324    128.4317   8.5768101534e+01   2.9313347147e+01    0.6732177    0.1368966 -48.32  0.001615689    5.022    0.801
        52 -10.4177    114.6508    128.9518   9.1446848542e+01   3.3435743052e+01    0.3291957    0.2941482   1.51 0.0006420598    1.312    0.238
        53  -9.1368    160.6924    127.5631   7.9439773600e+01   2.4096055678e+01    0.2774349    0.1938348 -63.69  0.001181243    1.770    0.435
        54 -10.6475    120.1953    122.9789   8.8537467375e+01   3.3746854386e+01    0.6416811    0.3497901 -26.25  0.002070941    3.431    0.709
        55 -10.4861    102.0814    124.8231   9.3972545492e+01   3.6750925422e+01    0.3152671    0.2565241 -20.66 0.0006323432    1.506    0.336
        56 -11.4410     62.7051    250.4605   1.2006983837e+02   1.5341438613e+01    0.2792811    0.1175251  42.96  0.001541394    1.880    0.468
        57  -9.4237    109.9319    118.1991   9.0204332974e+01   3.6864813351e+01    0.2444911    0.2097605 -53.38 0.0003003446    1.128    0.114
        58 -10.0407    231.2490    113.6893   6.2031065814e+01   1.1194320498e+01    0.2680262    0.2652344 -49.98 0.0007384003    1.103    0.094
        59  -9.3196    167.5060    112.3673   7.4008071629e+01   2.5730725535e+01     0.343668     0.245515 -74.26   0.00122527    1.978    0.495
        60 -10.0004    134.6973    106.5178   8.0436017298e+01   3.4422373011e+01    0.6098453    0.1459345 -42.58  0.001568995    4.265    0.766
        61 -11.0372    118.7120    110.6685   8.5852510917e+01   3.6876660461e+01    0.6374423    0.4126154  63.74   0.00261019    2.053    0.513
        62  -9.5210    205.5020    110.1869   6.5653217517e+01   1.7403555429e+01    0.3145443    0.2177362  42.98 0.0009333533    1.540    0.351
        63  -9.8259     36.7963    224.0977   1.2291093707e+02   2.3414579266e+01    0.1472537    0.1258039  68.67 0.0004784268    1.223    0.183
        64 -10.7918     55.0812    222.7074   1.1935037587e+02   2.1493093341e+01    0.1873327    0.1166585  56.00 0.0008293646    1.311    0.237
        65  -8.6546    154.9926     82.3007   6.8511245652e+01   3.4677605025e+01    0.2184559    0.2004785  49.75 0.0003558138    1.091    0.083
        66 -12.2680     49.0650    248.7864   1.2234146947e+02   1.7345081830e+01    0.2003375    0.1420084  82.12 0.0006852887    1.238    0.192
        67 -10.4304     56.4224    218.0833   1.1870567753e+02   2.2245866561e+01    0.2714574    0.1382853  74.95  0.001063014    2.105    0.525
        68 -10.0275     48.6430    218.0319   1.2022083736e+02   2.3223581138e+01    0.2371618    0.1488862  57.15  0.001476522    1.308    0.235
        69  -9.3659     61.3247    219.9078   1.1789866957e+02   2.1249650798e+01    0.1373186    0.1211686 -61.46 0.0005158198    1.465    0.317
        70 -10.8904     71.9374    245.7669   1.1805740693e+02   1.4958408476e+01    0.3631831    0.1640647 -71.85  0.001972782    2.438    0.590
        71 -13.2781    192.1328     39.7316   4.9121143896e+01   3.2257739266e+01     0.940163    0.8900436  62.93  0.003839019    1.117    0.105
        72  -8.4259     84.2318    245.6760   1.1579410933e+02   1.3290981818e+01    0.1145611   0.07200241  68.82            0    1.513    0.339
        73  -9.9592     56.7421    209.9804   1.1793389514e+02   2.3861222399e+01    0.2853752    0.1532828 -64.54  0.001045111    1.882    0.469
        74  -8.8135     43.9247    210.2453   1.2052807086e+02   2.5378310995e+01    0.1697545    0.1165821  68.05 0.0003089617    1.191    0.160
