#   1 NUMBER                 Running object number                                     
#   2 MAG_AUTO               Kron-like elliptical aperture magnitude                    [mag]
#   3 X_IMAGE                Object position along x                                    [pixel]
#   4 Y_IMAGE                Object position along y                                    [pixel]
#   5 X_WORLD                Barycenter position along world x axis                     [deg]
#   6 Y_WORLD                Barycenter position along world y axis                     [deg]
#   7 A_WORLD                Profile RMS along major axis (world units)                 [deg]
#   8 B_WORLD                Profile RMS along minor axis (world units)                 [deg]
#   9 THETA_WORLD            Position angle (CCW/world-x)                               [deg]
#  10 FWHM_WORLD             FWHM assuming a gaussian core                              [deg]
#  11 ELONGATION             A_IMAGE/B_IMAGE                                           
#  12 ELLIPTICITY            1 - B_IMAGE/A_IMAGE                                       
         1 -16.8779    168.6725    104.0844   8.1631445501e+01   2.7343309283e+01     4.340509     3.097604  34.21   0.01224205    1.489    0.328
         2 -13.0218    190.9685     34.6495   5.7113391785e+01   3.2711996408e+01    0.8708695    0.7943358 -52.55  0.003189686    1.103    0.093
         3 -13.1760    199.6243     23.7046   5.2593970267e+01   3.1744256411e+01    0.7474113    0.6396514  12.64   0.00156481    1.313    0.238
         4 -12.7507     84.6651      4.3632   6.7652518924e+01   6.2627804732e+01    0.7854677    0.6247948 -80.10  0.004312606    1.958    0.489
         5 -12.8107     75.8791      2.5055   6.9507304545e+01   6.4600827571e+01    0.7408518    0.4823809  51.45  0.002506596    1.616    0.381
         6 -12.2975     73.4219     26.1352   8.1755265039e+01   6.1804400102e+01    0.6981414      0.51283  -9.20  0.002827359    1.420    0.296
         7 -13.8862     71.5868     16.0137   7.7769611410e+01   6.3670033766e+01     1.200399    0.9077154  26.01  0.005364037    1.313    0.238
         8 -15.3448    130.0286      7.2135   5.7774337974e+01   5.1820627436e+01     4.002134    0.9597651  60.96   0.01259925    3.479    0.713
         9 -13.8241    141.7018      2.3437   5.3730781684e+01   4.9281536116e+01     1.255278    0.2691346  65.66  0.003676071    4.023    0.751
        10 -11.1775    249.3072     10.4624   4.4041587968e+01   2.0856678106e+01    0.3599336    0.3215534  -3.96  0.002069316    1.281    0.219
        11 -12.9405     44.8195    208.5050   1.2518434451e+02   2.7903180800e+01    0.3803354    0.3343528  51.86  0.002048627    1.394    0.283
        12 -15.1583    113.0875    196.0681   1.1111181702e+02   2.0914354102e+01     4.686653     2.673231  71.91   0.02352125    2.393    0.582
        13 -15.9173     97.6736    229.9887   1.1751188669e+02   1.7644916167e+01     2.130785      1.38572  54.64  0.008377024    1.179    0.152
        14 -15.0892     99.3908    249.8247   1.1888144647e+02   1.4514713610e+01     3.659933     0.528652  38.63   0.00986562    9.187    0.891
        15 -16.3160     73.5706    246.5021   1.2282396220e+02   1.8332962386e+01     3.334681     1.029036  38.42  0.009619088    2.865    0.651
        16  -9.6817     39.6210    250.8470   1.2838883562e+02   2.1644260058e+01    0.0828371   0.05568179  40.15 0.0002411838    1.584    0.369
        17 -19.5079      8.8229    145.9680   1.2809411724e+02   4.3512551770e+01     16.52579     1.677194 -77.59   0.04072368   10.054    0.901
        18  -9.9258    193.7661    193.1151   9.5295327095e+01   7.6604093328e+00    0.2317189    0.1687661  -1.86  0.001368405    1.630    0.387
        19 -10.4680     29.9150    182.7729   1.2624472970e+02   3.4231014138e+01    0.7316667    0.2955966 -81.02   0.00288542    2.288    0.563
        20 -14.3742     39.7326    174.5117   1.2367689733e+02   3.4813649408e+01     1.115291    0.6319163  85.23  0.002325536    1.618    0.382
        21 -12.7220     30.2155    169.4854   1.2523558612e+02   3.6800724589e+01    0.5287485    0.4059877 -53.98  0.003486614    1.698    0.411
        22 -13.7528    134.1322    180.7251   1.0480570405e+02   2.0137268002e+01    0.9374545    0.7390378  56.01  0.003906795    1.151    0.131
        23 -13.1057    140.7034    173.5930   1.0234326477e+02   2.0240924519e+01     0.729406    0.6282377  80.43  0.003189581    1.273    0.215
        24  -9.4380     52.7506    184.3922   1.2187450806e+02   3.1417354894e+01     0.140077    0.1022504  35.15 0.0004497594    1.584    0.369
        25 -12.7399    229.8672    179.1472   8.6495881525e+01   3.1509031762e+00    0.5449352    0.3681616  19.46  0.001790406    1.383    0.277
        26 -12.1609    193.2556    178.3471   9.2833965955e+01   9.8248012856e+00    0.5923106    0.4449987  36.21  0.002188701    1.147    0.129
        27 -11.0595     87.9703    164.1026   1.1224521380e+02   3.0761915962e+01    0.2659819    0.2061133  65.45 0.0003834238    1.162    0.139
        28 -13.9153    102.4717    174.7788   1.1054042681e+02   2.6454963438e+01     1.675267    0.9347398  61.33  0.008461363    1.923    0.480
        29 -12.1600    121.3432    170.4656   1.0590918881e+02   2.4192367480e+01    0.5555279    0.4714691 -21.63  0.002388536    1.598    0.374
        30 -12.4100    114.9437    169.2744   1.0709648956e+02   2.5494722370e+01     0.516849    0.3776848  72.91  0.001793473    1.475    0.322
        31 -14.8367    105.5784    155.3919   1.0702285235e+02   2.9776268483e+01     1.103237     1.031038  57.66  0.003515383    1.111    0.100
        32 -12.8937    115.5381    149.1229   1.0370380170e+02   2.9357080719e+01    0.7482412    0.5147688  78.02  0.002646647    1.835    0.455
        33 -10.4618     77.0493    178.3041   1.1632184120e+02   2.9500767910e+01    0.3390836    0.2053991 -39.83  0.001601268    2.809    0.644
        34 -10.8043     80.6731    173.4625   1.1500538199e+02   2.9945974685e+01    0.2304041    0.2064001 -40.09   0.00135934    1.525    0.344
        35  -9.8776    195.9104    169.6402   9.0734951706e+01   1.0602962092e+01    0.2172062    0.1766455  -3.33  0.000890118    1.301    0.232
        36 -12.4980     76.4457    159.2781   1.1418455090e+02   3.3398750365e+01    0.4088302    0.2760843 -58.53  0.001113034    1.554    0.356
        37 -10.4408     52.6212    157.0462   1.1928298257e+02   3.6916211280e+01    0.2614266    0.1916839 -74.57 0.0008454642    1.264    0.209
        38  -9.4844    140.2590    157.2456   9.9639383183e+01   2.3296093193e+01    0.1855416    0.1502716  74.76 0.0006672845    1.386    0.278
        39 -11.9754     54.5139    149.1626   1.1796845146e+02   3.8356010622e+01    0.4262787    0.2675714 -60.02  0.002505228    1.596    0.374
        40 -10.6073    134.2806    147.8379   9.9216166022e+01   2.6209538855e+01    0.6349847    0.1270556 -51.52  0.001661206    6.081    0.836
        41 -12.7912     68.2724    144.1352   1.1407482850e+02   3.7705129793e+01    0.7194394    0.4218194  68.58  0.003185805    1.907    0.476
        42 -11.4007     94.1773    141.4124   1.0741443005e+02   3.4521573306e+01    0.2307371    0.2241145 -65.88 0.0004671984    1.180    0.153
        43 -12.9232     57.9388    128.3713   1.1441420911e+02   4.2476268732e+01     1.024514    0.3533622 -76.70  0.003191503    5.001    0.800
        44 -15.2789     82.0174    235.6418   1.2065828233e+02   1.8884231267e+01    0.8337862    0.3737426  51.39  0.003398848    1.675    0.403
        45  -9.9172    113.9075    131.0851   1.0072774210e+02   3.3367776922e+01    0.2175795    0.1762387  -9.08  0.001128753    1.745    0.427
        46  -9.8676    106.0740    130.7000   1.0257703797e+02   3.4833295688e+01    0.2414736    0.1883282 -74.41  0.001310481    1.342    0.255
        47  -9.6745    101.4961    127.5054   1.0310091531e+02   3.6302073268e+01    0.2104575    0.1245659 -45.15 0.0005481134    1.841    0.457
        48  -9.3191    109.6756    119.7043   9.9434455149e+01   3.6546112138e+01     0.190501    0.1801732 -33.91 0.0005302342    1.172    0.147
        49 -11.0745    113.3355    117.0632   9.7926678735e+01   3.6439843530e+01    0.4111935    0.3665377  88.43  0.002146432    1.154    0.134
        50  -9.6375     71.2524    210.7357   1.2056703791e+02   2.4325416158e+01    0.1594915    0.1101791  65.78  0.001112572    1.174    0.148
        51 -10.7304     65.0043    194.4328   1.2034405069e+02   2.8029206375e+01    0.4064213    0.3050861  76.22  0.002882296    1.127    0.113
        52 -14.2959    132.9683    117.4763   9.3143148654e+01   3.2534961088e+01     1.452473    0.9484969  49.33  0.004758384    1.514    0.339
        53 -10.5293    163.6515     64.4947   7.1348363655e+01   3.5481502010e+01    0.3088593    0.2421294 -64.32 0.0003711172    1.518    0.341
        54 -12.1577    180.3922     43.0879   6.1423071036e+01   3.4386694675e+01    0.4039082    0.3450955  60.77  0.000880788    1.162    0.139
        55  -9.8513     38.0555    241.1693   1.2816962151e+02   2.3273368378e+01    0.1777106    0.1145926 -58.33  0.001335885    2.315    0.568
        56  -9.7977     49.1707    243.4820   1.2653831557e+02   2.1688530039e+01    0.1168867    0.0721724  51.37 -2.407536e-05    1.207    0.171
        57 -15.5745    234.9658    209.9731   9.1023416756e+01  -1.2125650768e+00     2.243076     1.213632 -19.23  0.008964972    2.077    0.519
        58 -11.7154     46.1048    233.6714   1.2649097693e+02   2.3556976818e+01    0.1911157    0.1095721  66.23 0.0007079153    1.350    0.259
        59 -10.2290     39.2996    220.3697   1.2687161406e+02   2.6480369607e+01    0.1629804    0.1214625  50.33 0.0009024832    1.287    0.223
        60 -11.7773     54.5627    206.9753   1.2331928541e+02   2.7045867524e+01     0.404824    0.3143831  15.49   0.00278311    2.178    0.541
        61 -10.5407     59.5675    206.7028   1.2238389410e+02   2.6491932654e+01    0.2522807    0.1913602 -63.22  0.001370417    1.627    0.385
        62 -12.1480     40.3134    213.8232   1.2631415331e+02   2.7480363825e+01    0.3316257    0.1758636  66.40   0.00127997    1.536    0.349
