#   1 NUMBER                 Running object number                                     
#   2 MAG_AUTO               Kron-like elliptical aperture magnitude                    [mag]
#   3 X_IMAGE                Object position along x                                    [pixel]
#   4 Y_IMAGE                Object position along y                                    [pixel]
#   5 X_WORLD                Barycenter position along world x axis                     [deg]
#   6 Y_WORLD                Barycenter position along world y axis                     [deg]
#   7 A_WORLD                Profile RMS along major axis (world units)                 [deg]
#   8 B_WORLD                Profile RMS along minor axis (world units)                 [deg]
#   9 THETA_WORLD            Position angle (CCW/world-x)                               [deg]
#  10 FWHM_WORLD             FWHM assuming a gaussian core                              [deg]
#  11 ELONGATION             A_IMAGE/B_IMAGE                                           
#  12 ELLIPTICITY            1 - B_IMAGE/A_IMAGE                                       
         1 -13.3482    190.1256     46.5894   3.6432217271e+00   3.1448173219e+01     1.153375    0.9998263  38.93  0.004310178    1.456    0.313
         2 -13.7801    216.3374     16.2459   3.5371580504e+02   2.9339849840e+01     1.225067    0.9309058 -24.50  0.005403592    1.483    0.326
         3 -13.1351    233.8502      5.6639   3.5039175175e+02   2.6887075285e+01     1.077047     0.638411  80.23  0.006768022    1.770    0.435
         4  -9.0987    116.0031     12.2312   2.8299229131e+00   5.4481577236e+01    0.2820333     0.191976  65.99  0.001430768    1.315    0.240
         5 -10.7275    120.2208      8.7773   7.6959023137e-01   5.3695168351e+01    0.4373976      0.35033  66.72  0.001431164    1.151    0.131
         6 -12.4407      3.1137      5.3862   5.4843493432e+01   7.9144385721e+01    0.8006694    0.4962763 -54.70  0.004643583    1.593    0.372
         7  -9.2932    189.8098     15.3989   3.5535264884e+02   3.5318089673e+01     0.174099    0.1098917  67.22 0.0004542004    1.640    0.390
         8 -11.9798    245.2263    247.9351   3.5633414803e+01  -5.6237715868e+00    0.6451766    0.3159185  16.41  0.004440911    1.705    0.413
         9 -13.6300    117.3751    237.3931   5.7948994906e+01   1.0364326681e+01     4.879855     3.085006  40.62   0.02923784    1.390    0.281
        10 -14.4637     11.5292    207.0489   8.0504963274e+01   2.8527678090e+01    0.5719743    0.3549661  28.00  0.003372581    1.493    0.330
        11  -9.6948     38.2811    199.9604   7.3424906751e+01   2.7489115190e+01    0.1862472    0.1286882  59.42 0.0004275851    1.273    0.215
        12  -9.2991     34.6124    197.6916   7.4225697621e+01   2.8385481295e+01     0.146476   0.09919249  38.54 0.0001971329    1.243    0.196
        13  -9.4938     53.0853    197.2489   6.9360715255e+01   2.6426050947e+01    0.2408803    0.1797361  17.62  0.001345368    1.453    0.312
        14  -9.8574    192.9477    195.0190   3.6315113720e+01   6.8787769714e+00    0.4077818    0.2184512 -56.00  0.001741112    3.801    0.737
        15  -9.4436    167.1496    223.7065   4.5784189014e+01   6.0263669213e+00    0.1808177    0.1656607 -37.27   0.00128753    1.445    0.308
        16  -9.5547      9.3939    193.1348   8.0520727527e+01   3.1792761227e+01     0.109963   0.08042718  10.90 0.0006341852    1.635    0.388
        17 -11.3914    117.1410    188.7400   5.1760128299e+01   1.9371010796e+01    0.3791378    0.2717848  82.36  0.001856759    2.108    0.526
        18 -11.6898     59.2660    188.5847   6.6915484235e+01   2.7641867413e+01    0.3791349    0.3277379  85.16  0.001389119    1.195    0.163
        19 -11.1783     57.3755    211.3587   6.9432305956e+01   2.2858212686e+01    0.2913682     0.251846  76.40  0.001888083    1.208    0.172
        20 -10.0353     71.3650    185.9433   6.3342917316e+01   2.6680460435e+01    0.4262094    0.2693562  -1.43  0.001548061    2.493    0.599
        21 -10.6702    124.3358    186.3772   4.9631294228e+01   1.8729039073e+01    0.2763927     0.234798  42.75  0.001564251    1.155    0.134
        22 -11.0322     54.4228    205.8741   6.9731219161e+01   2.4373590833e+01    0.2556236    0.1820329  53.69 0.0006551033    1.227    0.185
        23 -10.4152     19.8424    184.1335   7.7344902252e+01   3.2965384376e+01    0.1778685    0.1559389  54.94 0.0003935263    1.082    0.076
        24  -8.8335     47.0182    208.1193   7.1770433338e+01   2.4742791513e+01    0.2149519    0.1106853  54.07 0.0009595294    1.746    0.427
        25  -9.9952     90.4365    181.5250   5.7618244741e+01   2.4984475511e+01    0.2258798    0.2085813 -44.22 8.922243e-05    1.222    0.182
        26 -10.5341     93.1508    179.3996   5.6591164939e+01   2.5056292439e+01    0.2737523    0.1978022  43.20 0.0006308155    1.252    0.201
        27 -13.5546    244.2341    169.0623   2.3284211943e+01   3.7680479265e+00     1.357091    0.6474703 -22.90  0.007266495    2.025    0.506
        28  -9.6768     46.2495    176.6670   6.9405687646e+01   3.2029801401e+01    0.2886573    0.1826203  26.30  0.001060262    1.544    0.352
        29 -10.8676     43.5583    173.3721   6.9877981758e+01   3.3141931850e+01    0.4028983    0.2736031  48.43  0.001032078    1.294    0.227
        30  -9.5014     26.5654    177.0350   7.5050684173e+01   3.4032444310e+01    0.2989904   0.08893728  35.73  0.001167452    2.521    0.603
        31 -10.6124     16.5357    176.7176   7.7857134618e+01   3.5031403894e+01    0.2120914    0.1465914  31.76 0.0005212835    1.363    0.266
        32  -9.8603     87.1460    206.4279   6.1544491406e+01   2.0094708468e+01    0.2060645    0.1787567  85.20 0.0004356852    1.310    0.237
        33  -9.2918     54.1490    174.8258   6.6952723223e+01   3.1532700882e+01    0.2253512    0.1603289  57.19 0.0006805916    1.307    0.235
        34  -9.0284      6.2816    175.1226   8.0640625955e+01   3.6257156856e+01    0.3014603   0.08628691  16.76  0.001051714    4.047    0.753
        35 -10.9616    111.4609    170.3720   5.0306898025e+01   2.4179318649e+01    0.6021218    0.2859602 -65.10  0.002273258    2.888    0.654
        36  -9.4463     73.3338    205.3430   6.4891996549e+01   2.2149561826e+01    0.1721539    0.1214502  50.64 0.0004953446    1.276    0.216
        37  -9.5736    126.0292    180.1044   4.8209841057e+01   1.9731756175e+01    0.2074426    0.1885834  25.83 0.0003007943    1.011    0.011
        38  -9.0545     64.6266    205.5124   6.7112191886e+01   2.3216775305e+01     0.141202   0.09950241  54.69 0.0003236078    1.297    0.229
        39 -10.7990    119.5855    176.9072   4.9290561296e+01   2.1439937549e+01    0.3404184    0.2614667 -80.40  0.001543748    1.727    0.421
        40 -16.1152     66.1202    140.0238   5.8663294370e+01   3.8747519038e+01     7.218397     3.714567  56.33   0.02770311    2.276    0.561
        41 -11.4472     75.4224    248.9869   6.8158409658e+01   1.3570037923e+01    0.2825771    0.1625631 -55.81  0.001685285    2.230    0.552
        42 -11.3135     90.7675    154.1756   5.3336699580e+01   3.1343293632e+01    0.3637114    0.3166792  81.35 0.0003229123    1.224    0.183
        43 -12.3474     96.5773    149.0534   5.0720816637e+01   3.1615209169e+01    0.6670726    0.5738591  33.78  0.001825206    1.124    0.111
        44 -12.6911    248.5597    146.3847   1.8530077859e+01   6.2495377387e+00     1.048707    0.3600651 -33.04  0.004891023    2.398    0.583
        45  -9.5925    119.0589    150.2749   4.4633424885e+01   2.7358687584e+01    0.4314943     0.279856  79.55  0.001645666    2.808    0.644
        46 -10.4242    108.9222    147.4124   4.6858015706e+01   2.9845049412e+01    0.4304826     0.296014 -66.00  0.001074569    1.673    0.402
        47 -10.0201    133.5518    144.6442   3.9706603323e+01   2.5916286300e+01    0.6937244     0.155769 -52.88  0.001613927    6.328    0.842
        48 -11.5891    106.6229    136.8097   4.5371279872e+01   3.2770393985e+01    0.6313235     0.451793 -21.89  0.001945088    1.898    0.473
        49 -11.5897     96.4119    134.7349   4.7987847464e+01   3.5139786416e+01    0.4081322     0.325147  11.84 0.0002359087    1.495    0.331
        50 -18.1930     21.6433    231.6765   7.9071495690e+01   2.2538824317e+01     5.906622     2.694323 -86.30   0.03175835    2.395    0.582
        51 -11.1659    103.0750    124.3456   4.3697863990e+01   3.6437492663e+01    0.5927821    0.4981053 -37.73  0.001642764    1.286    0.222
        52  -9.4624    114.9892    127.9234   4.1015292556e+01   3.3266060540e+01    0.2409267    0.2263977  11.22 0.0007478427    1.128    0.114
        53 -10.3902     92.5942    124.8381   4.7075150844e+01   3.8285362135e+01    0.3529615    0.2239669 -61.28  0.001504436    1.666    0.400
        54 -10.8325     88.5927    122.2961   4.7807914791e+01   3.9650509893e+01    0.4405702    0.2680917  61.19  0.001074309    2.084    0.520
        55  -8.8214    110.1239    117.5184   3.9968195321e+01   3.6676474214e+01    0.2265498    0.1527416  41.67 0.0004213411    1.455    0.313
        56 -11.0398    118.1553    110.0778   3.5767181086e+01   3.6729787159e+01    0.5443986    0.3497514  54.77  0.002303279    1.670    0.401
        57 -11.2756     62.0995    200.0549   6.7258716914e+01   2.4711371554e+01    0.2835766     0.194972 -61.43 0.0009277803    1.653    0.395
        58  -8.4064    155.2930     74.7228   1.6876240949e+01   3.5339574064e+01    0.1493693    0.1116721 -73.01 0.0001535787    1.526    0.345
        59 -12.5058    174.1594     59.7613   9.3553998185e+00   3.3278710268e+01    0.6287563    0.4846092 -50.26 0.0008746705    1.193    0.162
        60  -8.8465     19.8262     62.8682   6.3372124152e+01   6.4778430121e+01    0.1839779    0.1555718  51.16 0.0004449489    1.304    0.233
        61 -13.0075     50.7126    246.8673   7.3386249851e+01   1.6720614361e+01    0.2920616    0.1774412 -66.40  0.001607226    2.048    0.512
        62 -12.0687    195.7097     40.6766   1.4763764389e+00   3.0961329518e+01    0.4944023    0.4213174  51.61  0.001589986    1.421    0.296
        63  -9.5806     68.2772    246.2405   6.9515119940e+01   1.4870941770e+01    0.1175216   0.09872178  68.98 0.0003392213    1.309    0.236
        64  -9.4332     61.9130    235.9195   7.0204173859e+01   1.7466750891e+01    0.3361358    0.1493274  82.85  0.001433277    3.753    0.734
        65 -10.9333    231.0820     24.3331   3.5464915213e+02   2.5445727355e+01     0.299437    0.1322591 -49.66  0.001567698    1.768    0.434
        66  -9.7691     57.8886    233.2638   7.0935509683e+01   1.8426302511e+01    0.1346198    0.1251802  20.91 0.0005058334    1.265    0.210
        67 -11.4952    222.1181    228.1482   3.6438439395e+01  -1.1499888131e+00    0.2805946     0.169824 -24.28  0.001921979    1.475    0.322
        68 -10.2179     66.5120    194.8207   6.5597656466e+01   2.5311704447e+01    0.2494632    0.1776742  30.34 0.0007814209    1.277    0.217
