#   1 NUMBER                 Running object number                                     
#   2 MAG_AUTO               Kron-like elliptical aperture magnitude                    [mag]
#   3 X_IMAGE                Object position along x                                    [pixel]
#   4 Y_IMAGE                Object position along y                                    [pixel]
#   5 X_WORLD                Barycenter position along world x axis                     [deg]
#   6 Y_WORLD                Barycenter position along world y axis                     [deg]
#   7 A_WORLD                Profile RMS along major axis (world units)                 [deg]
#   8 B_WORLD                Profile RMS along minor axis (world units)                 [deg]
#   9 THETA_WORLD            Position angle (CCW/world-x)                               [deg]
#  10 FWHM_WORLD             FWHM assuming a gaussian core                              [deg]
#  11 ELONGATION             A_IMAGE/B_IMAGE                                           
#  12 ELLIPTICITY            1 - B_IMAGE/A_IMAGE                                       
         1 -12.6912    207.0943     23.8370   2.9184139609e+01   3.1014326842e+01    0.7654605    0.2862276 -42.45  0.003512549    2.272    0.560
         2 -13.6603    212.4271     20.8300   2.8018968348e+01   3.0190197456e+01    0.9223123    0.5862799 -36.78  0.004761995    1.476    0.322
         3 -10.1198      2.6710      5.9955   8.2537397951e+01   7.5831951423e+01     0.202951   0.05172306 -34.46 0.0007051935    4.361    0.771
         4 -11.5258     60.1283      2.9944   4.8141618096e+01   6.7485266624e+01    0.3336669    0.1236379  36.22  0.001352029    2.746    0.636
         5 -11.3045     50.0030      2.6847   5.1934527635e+01   6.9518723583e+01    0.1876083    0.1454899  33.11  0.001077268    1.088    0.081
         6  -9.0751    165.2570    226.9606   8.1636885559e+01   5.3272213233e+00     0.143539    0.1073815 -36.97 0.0003686384    1.471    0.320
         7 -14.2275    245.3396    236.9709   6.8233903344e+01  -6.2062283836e+00     1.982108    0.7095978 -29.98    0.0101893    2.530    0.605
         8 -18.6871     37.3611    129.4875   1.0013459896e+02   4.5161126101e+01     18.74802     8.285436 -79.45   0.07074717    2.723    0.633
         9  -9.5561    165.5318    214.4879   7.9617548486e+01   7.3609777320e+00    0.1931234    0.1295173 -55.09 0.0008237861    2.023    0.506
        10 -10.2039     56.0167    209.6874   1.0437176933e+02   2.3700561053e+01    0.4846058    0.1966756 -87.89  0.001721373    4.240    0.764
        11 -11.3884    155.0916    184.1159   7.6647137300e+01   1.4558886540e+01    0.2220094    0.1796414  -1.60 0.0004487683    1.244    0.196
        12 -11.9949     40.9541    206.8065   1.0769006391e+02   2.6004134174e+01     0.308679    0.1914441 -48.37  0.001675225    1.965    0.491
        13 -10.8390     63.5215    183.0309   9.9639249092e+01   2.8822488363e+01    0.3972755    0.2360765 -36.97  0.001215835    2.227    0.551
        14 -10.4162     73.2237    204.3055   9.9664545366e+01   2.2759844258e+01    0.1740554    0.1307899  61.23  0.000574084    1.335    0.251
        15 -10.3207     60.2099    197.7245   1.0216304325e+02   2.5842965794e+01    0.1423509    0.1379977  15.25 0.0002718014    1.166    0.143
        16  -9.7260     88.7147    178.9902   9.2369261046e+01   2.6348276942e+01    0.2034368    0.1891307 -13.37 0.0005043946    1.170    0.145
        17 -10.9177     91.6530    176.2170   9.1155247464e+01   2.6558949051e+01     0.276137     0.209132  59.96 0.0006366628    1.449    0.310
        18 -11.3492     84.4847    178.0567   9.3361615077e+01   2.7178008902e+01    0.2482833     0.210914  47.29  0.000389777    1.134    0.118
        19 -11.7358    180.9274    175.0509   6.9219834619e+01   1.1932637245e+01    0.4488833    0.4056001   3.19  0.002606804    1.066    0.062
        20 -11.2816    154.4777    178.9536   7.5816466531e+01   1.5675914955e+01    0.2727115    0.1356049 -41.54  0.001153632    2.051    0.512
        21 -12.0440    246.7440    162.5939   5.4817305083e+01   3.7023934367e+00    0.8009946    0.2250686 -43.40  0.002850407    4.018    0.751
        22 -10.8301    144.2221    168.4094   7.6189328489e+01   1.9598845121e+01    0.2065966    0.1331502  44.83 0.0004267156    1.622    0.384
        23  -9.9884     80.8509    220.3783   9.9612424271e+01   1.8392307710e+01    0.1548369    0.1290083  28.94  0.000246745    1.147    0.129
        24 -10.3213      1.1217    193.3267   1.1614095940e+02   3.2597350359e+01    0.1069465    0.0640364 -73.07 0.0006116722    1.570    0.363
        25 -11.4638    133.8466    146.4282   7.4184797367e+01   2.6225060249e+01     1.174189     0.324934 -54.38  0.002780711    5.942    0.832
        26 -12.6736     97.6885    146.2007   8.4104222297e+01   3.2758926994e+01    0.6921504    0.4842274 -39.20  0.001060111    1.512    0.339
        27 -10.6893    111.0486    149.4218   8.0955249496e+01   2.9705557006e+01    0.4269871    0.2283375  58.58  0.001479216    3.015    0.668
        28 -11.1996    118.5334    135.3886   7.5803434348e+01   3.1605415992e+01    0.5352936    0.3636022 -82.57  0.001221689    2.525    0.604
        29 -10.1930    112.4786    128.9670   7.6018675553e+01   3.4230293323e+01    0.2767073     0.210983  52.92 0.0005088833    1.449    0.310
        30 -10.2561    115.5728    126.2605   7.4482311938e+01   3.4267887692e+01     0.329401    0.2300651 -20.11 0.0009307622    1.827    0.453
        31 -10.8858    109.3273    133.3119   7.7941198787e+01   3.3799368351e+01    0.3554542    0.2416764 -27.07  0.001534054    1.776    0.437
        32 -12.0369    105.6801    130.7256   7.8412487088e+01   3.5074793130e+01    0.8170151    0.5008007 -70.15     0.003178    2.348    0.574
        33 -11.7722     89.9654    132.6747   8.3598073098e+01   3.7335753900e+01    0.5085334    0.2754884  56.27  0.001492951    2.618    0.618
        34 -11.8928     97.5453    132.3741   8.1215837998e+01   3.6124758085e+01    0.3056483    0.2672008  -4.73   0.00018951    1.243    0.195
        35 -11.1984     92.8015    151.0451   8.6475488886e+01   3.2384401083e+01    0.2776701    0.2624907 -15.12 0.0003107501    1.095    0.087
        36 -10.4013    103.4327    121.5766   7.6910760709e+01   3.7647436507e+01    0.2760867    0.2452489  -8.34 0.0005925833    1.192    0.161
        37  -9.5577    183.4940    116.5065   5.5715997274e+01   2.2358863077e+01    0.1463255    0.1346478 -17.59 -5.559412e-05    1.043    0.041
        38 -10.5404     90.2484    217.1543   9.7063110060e+01   1.7804321681e+01    0.1925802    0.1799808  37.83 0.0003378199    1.065    0.061
        39 -11.7449    118.6882    110.0779   6.9463747510e+01   3.7300015591e+01    0.4921429     0.376699  76.43  0.001829343    1.836    0.455
        40  -9.9841    205.2061    110.1965   5.0284415193e+01   1.9103910372e+01    0.2048762     0.181766 -13.95 0.0008207859    1.131    0.116
        41 -10.0047     90.0127    104.9894   7.6918550077e+01   4.3994759746e+01     0.228186    0.2225622  70.66 0.0005045734    1.119    0.106
        42 -10.7038     90.0669    223.4635   9.7825876051e+01   1.6565158497e+01    0.2232408    0.1930291 -45.05 0.0005211058    1.342    0.255
        43 -12.8919    171.1149     63.7077   4.4170734297e+01   3.4085003320e+01    0.4640101    0.4506567 -64.30  0.000763482    1.022    0.021
        44 -13.6725    187.0245     50.0919   3.8030954508e+01   3.2328040779e+01     1.123238    0.8644657  32.26  0.004045309    1.639    0.390
        45 -12.0881    192.3488     44.3276   3.5834917354e+01   3.1868477550e+01    0.3957722    0.3164855  25.87   0.00104198    1.641    0.391
        46  -9.4698     82.2328     31.4293   5.4079522239e+01   5.9638026993e+01    0.1818606    0.1292223  58.95 0.0004851604    1.541    0.351
        47 -10.4377     86.3023    240.3258   1.0042548680e+02   1.3834740284e+01    0.1924517    0.1043557 -55.55 0.0006516036    2.147    0.534
        48 -11.9884     55.2057    238.1088   1.0693507462e+02   1.7994650212e+01    0.2081379    0.1664583 -89.85  0.001235593    1.325    0.246
        49 -11.5896     84.9275    185.9342   9.4381822638e+01   2.5291519585e+01    0.4041055    0.3187247  58.08  0.001621075    1.301    0.232
        50 -11.7454     78.7968    183.0623   9.5594431756e+01   2.6808483060e+01    0.4238575     0.384368 -27.84  0.001841146    1.236    0.191
        51  -9.9314      7.9489    190.5784   1.1439934288e+02   3.2692785983e+01    0.1725504   0.09605393 -16.31 0.0007908457    3.309    0.698
        52 -10.9294     72.2445    188.1838   9.7989040049e+01   2.6503090193e+01     0.213819    0.1757621  65.76 0.0004290243    1.223    0.183
        53 -11.8154     52.9629    231.7379   1.0693326502e+02   1.9488987994e+01    0.3860471    0.1430344 -58.88  0.001790312    2.937    0.659
        54 -11.2529     58.5770    232.9635   1.0580584553e+02   1.8607030709e+01    0.1479539      0.12512 -78.13 0.0008056515    1.304    0.233
