#   1 NUMBER                 Running object number                                     
#   2 MAG_AUTO               Kron-like elliptical aperture magnitude                    [mag]
#   3 X_IMAGE                Object position along x                                    [pixel]
#   4 Y_IMAGE                Object position along y                                    [pixel]
#   5 X_WORLD                Barycenter position along world x axis                     [deg]
#   6 Y_WORLD                Barycenter position along world y axis                     [deg]
#   7 A_WORLD                Profile RMS along major axis (world units)                 [deg]
#   8 B_WORLD                Profile RMS along minor axis (world units)                 [deg]
#   9 THETA_WORLD            Position angle (CCW/world-x)                               [deg]
#  10 FWHM_WORLD             FWHM assuming a gaussian core                              [deg]
#  11 ELONGATION             A_IMAGE/B_IMAGE                                           
#  12 ELLIPTICITY            1 - B_IMAGE/A_IMAGE                                       
         1 -11.8176     66.9443     16.0839   2.5260925769e+01   6.5442006763e+01    0.2385922    0.1935737 -29.19 0.0006894461    1.388    0.280
         2 -10.8483    122.8654     11.8217   1.2225790307e+01   5.1981511675e+01    0.1772511     0.130053 -67.93 0.0003191211    1.252    0.201
         3 -11.7471     54.3270     11.9191   2.7376267855e+01   6.8930104266e+01     0.240216    0.1693394  53.93 0.0003607665    1.240    0.193
         4 -11.5065     92.0502      8.6662   1.5622644358e+01   5.9966264233e+01    0.2041234    0.1888867  31.21 0.0005599115    1.270    0.212
         5 -12.1278     85.4636     10.4920   1.7724194043e+01   6.1449990763e+01    0.3544786    0.2021518 -55.66  0.001693516    1.972    0.493
         6 -12.4072     87.8249      7.2935   1.5806303246e+01   6.1157903495e+01    0.2491859    0.2178276 -59.47 0.0003935237    1.186    0.157
         7 -12.0365    215.1518      2.7095   3.2688508031e+00   3.3063544399e+01    0.1744768    0.1364964 -44.92 0.0002869816    1.199    0.166
         8 -11.0295    205.7873    244.3829   4.9938243188e+01   1.4506144109e+00     0.139312   0.07654806   7.81 0.0003428098    1.565    0.361
         9 -13.9516    246.0619    249.6106   4.4520759605e+01  -2.1979610595e+00    0.2526667     0.162326   7.59  0.001452632    1.367    0.269
        10 -11.7236    237.1265    250.3504   4.5890404759e+01  -1.6566859506e+00    0.1736465   0.09166699 -14.93 0.0003533073    1.434    0.303
        11 -10.3753    179.4458    250.5605   5.5287522377e+01   2.8979055275e+00    0.1095332   0.07876322  -2.77 7.635188e-05    1.004    0.004
        12 -12.6151    119.7431    244.4491   6.6458139284e+01   9.4898647908e+00    0.2414067    0.1257007  27.79  0.001345306    1.592    0.372
        13 -11.9588    124.9687    249.6086   6.5907629798e+01   8.1397698207e+00    0.2047807    0.1597351 -26.03 0.0009474987    1.322    0.244
        14 -11.6304    122.5892    246.4793   6.6068302390e+01   8.8743196451e+00    0.1937193    0.1291538  12.04 0.0004851793    1.223    0.182
        15 -11.3003    106.5143    250.7055   7.0031916941e+01   9.7782354099e+00    0.1947283   0.08706405  22.35 0.0001335951    1.785    0.440
        16 -12.1306     84.4640    250.6376   7.4997325443e+01   1.1946761986e+01    0.2605803   0.09468302  21.78 0.0006761012    2.232    0.552
        17 -15.5827     65.3137    247.2332   7.9180544193e+01   1.4390215020e+01     3.219178    0.8619452  22.46   0.01257411    2.975    0.664
        18 -14.9297     69.9717    227.0047   7.6368290482e+01   1.7810745959e+01     1.680721     1.301795  67.89  0.005563556    1.562    0.360
        19 -15.0348     38.7795    199.9495   8.2418516321e+01   2.6816637199e+01     1.687617     1.413938  66.79   0.00698799    1.224    0.183
        20 -13.9792     24.0693    196.9366   8.6421376390e+01   2.8846219535e+01    0.8178566    0.5433192   2.63  0.001761328    1.660    0.398
        21 -15.8720     14.4986    186.6077   8.8631113451e+01   3.2128602697e+01     2.140246     1.568503 -43.70   0.01166813    1.582    0.368
        22 -15.0517      3.6374    180.4454   9.1615144592e+01   3.4438391680e+01     2.492887    0.7350725 -61.12  0.008967992    3.442    0.709
        23 -15.0823     46.0037    226.0669   8.2390784391e+01   2.0356024238e+01     1.339488    0.9585129 -74.71   0.00492877    1.642    0.391
        24 -15.4201     35.6795    229.7223   8.5259775219e+01   2.0532395396e+01     1.748548    0.8757882 -80.97  0.008818078    2.401    0.584
        25 -15.0075      6.4426    199.8502   9.1580020987e+01   2.9515243301e+01     1.275805    0.7308945 -33.92  0.006157046    2.308    0.567
        26 -16.3140     18.9023    211.8328   8.8681482034e+01   2.5812703876e+01     1.843766     1.075258  51.64  0.008590254    1.551    0.355
        27 -15.5697      2.3106    217.4461   9.3288737086e+01   2.5798150982e+01     1.146102    0.4726371 -81.13   0.00536047    2.614    0.617
        28 -15.5354      6.0882    249.3532   9.3250921245e+01   1.8989609090e+01     1.899607    0.2982355  17.27  0.005500375    6.346    0.842
        29 -17.3931      8.8871    238.5705   9.2284557998e+01   2.0891452524e+01     1.956655     1.446732  23.80   0.01285638    1.176    0.150
        30 -11.4730     48.8664    249.9263   8.3250773794e+01   1.5403932311e+01    0.1901597    0.1447528 -29.00 0.0005015658    1.591    0.371
        31 -11.6015     45.9932    243.7674   8.3556695079e+01   1.6820284872e+01    0.3042395    0.1747247   4.01   0.00161067    1.899    0.474
        32 -12.0762    143.0844    241.8157   6.1198202612e+01   7.5659769740e+00    0.3599543    0.1312085  26.27  0.001744207    2.281    0.562
        33 -11.1459    125.9155    241.6109   6.4793881067e+01   9.3288694528e+00    0.2405055    0.1143661  33.53  0.001264573    1.925    0.481
        34 -11.4470    246.7881    241.2554   4.3309669045e+01  -1.3310096893e+00    0.1734148   0.09447372  20.17 0.0008865267    1.842    0.457
        35 -11.2038    198.3674    240.8924   5.0706260028e+01   2.5222646402e+00    0.1903265    0.1138934  36.70  0.001216692    2.390    0.582
        36 -11.1576    187.0195    241.2845   5.2722572676e+01   3.4683629156e+00    0.1483441    0.1055849   2.76 0.0001643687    1.100    0.091
        37 -12.1567    108.1175    240.1645   6.8568845188e+01   1.1396848550e+01    0.3174995    0.1699482  13.65  0.001178875    1.697    0.411
        38 -12.6652    103.6309    237.0287   6.9253730845e+01   1.2410612669e+01    0.2528954    0.2330148 -46.08  0.000400474    1.337    0.252
        39 -11.5720    149.4725    239.0324   5.9545978879e+01   7.3581212161e+00    0.2194142      0.13547   3.74 0.0008836805    1.449    0.310
        40 -10.8290    168.6509    236.7800   5.5487564171e+01   5.8090807850e+00     0.134918    0.1002928 -42.11  0.000317328    1.607    0.378
        41 -11.1394     79.9636    236.9187   7.4820802045e+01   1.4870436767e+01    0.2388628    0.1515172   0.98  0.001309786    1.659    0.397
        42 -11.5307    210.4848    235.5084   4.7965594421e+01   2.1771416543e+00    0.1065227   0.07534264  -9.84 6.320988e-05    1.010    0.010
        43 -11.0829    223.0050    231.9874   4.5506319447e+01   1.5732791158e+00    0.1297145   0.08683409 -18.70 0.0004963453    1.101    0.092
        44 -11.6060    182.3694    232.1485   5.2310831441e+01   5.1578005491e+00    0.2001277    0.1416546  20.64  0.001182491    1.384    0.278
        45 -11.2040    194.8244    229.3872   4.9722723339e+01   4.3730241711e+00    0.1754043    0.1045682 -27.89 0.0005721363    1.410    0.291
        46 -11.6395    178.0851    228.8676   5.2637181074e+01   6.0413522621e+00    0.1915813    0.1262996 -29.64 0.0008328911    1.361    0.265
        47 -11.2934    150.9992    230.5168   5.8125875954e+01   8.5295341787e+00     0.162995   0.08360969  41.70 0.0008101934    2.612    0.617
        48 -11.0522    139.0820    229.7333   6.0503786461e+01   9.9086991678e+00    0.1687263    0.1275296   7.54 0.0003720511    1.082    0.076
        49 -12.7275    232.5081    226.3528   4.3287912737e+01   1.4883219989e+00    0.3540771    0.1569733 -24.99  0.001895785    1.858    0.462
        50 -12.2570    233.0613    220.4576   4.2362520389e+01   2.1663115826e+00    0.2149714    0.1121164 -35.40 0.0008261914    1.613    0.380
        51 -12.0794     96.7448    228.2603   6.9915544512e+01   1.4740870387e+01    0.2701419    0.1536998  13.29  0.001397659    1.649    0.393
        52 -11.3147    120.9797    227.2952   6.4160268189e+01   1.2278465293e+01    0.1814237    0.1367949  11.74 0.0004531901    1.108    0.098
        53 -11.0465     74.1033    211.9837   7.3841769744e+01   2.0469438440e+01    0.4206278    0.2651956 -20.46  0.002075232    1.983    0.496
        54 -12.8578     77.0913    219.5460   7.3848990922e+01   1.8571197402e+01    0.5859936    0.4416161  42.25  0.003463849    1.298    0.229
        55 -12.3460     82.3356    222.1840   7.2794966643e+01   1.7473725987e+01    0.4008458    0.1478932  26.97   0.00170393    2.195    0.544
        56 -11.5609    182.1320    225.4092   5.1406759701e+01   6.1456229372e+00    0.1979954    0.1238319 -19.46 0.0006627257    1.383    0.277
        57 -11.3928    128.9816    226.1078   6.2222960382e+01   1.1610501407e+01    0.2034235    0.1269289 -14.05  0.000824487    1.717    0.418
        58 -11.0730    222.4604    225.5175   4.4674243207e+01   2.4264851510e+00    0.1047461   0.07455713 -13.30 0.0001276644    1.036    0.034
        59 -11.2425    116.5002    225.4916   6.4956495797e+01   1.3091538431e+01    0.1264948    0.1052069  12.82 2.664831e-05    1.043    0.042
        60 -12.0339     91.7315    224.6017   7.0727538240e+01   1.5980474023e+01    0.2123052    0.1747753 -51.96 0.0009331615    1.407    0.289
        61 -11.6086    211.9864    223.5471   4.6032063171e+01   3.5939629599e+00    0.1731331    0.1292468 -35.19 0.0004331704    1.515    0.340
        62 -12.5195     81.5423    225.4867   7.3331060944e+01   1.6904032064e+01    0.4365576    0.2645431 -11.89  0.002179757    2.060    0.515
        63 -12.9842     57.3253    222.1460   7.9172028685e+01   2.0082816698e+01    0.4443087    0.2959452 -39.73  0.001885286    1.767    0.434
        64 -12.3100    246.0588    221.6092   4.0689054573e+01   9.7661207813e-01    0.2612128    0.1148493 -20.56  0.001624417    2.035    0.509
        65 -12.2272    160.1728    222.5666   5.5185273279e+01   8.8236116820e+00    0.3238504    0.1883098  25.02  0.001195141    1.566    0.362
        66 -13.4793    174.2045    219.8557   5.2076427284e+01   7.7710469356e+00     0.354746    0.2154282 -34.40 0.0008860719    1.509    0.337
        67 -12.8169    124.4031    221.6004   6.2662725933e+01   1.2909528270e+01    0.3585935    0.2243275  26.27  0.002042981    1.400    0.286
        68 -13.2473    123.4393    209.6850   6.1281033853e+01   1.5201648660e+01    0.2724067    0.2347084 -45.20 0.0005057625    1.320    0.243
        69 -11.4467    122.1780    217.3710   6.2614814558e+01   1.3925999381e+01    0.1875145    0.1475472  18.25 0.0006284565    1.110    0.099
        70 -12.8503    120.3241    213.9996   6.2594166472e+01   1.4762596775e+01    0.3976905    0.1837266  38.93  0.001836308    2.229    0.551
        71 -12.0821    237.7865    220.4263   4.1677180384e+01   1.7802229769e+00    0.1762965    0.1235606 -13.05   0.00143144    1.048    0.046
        72 -11.5285    193.4115    219.8130   4.8589786365e+01   5.8422130093e+00    0.2012266   0.09709361 -44.09  0.001136718    2.164    0.538
        73 -10.4879     87.4577    220.4885   7.1334155399e+01   1.7253493188e+01    0.1310541    0.1113402  14.47 0.0004375556    1.023    0.023
        74 -12.7544    145.7222    216.4588   5.7288919142e+01   1.1404642628e+01    0.3833546    0.3152757  28.36  0.001905004    1.327    0.246
        75 -12.9180    140.1143    212.4373   5.7919903034e+01   1.2739737333e+01    0.5182952    0.2612879 -34.57  0.002074396    2.041    0.510
        76 -12.7148    142.4958    205.1071   5.6327876684e+01   1.3757280354e+01    0.3577881    0.2293233  22.59 0.0005428924    1.427    0.299
        77 -12.7815    145.7769    201.4628   5.5063957991e+01   1.4011658312e+01    0.2696299    0.2394661 -64.34  0.001067888    1.559    0.359
        78 -10.7189     94.5037    218.4241   6.9352980399e+01   1.6879182709e+01    0.1314665    0.1104721  17.43 6.157015e-05    1.017    0.017
        79 -11.1939    226.0060    216.4747   4.2824515858e+01   3.2705030079e+00    0.1543174    0.1044833 -20.82 0.0003510908    1.091    0.083
        80 -12.4539    129.9218    216.3983   6.0726630964e+01   1.3213300531e+01    0.1908465    0.1749342 -40.44 0.0005299938    1.316    0.240
        81 -11.8956    115.5959    217.2112   6.4121005863e+01   1.4711088493e+01    0.1736964    0.1090809 -37.20 0.0006210956    1.664    0.399
        82 -13.1113    108.1050    215.0898   6.5628994296e+01   1.5976986629e+01     0.357141     0.268922  63.94  0.001927552    1.905    0.475
        83 -12.2929     83.6441    214.6584   7.1657625855e+01   1.8853844794e+01    0.4702208    0.1694169  35.27  0.001867893    2.334    0.572
        84 -11.4675    156.4288    213.2605   5.4600228737e+01   1.0736889855e+01    0.2259469     0.172881  -8.75 0.0009229811    1.115    0.103
        85 -13.5746    159.3882    207.0097   5.3064486910e+01   1.1439909486e+01    0.5490955    0.3906008   4.05  0.002280551    1.274    0.215
        86 -12.0161    247.4262    212.9685   3.9256215245e+01   1.8977826193e+00     0.163676    0.1176532  -1.87 0.0004029126    1.234    0.190
        87 -11.2666    187.4487    211.5143   4.8404157480e+01   7.6496353261e+00    0.1160609    0.0895636 -10.79  6.00444e-05    1.009    0.009
        88 -13.4020    228.8675    206.3987   4.0895013792e+01   4.3167168286e+00    0.3922469    0.3007165 -33.90  0.002077179    1.455    0.313
        89 -11.1737    170.1747    210.1388   5.1405500063e+01   9.7131546236e+00    0.1460416    0.1320644  11.70 0.0004038022    1.331    0.249
        90 -10.8574     90.7652    210.0438   6.9307333025e+01   1.8993069418e+01    0.1671813    0.1603555  -6.37 0.0003292444    1.132    0.116
        91 -12.0122     59.2807    208.3048   7.7434259153e+01   2.2859520349e+01     0.231934     0.200596 -55.72  0.001406269    1.303    0.233
        92 -11.7736     51.2514    209.0546   7.9686048528e+01   2.3516433651e+01    0.2642553    0.1391654  36.73  0.001272494    1.616    0.381
        93 -12.0169    180.0172    207.7585   4.9182398207e+01   9.0091399662e+00     0.250553    0.1752305  -0.54 0.0008406024    1.270    0.213
        94 -11.9089    104.0830    206.6146   6.5519444541e+01   1.8119242097e+01    0.3106821    0.2512526  68.31  0.001636693    1.673    0.402
        95 -11.2576     72.2162    206.4975   7.3761032556e+01   2.1856946110e+01    0.2382913    0.1940046 -78.03  0.001384103    1.456    0.313
        96 -11.4402     55.6622    206.2878   7.8234899870e+01   2.3685405826e+01    0.1942239    0.1418802 -80.47 0.0002112922    1.592    0.372
        97 -11.0807     55.8323    203.3615   7.7916713124e+01   2.4327321505e+01    0.1847093     0.153992 -17.73 0.0001479612    1.326    0.246
        98 -12.3489    238.8795    204.6100   3.9191058042e+01   3.6507341084e+00      0.18913    0.1329082 -15.47  0.000327075    1.042    0.040
        99 -12.6336    111.1280    203.6894   6.3386403961e+01   1.7849893119e+01      0.30466    0.2019986  35.72 0.0005865606    1.458    0.314
       100 -12.3702     61.8133    177.1704   7.3357200409e+01   2.9864710528e+01    0.3456411    0.2333387  13.42  0.001133275    1.521    0.343
       101 -10.5859     79.6711    194.7505   7.0381691443e+01   2.3590064165e+01    0.4267831    0.3371696 -21.05  0.002355154    1.378    0.274
       102 -11.7895     65.1629    182.2656   7.2978319715e+01   2.8227876825e+01    0.4977919    0.2841031 -58.95  0.002297968    1.834    0.455
       103 -12.0593     84.9212    199.7470   6.9580048229e+01   2.1858707680e+01     0.513949    0.2790304  61.61  0.002070806    2.999    0.667
       104 -11.6997     75.2089    179.2249   6.9635956872e+01   2.7727079866e+01    0.4657281    0.2438693 -61.93  0.001505584    2.038    0.509
       105 -11.4931     91.1460    188.8985   6.6482713683e+01   2.3473464626e+01    0.2790026    0.1971823 -44.71 0.0009815386    1.488    0.328
       106 -12.4434     90.5759    200.7880   6.8215012058e+01   2.0955460637e+01    0.7045887    0.2794515 -39.42  0.002631756    3.238    0.691
       107 -12.3143     93.0865    193.1829   6.6550873370e+01   2.2285694876e+01    0.5189848    0.2862505  29.08  0.002178299    1.621    0.383
       108 -12.3789     76.0523    186.1597   7.0307691912e+01   2.5990679429e+01    0.4273157    0.3303672 -56.13   0.00230672    1.388    0.280
       109 -12.4880    176.5086    200.4813   4.8702365122e+01   1.0544339865e+01    0.3408162    0.1416282 -32.19  0.001599218    2.414    0.586
       110 -13.3722    173.0828    195.6304   4.8577014955e+01   1.1728131870e+01    0.3024618    0.2950237  41.64 0.0004628305    1.507    0.337
       111 -11.6786    212.4887    199.9708   4.2399904114e+01   6.7537991785e+00    0.1712587     0.149378  21.46 0.0007889731    1.534    0.348
       112 -11.3358    181.0382    199.4571   4.7695990261e+01   1.0192990108e+01     0.172234    0.1057214  22.30  0.001027966    1.591    0.371
       113 -11.9107    219.3236    198.0875   4.1042220118e+01   6.3340128214e+00    0.1507757    0.1066526 -24.81  0.000345624    1.107    0.097
       114 -12.4878    201.5773    196.5004   4.3621384729e+01   8.3841441427e+00    0.2751686    0.1823104 -13.67 -0.0007424296    1.327    0.247
       115 -13.0835    121.8797    196.6434   5.9767916224e+01   1.7902245006e+01    0.3225581    0.2427908   0.05   0.00182946    1.304    0.233
       116 -12.8123    110.5735    196.1147   6.2453930261e+01   1.9449288543e+01    0.3272189    0.2331377  -8.55 0.0002725846    1.520    0.342
       117 -12.2974    192.0495    195.3125   4.5055363893e+01   9.6016996602e+00    0.3529153      0.25319  -0.30  0.002356406    1.269    0.212
       118 -11.1688    189.0691    192.2669   4.5084316471e+01   1.0408178724e+01    0.1823742    0.1422112 -33.95 0.0003363185    1.262    0.208
       119 -12.0355    153.3288    195.3046   5.2489835121e+01   1.4178542060e+01    0.2069313    0.1612071  17.63  0.000512367    1.203    0.169
       120 -11.0599    138.3001    197.3064   5.6066434233e+01   1.5694228098e+01    0.1335908   0.08943412 -12.91 0.0002225004    1.594    0.373
       121 -11.7371     69.0304    187.1631   7.2444135866e+01   2.6603925942e+01    0.9541236    0.1618691  36.25  0.001619636    4.131    0.758
       122 -11.8505    162.3687    192.5962   5.0190454797e+01   1.3532637106e+01    0.2373061     0.108927  34.12  0.001146595    2.204    0.546
       123 -12.8408    133.3547    190.5835   5.6133784717e+01   1.7601973927e+01    0.3303229    0.2185439 -14.51  0.001710524    1.689    0.408
       124 -12.5828     50.6822    190.0459   7.8106119702e+01   2.7976837439e+01    0.3813901    0.2377929   8.17  0.001116644    1.732    0.423
       125 -12.2043    136.1414    199.7236   5.6922197896e+01   1.5514900740e+01    0.3815837    0.2641836  87.48  0.001481536    3.531    0.717
       126 -11.7761     30.7966    190.2519   8.4002158568e+01   2.9874861606e+01    0.4363233    0.2045898 -25.04  0.001551226    3.638    0.725
       127 -11.6456     43.2216    186.8195   8.0010858118e+01   2.9528932323e+01    0.4650451    0.1543102  39.97  0.001712229    2.581    0.613
       128 -12.3671     38.8875    181.5143   8.0840194788e+01   3.1273413863e+01    0.3821937    0.2250939  29.99  0.001426172    1.506    0.336
       129 -12.9747     37.4678    177.9970   8.0958969742e+01   3.2297751024e+01    0.8706052    0.2394817  21.64  0.002826865    3.293    0.696
       130 -11.4506     36.4990    185.9749   8.1957596041e+01   3.0396236129e+01    0.2985949    0.1986337  16.04  0.000426358    1.472    0.321
       131 -12.3042     33.5032    184.4395   8.2737850820e+01   3.1059139714e+01    0.3098781    0.2334917 -87.97  0.001076209    1.414    0.293
       132 -10.8419    167.9664    189.4848   4.8563568677e+01   1.3373774564e+01    0.1755612    0.1136253  26.78 0.0006400177    1.536    0.349
       133 -12.6730    110.2521    187.9509   6.1324548738e+01   2.1185991211e+01    0.2701067    0.2216434  68.18  0.001169444    1.624    0.384
       134 -11.0736     97.1282    188.7022   6.4850041705e+01   2.2747053246e+01    0.1892524    0.1693912  -5.02  0.001106642    1.083    0.077
       135 -11.0136    206.4829    188.4749   4.1516442144e+01   9.0360841027e+00    0.1150162   0.08898699 -18.15 6.631348e-07    1.019    0.018
       136 -13.8352    118.2906    179.7300   5.7995121116e+01   2.1820876642e+01    0.5900486    0.3384641  48.11  0.001762908    2.154    0.536
       137 -13.0124    127.5060    185.9742   5.6764272628e+01   1.9282763979e+01     0.285727    0.2375822   5.56  0.001163142    1.110    0.099
       138 -13.3875    122.9272    185.9941   5.7868027481e+01   1.9895083545e+01    0.3917676     0.253038  18.17  0.001271294    1.529    0.346
       139 -11.6223    247.5918    185.8831   3.5135697729e+01   5.2443167868e+00    0.1660795    0.1142072  -2.89 0.0007642272    1.374    0.272
       140 -11.8060    163.9867    185.4751   4.8682886044e+01   1.4564445022e+01    0.2258808    0.1682124 -36.55  0.001376683    1.268    0.211
       141 -12.6622    157.2988    185.3022   5.0018023615e+01   1.5455819834e+01    0.3103544     0.185537 -23.63  0.001601162    1.776    0.437
       142 -11.0465    239.2219    185.3620   3.6163093597e+01   6.1023129232e+00     0.115022   0.09391946  23.67 0.0002733166    1.583    0.368
       143 -12.5976     94.1370    183.2253   6.4860434986e+01   2.4350146752e+01    0.6287313    0.2901576 -62.12  0.002569764    2.504    0.601
       144 -12.2470     89.6529    181.9651   6.5909014472e+01   2.5225722422e+01    0.4035637    0.2990055 -82.15  0.002044094    1.743    0.426
       145 -11.7321    201.8580    182.6489   4.1303580863e+01   1.0423747862e+01    0.1903335    0.1279104 -23.99 0.0004454749    1.233    0.189
       146 -11.7761    167.5865    182.6594   4.7488633884e+01   1.4592889966e+01    0.2475529     0.104585 -39.68  0.001137085    2.175    0.540
       147 -12.3810     48.9072    182.2463   7.7850523764e+01   3.0064376670e+01    0.4106281     0.372354  -3.06  0.001880833    1.162    0.139
       148 -10.9088    210.2859    182.6893   3.9954233375e+01   9.4685653473e+00   0.09858453   0.08491948 -46.68 0.0002380675    1.575    0.365
       149 -12.0441    151.4597    181.9588   5.0680455300e+01   1.6832471605e+01    0.2470154    0.1654706   5.50 0.0007533157    1.623    0.384
       150 -12.4364    142.2689    181.2059   5.2562411418e+01   1.8214449585e+01    0.2314052    0.2043964  16.05 0.0003600364    1.124    0.110
       151 -12.6062    136.4512    181.2883   5.3896049087e+01   1.8993479945e+01    0.2345314    0.1746929  32.89 0.0006211391    1.354    0.261
       152 -12.3680    137.7191    177.2280   5.2911474257e+01   1.9613728070e+01    0.2488319    0.2223284  32.36 0.0004926667    1.224    0.183
       153 -11.1483    221.6460    180.2961   3.7826087962e+01   8.5775061297e+00   0.09524232   0.08463636 -51.47 0.0007033728    1.691    0.409
       154 -11.3393    198.1131    180.1789   4.1507811309e+01   1.1236376069e+01    0.1727013    0.1279934 -16.36 0.0002854053    1.140    0.123
       155 -11.1237    246.4819    179.5051   3.4271206788e+01   6.1681124745e+00    0.1059509   0.07465199 -23.45 -3.370303e-06    1.002    0.002
       156 -12.9611    122.5066    167.7838   5.4894507611e+01   2.3734249206e+01    0.3478034    0.2484967  29.51  0.001115561    1.361    0.265
       157 -13.4010    132.8161    174.1785   5.3522052478e+01   2.0913079348e+01    0.6413897    0.3157607 -20.00  0.002095446    4.300    0.767
       158 -12.6056    127.1762    167.3107   5.3656498639e+01   2.3141349466e+01    0.3491791    0.1936111 -43.87  0.001255854    1.771    0.435
       159 -13.1329    131.0963    169.1497   5.3040305797e+01   2.2183055182e+01    0.4175251    0.2372855  24.86  0.001737311    1.825    0.452
       160 -13.4336    127.1571    176.2300   5.5227472395e+01   2.1301197124e+01    0.4281953    0.2911259 -11.93  0.001716626    1.730    0.422
       161 -12.9467    125.6475    171.9686   5.4857388118e+01   2.2396238241e+01    0.3067254     0.274323 -30.50 0.0004252243    1.102    0.092
       162 -11.3845     54.0863    177.6424   7.5771149699e+01   3.0639274704e+01    0.3318761    0.1315419  34.74 0.0007819424    2.163    0.538
       163 -12.2052    225.1761    176.2578   3.6642122859e+01   8.7684827520e+00     0.317487    0.1670492  28.94  0.001964739    2.195    0.544
       164 -14.1746    148.8527    175.1539   5.0061602788e+01   1.8459157264e+01    0.7282456    0.3859743  47.13  0.002088047    2.522    0.603
       165 -13.1487    105.8732    176.0214   6.0589174772e+01   2.4353189825e+01    0.3437091    0.2420048  24.65 0.0009580347    1.348    0.258
       166 -12.4814    205.0005    174.5686   3.9419123549e+01   1.1285207194e+01    0.3395301    0.2101399 -59.50  0.001719402    3.073    0.675
       167 -11.7675    247.8643    176.0820   3.3547029637e+01   6.4778945246e+00     0.151252    0.1107196 -31.95 0.0002617649    1.221    0.181
       168 -11.6568    242.2816    175.5527   3.4180869002e+01   7.0953221348e+00    0.1534919   0.09991242  31.91  0.001115736    1.913    0.477
       169 -11.7933    173.1766    173.5107   4.4808021012e+01   1.5444494791e+01    0.2329524     0.157027 -31.65 0.0002675253    1.318    0.241
       170 -11.5932    173.5368    169.5138   4.4023167610e+01   1.6086982194e+01    0.2490002    0.1417415 -38.79  0.001207396    1.572    0.364
       171 -11.0099    176.3316    167.6834   4.3164581541e+01   1.6025093066e+01    0.1672638    0.1519617  -4.09 0.0006670089    1.138    0.121
       172 -13.5675     91.0193    171.9326   6.4013531221e+01   2.7352773840e+01    0.5207824    0.4052476 -24.00  0.001559365    1.403    0.287
       173 -12.0326     79.4159    172.7333   6.7490104926e+01   2.8734913589e+01    0.4213101    0.2181307  45.43  0.001750555    2.031    0.508
       174 -11.1507     28.8710    173.4872   8.3280859872e+01   3.4259078487e+01    0.2134211     0.132162  22.13 0.0005832771    1.524    0.344
       175 -12.7191    100.0883    171.2218   6.1367816334e+01   2.6243582621e+01    0.2566863    0.2311019 -30.64 0.0007437186    1.122    0.109
       176 -10.7961     73.2410    171.7813   6.9190421474e+01   2.9771897226e+01      0.19192    0.1603956 -16.78 0.0001948104    1.298    0.229
       177 -11.4754     42.6129    172.3075   7.8780199967e+01   3.3228940475e+01    0.3859182    0.1524414  33.30  0.001494579    2.156    0.536
       178 -11.8103    197.7292    170.3232   3.9866132834e+01   1.2819385358e+01    0.2057609    0.1410418 -29.10 0.0008671868    1.208    0.172
       179 -11.6721    191.7651    171.6196   4.1102354021e+01   1.3357362248e+01    0.1513743    0.1110785  38.89 0.0009501323    1.664    0.399
       180 -12.4011    160.0254    168.9940   4.6596883487e+01   1.8041988977e+01    0.2031572    0.1747121 -16.19 0.0005152748    1.017    0.016
       181 -12.7950    156.9310    165.5879   4.6611164984e+01   1.9110720569e+01    0.2541464      0.22716  13.47 0.0003900307    1.135    0.119
       182 -13.3381    153.1072    170.2396   4.8268120539e+01   1.8787381183e+01    0.3968415    0.2550636 -39.54 0.0009156207    1.456    0.313
       183 -12.6418    151.4793    165.4841   4.7745502981e+01   1.9919967999e+01    0.2438809    0.2074174   7.07  0.000754117    1.136    0.120
       184 -12.0515     61.6367    170.9347   7.2623645570e+01   3.1433675214e+01    0.4326108    0.2066848  22.43  0.001736897    2.038    0.509
       185 -11.8497    110.1096    170.0835   5.8479954441e+01   2.5057383155e+01    0.2091601    0.1766291 -15.43 0.0002843543    1.199    0.166
       186 -12.6574     47.3639    161.8743   7.6065018424e+01   3.5421420648e+01    0.3030134    0.1808365  41.96  0.001357342    1.588    0.370
       187 -12.6646     53.6725    167.3260   7.4678119562e+01   3.3291581392e+01    0.3952808     0.284711  76.60  0.001917597    1.600    0.375
       188 -12.3083     50.4708    165.4765   7.5483388807e+01   3.4134532432e+01    0.3478307    0.2118705 -76.72  0.001187954    1.808    0.447
       189 -12.2012     72.0848    167.1055   6.8870771424e+01   3.1070890752e+01    0.2948602    0.2109201 -70.81 0.0007078262    1.548    0.354
       190 -11.7423     40.8773    167.4480   7.8830201624e+01   3.4663650927e+01    0.3664219     0.151308 -66.11  0.001416691    2.399    0.583
       191 -12.1359     31.1953    167.5591   8.2010943058e+01   3.5587003440e+01    0.2751079    0.2194554  55.57 0.0003647046    1.209    0.173
       192 -12.5424    212.3094    163.8886   3.6421306374e+01   1.2026729403e+01    0.2342913    0.1706816 -39.66 0.0003740333    1.293    0.227
       193 -12.7623    201.5348    165.8746   3.8455814429e+01   1.3043244051e+01    0.3226935    0.1948275  43.77 0.0006356281    2.158    0.537
       194 -11.9953    170.6356    165.0113   4.3756675904e+01   1.7272169866e+01    0.2255635    0.1827849  50.18  0.001063396    1.628    0.386
       195 -12.7406    170.1514    159.8394   4.2885474416e+01   1.8256627659e+01    0.3138514     0.215243 -39.71  0.001386984    1.324    0.245
       196 -12.9945    111.1075    164.4808   5.7239707382e+01   2.6149197140e+01    0.3923875    0.2643304 -17.13  0.001816981    1.856    0.461
       197 -14.7079     83.0117    159.4941   6.4354714854e+01   3.1449830106e+01     1.220064     0.537871  58.77  0.003203072    5.614    0.822
       198 -14.5687     77.5285    153.9547   6.5121116573e+01   3.3603466101e+01    0.5873954    0.5613106 -63.97  0.003273109    1.094    0.086
       199 -12.7798     57.2164    163.7989   7.3088082323e+01   3.3777593506e+01    0.3952546    0.2606497 -73.72  0.001845448    1.652    0.395
       200 -10.2535     45.3125    165.2949   7.7143492463e+01   3.4754206842e+01    0.1481702    0.1081917 -28.21 0.0004534468    1.596    0.373
       201 -13.3176     38.9411    161.7016   7.8853441538e+01   3.6370158813e+01    0.6071964    0.3705992 -20.69  0.002586117    2.158    0.537
       202 -13.2954     31.6005    156.9386   8.0849084299e+01   3.8366877959e+01    0.6916432    0.4131619  57.84  0.003082974    1.758    0.431
       203 -11.7089     25.2906    153.8964   8.2749337627e+01   3.9765865894e+01    0.2848662    0.2075625  43.48 0.0004908041    1.297    0.229
       204 -12.8813     64.1340    163.7318   7.0866537941e+01   3.2940033449e+01    0.2908329    0.2327247 -84.35  0.001486533    1.394    0.282
       205 -11.3069      1.2499    163.7290   9.1641107674e+01   3.8895319283e+01    0.1734011    0.1069776 -87.17 0.0008383864    1.592    0.372
       206 -12.7484      4.3029    160.2082   9.0452543371e+01   3.9640445232e+01    0.4059289    0.3366556  25.32  0.001412282    1.187    0.158
       207 -11.0329    229.7807    161.8104   3.3554877037e+01   1.0293719878e+01    0.1386341    0.1122257 -38.56 0.0004619298    1.317    0.241
       208 -11.1751    186.1366    162.1822   4.0381051522e+01   1.5632725007e+01    0.1523255    0.1349648 -40.21 0.0003190311    1.261    0.207
       209 -12.3380     24.6179    161.2164   8.3641520158e+01   3.7855967957e+01    0.4956585    0.2039029  33.00  0.001965585    2.106    0.525
       210 -12.1208    146.0437    158.0118   4.7521779696e+01   2.2176056461e+01    0.2880161    0.1926072 -53.56  0.000419429    1.631    0.387
       211 -12.5623     95.5665    158.9683   6.0557711310e+01   2.9740093734e+01    0.3248383    0.2506465 -14.70 0.0008560382    1.479    0.324
       212 -12.9157     84.2696    149.7775   6.2292131675e+01   3.3655207002e+01    0.3625731    0.2894345 -40.11 0.0004603332    1.303    0.233
       213 -14.0551    119.9774    157.5667   5.3657805511e+01   2.6311653412e+01    0.5687311    0.3825779  17.82  0.002738368    1.636    0.389
       214 -11.7553    105.6456    158.9936   5.7727461219e+01   2.8210154475e+01    0.2542283    0.1990173  57.32 0.0007993489    1.513    0.339
       215 -10.6211    231.4668    158.0071   3.2673078333e+01   1.0637119724e+01    0.1598456    0.0751955 -22.62 0.0008079924    2.451    0.592
       216 -12.1926    190.7805    155.5375   3.8348030033e+01   1.6102055297e+01    0.2312458     0.176283 -47.48 0.0008540458    1.393    0.282
       217 -13.4041     62.5389    152.6991   6.9764494164e+01   3.5978730367e+01    0.3886728     0.304938 -64.17   0.00131329    1.319    0.242
       218 -11.4052    141.7497    155.6196   4.8022741625e+01   2.3313046096e+01    0.1833148    0.1264025  43.04 0.0005527649    1.588    0.370
       219 -12.5036     20.5664    154.5486   8.4466715050e+01   3.9990196757e+01    0.2823738    0.2443707   8.58  0.001047562    1.211    0.174
       220 -11.8906      1.7962    152.5466   9.0913216762e+01   4.1846071905e+01    0.4538915    0.2354953  70.52  0.001982796    1.939    0.484
       221 -12.3378      5.0737    150.1483   8.9624492999e+01   4.2299906363e+01    0.4032295     0.242882  83.00  0.001890735    1.652    0.395
       222 -11.6051    224.6374    152.2169   3.2581194576e+01   1.2259969036e+01    0.2109189    0.1145028 -31.14 0.0008128925    1.493    0.330
       223 -11.7333    212.0823    153.3031   3.4562607710e+01   1.3649737147e+01    0.1576207     0.133959 -21.40 0.0004553968    1.099    0.090
       224 -13.0840    172.4054    151.8149   4.0919696687e+01   1.9353911433e+01    0.3031196    0.2131027 -56.60  0.001661993    1.726    0.421
       225 -13.6708     52.2648    151.5029   7.3056432845e+01   3.7586985187e+01    0.6128188    0.3798899 -30.19 0.0009172045    2.023    0.506
       226 -12.4850     57.8821    143.8369   6.9963212178e+01   3.8915846726e+01    0.3147145    0.2114088 -29.72 0.0009262644    1.798    0.444
       227 -12.2508     12.1051    149.8850   8.7096877103e+01   4.1905832306e+01    0.3016334    0.1791682 -59.13 0.0008656029    1.698    0.411
       228 -12.1167     44.0457    152.2937   7.6000700465e+01   3.8329826411e+01    0.2121866     0.185857  35.74 0.0004371675    1.089    0.082
       229 -10.5405    249.0458    151.7547   2.9397104226e+01   9.5446530710e+00     0.103323   0.08776759  19.48  0.000283589    1.480    0.324
       230 -12.4543    167.9909    150.7315   4.1550897896e+01   2.0207613554e+01    0.2342208    0.1777905 -58.79  0.001318438    1.612    0.380
       231 -14.2539     84.2414    144.7624   6.1380445518e+01   3.4901904570e+01    0.7408544    0.3880489  29.37  0.003007291    1.888    0.470
       232 -12.3662    108.6256    149.1431   5.5049928078e+01   2.9992131605e+01    0.3319074    0.2700808 -52.64 0.0008821828    1.258    0.205
       233 -12.2546     95.8713    149.5958   5.8761835315e+01   3.1917046868e+01    0.2616469     0.197124 -41.97 0.0009203649    1.358    0.264
       234 -11.7886     20.5673    149.6192   8.4036141748e+01   4.1331845135e+01    0.3207208    0.2264833 -33.50  0.001174949    1.613    0.380
       235 -11.7490    146.9533    148.7799   4.5505647131e+01   2.3850363270e+01    0.2285097    0.1826981 -37.67 0.0003351382    1.170    0.146
       236 -12.4467    124.9989    148.4686   5.0609550189e+01   2.7476320250e+01    0.3615572    0.2162284  53.21  0.001062467    2.171    0.539
       237 -13.2950    120.8069    144.3058   5.0831289405e+01   2.9072512881e+01    0.5317519    0.3328717  27.06  0.001324742    1.717    0.417
       238 -13.6186     17.2304    141.6689   8.4545687343e+01   4.3786859176e+01     1.027068    0.2158279  20.98  0.003008474    3.963    0.748
       239 -13.7460     12.0567    133.6709   8.5817467287e+01   4.6393588676e+01    0.8252243    0.3645123  53.56  0.003145876    2.392    0.582
       240 -13.3328     26.7041    146.7581   8.1537167871e+01   4.1586878241e+01    0.7292249    0.3918611 -85.69  0.003038735    2.014    0.503
       241 -12.0583     32.5141    147.6876   7.9530958021e+01   4.0784904551e+01    0.2649785    0.2390483 -26.66 0.0006324427    1.199    0.166
       242 -13.0404     41.8803    146.7499   7.6048257320e+01   4.0064159576e+01    0.4125481    0.2390275 -56.57   0.00179538    1.726    0.421
       243 -13.1580    133.7783    151.1013   4.8988626563e+01   2.5495819122e+01    0.3353998    0.2924489  82.42  0.001510319    1.507    0.337
       244 -11.0680    229.0023    145.2847   3.0761902503e+01   1.2726687225e+01    0.1468079     0.120947 -24.47  0.000334569    1.099    0.090
       245 -11.7559     88.7912    153.3018   6.1545409292e+01   3.2112255949e+01    0.2457654    0.1814446  45.71 0.0007708867    1.391    0.281
       246 -13.0724    102.2852    143.0580   5.5624573068e+01   3.2433598231e+01    0.6163101    0.4012072  68.87  0.002499374    2.449    0.592
       247 -12.9812     70.5095    143.3741   6.5574270939e+01   3.7301445867e+01     0.319115    0.2753303  68.75 0.0001432881    1.257    0.204
       248 -12.1716    210.1455    142.8582   3.2919534297e+01   1.5493153863e+01    0.2521742    0.1618042  64.84   0.00133237    3.073    0.675
       249 -11.2850    194.9476    143.5459   3.5380042614e+01   1.7482117970e+01     0.159367    0.1209983  36.16 0.0004588109    1.528    0.345
       250 -11.9987    187.2990    143.1471   3.6564117880e+01   1.8652296521e+01    0.1861076     0.158898  -0.38 0.0002993294    1.209    0.173
       251 -12.4727     51.3480    142.3560   7.2038077982e+01   4.0143218434e+01    0.3839085    0.1933071  39.17 0.0008145575    1.883    0.469
       252 -10.9436    223.9829    142.5098   3.0923757960e+01   1.3747506163e+01    0.1354896     0.111753  28.64 8.070254e-06    1.478    0.324
       253 -11.5763    178.1688    142.3904   3.8002646600e+01   2.0144842538e+01    0.1993487    0.1641926  45.06 0.0007491093    1.441    0.306
       254 -12.9738     94.4737    140.6213   5.7431302815e+01   3.4292798309e+01    0.4213536    0.3204052 -22.94  0.001404357    1.530    0.346
       255 -11.0359      2.4909    142.4939   9.0105936186e+01   4.4546779974e+01    0.1420039    0.1317243  66.75 9.846971e-05    1.007    0.007
       256 -12.3128    128.3413    141.1089   4.8265754498e+01   2.8494178090e+01     0.233674    0.1944736  11.74 0.0003554948    1.284    0.221
       257 -13.0476     40.3117    140.1946   7.5740814522e+01   4.2023827987e+01    0.3868292    0.2672732 -33.15  0.001490782    1.663    0.399
       258 -12.5219     36.6628    134.7166   7.6359792790e+01   4.3927764887e+01    0.2274702    0.1958856  27.43 0.0005589419    1.145    0.127
       259 -13.3164     34.8768    131.8004   7.6645103756e+01   4.4924706949e+01    0.5496699    0.3020679   3.48  0.001708677    2.285    0.562
       260 -12.5217     31.9817    141.0263   7.8946645738e+01   4.2665717523e+01    0.4886826     0.116559  35.74  0.001487356    3.335    0.700
       261 -11.1470    232.9649    136.7559   2.8724744725e+01   1.3448454546e+01    0.1464736    0.1202208 -28.49 0.0003035051    1.097    0.088
       262 -12.1395    119.8580    135.7144   4.9268550876e+01   3.1120039620e+01    0.3718222    0.2007938 -65.06  0.001388334    2.757    0.637
       263 -10.8787    109.4794    137.5085   5.2445914843e+01   3.2511459183e+01    0.1482812    0.1411862 -11.77 0.0001665146    1.039    0.038
       264 -14.1159     48.3923    129.7831   7.1120204214e+01   4.3919237353e+01    0.7734272    0.3894152  18.18  0.002733273    2.188    0.543
       265 -12.8091     46.0811    136.0238   7.2991801060e+01   4.2500526232e+01    0.3024667    0.2478359  55.94 0.0005284621    1.242    0.195
       266 -11.3598    171.2999    136.3494   3.8026755636e+01   2.2280561151e+01    0.1352721   0.09559539 -13.19 0.0007037423    1.689    0.408
       267 -11.6042     90.0438    135.9929   5.7847433504e+01   3.6142343800e+01    0.2688521    0.2131543  48.77 0.0004235172    1.308    0.236
       268 -13.5430     84.9436    134.5906   5.9170852922e+01   3.7320840495e+01    0.5112526    0.3432489 -46.49  0.002324422    1.519    0.342
       269 -13.5268    102.0583    134.1682   5.3845439078e+01   3.4558755460e+01    0.6745248    0.2930117  25.46  0.002221619    3.159    0.683
       270 -11.1523    209.8391    133.9053   3.1264011533e+01   1.6907270868e+01    0.1581602    0.1229651 -47.61 0.0004830121    1.296    0.229
       271 -11.3563    128.4686    133.5019   4.6603361875e+01   3.0089754111e+01       0.1438    0.1360209 -22.59 0.0005433157    1.018    0.017
       272 -11.7544    114.5065    133.4764   5.0202227455e+01   3.2553045209e+01    0.1464715    0.1416474 -15.15 0.0001369584    1.010    0.010
       273 -11.3476     19.6811    131.6255   8.2609950463e+01   4.6391372998e+01    0.2410115     0.159273 -36.08  0.001097622    1.685    0.406
       274 -11.4132    230.1573    130.6540   2.7959226553e+01   1.4665058396e+01    0.1827092     0.119333 -41.19 0.0004217145    1.255    0.203
       275 -12.7761     35.5296    128.0791   7.5857251938e+01   4.5888696643e+01    0.3445805    0.2797417  72.73 0.0006664713    1.292    0.226
       276 -11.9521     94.0264    128.7645   5.5081756313e+01   3.7228239647e+01     0.315921    0.1949322 -52.91  0.001374931    1.625    0.385
       277 -13.2118     64.9528    128.1555   6.4680578147e+01   4.2084028397e+01    0.4075671    0.3033612  80.56  0.000788055    1.642    0.391
       278 -13.5485     58.9858    125.3386   6.6321733147e+01   4.3697565202e+01     0.483979    0.2765547  21.87  0.001593149    1.866    0.464
       279 -13.6881     57.4549    133.7701   6.8432747202e+01   4.1656619119e+01    0.6419459    0.2779468  39.17  0.001853185    2.194    0.544
       280 -14.9980     77.3462    119.4418   5.8462607321e+01   4.2377137592e+01      1.06298    0.7499188  80.27    0.0045329    1.964    0.491
       281 -13.2097     75.2515    125.0174   6.0405233592e+01   4.1304570841e+01    0.4191346    0.3198927  16.99  0.001201762    1.430    0.301
       282 -12.8376     83.6129    127.2252   5.8060394110e+01   3.9374666165e+01    0.3588057    0.2292406 -49.60 0.0009870061    1.572    0.364
       283 -13.2097     80.1846    127.2354   5.9198840935e+01   3.9939279809e+01    0.4436042    0.3073137  73.79  0.001377687    1.998    0.500
       284 -10.7276    130.5060    128.4944   4.4993455053e+01   3.0784673473e+01    0.1428547    0.1370333 -32.50 8.238564e-05    1.014    0.014
       285 -12.0130    124.1764    125.5957   4.5905014708e+01   3.2548925489e+01    0.5695109    0.3431531   2.81  0.001890737    3.931    0.746
       286 -13.0924     26.5031    125.1500   7.9088989655e+01   4.7611888852e+01    0.4335301    0.3931246  -8.02  0.001997186    1.171    0.146
       287 -11.7344    189.9067    121.5039   3.1758249193e+01   2.1850830840e+01    0.2126359    0.1235654  41.05  0.001135285    2.035    0.509
       288 -11.8133      5.2453    124.0180   8.7748072970e+01   4.9533077905e+01    0.3597351    0.1513147  79.50   0.00128635    2.726    0.633
       289 -13.2700     20.7788    122.9737   8.1178494545e+01   4.8730395076e+01    0.3632077    0.3003396  -3.93 0.0006174895    1.306    0.234
       290 -12.5896     23.0108    116.8858   7.9450340886e+01   5.0250723267e+01    0.5161168    0.2639228 -50.23  0.002100764    1.950    0.487
       291 -13.1946     18.1572    114.2601   8.1218113074e+01   5.1399624399e+01    0.5088399    0.3408253  26.33  0.001248231    1.478    0.324
       292 -11.5675    194.8376    122.7950   3.1264498713e+01   2.0864750690e+01    0.1647131    0.1325931 -54.26 0.0003539942    1.311    0.237
       293 -12.3929     63.7033    122.3372   6.3974256612e+01   4.3802361594e+01    0.2964501    0.2303893  85.88 0.0005868709    1.514    0.340
       294 -12.1141    186.2945    124.1805   3.2891964976e+01   2.1984199762e+01    0.2337383    0.1586418 -37.81 0.0009754383    1.262    0.207
       295 -13.6204    104.4088    120.8952   5.0180286095e+01   3.7232556935e+01    0.7260634    0.3421555  50.41  0.001995216    2.516    0.602
       296 -11.4292    224.0899    120.3220   2.6769883966e+01   1.6952192877e+01    0.1485611     0.128629 -37.29 0.0004458579    1.133    0.118
       297 -13.1014     64.3198    118.6838   6.2983723513e+01   4.4668685736e+01     0.312475    0.2382211 -65.66  0.001029935    1.357    0.263
       298 -12.0876    169.5184    125.9833   3.6169239216e+01   2.4426641391e+01    0.2241386    0.1798396  16.36 0.0003710066    1.459    0.315
       299 -13.0307     14.4839    118.6854   8.3342287611e+01   5.0433202942e+01    0.3160369    0.2404434  64.14  0.001581501    1.344    0.256
       300 -11.2945    200.3170    121.3222   3.0149330776e+01   2.0255268922e+01    0.1216298   0.08811504 -10.81 0.0004774009    1.665    0.399
       301 -12.7993     57.3152    117.9200   6.5485145229e+01   4.5917057904e+01    0.2209589    0.2017062 -49.15 0.0008484018    1.112    0.101
       302 -11.8225      9.1708    117.4096   8.5497321706e+01   5.1156255257e+01    0.2594294    0.1782943  27.09 0.0009695066    1.450    0.310
       303 -11.6430    241.7377    115.9912   2.3930832910e+01   1.5206848290e+01     0.157836    0.1366343 -33.44 0.0004054544    1.172    0.147
       304 -11.5543    196.9189    115.6202   2.9473167726e+01   2.1686109049e+01     0.158683    0.1527892 -32.47 0.0009179902    1.161    0.139
       305 -11.2179     29.1865    116.3367   7.6717323237e+01   4.9822294585e+01    0.2006663    0.1806954  26.38 0.0004589673    1.115    0.103
       306 -10.2494    221.2944    115.3243   2.6151146483e+01   1.8066397874e+01    0.1127771   0.08013419 -14.73 0.0002572822    1.620    0.383
       307 -12.9131    115.7207    113.4248   4.5213933593e+01   3.6773308281e+01    0.4131556    0.3018655  -0.17  0.001844075    2.004    0.501
       308 -11.8690    113.6122    109.0808   4.4695950494e+01   3.8129108992e+01    0.2478579    0.1995237  54.25 0.0005520377    1.305    0.234
       309 -13.3235     83.2760    111.2973   5.4513771831e+01   4.3374021704e+01    0.5802752    0.2878876 -52.08 0.0006248528    2.007    0.502
       310 -12.3635     89.8218    111.0130   5.2270222100e+01   4.2249300370e+01    0.3321241    0.2228829  31.26  0.001473816    1.564    0.361
       311 -12.6141    104.5012    113.9972   4.8492509574e+01   3.8795887300e+01    0.3081328    0.2257629  46.94 0.0009416813    1.392    0.282
       312 -12.8167    108.6963    111.5519   4.6681095594e+01   3.8543009825e+01    0.3516963    0.2882753 -76.93    0.0007924    1.423    0.297
       313 -13.1190     61.6312    108.2910   6.1704924148e+01   4.7804266315e+01    0.8423862    0.4483912 -80.99  0.002143722    3.202    0.688
       314 -12.5112     63.9603    105.3494   6.0098444128e+01   4.8192083327e+01    0.2919026    0.2721317 -38.40 0.0006110416    1.103    0.094
       315 -10.6375    229.4676    112.4376   2.4626735590e+01   1.7332216009e+01    0.1142423   0.08732364 -39.40 3.312484e-05    1.048    0.045
       316 -12.5176     11.8180    112.0722   8.3768780652e+01   5.2487173932e+01    0.2376368    0.1904273  63.15 0.0009696475    1.272    0.214
       317 -12.0598     53.1576    110.2500   6.5526350283e+01   4.8564759588e+01    0.3099979    0.2442584  23.11 0.0008896126    1.292    0.226
       318 -12.1848    217.9064    109.9259   2.5507690818e+01   1.9341792469e+01    0.1937294    0.1689516  74.17 0.0006854373    1.499    0.333
       319 -11.5912    210.0483    108.5964   2.6227817361e+01   2.0719847394e+01    0.2332467    0.1338665 -48.08 0.0007675957    1.571    0.364
       320 -13.0755      3.0665    106.8754   8.7211554724e+01   5.4475070630e+01    0.3417843    0.2930046 -53.51 0.0008573461    1.144    0.126
       321 -10.9149    237.0568    108.4506   2.3034105368e+01   1.6846493850e+01    0.1299847    0.1112314  46.43 0.0007262393    1.549    0.354
       322 -11.3348    121.8195    108.0921   4.2286906397e+01   3.6722225466e+01    0.2206994    0.1939137 -71.39 0.0005423063    1.220    0.180
       323 -12.3518    159.1721    106.7232   3.3750657217e+01   2.9735293325e+01    0.2954468    0.2126114  78.90   0.00148679    1.962    0.490
       324 -10.7102    139.6651    107.3066   3.7863068032e+01   3.3366443081e+01    0.1436964    0.1115677 -82.82 0.0007040654    1.670    0.401
       325 -11.0504     18.9530    107.2197   7.9912114683e+01   5.3315555936e+01    0.1946412    0.1912418 -49.03  0.001092007    1.026    0.025
       326 -11.8515     93.0179    105.7657   4.9908747623e+01   4.2886716610e+01    0.2645437    0.2249369 -49.29 0.0006504601    1.179    0.151
       327 -13.6526     10.0909    104.0480   8.3626354758e+01   5.4861943748e+01    0.7466465    0.4185995  54.72  0.001241212    1.939    0.484
       328 -11.7812    220.0090    104.2374   2.4126509442e+01   1.9853056091e+01    0.1905135    0.1329404 -39.49 0.0003381718    1.121    0.108
       329 -12.0668    105.5424    103.2110   4.5435834865e+01   4.1013751346e+01    0.2967889    0.1466436 -53.77  0.001132863    2.148    0.534
       330 -13.2891     76.7350     97.0733   5.3139570888e+01   4.8027049125e+01    0.3955017    0.3501094 -30.89 0.0003142252    1.213    0.175
       331 -12.3272    153.0442     99.9048   3.3275925690e+01   3.2142669925e+01     0.414695    0.3093868 -70.52  0.001994087    1.608    0.378
       332 -11.9904     55.7435    101.7002   6.2524304847e+01   5.0439808477e+01    0.2562095    0.2390384 -68.88 0.0003162555    1.090    0.082
       333 -11.4926    191.6678    100.3049   2.6963303756e+01   2.4973493585e+01    0.1262383   0.08878691 -64.40  0.000415145    1.660    0.398
       334 -12.2539    162.6767     99.5914   3.1413178638e+01   3.0339588626e+01    0.2302253    0.1455732 -56.01 0.0005258832    1.674    0.403
       335 -12.7094     93.6131     98.8178   4.7868854659e+01   4.4373005570e+01    0.3470429    0.2642625  55.01  0.001509017    1.377    0.274
       336 -11.7927     58.7025     97.8596   6.0353330084e+01   5.0968190550e+01     0.566258    0.2719999  48.48  0.002051301    2.363    0.577
       337 -11.9435     33.2835     98.2570   7.1696677062e+01   5.4393715977e+01    0.3592151    0.2654344  -1.80 0.0005939156    1.531    0.347
       338 -11.1670     26.1419     98.9632   7.5212352467e+01   5.4964493379e+01    0.2676733     0.158897  66.35  0.001083198    2.109    0.526
       339 -14.2718     78.5806     92.0312   5.1064565737e+01   4.8879603742e+01    0.5952759    0.4585042  68.37  0.001698907    1.536    0.349
       340 -11.2768    118.0929     95.1279   3.9833187871e+01   4.0168450413e+01    0.2151414    0.2047531 -72.09 0.0004306527    1.036    0.034
       341 -12.2626     65.9478     94.7034   5.6593934171e+01   5.0549227882e+01     0.224938    0.2010977  37.69 0.0008803902    1.102    0.092
       342 -10.3586     25.9815     95.0000   7.4555767463e+01   5.6072567543e+01    0.2521283   0.08497357  20.40 7.806068e-05    3.000    0.667
       343 -10.8333    243.6081     90.7347   1.9056319273e+01   1.8305823022e+01    0.1504288     0.075153 -42.29 0.0003887349    1.473    0.321
       344 -12.2157    189.1996     90.8799   2.5217421280e+01   2.6874780927e+01    0.2711455    0.1754088  46.49  0.001065724    1.868    0.465
       345 -10.9182     41.0769     91.5353   6.6550566963e+01   5.5232713099e+01    0.2230778    0.1458414  30.51 0.0004711935    1.498    0.333
       346 -12.6206    149.3067     88.0172   3.0993183509e+01   3.5020309289e+01    0.3050902    0.2385529 -50.93 0.0008937614    1.193    0.162
       347 -11.8883    125.7272     86.6916   3.5623162491e+01   4.0224476499e+01       0.4453    0.2398306 -34.39  0.001844632    2.085    0.520
       348 -12.6164     79.0791    101.8279   5.3568780270e+01   4.6444688579e+01    0.3284595    0.2820808  35.69 0.0006300465    1.160    0.138
       349 -11.0287     39.1040     88.1303   6.6661662552e+01   5.6394441086e+01    0.1964996    0.1692861  58.98            0    1.238    0.192
       350 -11.1378      3.4025     87.7159   8.4969642201e+01   5.9807136525e+01    0.2831145    0.1365881 -84.04  0.001139541    2.134    0.531
       351 -12.6937     54.7750     85.7609   5.8786411198e+01   5.4669926613e+01    0.5263264    0.4240862   6.41  0.002161431    1.420    0.296
       352 -11.0275      7.2168     87.3770   8.2893177272e+01   5.9689343327e+01    0.2038549    0.1239689  29.16  0.000256225    1.654    0.396
       353 -12.5222     62.5028     83.0095   5.4664220089e+01   5.4014926087e+01    0.2934841    0.2245345   5.03  0.000876785    1.652    0.395
       354 -13.8602     66.4418     81.2527   5.2507946622e+01   5.3711385965e+01    0.6001393    0.3839726 -78.10  0.002361324    2.384    0.581
       355 -11.2098     11.2150     85.6646   8.0491371344e+01   5.9901734534e+01    0.3769419    0.1887007  65.83  0.001420442    2.643    0.622
       356 -12.3790    161.6908     84.3773   2.7850938838e+01   3.3129382845e+01    0.2952615    0.2026114  -2.93  0.001081791    2.588    0.614
       357 -11.9555    149.6499     83.7591   2.9818738673e+01   3.5693277995e+01    0.2725167    0.2003879 -22.37 0.0008139772    1.645    0.392
       358 -11.0577    133.6467     84.1317   3.3128489742e+01   3.9007414365e+01    0.1903664    0.1789397 -48.07 0.0005407967    1.063    0.060
       359 -13.1077     78.7218     82.1835   4.8084307730e+01   5.1117775995e+01    0.3170672    0.3070042  42.32   0.00045103    1.032    0.031
       360 -11.4903    111.8842     82.7027   3.7923925282e+01   4.3994432843e+01    0.2952012    0.1273249  43.53  0.001078243    2.483    0.597
       361 -10.4448    247.4890     81.5675   1.6998162842e+01   1.8937524308e+01    0.1078168    0.0791515 -41.47 7.394471e-05    1.018    0.018
       362 -10.6631    224.9510     80.0108   1.8732554234e+01   2.2460676267e+01    0.1321763    0.1074082 -47.41 0.0003690962    1.067    0.062
       363 -10.8215     52.3404     79.0062   5.7906594333e+01   5.6739516463e+01    0.4950493     0.285803  22.33   0.00199776    2.020    0.505
       364 -14.0033      6.9340     77.6514   8.1568141848e+01   6.2365971514e+01    0.5027802    0.3771975 -25.38  0.001475316    1.355    0.262
       365 -11.3014     10.4903     71.5039   7.8358737181e+01   6.3779954620e+01     0.307575    0.1412814  12.98  0.001230058    2.242    0.554
       366 -11.4334    115.6839     74.7102   3.4552403186e+01   4.4692687613e+01    0.2804031    0.2398057 -32.78  0.001388456    1.265    0.209
       367 -11.9843    112.3932     78.4063   3.6507621594e+01   4.4722829409e+01    0.3506964    0.2414675 -72.09  0.001567311    1.878    0.467
       368 -12.6267    106.6735     73.5498   3.6528085651e+01   4.6928774005e+01    0.5011446    0.3296937  79.84   0.00211591    2.156    0.536
       369 -12.1486     88.4438     78.9190   4.3694560151e+01   4.9826976382e+01    0.2988081    0.2205277  54.01 0.0007298042    1.363    0.267
       370 -12.1058     86.0590     75.1453   4.3277588862e+01   5.1130106682e+01    0.2965458     0.204776 -41.50 0.0005852115    1.517    0.341
       371 -12.2710    161.6961     77.0178   2.5983796804e+01   3.4332516537e+01    0.1983164    0.1618055 -44.51  0.001159755    1.118    0.106
       372 -12.1610     70.8512     77.1512   4.9456931674e+01   5.3811966197e+01    0.2323946     0.208876  77.33 0.0005612405    1.199    0.166
       373 -10.2537    227.6918     76.6951   1.7803681621e+01   2.2473500568e+01    0.1023772   0.08202168 -10.93 0.0004080796    1.608    0.378
       374 -12.5480     75.4077     75.1737   4.7069049319e+01   5.3342468933e+01    0.3770672    0.2348543 -36.71  0.001610284    1.840    0.456
       375 -11.3382     78.6029     70.2114   4.4230504258e+01   5.3745065134e+01    0.2811885    0.2086287 -15.92 0.0009330344    1.879    0.468
       376 -12.4112    156.8326     73.9207   2.5972922514e+01   3.5837587986e+01    0.2351266    0.1951695  56.56   0.00111819    1.315    0.239
       377 -11.5418     51.7549     73.1609   5.6356394324e+01   5.8247354776e+01     0.422937     0.201182  42.08 0.0008482672    2.070    0.517
       378 -12.5126     68.3458     71.8748   4.8708745996e+01   5.5483366940e+01    0.2430056    0.2112778 -14.48  0.001077697    1.329    0.248
       379 -12.4272      2.6019     71.1839   8.3085041025e+01   6.4348228127e+01    0.3753431    0.2422743 -88.32  0.001405736    1.656    0.396
       380 -11.3612    189.0923     70.6538   2.0594093537e+01   2.9916888864e+01    0.1635282    0.1461812 -69.02 0.0004019686    1.119    0.106
       381 -10.7661    133.0099     70.4664   2.9386175974e+01   4.1571886650e+01    0.1947912    0.1374142  59.73 3.715254e-05    1.445    0.308
       382 -11.4560    178.5271     69.0200   2.1535351574e+01   3.2183903029e+01    0.1985888     0.109847 -39.94 0.0004148736    1.562    0.360
       383 -12.2757    154.3594     68.2476   2.4870061464e+01   3.7264158308e+01    0.2516137    0.2055122 -87.67 0.0002438016    1.267    0.211
       384 -11.8005     54.5602     68.4642   5.3490273760e+01   5.8854469810e+01    0.2709216    0.1453353  25.37 0.0008194924    2.286    0.563
       385 -12.1183     60.0115     66.8296   5.0466725351e+01   5.8215832386e+01    0.2538179    0.2174518 -49.03 0.0004920854    1.206    0.171
       386 -11.5459    204.6239     65.2073   1.7631769773e+01   2.7837657381e+01    0.1671965    0.1000971 -29.49 0.0006301213    1.662    0.398
       387 -10.8655     67.7863     65.5918   4.6749518728e+01   5.6957329601e+01    0.2065621    0.1382667  52.45 0.0003444062    1.526    0.345
       388 -11.6713    164.9677     64.0108   2.2130166048e+01   3.5672413844e+01    0.1970723    0.1697697 -55.84  0.000334681    1.020    0.020
       389 -11.9774     92.0529     63.8221   3.7529353700e+01   5.2075524545e+01     0.234467    0.2101358 -55.08 0.0003150905    1.136    0.120
       390 -11.9460    100.7956     62.2763   3.4448980243e+01   5.0365654889e+01    0.2595127    0.1960584 -58.43 0.0006020312    1.393    0.282
       391 -12.0160     10.0926     63.1118   7.6811654856e+01   6.6009415317e+01    0.2834135    0.1879898 -11.47 0.0005594082    1.604    0.376
       392 -11.9190     45.1460     61.8358   5.5752452196e+01   6.2003902298e+01    0.2970571    0.2218195  42.71  0.001149172    1.324    0.245
       393 -11.9263     41.8403     59.6181   5.6683886268e+01   6.3055215621e+01    0.3465434    0.1731939  37.26  0.001420518    1.910    0.476
       394 -12.5767    109.0024     59.2996   3.1294385474e+01   4.8984740806e+01    0.3379703    0.3130921  26.27  0.001260455    1.257    0.204
       395 -11.9277    109.6729     55.6918   2.9916404828e+01   4.9435891811e+01    0.2383287    0.1759975  43.44 0.0007160641    1.483    0.326
       396 -12.8693    113.2050     51.9591   2.7829685823e+01   4.9205753568e+01     0.435423    0.3058164  -2.19  0.001574649    2.385    0.581
       397 -11.4221     18.2938     58.8912   7.0404925500e+01   6.6362735883e+01    0.2947295    0.1792903 -55.41  0.001384734    1.578    0.366
       398 -11.9971    198.7355     57.5430   1.6507420068e+01   2.9925527574e+01    0.1935122    0.1723052  43.42  0.001351313    1.486    0.327
       399 -12.4525     36.8475     54.8672   5.7679353874e+01   6.4928519188e+01    0.5326478    0.2536683 -42.83  0.001878438    2.259    0.557
       400 -11.3389     40.5442     53.4466   5.5055494956e+01   6.4651857505e+01    0.2475075    0.2235569  57.25 0.0006116731    1.200    0.166
       401 -11.6661    182.1846     57.0927   1.8175748944e+01   3.3155842477e+01    0.1741852     0.161596 -37.62 0.0004965218    1.217    0.179
       402 -12.0707    159.9348     57.1869   2.1043993549e+01   3.7740947637e+01    0.2057206     0.161354 -69.13 0.0007410223    1.215    0.177
       403 -10.9466     54.7390     57.1073   4.9262511985e+01   6.1325051515e+01    0.1918696    0.1866202 -49.92 0.0005630722    1.078    0.073
       404 -12.7828     24.0024     55.6552   6.5729353497e+01   6.6522152649e+01    0.3745911    0.2782412 -16.84 0.0008588334    1.469    0.319
       405 -12.1434     19.8576     53.1009   6.7580874936e+01   6.7615524368e+01    0.2574786    0.2236174  48.67 0.0003155153    1.265    0.210
       406 -11.3946    205.1655     54.7593   1.5264202521e+01   2.9113387551e+01    0.1740028    0.1286567 -54.73 0.0004410158    1.113    0.101
       407 -12.8296    120.7743     52.9000   2.6503244386e+01   4.7265478234e+01    0.3541889    0.2411467 -46.24 0.0009737109    1.437    0.304
       408 -11.9198    195.1972     52.3668   1.5668446384e+01   3.1264060796e+01    0.1861835    0.1453431 -37.40 0.0005364895    1.218    0.179
       409 -12.0683    175.7469     50.8963   1.7378773288e+01   3.5294785252e+01    0.2265378    0.1725764 -87.55 0.0003989985    1.329    0.248
       410 -11.2320    106.5287     51.4867   2.9231424168e+01   5.0868934149e+01    0.1441366    0.1335155  88.69 0.0007159008    1.010    0.010
       411 -13.1981     30.6238     50.1650   5.9575278231e+01   6.6924166122e+01    0.3366757    0.2969495  42.46  0.000783193    1.176    0.150
       412 -12.2381    162.3394     49.9318   1.8766950852e+01   3.8247161251e+01    0.2116442    0.1802647  73.30 0.0002651683    1.234    0.190
       413 -12.0909    131.8234     50.6668   2.3653819186e+01   4.5012515785e+01    0.2836243    0.1075508  54.74  0.001095548    2.603    0.616
       414 -12.0712     99.1623     49.8352   3.0508728934e+01   5.2890017826e+01    0.2299272    0.1928614 -78.86  0.001231337    1.244    0.196
       415 -11.7521     41.7405     47.0224   5.1755397107e+01   6.5821520779e+01    0.2913547    0.2266063  54.57 0.0008155025    1.413    0.292
       416 -11.4982    204.8056     47.1616   1.3603346316e+01   3.0135395043e+01    0.1771875    0.1249623 -55.29 0.0003364328    1.158    0.137
       417 -11.9679    143.2289     44.9622   2.0037071847e+01   4.3188020141e+01    0.2659424    0.1204043 -32.97  0.001146237    2.228    0.551
       418 -11.6302    196.9228     44.0976   1.3592379277e+01   3.1982849530e+01     0.186612     0.128965 -57.94 0.0003548821    1.221    0.181
       419 -11.3337     95.2550     44.6068   2.9602385522e+01   5.4659920367e+01    0.2103629    0.1241212  49.49 0.0009480253    1.668    0.400
       420 -12.8997    158.4505     41.4047   1.6935075446e+01   4.0235365897e+01    0.2451137    0.2114664 -57.05 0.0004607649    1.063    0.059
       421 -11.7674    203.8738     40.1610   1.2111638180e+01   3.1156760216e+01    0.2967969    0.1855321  37.77  0.001255152    2.789    0.642
       422 -12.4576     34.3003     40.7190   5.3296616819e+01   6.8387871249e+01    0.3140035    0.1849337  39.37 0.0008680353    1.615    0.381
       423 -13.0169     23.3123     40.7772   6.0556672458e+01   7.0026679246e+01    0.3867298    0.1736536 -57.42  0.001582374    2.401    0.584
       424 -13.5398     28.9082     36.1650   5.4615386795e+01   7.0182432719e+01    0.4095007    0.3303392  13.02  0.001446509    1.241    0.194
       425 -13.3877     30.4911     32.0033   5.1483288738e+01   7.0746814147e+01    0.4016165    0.3490954  15.38  0.001680043    1.096    0.088
       426 -11.9997    124.0525     39.6197   2.1503500276e+01   4.8431236872e+01      0.23435    0.1916534 -43.60 0.0003067308    1.232    0.189
       427 -11.2042    118.9593     38.9058   2.2195900255e+01   4.9756660454e+01    0.2383853    0.1509756 -66.22  0.001133052    1.760    0.432
       428 -11.7322     80.6757     36.0380   3.0334318183e+01   5.9469308129e+01    0.3969326    0.2096245 -46.48  0.001725574    2.062    0.515
       429 -13.0907      8.3467     35.8554   7.0032328788e+01   7.2814753083e+01     0.392536    0.2701215 -76.92  0.001438632    1.782    0.439
       430 -11.4717    157.9716     35.2369   1.5279241734e+01   4.1123612542e+01    0.1965392    0.1671132 -58.74 0.0002818373    1.055    0.052
       431 -11.3784     53.0663     34.0336   3.9908935010e+01   6.6065875081e+01    0.2187191    0.1741921  88.89  0.001122569    1.659    0.397
       432 -12.3274    106.7735     32.4079   2.2277250540e+01   5.3606965653e+01    0.2575896    0.1865618 -39.40  0.001188962    1.428    0.300
       433 -12.7144     46.0597     30.7018   4.1653402861e+01   6.8082388043e+01    0.3364105    0.2555848 -18.09 0.0008826213    1.576    0.366
       434 -12.1789     45.7042     25.5179   3.9049650832e+01   6.9000358597e+01    0.3381809    0.2393401 -63.56  0.001351968    1.970    0.492
       435 -11.2692     36.7185     32.9088   4.8020451846e+01   6.9492099267e+01    0.1810366    0.1745708 -19.75 0.0002446931    1.105    0.095
       436 -12.2638     85.0754     29.8419   2.6398702404e+01   5.9289379105e+01    0.2160458    0.1785688 -79.62 0.0004700441    1.274    0.215
       437 -12.1610     67.4666     29.0257   3.1545363895e+01   6.3627228517e+01    0.2516018    0.1903486  78.45  0.000855567    1.473    0.321
       438 -10.9807     19.4814     29.2242   5.7975698989e+01   7.2975696817e+01    0.1760254     0.135148 -69.25 0.0009418814    1.686    0.407
       439 -11.9748     96.6046     27.4536   2.2545826116e+01   5.6759508932e+01    0.2383121    0.2024289 -60.59   0.00030661    1.192    0.161
       440 -11.8472     60.0321     27.9996   3.3865267232e+01   6.5491372937e+01    0.2105814    0.1927341  50.09 0.0003136571    1.013    0.013
       441 -10.2810      1.3256     25.6729   7.2331714877e+01   7.5677739303e+01    0.1313044   0.09546402  50.21 0.0007049751    1.697    0.411
       442 -10.9706    128.7996     24.6093   1.5769377207e+01   4.9176739224e+01    0.1797183    0.1144475  89.13 0.0002502248    1.547    0.354
       443 -12.1581     84.4509     24.1557   2.4091701618e+01   6.0182764889e+01     0.276412    0.1656435 -74.71  0.001191475    2.317    0.568
       444 -12.3133     67.2050     23.9560   2.9164453015e+01   6.4394612859e+01    0.2888862     0.173054  87.13  0.001181715    2.617    0.618
       445 -10.9151    132.8878     20.8436   1.3992867867e+01   4.8616874653e+01    0.1803646    0.1513373 -85.13 0.0002595556    1.049    0.046
       446 -11.5424    131.8530     17.1605   1.2923773639e+01   4.9260532554e+01    0.2058704    0.1708653 -52.71 0.0003349151    1.159    0.137
       447 -10.8150    123.4829     19.4987   1.4791517457e+01   5.1039150623e+01    0.1343275    0.1155101 -80.92 0.0008104104    1.013    0.013
       448 -10.7510     96.3240     19.2524   1.9267341462e+01   5.7805851509e+01     0.135527   0.09450237  45.95 0.0001838785    1.542    0.352
       449 -11.6223     80.9669     18.0145   2.2218357094e+01   6.1778286265e+01    0.1665774    0.1499838  73.94 0.0004359546    1.014    0.014
       450 -11.1591     97.7632    249.5961   7.1876407905e+01   1.0825540054e+01    0.1720334   0.08779777  30.19 0.0007581241    1.585    0.369
       451 -11.7223    114.4931    248.5184   6.8049596992e+01   9.3489993361e+00    0.1780899    0.1158125 -50.15 0.0007603915    1.817    0.450
       452 -11.3016    214.8872    247.1541   4.8839778434e+01   3.7630384951e-01     0.140889    0.1067371  -7.64 0.0003651309    1.215    0.177
       453 -12.1808    139.8032    248.6797   6.2700038926e+01   6.8361058673e+00    0.2950293    0.1621529 -50.10  0.001462371    2.177    0.541
       454 -12.7115     78.1104    243.7043   7.5870359990e+01   1.3801256693e+01    0.3128847    0.2173632  45.68   0.00160111    1.485    0.327
       455 -11.5509    168.8305    244.9631   5.6526336462e+01   4.6209372979e+00    0.1623257    0.1233745  -2.53 0.0003782506    1.044    0.042
