#   1 NUMBER                 Running object number                                     
#   2 MAG_AUTO               Kron-like elliptical aperture magnitude                    [mag]
#   3 X_IMAGE                Object position along x                                    [pixel]
#   4 Y_IMAGE                Object position along y                                    [pixel]
#   5 X_WORLD                Barycenter position along world x axis                     [deg]
#   6 Y_WORLD                Barycenter position along world y axis                     [deg]
#   7 A_WORLD                Profile RMS along major axis (world units)                 [deg]
#   8 B_WORLD                Profile RMS along minor axis (world units)                 [deg]
#   9 THETA_WORLD            Position angle (CCW/world-x)                               [deg]
#  10 FWHM_WORLD             FWHM assuming a gaussian core                              [deg]
#  11 ELONGATION             A_IMAGE/B_IMAGE                                           
#  12 ELLIPTICITY            1 - B_IMAGE/A_IMAGE                                       
         1 -13.1638     38.0289     49.5975   8.1878471351e+01   6.5248798305e+01     1.031686    0.8029333 -62.10  0.004978814    1.252    0.202
         2 -11.1516    128.3781     25.2154   3.7606559790e+01   4.9993996276e+01    0.4942656     0.274023 -19.57  0.001714411    2.089    0.521
         3 -10.9249    129.0076     18.4937   3.4804693796e+01   5.0635887230e+01    0.3421594    0.2387747  -6.10 0.0006171245    1.749    0.428
         4 -12.2730    128.5465     10.9379   3.1819597442e+01   5.1582731993e+01    0.5384794    0.3373855 -61.95  0.002434965    1.769    0.435
         5 -10.0677    126.4389      2.9993   2.8860077777e+01   5.2918487727e+01    0.2644875    0.1697228 -32.02  0.001268322    1.589    0.371
         6 -11.5464     22.8429     23.7804   8.1763817741e+01   7.2979997770e+01    0.6147841    0.2607295 -43.91  0.002503542    2.225    0.551
         7 -11.8241     21.3008     15.1546   7.8697082706e+01   7.5017762563e+01    0.7149007    0.4116603  -9.85  0.003259185    2.408    0.585
         8 -10.3916     15.0951     13.8094   8.3373665728e+01   7.5925364025e+01    0.1992073    0.1908072 -15.81 0.0007402199    1.116    0.104
         9 -10.4170      9.7147     15.5790   8.9084272606e+01   7.5954515416e+01    0.3146895    0.1909845 -25.63 0.0009291616    1.689    0.408
        10 -12.0166      3.6984     16.1942   9.4852784376e+01   7.6150333482e+01    0.4375162    0.2397373  33.55  0.001372917    2.062    0.515
        11 -12.3665    165.1671     22.7064   3.0943477205e+01   4.0482972059e+01    0.3822073    0.3089767 -78.78 0.0002520406    1.216    0.178
        12 -11.7439    159.6042     23.1092   3.1794669306e+01   4.1891680817e+01    0.3598953    0.2944179   9.54 0.0004198222    1.483    0.325
        13 -11.4800     59.0376     20.9707   5.7369160675e+01   6.7801345733e+01    0.5926664    0.4466152  27.28  0.002642866    1.396    0.284
        14 -11.1046     48.8987     15.4076   5.9438912465e+01   7.0751690787e+01    0.7064974     0.540583  14.32  0.003783926    1.441    0.306
        15 -11.1605     29.7580     19.1934   7.4259731805e+01   7.3150117407e+01    0.3787051    0.2586713 -45.33 0.0003136221    1.378    0.274
        16 -10.7001     34.3500     15.7191   6.8923035800e+01   7.3192071245e+01    0.4302786    0.2645384 -21.79  0.001456671    2.036    0.509
        17 -10.2884     43.8924      8.2990   5.7722502670e+01   7.2866439862e+01    0.2883235    0.2505805  54.58  0.001276527    1.311    0.237
        18 -12.0989     40.7771     16.4424   6.5010327790e+01   7.2027692890e+01    0.5497705    0.4233306 -67.75  0.001648318    1.798    0.444
        19 -11.2380     40.0431     10.8582   6.1913388789e+01   7.3146293226e+01    0.3737357    0.2901925  63.37 0.0008815763    1.739    0.425
        20 -10.1192     83.9587     13.5463   4.3220754204e+01   6.3159436403e+01    0.2272514     0.193539 -42.24 0.0003034376    1.252    0.201
        21 -10.4182     74.0088      2.0768   3.9822361680e+01   6.6973958664e+01    0.3154727     0.198796  72.34  0.001487697    1.710    0.415
        22 -10.9852     73.7673      6.5432   4.2622147917e+01   6.6537692578e+01    0.3261462    0.2487516 -25.64  0.001018058    1.371    0.271
        23 -11.4058     77.2443     10.5292   4.3759547537e+01   6.5204264173e+01    0.8266753    0.4944436  41.68  0.003795419    1.665    0.399
        24 -10.8802     70.4285     13.5238   4.8004379739e+01   6.6443794959e+01    0.3972639    0.3519465 -19.46  0.001520813    1.162    0.139
        25 -10.2632    117.1944     14.1516   3.5197836883e+01   5.4336859102e+01    0.4669387    0.2484945   6.05  0.001666254    3.195    0.687
        26 -10.7030    118.3156      7.9210   3.2265546682e+01   5.4684988672e+01    0.2717464    0.2131823 -11.34 0.0006791701    1.431    0.301
        27 -11.8377    120.2833      4.0071   3.0225896549e+01   5.4517798168e+01    0.3894537    0.2310741  81.15 0.0009497971    1.673    0.402
        28 -11.2892     59.9150     13.2936   5.2405333685e+01   6.8844006638e+01    0.3985286    0.3379048 -73.77  0.001480397    1.524    0.344
        29 -11.3390    164.5773      8.4431   2.6292067322e+01   4.2119256036e+01    0.7639164    0.2127601 -19.51  0.002403724    4.056    0.753
        30 -10.4216     96.2860     12.1453   3.8962779940e+01   6.0161545845e+01    0.2961985    0.2166001 -81.55  0.001413838    1.627    0.386
        31 -11.2094    233.9106     11.3729   2.1924474647e+01   2.5526340939e+01     0.274873    0.1210435 -37.70 0.0008951655    1.744    0.426
        32 -12.1382    234.9919      4.4818   2.0220133315e+01   2.5941452926e+01    0.4790201    0.3044358  15.99  0.002577194    2.462    0.594
        33 -10.2912    175.6484     11.0791   2.6064774424e+01   3.9003245246e+01    0.2719915    0.1944332  66.39  0.001431387    1.405    0.288
        34 -11.1093      8.1406      9.1419   8.7645167188e+01   7.7496263151e+01    0.4826024    0.2971611   1.06   0.00253846    1.744    0.427
        35 -11.3522    146.4820      7.5591   2.7989591458e+01   4.7027087118e+01     0.446854    0.3667508 -17.81   0.00217986    1.335    0.251
        36  -9.6307    150.5475      5.5266   2.6775039450e+01   4.6119594298e+01    0.1941533    0.1280281 -87.09 1.321477e-05    1.503    0.334
        37 -10.9927    148.7960      1.8988   2.5655164209e+01   4.6914537790e+01    0.2522348    0.2316475  73.15 0.0004453613    1.093    0.085
        38 -11.0324    240.9359      9.1362   2.1021516442e+01   2.4318874026e+01     0.191779    0.1265163 -51.13 0.0005082211    1.257    0.204
        39 -12.7361    213.8529      5.8548   2.1699745171e+01   3.0337467829e+01    0.7654133    0.4878236 -63.21  0.004211655    1.448    0.310
        40 -10.9971    190.3347      6.8566   2.3551537118e+01   3.5743123619e+01    0.4162617    0.2988698 -65.87  0.002330453    1.293    0.227
        41 -10.3412    100.4963      6.9774   3.5370254832e+01   5.9608148035e+01    0.2645882    0.1832932   6.62  0.001206965    1.768    0.434
        42 -10.7604     97.9210      4.5688   3.4740472029e+01   6.0537365892e+01    0.3493134    0.2683501   6.40 0.0009465951    1.496    0.332
        43 -10.1419    156.3302      6.0368   2.6326045101e+01   4.4524285031e+01    0.2295259    0.1773525  64.65 0.0004005879    1.276    0.216
        44  -9.3947     91.9363      6.7705   3.7319205489e+01   6.1897410491e+01    0.1908671    0.1119394  62.85 0.0005361649    1.571    0.363
        45 -12.2784    237.9990     17.5666   2.3165986697e+01   2.4103404618e+01    0.2945447    0.2153247 -56.78 0.0004273091    1.219    0.180
        46 -11.3355     19.4127      3.6009   7.3107050765e+01   7.7557654183e+01    0.6026267    0.3419603   2.99  0.002753972    2.525    0.604
        47 -11.4613     11.2087      2.8395   8.0851914813e+01   7.8588290074e+01    0.3646246    0.2421843  -5.02  0.001190501    1.612    0.379
        48  -9.6931    109.1564      5.5168   3.2863043385e+01   5.7416896067e+01    0.2157657    0.1345572  68.83 0.0008537739    1.484    0.326
        49 -10.5446     68.2448      3.9385   4.2998095723e+01   6.8176579700e+01    0.2777816    0.1801949 -32.63  0.001035124    1.608    0.378
        50  -9.1195     58.3000      5.3147   4.8008696290e+01   7.0312517754e+01    0.1436194   0.09983262  21.86 0.0003971388    1.611    0.379
        51 -10.4112     25.5574      8.4131   7.1011310380e+01   7.5849921972e+01    0.3413109    0.2029941  59.01    0.0014382    3.259    0.693
        52 -10.3322    202.2915      3.2901   2.1720728669e+01   3.3214040353e+01    0.3348119    0.1905285  36.34  0.001578684    2.534    0.605
        53 -10.2282    179.0240      3.9242   2.3549982997e+01   3.8818703591e+01    0.2121349    0.1810886 -65.29 0.0004862487    1.046    0.044
        54 -11.5191     28.8506      2.4279   6.3933573437e+01   7.6439063710e+01    0.5692866    0.2662129  32.72  0.002520017    2.246    0.555
        55 -10.6124    243.0437      2.6727   1.9424830664e+01   2.4488183299e+01    0.1636465    0.1323746 -52.95 0.0006154079    1.059    0.056
        56 -10.4806    194.7544      1.6394   2.1741694433e+01   3.5146688267e+01    0.2775937    0.1504491 -87.67  0.001353925    1.868    0.465
        57 -10.9968     35.2971    161.4064   1.0096070475e+02   3.7560193962e+01    0.2697322    0.1914966  34.45 0.0003677421    1.288    0.223
        58 -10.7451    247.4765    249.9827   6.6998952133e+01  -2.9681246632e+00    0.1551171   0.09097943  18.34  0.001250835    1.217    0.178
        59 -11.7203     88.9184    249.3725   9.4902391206e+01   1.5090465821e+01    0.3238685    0.1849097  30.36 0.0009143873    1.309    0.236
        60 -10.2098     72.4101    250.1312   9.8228985053e+01   1.6819939180e+01    0.1901464      0.12482  19.36  0.001078761    1.548    0.354
        61 -12.9016     18.8820    236.9143   1.0838854834e+02   2.4255038395e+01    0.5489672    0.2862434  42.11  0.003727249    1.300    0.231
        62 -11.5225      5.2309    235.5034   1.1108601728e+02   2.5650003326e+01    0.3203388    0.2112072  37.18  0.002431842    1.188    0.158
        63 -12.1605     29.1068    247.5237   1.0667509123e+02   2.1608397673e+01    0.4855988    0.2406241  62.37  0.003226139    1.798    0.444
        64 -12.9688      6.5546    244.9632   1.1099147794e+02   2.3992041523e+01    0.6435065    0.4300928  50.54  0.003480977    1.067    0.063
        65 -11.8032     22.4093    248.7075   1.0801523874e+02   2.2032177142e+01    0.3305228    0.1570257  46.70   0.00136431    1.415    0.294
        66 -12.3994     16.1099    246.2196   1.0917243838e+02   2.2982291587e+01    0.5781932    0.2149526  51.70  0.002125828    1.854    0.461
        67  -9.4308    111.7681    164.0210   8.0408295407e+01   2.6783677510e+01    0.1649842    0.1168385 -56.04 0.0005248582    1.608    0.378
        68 -12.4685     21.2764    157.3422   1.0467009055e+02   3.9790910559e+01    0.6162783    0.3891809  20.73 0.0008959202    1.668    0.401
        69  -9.6013    216.4581    154.9685   5.6805378850e+01   1.0979559224e+01    0.1710315    0.1070215 -28.60 0.0003820362    1.487    0.328
        70 -11.0432      9.7408    152.2686   1.0772096808e+02   4.1875280247e+01    0.4214536    0.1606551  46.96  0.001655559    2.092    0.522
        71 -10.1873    177.2931    150.4738   6.3006028275e+01   1.8052763608e+01    0.2557899    0.2117257  75.99  0.001204788    1.892    0.471
        72 -10.5982    207.0325    146.5005   5.6728664808e+01   1.3622074594e+01    0.1928511    0.1553489 -14.60 0.0007010623    1.114    0.102
        73 -10.2741      9.5635    145.2080   1.0746389794e+02   4.3534275451e+01    0.3662858    0.1490253 -43.67  0.001438384    3.863    0.741
        74  -9.2800     19.3026    145.6724   1.0456210451e+02   4.2679656139e+01    0.1408388   0.07596182  57.30 0.0002986366    1.645    0.392
        75 -10.1059    220.1947    143.8177   5.4031622120e+01   1.1871099313e+01    0.1719489    0.1255313   0.69 0.0006885329    1.295    0.228
        76 -10.0958      3.0312    143.6518   1.0934895260e+02   4.4340978110e+01    0.1666483    0.1407501  49.33 0.0004110906    1.113    0.101
        77 -10.8895     17.5164    137.0171   1.0457509357e+02   4.4898974161e+01    0.2553934    0.1730933  41.83 0.0001626905    1.331    0.249
        78  -9.6519     21.0000    134.9557   1.0332550047e+02   4.5121655611e+01     0.193784    0.1297548  64.24 0.0006783195    1.347    0.258
        79 -12.3141      9.1856    136.3893   1.0716357538e+02   4.5661153238e+01    0.2503642    0.2022074  84.48 0.0002853863    1.124    0.110
        80 -10.3954      2.7713    136.3115   1.0915976404e+02   4.6095166927e+01    0.3270495    0.1394076 -74.75  0.001545686    2.192    0.544
        81  -9.3247    143.7616    137.0360   6.7537675109e+01   2.6490201892e+01    0.1758628    0.1203729 -44.05 0.0004351411    1.553    0.356
        82 -10.0306    249.1302    133.8164   4.7856596708e+01   8.7254390814e+00    0.1659783    0.1373879 -20.10 0.0004236163    1.168    0.144
        83  -9.4441    122.7013    134.6848   7.2295318354e+01   3.0896300457e+01    0.1444106    0.1130528  -3.15  0.000374632    1.609    0.379
        84 -10.1706     59.2408    132.0144   9.0589317466e+01   4.1791822830e+01    0.2115912    0.1946537 -28.52 0.0006985607    1.282    0.220
        85 -11.0228     54.2781    132.2604   9.2231216703e+01   4.2362691768e+01    0.3537256    0.2414361  38.82  0.001060468    1.356    0.262
        86  -9.6894     47.9397    133.4931   9.4447863386e+01   4.2820192401e+01    0.2084822    0.1277192  31.34  0.001022089    1.561    0.359
        87  -9.7512     79.7308    132.4107   8.4166971752e+01   3.8779716917e+01    0.1921294    0.1362343  23.88 0.0005124905    1.519    0.342
        88 -11.4854     36.9499    130.2111   9.7686923455e+01   4.4827991034e+01    0.3967067     0.306448 -33.16  0.001009902    1.622    0.384
        89 -10.1298      5.1143    131.0541   1.0820493214e+02   4.7216708155e+01     0.186006    0.1572704  69.43 0.0003601742    1.007    0.007
        90 -11.0141     74.0105    128.9600   8.5373681920e+01   4.0468056622e+01    0.3246696    0.2840121  78.51  0.000923763    1.147    0.128
        91 -11.3478     23.8869    125.8657   1.0166138565e+02   4.7128075432e+01    0.3334357    0.1912944  27.15  0.001373952    1.723    0.420
        92 -11.0718     15.9219    125.4934   1.0432995633e+02   4.7850488912e+01    0.3958841     0.204569  18.08   0.00191404    2.097    0.523
        93 -11.1456     10.9058    122.5983   1.0584322878e+02   4.8922747611e+01    0.3554526    0.2140807  48.25  0.001318896    1.502    0.334
        94  -9.6851    220.1427    123.8570   4.9931982400e+01   1.4557386620e+01     0.174391    0.1318036  -2.32 0.0004627781    1.285    0.222
        95 -10.1087    243.7980    122.5845   4.6314252005e+01   1.0875497871e+01    0.1331992    0.1170432  52.74 0.0004240378    1.519    0.342
        96  -9.5163      3.2376    122.5579   1.0844014899e+02   4.9406143477e+01    0.1523392    0.1224349  -6.86 0.0004562651    1.543    0.352
        97  -9.9900      1.3660    118.6883   1.0890459174e+02   5.0464652673e+01    0.1672065    0.1043499 -76.20 0.0004305212    1.485    0.327
        98 -10.4968     72.8095    117.0559   8.3641470384e+01   4.3538674852e+01    0.3633035    0.2230006 -84.75  0.001077605    2.121    0.529
        99 -10.4406     23.6289    117.8511   1.0103654790e+02   4.9167360168e+01    0.2022984     0.181234  12.57 0.0003623286    1.278    0.217
       100  -9.4467     32.6212    117.3241   9.7767315386e+01   4.8497775472e+01    0.1560689   0.08556798  57.25 0.0007023313    1.834    0.455
       101  -9.7876     85.9204    115.7190   7.9054772927e+01   4.1742092550e+01     0.207828    0.1869611  52.07  0.000533461    1.059    0.056
       102 -11.1955     16.0765    115.2209   1.0351523798e+02   5.0418303411e+01    0.3316355    0.2357032 -30.28 0.0007377529    1.762    0.432
       103  -9.9482    214.0991    115.1707   4.8970718837e+01   1.6810361898e+01    0.1951815    0.1571491   3.63 0.0004639744    1.226    0.184
       104 -11.0585    249.4299    112.1894   4.3460827955e+01   1.1258464814e+01    0.2160074    0.1798944 -19.10 0.0005328824    1.066    0.062
       105 -10.5478     94.6487    112.1989   7.5509664742e+01   4.1036233244e+01    0.2973578    0.2709883  36.75  0.001603056    1.084    0.078
       106 -11.5250     36.8434    110.0328   9.5320306672e+01   4.9944817420e+01    0.4598764    0.2610328  63.55   0.00188233    1.911    0.477
       107 -11.9084     55.1519    109.5709   8.8468902121e+01   4.7924378426e+01    0.2989949    0.2785554 -68.71 0.0004233732    1.096    0.088
       108 -11.7404     14.9499    108.6226   1.0339445855e+02   5.2177000035e+01    0.5226632    0.3345725   1.50  0.002701322    1.941    0.485
       109 -10.6736      1.9436    106.0278   1.0809303058e+02   5.3601723868e+01    0.4364502    0.1575668 -70.90  0.001818753    2.426    0.588
       110  -9.3782      5.4771    106.4715   1.0679545225e+02   5.3306786854e+01    0.1860069    0.1112139  32.53 0.0009817299    1.653    0.395
       111 -10.5557     25.9583    102.0489   9.8485557014e+01   5.3027934545e+01    0.4315647    0.2065731  71.95  0.001432526    2.479    0.597
       112 -11.1028     23.5561    106.2762   9.9902769304e+01   5.2134734637e+01    0.4090999    0.2616873  73.77  0.001538766    1.551    0.355
       113 -11.8183     19.3902    100.8645   1.0095430135e+02   5.3856786983e+01    0.3127497    0.2604384 -28.96 0.0001471086    1.403    0.287
       114 -11.0441    120.1139    101.2807   6.5245015857e+01   3.8451262222e+01    0.7389361    0.3048889 -31.67   0.00200173    4.811    0.792
       115 -10.4990     52.0406    103.5065   8.8553699219e+01   4.9872269752e+01    0.2124757    0.1416629  27.61 0.0007646796    1.554    0.356
       116  -9.8720     38.0386    103.3089   9.3913926131e+01   5.1554784952e+01    0.1991115    0.1836015  58.91   0.00116996    1.060    0.057
       117 -11.5675    144.3994     97.8013   5.8058797911e+01   3.3885137931e+01    0.5221134    0.5146528  53.05  0.002140955    1.037    0.036
       118 -11.7834     63.3927     98.4318   8.3245353909e+01   4.9591318234e+01     0.596426    0.3143094  24.02  0.002401446    2.221    0.550
       119 -10.4002     50.9494     98.9815   8.8140257221e+01   5.1170393998e+01    0.2073045    0.2014194  86.89 0.0003748056    1.047    0.045
       120 -10.4271      9.9453     98.8695   1.0453042935e+02   5.4997804640e+01    0.2191188    0.1699581 -89.88 0.0004539228    1.151    0.131
       121 -10.9586      5.2049     97.9035   1.0634766286e+02   5.5505298536e+01    0.2498578    0.1799396  16.39 0.0008431788    1.547    0.354
       122  -9.5472    205.6355     97.2100   4.6138015611e+01   2.0955826297e+01    0.1884747     0.117528 -22.30 0.0008007656    1.594    0.373
       123 -12.6590    157.7942     87.9830   5.2380640759e+01   3.2668440271e+01     1.421485     0.581327 -52.32  0.004423344    3.719    0.731
       124  -9.7757     31.0765     92.9791   9.5174156829e+01   5.4930133059e+01    0.2241339     0.148308 -43.62 0.0008948582    1.650    0.394
       125  -9.2799     46.6070     92.1981   8.8580372321e+01   5.3456912228e+01    0.1940944    0.1258468 -56.74 0.0004724918    1.495    0.331
       126 -10.6356     37.9086     90.0748   9.1815784080e+01   5.5001899433e+01     0.413837    0.2074319 -48.75  0.001131188    2.070    0.517
       127 -10.2225     25.5151     90.8251   9.7213596490e+01   5.5985459199e+01    0.2481765    0.2137354 -84.09 0.0007197824    1.070    0.066
       128 -11.5562     21.9314     87.5958   9.8319152091e+01   5.7116361339e+01    0.4390174    0.2440164 -59.14  0.001453637    1.672    0.402
       129 -11.8431     10.5445     90.4718   1.0355712315e+02   5.7131404372e+01    0.2796506    0.2567533  72.23  0.001775491    1.063    0.059
       130 -12.6265    166.2513     83.6025   4.9450823938e+01   3.1486402447e+01    0.8375925    0.6768311  35.68  0.003860812    1.308    0.236
       131 -10.5419     96.1196     89.0001   6.9196242395e+01   4.6111111597e+01     0.363908    0.1829336  44.25  0.001414809    1.946    0.486
       132 -10.0480     83.1347     88.4057   7.3502982458e+01   4.8755257978e+01    0.2391343    0.2068058 -40.49 0.0005340738    1.222    0.182
       133 -10.9314     78.2598     87.7410   7.5096550800e+01   4.9798401198e+01    0.3554293    0.3511088 -49.35  0.001294272    1.053    0.051
       134 -11.6582      4.0938     84.4163   1.0582296332e+02   5.9026525967e+01    0.3693269    0.2529924 -85.74 0.0007921975    1.294    0.227
       135 -10.4971      7.6770     82.6708   1.0407871996e+02   5.9307268644e+01    0.3805524    0.1496182 -61.93  0.001628916    2.214    0.548
       136 -10.6592     47.2389     87.5053   8.7370444250e+01   5.4586798088e+01     0.360592    0.2079104  66.42  0.001485225    2.275    0.560
       137  -9.9266    121.0052     86.4966   6.0902137395e+01   4.1341390787e+01    0.2269848    0.2080082 -43.65 0.0003519097    1.114    0.102
       138 -10.2812     65.2008     87.2035   7.9948916889e+01   5.2123898208e+01    0.2202952    0.2099698 -18.08 0.0009884905    1.144    0.126
       139 -10.7722     67.7811     83.7855   7.8052233328e+01   5.2553564106e+01    0.3023777    0.2206295  10.27  0.001113926    1.776    0.437
       140 -10.1685    116.5808     83.1123   6.1151796991e+01   4.3028132403e+01    0.3433678    0.2081896  29.67   0.00134978    2.131    0.531
       141 -11.7797     30.8537     80.4937   9.3207114743e+01   5.8204727662e+01    0.4624623    0.2960086 -56.61  0.002304381    1.474    0.321
       142 -10.0251     14.9015     83.9942   1.0097664460e+02   5.8550894306e+01    0.1948714    0.1806366 -85.71 0.0004331026    1.034    0.033
       143  -9.8996     62.8664     82.4989   7.9691828059e+01   5.3657859176e+01    0.2228664    0.1453501  34.56  0.001018395    1.547    0.354
       144 -10.0406     42.0379     82.0305   8.8468230386e+01   5.6624321826e+01    0.2140597    0.1957702  80.25 0.0004196369    1.078    0.073
       145 -10.7316     65.6560     93.3522   8.1249660309e+01   5.0521210808e+01    0.4990742    0.1746819  32.06  0.001141274    2.931    0.659
       146  -9.6683    146.5341     81.0143   5.2859199817e+01   3.6513259748e+01    0.2246577    0.1476062 -38.22 0.0004540731    1.520    0.342
       147 -11.4216     12.9896     57.9912   9.8224106419e+01   6.5406104091e+01    0.5791926    0.2500461  43.41  0.001533853    2.537    0.606
       148 -13.2012      4.9791     63.2069   1.0334507100e+02   6.4461402248e+01    0.7998294    0.6518085 -87.76  0.004868421    1.124    0.110
       149 -14.1147     16.5755     67.4020   9.7877496742e+01   6.2757907689e+01    0.6732672    0.5173702  89.71  0.001036774    1.262    0.207
       150 -12.7327     13.6240     77.0848   1.0072214615e+02   6.0429147875e+01    0.6081606    0.2856179  38.46 0.0003500449    2.141    0.533
       151 -12.3542      8.1519     73.6896   1.0293818056e+02   6.1611234939e+01    0.6867473    0.4020153  -4.87  0.002886047    2.073    0.518
       152 -11.9818     12.8934     50.2373   9.6833001509e+01   6.7387340932e+01     0.506889    0.3485659 -79.11  0.001473936    1.383    0.277
       153 -11.9259      8.3267     41.9099   9.8017757914e+01   6.9726254308e+01    0.6453276    0.3509919  57.84  0.002632855    2.258    0.557
       154 -10.5109    122.6130     79.5763   5.8387867602e+01   4.2374288456e+01    0.2482148    0.2457894  60.37 0.0002769795    1.010    0.010
       155 -10.2902    115.2409     79.6225   6.0478769916e+01   4.4048405890e+01    0.2168369    0.1430511  39.01 0.0004294877    1.575    0.365
       156  -9.8851     71.1586     79.1302   7.5439098525e+01   5.3117511690e+01    0.2031061    0.1720329  80.04  0.001027311    1.312    0.238
       157 -10.1858     60.3168     78.5246   7.9703125605e+01   5.5038480672e+01    0.3123003    0.2221355 -29.58  0.001019204    1.731    0.422
       158 -11.3924     14.6131     96.3481   1.0242239163e+02   5.5359382281e+01    0.3424263    0.2146973 -57.25  0.001779078    1.563    0.360
       159 -12.8798     44.8251     74.8619   8.5590038051e+01   5.8124205195e+01    0.3631685    0.2855601  53.56 0.0006498945    1.335    0.251
       160  -9.4213    184.4462     76.5227   4.4247175526e+01   2.8480709267e+01    0.1408493    0.1318458 -38.07 0.0002517224    1.028    0.028
       161 -11.2709     57.8682     90.3141   8.3607679825e+01   5.2445212558e+01     0.456742     0.364668 -11.12  0.002130277    1.574    0.365
       162 -10.5753     75.8712     74.4676   7.2208552803e+01   5.3384491126e+01    0.4035664    0.2627764  12.68  0.001364834    2.378    0.579
       163 -11.5027     77.4124     69.8196   7.0142371079e+01   5.4173474170e+01    0.5581394     0.338283  40.49  0.001311375    1.645    0.392
       164 -10.1137     92.1372     74.0173   6.6060010120e+01   5.0286209469e+01    0.3969375      0.19005  34.20  0.001073765    2.504    0.601
       165 -10.2030     48.2677     55.9964   7.8559549910e+01   6.2338984221e+01     0.246655    0.1800591 -44.67 0.0006167623    1.348    0.258
       166 -10.5924     51.9333     62.5379   7.8858360721e+01   6.0228099580e+01    0.3497869    0.2576794 -55.75 0.0009614021    1.311    0.237
       167 -10.3642     47.5708     60.4185   8.0323305144e+01   6.1368716899e+01    0.3621563    0.2588473  18.31  0.001783421    1.576    0.365
       168 -10.6359     54.3774     74.2585   8.1123163356e+01   5.6986203875e+01    0.3756269    0.1938717  49.39 0.0005681326    2.199    0.545
       169 -11.9647     50.5274     68.2677   8.1219884083e+01   5.9024673039e+01    0.4875619    0.2957488 -57.91  0.001131188    1.578    0.366
       170 -10.7337    207.6204     73.0755   3.9894654253e+01   2.3938197716e+01    0.2137106    0.1877359  41.22 0.0003408087    1.246    0.198
       171 -10.7132    101.0305     71.7872   6.2346214969e+01   4.8859196112e+01    0.4281574    0.2622584  73.59 0.0008707793    2.814    0.645
       172 -10.3177     42.7355     68.1852   8.4897932910e+01   6.0075450906e+01    0.2554263    0.2250146  -5.51  0.001419903    1.261    0.207
       173 -10.9576     36.1331     68.2645   8.8146059250e+01   6.0824288012e+01    0.4355537    0.1791617  41.22  0.001451272    2.520    0.603
       174 -10.1664    194.9254     69.8152   4.0824004644e+01   2.7124134060e+01    0.1969656    0.1810455  12.58 0.0003856495    1.170    0.145
       175 -10.6130    167.8689     69.4883   4.5136171477e+01   3.3398202780e+01    0.2407929    0.2023041 -24.14  0.000344126    1.211    0.174
       176 -10.2657    130.0716     69.4777   5.3245640576e+01   4.2550115855e+01    0.4160197    0.2828619 -14.49  0.001739126    2.036    0.509
       177  -9.9835    127.7039     66.3688   5.2831352122e+01   4.3696574936e+01    0.2262367     0.209363  88.76  0.001178733    1.126    0.112
       178 -12.6536    122.4251     63.8536   5.3364445165e+01   4.5444960995e+01    0.4943895    0.4565236 -73.62 0.0005202268    1.131    0.116
       179 -10.9170     29.4324     60.4970   8.9720716887e+01   6.3491328996e+01    0.6046984    0.3300354  14.94  0.002425159    2.115    0.527
       180 -11.2274     26.6048     55.4379   9.0017365565e+01   6.5037245215e+01    0.3309468     0.249853 -66.94 0.0006285055    1.239    0.193
       181 -11.6826     27.0411     49.7120   8.8235669735e+01   6.6427608344e+01     0.615661    0.4247157  77.16  0.002195429    1.817    0.450
       182 -12.0877     37.0543    243.0928   1.0494154105e+02   2.1561676265e+01    0.5024708    0.2429186  73.64  0.002289646    2.272    0.560
       183 -11.2179     34.7314     42.3962   8.1287575976e+01   6.7368550783e+01    0.4719979    0.3148018  -1.20  0.001963566    1.906    0.475
       184 -11.4655     29.0814     65.6817   9.1106793524e+01   6.2202076982e+01    0.3324762    0.2596184 -80.57  0.000435015    1.264    0.209
       185 -11.2290     32.7503     63.6618   8.8746885461e+01   6.2355713450e+01    0.3966582    0.1960257  32.27  0.001615904    2.038    0.509
       186 -11.3980     95.0095     65.8999   6.2368296187e+01   5.1423036402e+01    0.6499594    0.3530473  33.16  0.001520091    2.276    0.561
       187 -10.4285     69.2573     63.6876   7.1430100239e+01   5.7100163321e+01    0.3639984    0.1970708 -54.63  0.001221777    1.886    0.470
       188  -9.9263    185.0303     64.0043   4.0711893495e+01   3.0190038158e+01    0.2166515    0.1668261  15.33 0.0003530727    1.613    0.380
       189  -9.4533    143.8036     64.3780   4.8373754526e+01   4.0088557717e+01    0.2080897    0.1372626  46.45  0.000341656    1.546    0.353
       190 -10.0877     77.2384     62.7423   6.7828383246e+01   5.5806423415e+01    0.2761187    0.2285846 -89.04 0.0007222916    1.456    0.313
       191  -9.8789    202.6791     61.0829   3.7440911300e+01   2.6610022701e+01    0.1964235    0.1585418 -29.20 0.0004239305    1.148    0.129
       192 -10.2590     93.2519     60.6526   6.1117869451e+01   5.2902022623e+01    0.2079575    0.1820924   0.49 0.0005491051    1.328    0.247
       193 -10.5678     95.5527     58.4679   5.9530981201e+01   5.2831884097e+01    0.5833083    0.3329964  71.73  0.001953192    3.225    0.690
       194  -9.8646    168.8776     60.1476   4.2201160193e+01   3.4589324927e+01    0.2164686    0.1904569 -62.13 0.0002496508    1.157    0.136
       195 -11.7966     58.6590     58.6937   7.4428462730e+01   6.0095372417e+01    0.4252028    0.3758734 -41.89  0.001371722    1.125    0.111
       196 -11.2856    147.4029     56.9199   4.5201169415e+01   4.0416731099e+01    0.3877896    0.2522416 -56.67  0.001161821    1.757    0.431
       197  -9.2648    230.4389     68.5351   3.5999546507e+01   1.9934624897e+01    0.1274626    0.1076776 -33.40 0.0001181463    1.025    0.024
       198 -11.0001     86.2961     57.2605   6.2360025111e+01   5.5121999972e+01    0.3648114    0.1933122 -38.46  0.001440695    2.021    0.505
       199 -10.8596     88.2459     52.6319   5.9877655036e+01   5.5638937780e+01    0.5000353    0.2307798 -47.16  0.001864978    2.262    0.558
       200  -9.9601     69.3547     57.7004   6.9289731914e+01   5.8441371451e+01     0.345249     0.201548 -65.16  0.001370338    2.263    0.558
       201 -11.1731    132.2522     55.5820   4.8066789382e+01   4.4465541460e+01    0.4302288    0.3506995  -1.66  0.001650996    1.500    0.334
       202 -12.2825    129.6799     49.1198   4.6389073141e+01   4.6187540558e+01    0.4420208    0.4133901  11.96 0.0005365582    1.171    0.146
       203 -10.6313     75.3509     55.8787   6.6100665687e+01   5.7684476703e+01    0.2678679    0.2454591 -69.75 0.0004624529    1.157    0.136
       204 -13.0078    105.3200     52.3800   5.4104588597e+01   5.1721113319e+01    0.5455016    0.3818319  42.86 0.0005051053    1.449    0.310
       205 -10.5419    104.3282     47.0845   5.2349796664e+01   5.2920445518e+01    0.3525801    0.2323398  31.62  0.001070574    1.855    0.461
       206  -9.7250    230.5057     54.5357   3.2641046952e+01   2.1610292253e+01    0.1265787     0.108545 -34.76 0.0008095514    1.012    0.012
       207  -9.2382     82.3891     54.1380   6.2646425204e+01   5.6604494571e+01    0.2099404    0.1420783 -56.52 0.0007163828    1.644    0.392
       208 -10.0092     61.8336     54.8842   7.1606731387e+01   6.0435046044e+01    0.3143621    0.2146629 -40.69  0.001479482    1.504    0.335
       209 -11.4699      6.1064     50.6830   1.0100237694e+02   6.7617027033e+01    0.5757715    0.3647344  78.32  0.002373718    1.674    0.402
       210  -9.3000    173.2963     52.3191   3.9131242458e+01   3.4647124863e+01    0.1442249    0.1110997  21.98 0.0006039865    1.613    0.380
       211 -10.1172    119.9129     52.2017   4.9919733979e+01   4.8153694132e+01     0.283216    0.2018163  35.26 0.0008186471    1.588    0.370
       212  -9.4749     73.5243     50.9576   6.4957105771e+01   5.9099896806e+01    0.2168716    0.1287838 -23.93 0.0008098219    2.570    0.611
       213 -10.5883     45.3602     49.8761   7.7965849241e+01   6.4207487890e+01    0.4100248    0.1959917 -52.82  0.001711686    1.964    0.491
       214  -9.8687    237.4881     50.4627   3.1011300734e+01   2.0716086918e+01    0.1249834    0.1037932 -37.74 5.142587e-05    1.016    0.015
       215  -9.7171     77.9823     50.4681   6.2935025221e+01   5.8289785153e+01    0.2393321    0.1466598  44.86  0.001040356    1.618    0.382
       216  -9.4382    200.0202     49.0657   3.4546510636e+01   2.8761851465e+01    0.1625078    0.1437458 -39.37 0.0003866134    1.032    0.031
       217 -11.4068     58.4692     46.3983   6.9930212223e+01   6.2915978828e+01    0.5169897    0.3444642 -82.50   0.00211485    2.569    0.611
       218 -10.7694    151.4718     45.9412   4.0784559441e+01   4.1052899656e+01    0.2914086     0.248663 -37.01 0.0006435149    1.166    0.142
       219  -9.6414     78.6064     47.1411   6.1332400019e+01   5.8834156570e+01    0.2036156    0.1416152 -30.27 0.0004798388    1.604    0.377
       220 -10.2169    143.3100     45.6548   4.2237491033e+01   4.3204880204e+01    0.2557548    0.2215563  83.24 0.0005453865    1.176    0.149
       221  -9.9873    139.2846     43.4249   4.2262663873e+01   4.4583653859e+01    0.2687211    0.2483843  24.94  0.001439464    1.185    0.156
       222 -10.5133    112.9338     45.0408   4.9076165011e+01   5.1131672872e+01    0.3968319    0.2526049  30.25  0.001624858    2.054    0.513
       223 -11.2810     97.3862     38.3910   5.0907466763e+01   5.6126255740e+01    0.4999195    0.4302953  71.18  0.002031586    1.212    0.175
       224 -11.2067     91.7789     43.7794   5.5044010453e+01   5.6525786668e+01    0.5401319    0.3010347 -50.11  0.001691507    2.013    0.503
       225 -10.1709     95.4752     42.8023   5.3393714148e+01   5.5825661036e+01      0.31192    0.2382295  -8.06 0.0009640206    1.663    0.399
       226 -11.3550     52.5474     41.5348   7.0902317863e+01   6.4990822915e+01    0.5835789    0.3930558 -30.53  0.002763824    1.680    0.405
       227  -9.1654     83.3458     44.6869   5.8465828671e+01   5.8283826252e+01    0.1546295    0.1207731 -87.56 0.0007046786    1.712    0.416
       228 -10.5510    131.3743     41.8064   4.3341196603e+01   4.6892014030e+01    0.3255712    0.2534577 -55.96 0.0007671089    1.352    0.260
       229  -9.9854     72.5997     42.3422   6.1764757908e+01   6.1052574943e+01    0.3798616    0.2305674 -66.55  0.001086627    2.662    0.624
       230 -10.0220    108.5901     41.8614   4.9016497942e+01   5.2757855663e+01      0.37071    0.1479192  43.88  0.001229216    2.784    0.641
       231 -10.4912     18.6123     42.1641   9.1329670843e+01   6.9019908004e+01    0.4768874    0.1838871 -57.01  0.001721231    2.148    0.535
       232 -11.4134     23.9047     41.3762   8.7677957665e+01   6.8766494285e+01    0.7844937    0.4189295  73.33  0.002948354    3.483    0.713
       233 -13.0191     27.6522     37.8806   8.4076590407e+01   6.9235385078e+01    0.6424109     0.406207 -27.50  0.002004601    1.797    0.443
       234 -11.9117     24.5121     34.5255   8.4946827183e+01   7.0346600077e+01    0.2942583    0.2306963  -9.37  0.001070496    1.368    0.269
       235 -10.3079    121.8771     40.4594   4.5005912475e+01   4.9574912548e+01    0.2305647    0.1452562  58.02 0.0003744857    1.529    0.346
       236 -10.7595     69.8704     37.0873   6.0580887972e+01   6.2643856024e+01    0.2909996    0.2384358   9.34 0.0004128604    1.414    0.293
       237 -12.0652     45.3070     38.5464   7.3570036592e+01   6.6801914438e+01    0.5611649    0.2999022  48.53  0.001504855    2.238    0.553
       238  -9.7545    152.3652     38.9102   3.8257711188e+01   4.1811185109e+01     0.207088    0.1820002 -37.31 0.0004528976    1.137    0.120
       239 -11.1879    225.1793     37.9132   2.9056508180e+01   2.4602354420e+01    0.3086379    0.2033982  86.11 0.0003584777    1.758    0.431
       240 -11.3266    221.7378     31.9772   2.7858181483e+01   2.5980866670e+01    0.2896773    0.1714246 -35.37 0.0003084098    1.419    0.295
       241  -8.9025    160.2702     38.2728   3.6753498797e+01   3.9846917936e+01    0.1391152    0.1109553  29.94 0.0006874631    1.479    0.324
       242  -9.7852     86.0132     38.5143   5.4803739803e+01   5.8821313400e+01    0.2152393    0.1456984  51.93 7.119709e-06    1.450    0.310
       243 -11.0510     81.1281     36.3418   5.5636851700e+01   6.0330735056e+01    0.3628469    0.3261593 -87.91  0.001935792    1.267    0.210
       244  -9.4385     84.9179     34.5683   5.3415046011e+01   5.9768267014e+01    0.2184623    0.1422098  50.38 0.0004175792    1.489    0.328
       245  -9.6193      1.4456     37.5128   1.0183790299e+02   7.1092716799e+01    0.1295906    0.1099508 -59.68 4.929051e-05    1.031    0.030
       246 -11.3859     75.2454     35.0984   5.7381224017e+01   6.1868103066e+01    0.5046559    0.3296879  11.30  0.001348405    2.512    0.602
       247 -10.5640     79.6570     28.7435   5.2586344211e+01   6.1976883934e+01    0.5196385    0.2222665 -33.06  0.001533864    2.500    0.600
       248 -12.9326     57.7981     34.1610   6.4871403933e+01   6.5601441823e+01     0.376168    0.3183568  23.52  0.000745273    1.213    0.176
       249  -9.4896    134.4273     35.2195   4.0258058180e+01   4.7044166133e+01    0.2147567    0.1338552 -42.82 0.0009435575    1.611    0.379
       250 -10.1342     12.4934     32.5039   9.2786289553e+01   7.1807131246e+01     0.224685    0.2052325  19.23 0.0006844031    1.200    0.167
       251 -11.3114     17.6173     30.9056   8.8521587292e+01   7.1819889824e+01    0.4593055    0.2513223  24.20  0.002270256    1.911    0.477
       252 -10.5303      9.2842     34.3680   9.5626608934e+01   7.1541724947e+01    0.2656884    0.1688996 -44.30 0.0009464489    1.436    0.303
       253 -11.3199      8.1626     31.1528   9.5615623076e+01   7.2383506804e+01    0.3126668     0.235075 -35.23 0.0003892488    1.268    0.211
       254 -10.1421    108.1030     34.3081   4.6029941029e+01   5.4087159639e+01    0.2533543    0.1741322  44.40 0.0008466435    1.474    0.322
       255 -10.6507    246.8926     32.8279   2.6152641615e+01   2.0831596422e+01    0.1657789    0.1524025 -10.43 0.0004850941    1.241    0.194
       256  -9.4784    192.6651     33.7151   3.1104879733e+01   3.2347799015e+01    0.1347748    0.1022119  32.98 0.0004458105    1.623    0.384
       257 -10.1965    232.8367     32.1806   2.7022351286e+01   2.3653704889e+01    0.1553754    0.1403843   1.60 0.0003873665    1.296    0.229
       258 -10.0670    205.8552     32.1673   2.9325683180e+01   2.9455716445e+01    0.1985349     0.157182 -52.97 0.0002711027    1.150    0.131
       259  -9.8115    166.5776     32.2651   3.3870417714e+01   3.8990796125e+01     0.198531    0.1406087 -12.14 0.0009537088    1.647    0.393
       260 -10.7420     97.9978     31.4574   4.7672574932e+01   5.7096764637e+01    0.2484083    0.2107251  23.81 0.0007466058    1.294    0.227
       261 -10.8891    102.6845     29.0703   4.5245997654e+01   5.6266543195e+01    0.4819877    0.3263159  84.57  0.001833691    1.883    0.469
       262 -10.4627     49.8609     28.8892   6.6482465351e+01   6.8085906977e+01    0.5221527    0.2566605 -31.75  0.002027156    2.603    0.616
       263 -10.8514    237.1771     29.5362   2.6065885410e+01   2.3060462370e+01    0.2196496    0.1451654  19.75  0.001182738    2.255    0.557
       264 -12.0543    111.8177     27.5409   4.2188957638e+01   5.4107061374e+01    0.3080516    0.2595207 -23.07 2.753258e-05    1.269    0.212
       265 -10.5545     60.0681     26.9644   6.0131005254e+01   6.6536826010e+01     0.236363    0.2051647 -53.20 0.0008262964    1.263    0.208
       266 -10.1616    204.1919     25.8917   2.7773752310e+01   3.0529487000e+01    0.3533982    0.1387653 -45.73  0.001480049    2.276    0.561
       267 -10.6467    174.9803     26.4102   3.0936134464e+01   3.7543635295e+01    0.2854079    0.1907722 -30.18  0.001426275    1.449    0.310
       268 -12.5765    226.7898    244.8191   6.9426358562e+01  -4.2676595444e-01    0.6018787    0.2795211   6.89  0.003549048    2.428    0.588
       269 -13.3031     74.3365    238.0311   9.7056702123e+01   1.8456887692e+01     0.678836    0.5959433  65.72  0.005433985    1.299    0.230
       270  -9.6201     98.0364    242.2023   9.2524775727e+01   1.5075738255e+01    0.1599247   0.06715307  31.48 0.0006675306    1.750    0.428
       271 -10.0787    195.6000    238.2455   7.3649764097e+01   3.6991947880e+00    0.2107665    0.1247823   4.01  0.001405121    1.641    0.391
       272  -9.7627    134.7738    238.2352   8.4832381230e+01   1.1146767812e+01    0.1492058   0.08184982 -35.47 0.0008859437    2.452    0.592
       273 -10.7038    244.3074    236.8844   6.5713865402e+01  -1.5305259908e+00    0.1387607    0.1055178  -9.00  0.001159024    1.416    0.294
       274 -11.2709     30.5428    234.2086   1.0592762930e+02   2.3642360249e+01     0.360435    0.1266493  73.93  0.001741917    3.494    0.714
       275  -9.8720    177.3793    234.7975   7.6407576055e+01   6.2727161400e+00    0.1388877   0.09076508 -17.84 0.0009490104    1.687    0.407
       276 -11.0915      8.0944     24.6588   9.3799261196e+01   7.3945644434e+01    0.4547402    0.1838132  10.21  0.001966044    2.750    0.636
       277 -11.3221     14.0945     23.0163   8.8337045822e+01   7.3940695762e+01    0.2803125    0.1884667 -26.64  0.000370478    1.508    0.337
       278 -11.6513      6.2386     20.4268   9.3997049333e+01   7.5041418382e+01    0.2971941     0.231925  16.11 0.0006497489    1.392    0.281
       279 -10.1512    159.9803    235.5311   7.9696350703e+01   8.3419114153e+00    0.1712132   0.08403774  30.12 0.0003876824    1.530    0.347
       280  -9.5068    118.1199     26.0282   4.0075624869e+01   5.2640461514e+01     0.341467    0.1577576  39.97  0.001201086    2.727    0.633
       281 -10.3263     69.0384     26.0808   5.5530686544e+01   6.4815544503e+01    0.4172983    0.1685927  38.80  0.001446938    2.900    0.655
       282 -10.2298      1.6652     25.5878   9.9273967249e+01   7.4003801177e+01    0.2314769    0.1467496 -67.05 0.0006579598    1.368    0.269
       283  -9.1276    219.2884     25.3239   2.6361187629e+01   2.7218593312e+01    0.1202545   0.09610501  20.62  0.000367663    1.607    0.378
       284 -10.0009    193.5095     25.0173   2.8527073286e+01   3.3132558592e+01     0.205368    0.0804324 -47.01  0.000540478    2.389    0.581
       285 -10.7784     86.7685    232.8932   9.4089515090e+01   1.7828221521e+01    0.2349846   0.09802615  47.12  0.001230579    2.072    0.517
       286 -10.1580     38.3034    232.4786   1.0424969719e+02   2.3186051076e+01    0.1625668    0.1290614  70.93  0.000504036    1.301    0.231
       287 -10.9927     99.6679     22.3294   4.2999933394e+01   5.7998226621e+01     0.583957    0.2775287  46.25  0.002280424    2.114    0.527
       288 -10.1221     94.1275     22.1314   4.4483967688e+01   5.9448187641e+01    0.2676578    0.2132188  59.97 0.0006458288    1.205    0.170
       289 -10.1057     24.2173    232.1498   1.0715995290e+02   2.4576917266e+01    0.1720476    0.1243863  28.00 0.0006356839    1.330    0.248
       290  -9.5361    226.6200     21.7396   2.4915204775e+01   2.6024308425e+01       0.1769   0.09470008 -36.52 0.0007261399    1.519    0.342
       291  -9.6626    186.2220     22.4403   2.8497980794e+01   3.5181134287e+01    0.1891151    0.1233057 -83.11 0.0009349575    1.632    0.387
       292 -10.1865     87.6645     20.9959   4.5916535384e+01   6.1234553993e+01    0.4160368    0.2038128  45.09  0.001663775    2.039    0.510
       293 -10.4434    120.3417     20.9771   3.7484456460e+01   5.2688111341e+01    0.1980558    0.1803471 -30.69 0.0002241808    1.155    0.134
       294 -10.6176     67.1141     21.0440   5.3662926009e+01   6.6070418179e+01    0.3455646    0.2087575  59.24   0.00154655    1.841    0.457
       295 -10.3666     52.4656     18.0659   5.9074756929e+01   6.9611536086e+01    0.4630685    0.1777034  51.57 0.0008089002    3.030    0.670
       296 -12.5197    232.2831    245.6271   6.8688093187e+01  -1.0731098200e+00    0.4162742    0.2002365 -19.28  0.002855852    2.056    0.514
       297 -10.8846     88.6016    241.2169   9.4359360837e+01   1.6330116405e+01    0.1795097    0.1294585 -41.24  0.001257869    1.943    0.485
       298 -10.9850      4.1984    226.3896   1.1113346444e+02   2.7288083371e+01    0.2648814    0.1442054  77.46  0.001792889    1.744    0.427
       299  -9.2661    190.3480    226.3065   7.2986585210e+01   5.6603238253e+00    0.1160889   0.06778984   8.17 0.0007042708    1.701    0.412
       300 -10.8072    120.9380    225.7080   8.6285382530e+01   1.4685554030e+01    0.1744147     0.122963  31.51 0.0008898578    1.077    0.071
       301  -9.7090     66.4464    226.4587   9.7936214387e+01   2.1232857141e+01    0.1154145   0.08805516  39.43 0.0004503247    1.038    0.037
       302 -10.5175    173.0447     19.7741   2.9071427845e+01   3.8774288259e+01    0.2683399    0.1551058 -44.63  0.001258235    1.613    0.380
       303  -9.7567    152.5498     17.6709   3.0857680250e+01   4.4366961293e+01    0.2911914      0.17608  76.99  0.001332117    1.632    0.387
       304 -10.9289    108.1116     17.3480   3.8561898681e+01   5.6413780215e+01    0.3285878    0.2242744  47.69  0.001557876    1.439    0.305
       305 -10.4376    194.9619     16.8497   2.6058620345e+01   3.3649005137e+01    0.1960273    0.1736193 -58.06 0.0003640576    1.008    0.008
       306 -11.3987     21.0015    220.3264   1.0745273363e+02   2.6931294820e+01    0.1982647    0.1379481  74.12   0.00142493    1.382    0.276
       307 -10.0520    192.0000    217.9896   7.1544205337e+01   6.4273648626e+00     0.159861   0.06056311 -37.84 0.0008106764    3.000    0.667
       308 -11.6340     10.3962    216.9726   1.0963540137e+02   2.8454060347e+01     0.323295    0.1775248  32.31  0.001845159    1.460    0.315
       309  -9.9184     38.2008    217.2011   1.0357368759e+02   2.5866235878e+01    0.1684177   0.09723328  50.04 0.0007107655    1.336    0.251
       310 -10.2895     69.3601     17.0000   5.0439795112e+01   6.6191728615e+01     0.577181    0.1458106  54.86  0.001510414    3.985    0.749
       311 -11.3832    235.9268    214.5306   6.3777895313e+01   1.4833083916e+00    0.2257596    0.1243701 -20.63  0.001018523    1.660    0.398
       312  -9.6777    143.7460     16.2519   3.1567958674e+01   4.6886641199e+01    0.1983874    0.1615847  41.52 0.0007623938    1.341    0.254
       313 -11.7306    238.6784    210.3158   6.2724126983e+01   1.5926314901e+00    0.2555182    0.2099696  10.78  0.001971525    1.383    0.277
       314  -9.4897    169.7618    213.0192   7.4942954356e+01   9.9755550836e+00    0.1295007   0.09534761 -32.10 0.0004922415    1.569    0.363
       315 -10.2606     20.6502    212.1186   1.0725433614e+02   2.8460461941e+01    0.2107688    0.1094738  42.80  0.001299174    1.387    0.279
       316 -10.9479      1.4842    211.0177   1.1143189039e+02   3.0263068363e+01    0.2166058    0.1156396  78.56 0.0008442334    1.743    0.426
       317 -11.9691      5.6044    208.4530   1.1048097280e+02   3.0417757055e+01    0.3534859    0.2306902  86.44  0.001939825    1.544    0.352
       318  -9.1077    208.4910    211.4870   6.7740295400e+01   5.0964004512e+00    0.1143165   0.08233082   9.82 0.0001259661    1.057    0.054
       319 -10.3215     10.9441    208.0216   1.0928736560e+02   3.0064510009e+01    0.1757653    0.1491639  27.42 0.0005889807    1.325    0.245
       320 -10.5169    246.8736    203.5564   6.0461220052e+01   1.3342447957e+00    0.3148489    0.1640868 -41.11  0.001833455    3.035    0.670
       321  -9.1525    188.2882    204.6959   7.0272831908e+01   8.5530521582e+00    0.1004656   0.08704528  41.76 0.0003700053    1.566    0.362
       322 -10.0629    156.5185     11.5134   2.8207649844e+01   4.3948802699e+01    0.1420557     0.131364 -78.90 0.0002107539    1.012    0.012
       323 -10.6592    175.3501    202.3479   7.2337597236e+01   1.0644021537e+01    0.2101252    0.1665566  25.31 0.0004438715    1.127    0.112
       324 -10.9747     19.9364    200.1926   1.0698958367e+02   3.0796710486e+01    0.4448168    0.1659537 -78.15  0.002228879    2.833    0.647
       325  -9.6692    117.2510    201.4337   8.4302582131e+01   1.9051663215e+01    0.1802629   0.09526926  40.59 0.0008953321    1.577    0.366
       326 -11.3365     29.5324    215.6259   1.0541989559e+02   2.6995925541e+01    0.2710894    0.1822825  21.80  0.001564061    1.531    0.347
       327  -9.6980    107.5334     10.5448   3.5546743701e+01   5.7344654113e+01    0.1461725    0.1365718  68.49 0.0002149709    1.002    0.002
       328  -9.5398    136.4938    215.5285   8.1900053934e+01   1.4145019677e+01    0.1218148   0.09416688  23.37 0.0001379983    1.066    0.062
       329 -11.2889     16.2361    193.0231   1.0760143605e+02   3.2539345008e+01    0.4070918    0.1977201  26.88   0.00211519    1.835    0.455
       330  -9.5248    222.3049    192.3754   6.2463835302e+01   5.5245493334e+00    0.1209942   0.07028764   1.91  6.69129e-05    1.768    0.434
       331 -10.3408    244.9331    188.0360   5.8256390103e+01   3.1605532298e+00    0.1715222    0.1225361   0.61 0.0005196309    1.045    0.043
       332  -9.5234    212.0184    187.7681   6.3405375383e+01   7.4406288535e+00    0.1499658   0.08279633  32.93 0.0008122312    1.627    0.385
       333  -9.3149      2.3257    187.3233   1.1076759303e+02   3.4804113593e+01    0.1023498    0.0845883 -42.14 0.0004026321    1.688    0.408
       334 -11.3839     15.7695    181.9460   1.0730392502e+02   3.4853335759e+01    0.4326112    0.1929726  62.44  0.001750406    1.952    0.488
       335 -10.4475    168.1972    183.4834   7.0793545608e+01   1.4394297925e+01    0.2333297    0.1759279  49.23  0.001397675    1.603    0.376
       336  -9.6940     58.7814    181.5932   9.6278387883e+01   3.0571673371e+01    0.1848467   0.09561802  40.00 0.0005534303    1.557    0.358
       337  -9.0586      1.6882    180.2861   1.1076243280e+02   3.6300922645e+01    0.1261603   0.06085835  52.30  0.000286723    1.578    0.366
       338  -9.8878    244.5922    178.1694   5.6647488896e+01   4.2663060367e+00    0.1619614   0.08412694 -16.51 0.0009539135    1.786    0.440
       339 -10.6156     46.5906    177.4047   9.9102040373e+01   3.2845077876e+01    0.2706551    0.2032965  54.86  0.001135391    1.129    0.114
       340 -10.5825     18.3784    173.1036   1.0626342018e+02   3.6519741093e+01    0.2515325    0.1409402  40.01  0.001197502    1.447    0.309
       341 -12.0570     50.7537    162.1704   9.6666211896e+01   3.5725620657e+01     1.257194    0.5955173  26.34   0.00578632    2.045    0.511
       342  -9.3647    177.2676    168.6514   6.6438820878e+01   1.5222157976e+01    0.1120707    0.1038169  86.52 0.0003232306    1.618    0.382
       343 -10.4567      5.0551    168.5263   1.0959282395e+02   3.8566262910e+01    0.1745818    0.1040534  28.03  0.001025001    1.571    0.363
       344 -11.8036     36.8756    165.7787   1.0084231189e+02   3.6415224733e+01    0.4989368    0.2723098  51.00  0.002369107    1.571    0.363
       345 -10.2394    186.8216    165.2150   6.3967456206e+01   1.4205616056e+01    0.1952178    0.1502626  84.62 0.0009691849    2.947    0.661
