#   1 NUMBER                 Running object number                                     
#   2 MAG_AUTO               Kron-like elliptical aperture magnitude                    [mag]
#   3 X_IMAGE                Object position along x                                    [pixel]
#   4 Y_IMAGE                Object position along y                                    [pixel]
#   5 X_WORLD                Barycenter position along world x axis                     [deg]
#   6 Y_WORLD                Barycenter position along world y axis                     [deg]
#   7 A_WORLD                Profile RMS along major axis (world units)                 [deg]
#   8 B_WORLD                Profile RMS along minor axis (world units)                 [deg]
#   9 THETA_WORLD            Position angle (CCW/world-x)                               [deg]
#  10 FWHM_WORLD             FWHM assuming a gaussian core                              [deg]
#  11 ELONGATION             A_IMAGE/B_IMAGE                                           
#  12 ELLIPTICITY            1 - B_IMAGE/A_IMAGE                                       
         1 -12.1421    161.3530     47.2940   8.0150956162e+01   3.9037235575e+01     1.325288     1.076007   8.94  0.004505601    1.288    0.223
         2 -11.2432    175.6943     12.3177   6.5418856481e+01   3.9582633082e+01    0.7968508    0.5566978 -67.68  0.003721408    1.755    0.430
         3 -10.5637    175.7099     20.0142   6.8090703301e+01   3.8784993541e+01    0.5911701    0.4453813  44.90  0.002251225    1.297    0.229
         4 -10.8465    171.2597     17.0878   6.7753486245e+01   4.0274052888e+01    0.7745197     0.399969 -32.84  0.003165679    1.891    0.471
         5  -9.2576    119.8431      9.6013   7.4550677129e+01   5.4269235677e+01    0.4256656    0.3003852  15.03  0.002003358    1.450    0.311
         6  -9.1573    234.3105      7.6782   5.7465225360e+01   2.5000221157e+01    0.3429787    0.2106734 -23.73  0.001729472    1.519    0.342
         7  -8.5332    206.3004      2.9691   5.8691959517e+01   3.2399351174e+01    0.1924561    0.1798704 -10.82 0.0004267105    1.078    0.073
         8  -8.6045    141.3138    199.6508   1.1970786709e+02   1.6806011428e+01     0.225846    0.1662118  68.22 0.0006959038    1.622    0.384
         9  -9.4537    165.6118    249.0982   1.2136624570e+02   6.8905232241e+00    0.2307231    0.1498291  53.66 0.0004795743    1.584    0.369
        10 -18.5265     70.4941    234.3751   1.3547233231e+02   2.1168250502e+01     3.872554     3.019359  69.04   0.01188775    1.141    0.124
        11  -9.1499    137.0475    171.2713   1.1648818304e+02   2.2025649043e+01    0.2336143    0.2043763  74.12 0.0008433745    1.251    0.200
        12 -10.4661    193.6699    167.1349   1.0465463949e+02   1.2733876997e+01    0.5946967    0.2946053 -43.54  0.002788586    2.461    0.594
        13  -9.5685    190.5079    162.4775   1.0436852795e+02   1.3976158262e+01    0.4483691    0.2374033 -37.08  0.002204428    2.068    0.517
        14  -9.2229    201.3799    168.5939   1.0350584392e+02   1.1145818220e+01    0.4334299    0.2020999  44.69  0.002043267    1.963    0.490
        15  -9.2919    141.8508    165.7181   1.1461225521e+02   2.2166411084e+01    0.2421842    0.2133175 -74.42 0.0005501888    1.323    0.244
        16  -8.8761    203.9698    163.1920   1.0200339418e+02   1.1414570105e+01    0.3427628    0.1931293 -35.02  0.001419622    1.926    0.481
        17 -10.6139    147.4518    159.3995   1.1237436385e+02   2.2280457803e+01    0.5901799    0.4245937  69.73  0.002012129    1.845    0.458
        18  -9.2050    142.7730    154.5326   1.1249515424e+02   2.3957739415e+01    0.2502507    0.2392578  56.32 0.0009699729    1.074    0.069
        19  -9.3834    136.3356    197.3471   1.2033812383e+02   1.7922445921e+01    0.2234966    0.1983367 -83.68 0.0007599377    1.333    0.250
        20 -14.2852     56.9392    211.6821   1.3623612715e+02   2.6194849512e+01    0.4077852    0.3038748  74.57  0.001376371    1.139    0.122
        21 -10.2196    176.0583    202.0918   1.1370043380e+02   1.0960028029e+01    0.2062397    0.1789901  30.14            0    1.093    0.085
        22  -7.5830      3.2606    159.6047   1.4306022711e+02   4.0558674190e+01    0.1114889   0.05427816  69.67 0.0006969635    1.707    0.414
        23  -8.1544    158.9002    157.7440   1.0971079816e+02   2.0511285628e+01    0.2311996    0.1754838 -85.30  0.001031129    2.063    0.515
        24  -8.8612    154.0202    156.9823   1.1057675946e+02   2.1522546959e+01    0.1961554    0.1567426  76.32 0.0005031177    1.641    0.391
        25  -7.6584     22.4058    157.2264   1.3904543759e+02   3.9502168455e+01   0.09075855   0.07905383 -38.83 0.0006822902    1.663    0.399
        26 -10.1062    172.1613    196.7738   1.1361742307e+02   1.2302590965e+01    0.3473971    0.2817014 -77.48  0.001236168    1.912    0.477
        27 -10.5408    134.3949    147.3237   1.1300205920e+02   2.6745140580e+01    0.6595693    0.3350967 -58.58  0.002652839    2.490    0.598
        28 -10.4146    133.0576    141.7742   1.1226394579e+02   2.8021444637e+01    0.4751816    0.3257303 -67.08  0.002149762    1.843    0.457
        29  -9.1214    139.9927    141.5292   1.1067032593e+02   2.6817979427e+01    0.2127466    0.1859562  82.92 0.0005203064    1.328    0.247
        30  -8.6282    139.9367    145.9855   1.1153646777e+02   2.6006026490e+01    0.2846913    0.1669122  56.88  0.001313953    1.988    0.497
        31  -9.8304    147.7626    151.2077   1.1082615433e+02   2.3653642407e+01    0.4150932    0.3113649 -82.89  0.002165952    1.961    0.490
        32 -10.1879    143.8441    146.1109   1.1070808566e+02   2.5276385942e+01    0.5044515    0.3202981  61.33  0.002415307    1.982    0.495
        33  -9.3942    152.8721    201.3240   1.1779555708e+02   1.4758006900e+01    0.3575704     0.219722 -65.50  0.001711611    2.590    0.614
        34  -8.4815     17.2479    148.6220   1.3953823033e+02   4.1647299190e+01    0.1908677    0.1320412  16.95  0.001309439    2.071    0.517
        35  -8.0517      7.4878    149.5126   1.4165963639e+02   4.2221101438e+01    0.1073297    0.0788265  79.28 0.0008101695    1.036    0.035
        36  -9.1629     27.1227    146.4715   1.3723140997e+02   4.1252303698e+01    0.2437595    0.1368752 -78.94  0.001526034    1.510    0.338
        37  -8.4700     18.5103    199.1222   1.4214826309e+02   3.2135538288e+01     0.136059   0.09960574  66.71 0.0004469286    1.045    0.043
        38  -7.7268     15.2325    143.5471   1.3962094216e+02   4.2835062573e+01    0.1132401     0.106748   7.52  0.000549914    1.522    0.343
        39  -9.7223     35.5087    139.7741   1.3474624982e+02   4.1875540258e+01    0.3031099    0.2015419  -0.09  0.001737942    2.729    0.634
        40  -8.3895    187.1902    138.9056   1.0020896051e+02   1.8182936419e+01    0.1887352    0.1801553  35.60 0.0003340826    1.172    0.146
        41 -10.1211    233.5102    131.4912   9.0120911114e+01   1.0108415543e+01    0.2546268    0.2150707  19.63   0.00153175    1.092    0.084
        42 -10.1508    156.2306    192.1130   1.1587627384e+02   1.5559266303e+01    0.5539472    0.3388494 -75.44  0.002508827    3.783    0.736
        43  -8.6869    128.8391    190.8899   1.2092205395e+02   2.0087761288e+01    0.1922199    0.1440092  47.15 0.0004791573    1.129    0.115
        44  -9.4909    110.5154    123.7666   1.1405428468e+02   3.5512377428e+01    0.2530195    0.2398154 -11.01 0.0004691734    1.180    0.152
        45  -9.3909    130.7824    207.0040   1.2256322171e+02   1.7303763017e+01    0.2899097    0.2002662 -33.02   0.00184187    2.081    0.520
        46  -8.3431    115.0150    118.2792   1.1180082744e+02   3.5872885006e+01    0.1927413    0.1740966  50.74 0.0004132081    1.108    0.097
        47  -8.8792    176.5501    186.9860   1.1129474117e+02   1.2928636113e+01    0.1862527    0.1566966  51.40 0.0005079649    1.289    0.224
        48  -9.5907    137.0760    201.3742   1.2071628917e+02   1.7198878926e+01    0.4074012    0.1629104  37.20  0.001734094    2.251    0.556
        49  -9.1475    195.5462    183.2555   1.0719685973e+02   1.0205465896e+01    0.2525752    0.1983563  22.86  0.001512863    1.089    0.082
        50  -9.8682    140.8921    181.4434   1.1726022956e+02   1.9705612214e+01    0.3408205    0.2334091  68.82 0.0008652933    1.913    0.477
        51  -8.5406    250.6416    112.8994   8.3102564618e+01   9.1600667210e+00    0.1926827    0.1141778 -22.05 0.0003373966    1.514    0.340
        52  -8.9567    237.8942    112.7449   8.5037622635e+01   1.1692835272e+01    0.2328024    0.2059475  75.26  0.001342657    1.607    0.378
        53  -7.6863    167.6372    113.3293   9.8321850332e+01   2.6485974355e+01    0.1476986    0.1190725 -85.15 6.949923e-05    1.802    0.445
        54  -7.4368    184.2957    111.3503   9.4349025866e+01   2.3241613140e+01    0.1544385    0.1095954   8.58 0.0007033284    1.681    0.405
        55  -9.7533    106.9425    105.3921   1.1101476458e+02   3.9974063185e+01    0.4013886    0.2019447  45.66  0.001734602    2.070    0.517
        56 -10.3142    111.1559    107.9828   1.1050509686e+02   3.8693342402e+01    0.3626724    0.2332198  39.71 0.0009440807    1.604    0.377
        57  -9.0625    137.6937    177.7090   1.1733994289e+02   2.0838043481e+01    0.1931269    0.1743443 -51.69 0.0002738828    1.269    0.212
        58  -8.9798    164.9482    181.0305   1.1252223607e+02   1.5758128086e+01    0.2861138     0.211371  67.81  0.001125387    1.842    0.457
        59  -8.7958      1.3988    178.9666   1.4427737415e+02   3.7089909713e+01    0.1376179   0.07441138 -85.61 0.0003766209    1.516    0.341
        60  -9.0801     53.2662    104.9392   1.2574597373e+02   4.7679578668e+01    0.2805896    0.1742166  28.10   0.00120497    1.922    0.480
        61  -9.2501    222.1653    177.7435   1.0152940740e+02   6.3516327331e+00     0.214073    0.1684423 -48.11  0.001306746    1.925    0.481
        62  -8.7951     66.0769    100.8242   1.2136312104e+02   4.7096766358e+01     0.201163    0.1670616  81.66 0.0008009029    1.258    0.205
        63  -8.2674    211.9508    177.5326   1.0326233143e+02   8.1233450755e+00    0.1873894    0.1497861 -13.15 0.0002011045    1.277    0.217
        64  -8.1347     97.9580     97.4703   1.1159103092e+02   4.3189185981e+01    0.2027374    0.1375643  41.50 0.0005865215    1.551    0.355
        65  -8.9092    151.1535     71.8642   9.0485947768e+01   3.7547522345e+01    0.2205835    0.2086411 -61.12 0.0002573194    1.192    0.161
        66  -8.4708    188.7092     68.9063   8.1748217395e+01   2.8999604247e+01    0.2365679    0.1948095  32.99 0.0002188167    1.211    0.174
        67 -11.4747    150.1487     61.5171   8.7392947640e+01   3.9554854741e+01     1.002406    0.6107525 -21.34  0.002685287    1.782    0.439
        68 -10.3372    169.4256    241.3724   1.1990404800e+02   7.2029887739e+00    0.2769324     0.202583  25.64 0.0007763586    1.268    0.211
        69  -9.7460    244.1801     56.3927   6.9703016380e+01   1.7502367238e+01    0.2640333    0.2281111  21.08 0.0004675139    1.183    0.155
        70  -8.7149    248.0492     52.6420   6.8240160630e+01   1.7080235429e+01    0.2634517    0.1808208  -3.03 0.0005634377    1.524    0.344
        71  -8.5644    129.8266     56.5047   9.0660348783e+01   4.5129817170e+01    0.2658665    0.2003456 -31.65 0.0003171167    1.272    0.214
        72 -10.7355    165.5051     38.1596   7.6171981304e+01   3.9259768239e+01    0.5349701    0.4429043  15.41 0.0009431164    1.234    0.190
        73 -10.2816    139.9752     33.0659   7.9591495951e+01   4.6417419622e+01    0.2573456    0.2137751 -14.08 0.0002894778    1.166    0.142
        74  -8.6098    151.4360    238.9672   1.2257675990e+02   1.0030140207e+01    0.2450487    0.1235683  33.80  0.001071734    1.728    0.421
        75  -9.8701    204.7573    176.3683   1.0432704588e+02   9.5169881509e+00    0.3091115    0.2662597  16.56 0.0009547464    1.077    0.072
        76  -9.0685    197.4430    177.6624   1.0587780550e+02   1.0619640638e+01    0.2409781     0.178389  37.55  0.001472208    1.188    0.158
        77  -8.4604    190.4624     15.5100   6.4480225577e+01   3.5359338738e+01    0.1446251    0.1393812  19.48 0.0001199284    1.019    0.018
        78 -10.0794      6.2350    233.3974   1.4537409722e+02   2.7743822109e+01    0.2441216    0.1572465  66.51  0.001727243    1.050    0.048
        79 -10.0863    177.7613    221.9288   1.1614960266e+02   8.2158646244e+00    0.2035682       0.1843  -8.02  0.001351683    1.325    0.245
