#   1 NUMBER                 Running object number                                     
#   2 MAG_AUTO               Kron-like elliptical aperture magnitude                    [mag]
#   3 X_IMAGE                Object position along x                                    [pixel]
#   4 Y_IMAGE                Object position along y                                    [pixel]
#   5 X_WORLD                Barycenter position along world x axis                     [deg]
#   6 Y_WORLD                Barycenter position along world y axis                     [deg]
#   7 A_WORLD                Profile RMS along major axis (world units)                 [deg]
#   8 B_WORLD                Profile RMS along minor axis (world units)                 [deg]
#   9 THETA_WORLD            Position angle (CCW/world-x)                               [deg]
#  10 FWHM_WORLD             FWHM assuming a gaussian core                              [deg]
#  11 ELONGATION             A_IMAGE/B_IMAGE                                           
#  12 ELLIPTICITY            1 - B_IMAGE/A_IMAGE                                       
         1 -15.5648    245.6440     98.1672   7.4151579467e+01   1.1150921968e+01     9.439939     2.441423 -39.21   0.03068711    3.492    0.714
         2 -15.3026    210.1389     68.3142   7.2443134576e+01   2.4082039749e+01     9.301891     4.139469  74.74   0.03294154    3.197    0.687
         3 -16.8095    245.1076     28.3810   5.9503566599e+01   2.1953089912e+01     4.099757     2.391387  64.23   0.01927854    1.742    0.426
         4 -15.0261    247.9438      6.8527   5.5086695295e+01   2.3966540588e+01    0.8470857    0.7268767 -23.19  0.003832679    1.740    0.425
         5 -14.1499    122.6521     11.6600   7.1632367225e+01   5.2210770029e+01     4.610454     2.152854  24.11   0.01604787    3.645    0.726
         6 -12.7527    140.5136      5.5111   6.6536051373e+01   4.8690324665e+01     1.308662    0.8233899  56.22  0.005588863    1.325    0.245
         7 -14.2345    195.1531     50.3732   7.0275221767e+01   3.0411079956e+01     2.149871     1.631607 -86.03   0.01164846    1.305    0.234
         8  -7.5641    180.8188     30.3456   6.7279635710e+01   3.6546595658e+01    0.7457781    0.3545965 -17.57  0.002879529    3.632    0.725
         9 -11.5452    207.7160     11.7818   5.9570724571e+01   3.2296608336e+01    0.3258231    0.2233935 -84.03  0.001111125    1.290    0.225
        10  -9.0934    165.1420     12.6592   6.4851631206e+01   4.2255223592e+01    0.1897032    0.1627232 -60.95 0.0004361459    1.242    0.195
        11  -8.6728    171.5152     12.0201   6.3815896581e+01   4.0801415005e+01    0.1618523    0.1284771 -32.99 0.0003819874    1.464    0.317
        12  -9.1954    179.6479      4.9815   6.1020582214e+01   3.9554710044e+01    0.2215279    0.1684636  -2.32  0.001327206    1.885    0.470
        13  -9.7493    210.0268      3.7641   5.7586142716e+01   3.2612269752e+01    0.3165484    0.1550014 -44.61  0.001678753    1.979    0.495
        14 -10.3700     71.8828     55.1092   1.0056025930e+02   5.6730727916e+01    0.1861767    0.1771832 -30.17 0.0005764817    1.240    0.194
        15 -14.0873    239.4374    237.1434   1.0346880318e+02  -1.1387368802e+01     2.256585     1.379907   5.13  0.005210481    1.884    0.469
        16 -12.7739     53.6054    160.3337   1.3111404204e+02   3.6134821801e+01     0.880165    0.7475473 -75.42  0.002975967    1.032    0.031
        17 -10.5041    230.4343    166.8127   9.1541891614e+01   1.6286561904e+00    0.2615495    0.2248459 -77.24 0.0009716794    1.501    0.334
        18  -9.7480    204.0102    161.5036   9.5436156029e+01   7.8227924457e+00    0.4125465    0.2841262 -77.76  0.001707779    2.417    0.586
        19 -13.3199    185.2373     77.3180   7.8785382066e+01   2.8547205411e+01        2.011     1.525053  23.09  0.009537336    1.857    0.462
        20 -13.0356    169.1299     72.3770   8.0507629575e+01   3.3306405460e+01      1.35404     1.043497 -50.83  0.001954816    1.320    0.242
        21  -8.1475     42.2947    247.2921   1.4280268712e+02   1.8122584975e+01   0.09646729   0.08761912 -69.56 0.0002186441    1.556    0.357
        22  -8.4916    108.9888    157.0030   1.1637553622e+02   2.8361531990e+01    0.2138465    0.1983273 -79.83  0.001151347    1.018    0.017
        23  -8.7862    198.6088    153.1908   9.4685292126e+01   1.0624046725e+01    0.2117906    0.1395744 -32.62 0.0004845209    1.605    0.377
        24  -8.7092    203.3482    152.3043   9.3536596970e+01   9.8063008879e+00    0.1532587    0.1185006   3.74 0.0007041082    1.697    0.411
        25 -10.2403    191.0042    150.5015   9.5640171204e+01   1.2799949089e+01    0.5487738    0.2729745 -65.97  0.001383776    5.733    0.826
        26  -9.2242    174.7722    151.6546   9.9380838245e+01   1.6069424692e+01    0.2548879    0.2191891 -51.29 0.0002876268    1.154    0.133
        27  -8.9528     14.0232    234.2793   1.4680949486e+02   2.4012440490e+01    0.1543375    0.1135249  70.16 0.0004037012    1.110    0.099
        28 -10.0094    133.3857    143.6837   1.0731610821e+02   2.6755831307e+01     1.117498     0.262734 -54.80  0.002289889    7.066    0.858
        29  -9.7807    192.0048    144.0023   9.3947672753e+01   1.3934792946e+01    0.2339157    0.2247525 -68.90 0.0003636421    1.050    0.047
        30 -10.9844    193.1308    139.4740   9.2667700218e+01   1.4626368197e+01    0.5029701    0.3013462 -53.34  0.001271113    1.770    0.435
        31 -11.6729    188.6781    137.9173   9.3220578666e+01   1.5934170894e+01    0.5232651    0.3747112  63.87  0.002374626    1.606    0.377
        32 -11.2217    210.2191    135.9624   8.8500225986e+01   1.1616820828e+01     0.442228    0.3775544 -86.09  0.002297978    1.351    0.260
        33 -11.4696    188.3632    130.2505   9.1468508533e+01   1.7598982126e+01     0.574603    0.3704273  59.19   0.00248237    1.719    0.418
        34 -11.8248     60.0112    155.4752   1.2873554848e+02   3.6494140700e+01    0.6107433    0.3977143 -83.16  0.001494919    1.603    0.376
        35 -10.2401    135.7558    129.0278   1.0324993234e+02   2.9640656361e+01    0.7210378    0.2118062 -46.12  0.002100246    3.351    0.702
        36 -10.3036    133.2442    120.2641   1.0170154466e+02   3.2156564595e+01    0.5186772     0.411042 -81.29  0.002414268    1.533    0.348
        37 -11.7627    204.9665    128.8445   8.7845396301e+01   1.4174494842e+01    0.4792887    0.4368599  56.79   0.00258407    1.150    0.130
        38 -12.9215    185.5460    122.0958   9.0076259705e+01   1.9923224823e+01     0.872361    0.8536784   6.35  0.004719739    1.111    0.100
        39 -10.8132    198.1889    121.5847   8.7426354472e+01   1.7139905389e+01    0.4699511    0.2103728 -39.37  0.001332999    2.207    0.547
        40 -11.4094    194.1968    117.5920   8.7239531485e+01   1.8848665192e+01    0.4594953    0.3249467  71.24 0.0009793031    1.681    0.405
        41 -11.3003    196.4752    129.0058   8.9532965981e+01   1.6029987828e+01    0.4692188    0.3339981 -71.47  0.002056141    1.795    0.443
        42 -11.1997    160.5295    128.7750   9.7191989010e+01   2.4229316939e+01    0.4490201    0.4092429 -62.83  0.002290028    1.092    0.085
        43 -10.0805    160.9918    214.2337   1.1490206166e+02   5.7244440514e+00    0.2209917    0.2036548 -53.17 0.0002277507    1.180    0.153
        44 -11.3720    218.6224    125.5690   8.4577467115e+01   1.1840927597e+01    0.4825713    0.4042657 -42.85  0.001297978    1.115    0.103
        45 -11.5073    204.2456    122.8873   8.6579090234e+01   1.5517544068e+01    0.5535553    0.3810569  47.64  0.002589435    1.536    0.349
        46  -9.4219    151.9967    121.3044   9.7331158586e+01   2.7788265328e+01     0.348926    0.1584165 -53.34  0.001185572    2.499    0.600
        47  -9.4014    222.0229    120.0315   8.2714991168e+01   1.2167461102e+01    0.2289693    0.2019694 -61.44  0.000463288    1.095    0.086
        48  -9.4304      6.3388    120.3165   1.3777792878e+02   5.0122020230e+01    0.1262006   0.07106726 -45.36 0.0007048403    1.703    0.413
        49 -10.5107    176.2526    116.1451   9.0548332015e+01   2.3298793607e+01    0.5182024    0.3148657 -65.85  0.001973743    2.289    0.563
        50 -11.3898    167.6303    113.9219   9.1856721653e+01   2.5768289066e+01    0.5116768    0.4332818  47.03 0.0008187499    1.210    0.173
        51  -9.8781     11.6728    115.0565   1.3550717795e+02   5.0957609211e+01    0.1793035    0.1276816 -64.40 0.0005185191    1.100    0.091
        52 -10.1433    134.8989    107.4385   9.7932589941e+01   3.4600261557e+01    0.7168821    0.1699076 -47.21  0.001850875    4.413    0.773
        53  -9.8346    156.5985    112.4108   9.3967579865e+01   2.8643879426e+01    0.3037674    0.2237727 -71.51 0.0008918004    1.668    0.401
        54  -9.8243    196.9164    111.4580   8.5219363847e+01   1.9436399094e+01    0.2286816    0.1504731  54.88  0.001022654    1.571    0.364
        55  -9.8506    127.0892    111.9018   1.0113485731e+02   3.5321512559e+01    0.3346329    0.2403053 -65.14 0.0007203798    1.630    0.386
        56  -8.9943    140.5587    105.3305   9.5945676678e+01   3.3788829084e+01    0.2637155    0.1912415  26.06  0.001035336    1.717    0.417
        57 -10.4472    123.3849    102.8169   9.9680916442e+01   3.8064312211e+01    0.4126712    0.2829721 -67.57  0.001772097    1.905    0.475
        58  -8.7205     92.3920    101.3257   1.0802288214e+02   4.4395772685e+01    0.2646073     0.133736 -59.08 0.0007595286    2.415    0.586
        59  -9.6221    146.7085    101.3206   9.3362564487e+01   3.3223061777e+01    0.3085647    0.2614874  34.29 0.0006430527    1.266    0.210
        60 -10.2462    169.1354     97.5414   8.7273146388e+01   2.8714876489e+01    0.3898441    0.2327189  66.19  0.001077006    1.996    0.499
        61  -9.2395    133.4039     97.5419   9.5616112564e+01   3.6995605211e+01    0.2858183    0.2447478 -74.48  0.001433285    1.319    0.242
        62 -10.1631    209.2011     96.4710   7.9368667643e+01   1.9438213097e+01    0.4122052    0.2890907 -76.24  0.001909971    1.718    0.418
        63 -10.8251    156.1266     95.6384   8.9621613870e+01   3.2171275690e+01    0.5136015    0.3579771  32.54  0.001790867    1.725    0.420
        64  -9.8385    140.0648     91.6610   9.2309901136e+01   3.6676839518e+01    0.3771138    0.2807545 -56.96 0.0008677926    1.463    0.316
        65 -11.2299    170.3279     86.7557   8.4155106828e+01   3.0473758693e+01     0.579824    0.4681841  19.95   0.00246033    1.600    0.375
        66  -8.6364    205.0024     89.3267   7.8349013749e+01   2.1709084499e+01    0.2018942    0.1810894  76.39 0.0002720251    1.108    0.097
        67 -11.1495    153.5910     85.9049   8.7519834058e+01   3.4634833360e+01    0.3254119    0.2763424 -36.27 0.0009524848    1.221    0.181
        68 -10.9177    159.2587     85.5826   8.6175841332e+01   3.3347615021e+01    0.5246924    0.3795801 -54.73  0.001513705    1.463    0.316
        69 -10.1039    163.1958     83.4346   8.4741349965e+01   3.2799069139e+01    0.4169956    0.2791109  67.36  0.001863374    1.638    0.390
        70 -10.8957     67.4144     70.1763   1.0697002720e+02   5.4753485857e+01    0.6869616    0.1688251 -47.28  0.002221262    3.962    0.748
        71  -8.3715    129.5098     73.5104   8.9660599306e+01   4.2444949111e+01    0.1451354    0.1412392  75.12 0.0001135773    1.069    0.065
        72  -8.2562    137.3197     72.6808   8.7500831797e+01   4.0820653511e+01    0.1498383    0.1164569 -80.25 0.0007042609    1.664    0.399
        73 -13.5676    248.5917     39.4418   6.1401844227e+01   1.9735689395e+01         0.44    0.3149912 -47.56 0.0007049221    1.310    0.237
        74 -11.0464    119.4956     64.9838   8.9614661808e+01   4.6105930968e+01    0.4467892    0.3462737 -86.83   0.00130322    1.841    0.457
        75 -10.2318      2.0785    197.9970   1.4653180173e+02   3.2813197122e+01    0.3065098    0.1464221 -85.06  0.001722588    1.678    0.404
        76  -9.9361    192.1683    193.6184   1.0453206132e+02   3.8357709858e+00    0.7474845    0.3788729 -64.43  0.002216669    5.070    0.803
        77 -10.8471    213.8709    188.1258   9.9074655962e+01   7.8068182209e-01    0.4555849    0.2791453  49.79  0.001196541    1.821    0.451
        78 -13.1123     17.9808    182.1192   1.4201249708e+02   3.4890274666e+01    0.8594678    0.6617129 -89.33  0.003863644    1.009    0.009
        79  -7.7700    171.3183     35.2993   7.0014528192e+01   3.8237854489e+01    0.1366445     0.098783  38.43 0.0005543666    1.617    0.382
        80  -9.8069    198.1154     30.1858   6.4921455160e+01   3.2410652068e+01    0.3120992    0.2066932 -24.42  0.001639871    1.927    0.481
        81  -8.9845    190.8512    180.6787   1.0220281075e+02   6.6373618701e+00    0.2818498    0.1708984 -53.83 0.0008337104    1.867    0.464
        82  -7.4304    177.5610     25.5860   6.6511694646e+01   3.7896525661e+01    0.5473617    0.3595736  37.36  0.001847572    1.934    0.483
        83  -9.1850    146.1007    156.9679   1.0717077183e+02   2.1026065995e+01    0.2680165    0.2186184  55.31 0.0005350493    1.241    0.194
        84 -10.9611    144.7102     27.3082   7.2292741248e+01   4.5571988059e+01    0.3725746    0.3071485 -10.82  0.001176331    1.439    0.305
        85  -8.4384    154.4074     25.7859   7.0140103559e+01   4.3441818951e+01    0.1688415     0.130401  -3.10 0.0008081765    1.672    0.402
        86  -9.5038     56.9548     20.4485   9.2828190117e+01   6.3933797460e+01    0.2816953    0.1459641 -30.86  0.001006618    1.913    0.477
        87  -8.7322    195.0011     19.9969   6.2860488902e+01   3.4361242377e+01    0.2617776    0.1540988  38.61  0.001247607    2.463    0.594
        88  -8.3120    159.5993     20.4059   6.7782670008e+01   4.2786608279e+01    0.1304701    0.1119361  62.61            0    1.064    0.060
        89 -10.7078    221.9789    177.1287   9.5266924110e+01   1.3028909724e+00    0.4872876    0.4039516  76.80  0.002112773    1.662    0.398
        90 -10.6667    228.3654    172.3642   9.3084049457e+01   9.9401122844e-01    0.2715244    0.2197696  23.78  0.001185441    1.312    0.238
        91 -10.1166    219.7948    170.1028   9.4210855140e+01   3.0262054933e+00    0.4165582    0.2004866  58.23  0.001490971    3.318    0.699
        92 -12.3408     69.2622    145.4334   1.2457737679e+02   3.7683052386e+01     1.441222     1.166763 -52.72  0.005757712    1.193    0.161
        93 -11.8155     46.7424    164.7201   1.3343698784e+02   3.5911467033e+01      0.41617    0.3473229 -29.20 0.0009751621    1.600    0.375
