#   1 NUMBER                 Running object number                                     
#   2 MAG_AUTO               Kron-like elliptical aperture magnitude                    [mag]
#   3 X_IMAGE                Object position along x                                    [pixel]
#   4 Y_IMAGE                Object position along y                                    [pixel]
#   5 X_WORLD                Barycenter position along world x axis                     [deg]
#   6 Y_WORLD                Barycenter position along world y axis                     [deg]
#   7 A_WORLD                Profile RMS along major axis (world units)                 [deg]
#   8 B_WORLD                Profile RMS along minor axis (world units)                 [deg]
#   9 THETA_WORLD            Position angle (CCW/world-x)                               [deg]
#  10 FWHM_WORLD             FWHM assuming a gaussian core                              [deg]
#  11 ELONGATION             A_IMAGE/B_IMAGE                                           
#  12 ELLIPTICITY            1 - B_IMAGE/A_IMAGE                                       
         1 -14.7892      4.2105    137.9897   1.4931927899e+02   4.5338935434e+01     2.448932    0.4718588 -86.17  0.007807425    5.801    0.828
         2 -13.4807    191.8341     25.2085   7.3443576974e+01   3.3550147165e+01    0.6012171    0.4776113 -19.31  0.003190643    1.273    0.215
         3 -13.9782    206.4330      5.6408   6.6003298834e+01   3.1819748901e+01    0.9340559    0.7921485  63.18  0.003835025    1.215    0.177
         4 -15.7429     15.2702    243.9424   1.5118507718e+02   2.5124657037e+01     4.141897    0.7751892  35.15   0.02121525    3.380    0.704
         5 -13.2752    236.9072    248.5428   1.1457011131e+02  -2.5315927499e+00    0.8491814    0.1991451  33.77  0.003980561    3.276    0.695
         6 -12.6705     39.6780    237.4924   1.4687161875e+02   2.3748121419e+01     0.242682    0.2188081  87.35 0.0007722498    1.443    0.307
         7 -13.5364      8.1756    208.5981   1.5134826266e+02   3.1390248347e+01    0.8122461    0.6518017 -27.37  0.006392931    2.239    0.553
         8 -11.0213    184.3706    237.1599   1.2146285841e+02   5.4118626839e+00    0.1184317    0.1033687 -46.19 0.0009498985    1.725    0.420
         9 -12.4741    120.8099    231.3023   1.3195559250e+02   1.4932427626e+01     0.333488    0.1496707  48.66  0.001892983    1.902    0.474
        10 -14.5585     44.7785    230.0481   1.4562939368e+02   2.4368157331e+01    0.7766315    0.6949627  48.61  0.004584109    1.361    0.265
        11 -11.3035     64.6624    202.1529   1.4012134098e+02   2.6764874273e+01    0.1936988    0.1819233  82.52 0.0005223711    1.293    0.227
        12 -11.6284     70.6241    193.4944   1.3819213648e+02   2.7575969677e+01    0.2060373    0.1817457  64.29 0.0003625121    1.133    0.117
        13 -10.7491     80.3469    180.1196   1.3482522962e+02   2.8789656979e+01    0.2111156    0.1689295  45.79 0.0004005496    1.118    0.105
        14 -12.8471     67.3372    178.3085   1.3750833394e+02   3.0807242952e+01    0.4259722    0.2562537 -44.01  0.002348208    2.431    0.589
        15 -12.1045     86.8272    171.2608   1.3238206292e+02   2.9593323522e+01    0.3839087    0.3270048 -28.26   0.00145085    1.601    0.375
        16 -14.2805    100.9364    248.8651   1.3698306204e+02   1.5127204159e+01     1.235162    0.3265461  34.03  0.005412222    3.522    0.716
        17 -11.5545     88.1103    153.3488   1.2976334954e+02   3.2970969419e+01    0.2452067    0.2283617   4.65 0.0006585036    1.327    0.247
        18 -11.5033     67.4895    143.3698   1.3357532062e+02   3.7919035610e+01    0.5644438    0.2944048  56.30   0.00271068    1.982    0.496
        19 -10.4906     99.1222    154.0965   1.2721114502e+02   3.1165349522e+01    0.1894121    0.1788789   4.60 0.0006515331    1.265    0.210
        20  -9.9337    110.5219    137.9712   1.2176616448e+02   3.2584125952e+01    0.1874466    0.1138178 -30.69 0.0008096779    2.500    0.600
        21 -10.1108     97.8236    135.8169   1.2459792045e+02   3.5132556196e+01      0.18753    0.1800128   2.75 0.0004413604    1.206    0.171
        22  -8.9308    107.3163    124.7132   1.2007120556e+02   3.5890556297e+01    0.1409223    0.1050797  72.04 0.0002958609    1.588    0.370
        23  -9.6940     28.4895     60.4900   1.3237424045e+02   6.1383255394e+01    0.1277145    0.1102542 -67.25 0.0001046319    1.033    0.032
        24 -13.1529    189.0046    248.3880   1.2204461717e+02   3.6194841189e+00    0.6802657     0.167211  33.07  0.002765836    3.909    0.744
