#   1 NUMBER                 Running object number                                     
#   2 MAG_AUTO               Kron-like elliptical aperture magnitude                    [mag]
#   3 X_IMAGE                Object position along x                                    [pixel]
#   4 Y_IMAGE                Object position along y                                    [pixel]
#   5 X_WORLD                Barycenter position along world x axis                     [deg]
#   6 Y_WORLD                Barycenter position along world y axis                     [deg]
#   7 A_WORLD                Profile RMS along major axis (world units)                 [deg]
#   8 B_WORLD                Profile RMS along minor axis (world units)                 [deg]
#   9 THETA_WORLD            Position angle (CCW/world-x)                               [deg]
#  10 FWHM_WORLD             FWHM assuming a gaussian core                              [deg]
#  11 ELONGATION             A_IMAGE/B_IMAGE                                           
#  12 ELLIPTICITY            1 - B_IMAGE/A_IMAGE                                       
         1 -10.2346     60.1516     22.2055   6.6043202683e+01   6.4148982030e+01    0.4840892    0.2278083 -28.02  0.002356999    2.252    0.556
         2 -13.2844     42.7832     45.3653   8.2575316828e+01   6.3224910299e+01    0.8172327    0.5318204  41.41 0.0009410664    1.833    0.454
         3 -12.2363    124.9912     27.5067   4.9422132518e+01   5.0062558229e+01    0.6685176    0.4540939  53.82  0.001266107    1.302    0.232
         4 -12.7775    119.4062     37.9228   5.4106977924e+01   5.0062784004e+01    0.9131129     0.637753 -67.55  0.003253269    1.979    0.495
         5 -10.2667    147.6945     16.1494   4.1786487742e+01   4.5922964076e+01    0.4616005    0.2435775  45.09  0.002218948    2.021    0.505
         6 -11.4093    142.4369     27.4629   4.6027376193e+01   4.5945078633e+01     1.379327    0.7608204  25.75  0.005606627    3.149    0.682
         7 -11.1174    153.0606     25.5494   4.3666730876e+01   4.3624129471e+01     1.091672    0.5961773  48.72   0.00528676    1.836    0.455
         8 -11.4577    136.7753     22.9847   4.5677706721e+01   4.7798186452e+01    0.8859048    0.3793952  50.45  0.003866138    2.125    0.529
         9 -12.0642    130.9977     14.9190   4.4191521727e+01   5.0004709786e+01     1.333569    0.5436562  68.58  0.005596406    2.375    0.579
        10 -11.5756    165.1337     17.9628   3.9780032858e+01   4.1579396168e+01    0.6205611    0.3624235  30.63  0.002864344    2.719    0.632
        11 -11.6492      6.8012     34.7590   9.6174415780e+01   6.8626562293e+01     3.199361          nan -49.63  0.009092338    6.671    0.850
        12 -10.4592     46.9592     19.3324   7.0156587920e+01   6.6653780518e+01    0.3118493    0.2276333 -13.72  0.001408508    1.285    0.222
        13 -12.1680     36.2542     17.4397   7.4143493211e+01   6.8444375148e+01     0.675651    0.4207085 -28.37  0.001293582    1.525    0.344
        14 -11.8858     48.4934     12.9179   6.6580849234e+01   6.7210046108e+01    0.6021875    0.2906404  42.61  0.002360578    1.939    0.484
        15 -11.7974     26.2950     28.1614   8.3673284638e+01   6.8067678371e+01    0.5399318    0.3989256   9.47  0.003051236    1.234    0.190
        16 -12.2923     20.1865     21.3923   8.3990851998e+01   6.9776158114e+01      0.64271    0.2331979 -42.11  0.001557623    2.474    0.596
        17 -12.3400     17.1928     12.7348   8.1743835743e+01   7.1372085138e+01    0.6041446     0.372194 -21.85  0.002360385    1.413    0.292
        18 -12.0669     22.7676     11.6727   7.8217842525e+01   7.0913397230e+01    0.4501381    0.2857763   1.56  0.002057293    1.480    0.324
        19 -10.4161     79.6816     33.2964   6.3596670383e+01   5.9136800219e+01    0.7426963    0.5213289   6.54  0.004015027    1.636    0.389
        20 -10.9043    198.9692     29.5267   3.8521898974e+01   3.2348276938e+01    0.5299873    0.3667714 -36.07  0.003057163    1.537    0.349
        21 -10.9636    105.9862     20.4359   5.1264623686e+01   5.5189986720e+01    0.4536014    0.4019362 -36.09  0.002037777    1.287    0.223
        22 -12.5439    113.6477     25.4091   5.1212834855e+01   5.2916501331e+01    0.8478638    0.3992899  47.89  0.003027952    1.887    0.470
        23 -10.8263     86.7024      7.4952   5.1246389882e+01   6.0634475595e+01    0.5646079    0.3179607  58.88  0.002559557    1.639    0.390
        24 -11.0280     90.7183     20.9121   5.5413033929e+01   5.8442047384e+01    0.5815307    0.3174957 -30.65  0.002501272    1.999    0.500
        25 -11.0834     85.9112     14.2535   5.4162957145e+01   6.0150911121e+01    0.6782945    0.4076945  15.48    0.0029176    2.087    0.521
        26 -10.9808    178.7348     21.2355   3.8883872970e+01   3.8006494541e+01    0.5454072    0.2638312  47.97  0.001700086    2.412    0.585
        27 -11.8672     68.2885     18.0680   6.1294158143e+01   6.3199173391e+01    0.4619722    0.3750975  27.33  0.001659163    1.045    0.043
        28 -11.4626    211.8834      9.7127   3.2773684842e+01   3.1747785475e+01    0.4414377    0.3316626   5.78  0.001604124    2.327    0.570
        29 -12.4043    237.7797     16.0931   3.2028663771e+01   2.5595691963e+01     1.186638     0.480705  73.63  0.006044734    2.343    0.573
        30 -11.6364    227.4403     15.2735   3.2664101804e+01   2.7813740082e+01    0.5130002    0.3217509 -86.22  0.001806365    1.427    0.299
        31 -11.3900    232.5445      7.2193   3.0658450175e+01   2.7653143982e+01     0.578633    0.2642979  82.72  0.003097127    2.057    0.514
        32 -11.4246    232.8395      3.0412   2.9816406981e+01   2.8039737170e+01    0.7440838    0.2308997  82.01  0.003129432    3.441    0.709
        33 -10.9456    218.8636      3.3259   3.0866757817e+01   3.0918861918e+01     0.327156    0.2448661 -44.37  0.001241622    1.372    0.271
        34 -10.6161    243.9750     12.9937   3.0979397530e+01   2.4713223982e+01    0.2433954    0.1633213 -82.59 0.0003277071    1.267    0.211
        35 -12.0560    247.3158      6.2990   2.9493139283e+01   2.4805401896e+01    0.6206254    0.4871852 -64.37  0.004611253    1.107    0.097
        36 -10.7034    211.3698     17.9205   3.4607760582e+01   3.0952624502e+01    0.3250359    0.1978406 -37.81  0.001575731    1.667    0.400
        37  -9.7507    191.4766     16.5601   3.6269208807e+01   3.5568542521e+01     0.274624     0.219759 -10.97  0.001571082    1.744    0.427
        38 -11.5479    192.7253      7.6724   3.4043517991e+01   3.6223038838e+01    0.6023425    0.4718656   9.18  0.003024681    1.990    0.497
        39 -12.1755    104.5618     12.6339   4.8780712328e+01   5.6298154358e+01    0.4759038    0.4526268 -52.24  0.001759466    1.237    0.191
        40  -9.8798      4.9161     12.5794   8.8729640175e+01   7.2506174073e+01    0.2529809    0.1726998  19.58  0.001770272    1.513    0.339
        41  -9.1307      5.3273      9.3161   8.7014072865e+01   7.2966556677e+01    0.1736983    0.1027028 -26.24 0.0005843237    1.382    0.276
        42 -11.0929    223.9620      2.0300   3.0229711217e+01   2.9978118675e+01     0.446939    0.2166952  87.23   0.00182798    1.898    0.473
        43 -10.1205     65.9234     10.4364   5.8810684463e+01   6.4468108929e+01    0.2673164    0.1876599  47.99 0.0008792251    1.350    0.259
        44  -9.8116     62.6870      6.9209   5.8366392261e+01   6.5417816571e+01     0.267922    0.1660354  16.13  0.001517741    1.710    0.415
        45  -9.7546    168.7882      9.7400   3.7130029743e+01   4.1558839844e+01    0.3099873    0.1503642  53.09  0.001507603    2.037    0.509
        46  -9.3460    163.0397     10.1435   3.7947090922e+01   4.2875372068e+01    0.1933738    0.1529132  54.58 0.0006820399    1.288    0.224
        47  -9.4249      1.1888      8.0498   8.8961887783e+01   7.3478175621e+01    0.2209781    0.0640298 -46.05  0.000954404    2.922    0.658
        48 -11.1804      2.4182      1.9969   8.5298681905e+01   7.4258777478e+01    0.2966094    0.1613706   2.33  0.001770394    1.760    0.432
        49  -9.5504     12.3240      1.7811   7.9130950449e+01   7.3364360680e+01     0.389878    0.1370175  30.23  0.001992031    2.682    0.627
        50  -9.0693     78.2771      7.4517   5.3591378730e+01   6.2367222013e+01    0.3039582    0.2038372  71.53  0.001272969    1.951    0.487
        51 -10.1603     76.5132      3.4947   5.2440849057e+01   6.3075411601e+01    0.2873207    0.2118692  27.96 0.0009306493    1.225    0.184
        52 -10.7616     73.3242      3.3152   5.3309255252e+01   6.3725144345e+01    0.4613642    0.2385541  27.19  0.002158774    2.108    0.526
        53  -9.6349    169.5822      2.6449   3.5196485978e+01   4.2045995589e+01    0.2418361    0.1347885 -67.76 0.0008012416    1.947    0.486
        54 -10.8557    184.0856      4.8335   3.4216748768e+01   3.8478271369e+01     0.391077    0.3458002 -48.94  0.001793802    1.265    0.209
        55 -11.1314    177.3047      6.0107   3.5208718223e+01   3.9930884519e+01    0.4690925    0.2021569  82.20  0.000963395    2.354    0.575
        56  -8.9850    157.5457      6.9538   3.7782123265e+01   4.4478895438e+01    0.1639529    0.1028163  21.61 0.0006681322    2.508    0.601
        57  -9.9245    157.5093      3.4664   3.6830065709e+01   4.4805353453e+01    0.3628535    0.2077528  37.38  0.001836397    2.282    0.562
        58  -8.8266    108.5053      5.5411   4.5370485502e+01   5.6054118139e+01    0.2249249    0.1258238 -22.20 0.0008728948    2.078    0.519
        59  -9.9041    116.7011      2.9750   4.2876385137e+01   5.4404153624e+01    0.3040588    0.2348729  47.13  0.001405111    1.175    0.149
        60 -10.5779    105.3056      1.8137   4.4696599855e+01   5.7078535872e+01    0.3829758    0.2089911  72.91  0.001348553    1.915    0.478
        61 -10.2999    109.9669      1.7608   4.3739438259e+01   5.6035009733e+01    0.3847632    0.1445608  66.62  0.001643183    2.440    0.590
        62 -10.4669     41.4221      4.5297   6.5599631006e+01   6.9261231429e+01     0.364617     0.200337  12.40  0.001949172    2.117    0.528
        63 -11.9078    134.5611      2.8386   3.9821007818e+01   5.0267263241e+01    0.5047269    0.2711278  78.93  0.001611468    1.853    0.460
        64 -10.0481    142.8638      3.5367   3.8801383761e+01   4.8254659566e+01    0.3203344    0.1871885  80.97  0.001685555    1.647    0.393
        65  -8.8999    122.1532      5.3690   4.2685693634e+01   5.2948259973e+01    0.1715033    0.1075134  75.25 0.0004474127    1.547    0.354
        66 -10.0691    207.3355      2.6749   3.1626934138e+01   3.3470977551e+01    0.2381953    0.1695575 -81.43 0.0007931485    1.163    0.140
        67 -10.3438    204.1765      1.6253   3.1655626792e+01   3.4268813615e+01    0.3344433    0.2016103  79.51  0.001050407    1.426    0.299
        68  -9.3191    151.8199      1.3827   3.6970846594e+01   4.6327988698e+01    0.2408459    0.1061735  74.51  0.000899114    2.031    0.508
        69  -9.1859    122.4313      1.2403   4.1279411747e+01   5.3224675614e+01    0.2702979   0.08147775  62.76 0.0008876383    2.555    0.609
        70  -9.6532     82.2240      1.2474   4.9907415566e+01   6.2101074752e+01    0.1619331   0.09289706  60.39 0.0003880809    1.627    0.385
        71  -8.9464     33.5275      1.5367   6.7702152935e+01   7.0759220066e+01    0.1171353   0.08813871  10.96 0.0002825061    1.045    0.043
        72 -10.8315     41.3705    149.1449   1.0722758491e+02   3.9645286460e+01    0.2462175    0.2296201 -23.47 0.0003636529    1.255    0.203
        73  -9.7376    142.9668    249.9704   9.6344616384e+01   2.5601230134e+00    0.1971354    0.1399606  57.43  0.001129794    1.657    0.396
        74 -11.3020     46.7682    146.3794   1.0526507256e+02   3.9743233007e+01     0.777701     0.317374 -61.18  0.003189268    2.121    0.529
        75 -10.5094     63.1756    150.5905   1.0116355076e+02   3.6642017657e+01    0.4413383    0.2996067   4.98  0.001605357    2.107    0.525
        76  -9.6549    234.3414    150.2106   6.0474201696e+01   5.5470375186e+00    0.2489703    0.1750606  11.02  0.001290566    1.889    0.471
        77  -9.7517    216.0000    146.9468   6.2945191690e+01   9.3528686987e+00    0.3969567     0.073086 -41.45  0.001051196    4.933    0.797
        78  -9.6858    239.7645    146.5823   5.8859893286e+01   5.2680424345e+00    0.2397793    0.1631133 -37.18 0.0006395798    1.265    0.209
        79 -10.8414    249.6506    143.1871   5.6653600310e+01   4.2257454286e+00    0.6313543    0.2102968 -39.53  0.002539475    2.529    0.605
        80  -8.7243     93.8107    146.6656   9.1637748930e+01   3.2999986264e+01    0.2097134    0.1324326  46.11 0.0003556525    1.628    0.386
        81 -11.0094     33.2691    144.4237   1.0891945124e+02   4.1670276065e+01    0.4280429     0.299486  45.75  0.001696646    1.514    0.339
        82  -9.5725    104.9318    142.9547   8.7733521106e+01   3.1980772284e+01    0.2256421    0.2132811 -86.54 -0.001320134    1.071    0.066
        83  -8.9088    234.0031    143.4876   5.9151533672e+01   6.7812670350e+00    0.1677667    0.1200289  81.72 0.0008084617    2.410    0.585
        84  -9.5803    132.8801    140.3919   7.9616292169e+01   2.7261325226e+01    0.2806827    0.2154633 -60.68 0.0007720375    1.385    0.278
        85 -10.7572     22.8409    127.0437   1.0966001891e+02   4.6959912765e+01    0.2444001    0.1945556  38.25  0.000259796    1.409    0.290
        86 -11.7734     23.2758    135.5799   1.1068695752e+02   4.4799255712e+01    0.9482709    0.4396116  33.74  0.004457242    2.287    0.563
        87 -11.7648     30.0213    132.8649   1.0827701955e+02   4.4880667724e+01    0.4694859    0.3305006 -88.92 0.0003625329    1.440    0.305
        88 -10.4555    216.8824    138.2717   6.0938515631e+01   1.0792672738e+01    0.3503607    0.2502807 -48.52  0.001130427    1.349    0.259
        89 -10.6194     46.6841    135.3742   1.0356444206e+02   4.2535185241e+01    0.5472401    0.2966367 -76.59  0.001785224    1.984    0.496
        90  -9.8918     80.1308    137.1457   9.3725157176e+01   3.7585467637e+01    0.4304207    0.2868834 -23.84  0.001848352    2.109    0.526
        91  -9.5516     70.6585    138.6996   9.6866264634e+01   3.8610509886e+01    0.1498179    0.1107878 -26.45 0.0007036812    1.671    0.402
        92 -10.0435     39.8340    137.9404   1.0605028530e+02   4.2636147501e+01    0.3501793    0.1761756  39.64  0.001594399    2.089    0.521
        93  -9.8918    245.0152    134.6992   5.5635756656e+01   6.4213777270e+00    0.1738104    0.1605642 -32.39 0.0003876529    1.092    0.084
        94 -10.3757     93.1291    129.7221   8.8274494289e+01   3.7295967880e+01    0.4251225    0.2324328 -68.60  0.001595372    2.396    0.583
        95  -9.4399     87.3443    135.3019   9.1198503723e+01   3.6893270569e+01    0.1542947     0.117128 -19.51 0.0007038814    1.682    0.405
        96 -10.5293     74.1605    132.4151   9.4580011640e+01   3.9676652154e+01    0.3265903    0.2165706 -34.96  0.001481266    1.753    0.430
        97  -9.9487     61.1348    132.4829   9.8603833526e+01   4.1490376838e+01     0.398767    0.2939082   3.87  0.001971777    1.748    0.428
        98  -8.9858     38.4325    133.2864   1.0576226544e+02   4.3954126822e+01    0.2374926    0.1527735  54.75  0.001180927    1.762    0.432
        99 -10.2394    103.8396    130.9948   8.5422100439e+01   3.5084214905e+01    0.2389749    0.2181553  34.60 0.0002882775    1.126    0.112
       100 -10.8395      9.7093    127.9872   1.1380876360e+02   4.7708604648e+01    0.5777205    0.2368298 -56.19   0.00261425    2.012    0.503
       101 -10.0999     81.6816    125.6799   9.0851730544e+01   4.0188965734e+01    0.4639725    0.2605197 -30.12  0.001745965    2.606    0.616
       102  -9.5348     79.1996    123.1819   9.1072788059e+01   4.1196492397e+01    0.2852474    0.2320309 -68.97 0.0005211352    1.262    0.208
       103  -9.4589     40.9708    126.4581   1.0386047120e+02   4.5404061935e+01    0.2182913    0.1654585 -65.08  0.000341808    1.177    0.150
       104  -9.9328      2.1428    125.9008   1.1584455802e+02   4.8692828024e+01    0.2757347     0.175993  78.53 0.0009528858    1.624    0.384
       105  -8.7002    223.5880    126.5165   5.7269767135e+01   1.1676945802e+01    0.1390127    0.1209257 -46.08 0.0001124961    1.056    0.053
       106  -9.0135     60.0373    123.7767   9.7270536285e+01   4.3816606859e+01    0.1985047    0.1692381  66.07 0.0005307517    1.294    0.227
       107  -9.5396     53.4257    125.3155   9.9684280635e+01   4.4271243622e+01    0.3025939    0.1310751 -62.14  0.001051307    2.121    0.529
       108  -9.3928     56.4980    122.0557   9.8068204639e+01   4.4702171493e+01    0.2244789    0.2170302 -14.74 0.0007300444    1.111    0.100
       109  -9.6135     58.1362    118.1869   9.6754327044e+01   4.5451688800e+01     0.309026    0.1734958 -48.87  0.001302519    1.656    0.396
       110  -9.8883     49.5000    123.1715   1.0054360205e+02   4.5277022583e+01    0.3242956     0.261133   0.70   0.00107669    1.479    0.324
       111 -11.0601     44.9292    119.1607   1.0128475798e+02   4.6796281609e+01    0.5681933    0.3484571 -89.71  0.002070867    2.177    0.541
       112 -12.3761    103.8785    122.4164   8.3409996079e+01   3.7132717923e+01    0.4509315    0.3995365   6.34 0.0006154508    1.262    0.207
       113  -9.6540     18.9679    122.6946   1.1026211469e+02   4.8344815011e+01    0.2167415    0.1619564 -71.81 0.0005031172    1.153    0.133
       114  -8.7800    143.4855    122.4485   7.2665563591e+01   2.9125403286e+01    0.1529899     0.152026 -45.57 0.0005193246    1.010    0.009
       115  -9.2477     71.3749    120.9123   9.3046673271e+01   4.2946322801e+01     0.211703    0.1748999 -53.59 0.0006020289    1.138    0.121
       116  -8.9548    221.4795    120.5050   5.6308459023e+01   1.3158774529e+01    0.1396994    0.1237076 -47.97 3.346273e-05    1.039    0.037
       117  -8.8642    148.3212    119.9955   7.0870406156e+01   2.8622512938e+01    0.2541848    0.1235873 -26.50 0.0007041767    4.222    0.763
       118 -11.7021     49.0388     99.8514   9.5888209575e+01   5.1023101582e+01     1.751328    0.6422312 -46.67  0.006681416    2.501    0.600
       119 -11.1586     16.9468    101.0429   1.0758963287e+02   5.3759204630e+01    0.3068562    0.2518511  -9.37 0.0003525678    1.378    0.274
       120 -11.5702      9.6050     97.4362   1.0959683165e+02   5.5097676677e+01    0.5353616    0.4599405   1.74  0.001156999    1.351    0.260
       121 -11.8872      7.1976     88.8722   1.0904538388e+02   5.7240224611e+01    0.6617264    0.4480487  27.00   0.00211446    1.735    0.424
       122 -11.8188     18.0850    106.8468   1.0815826871e+02   5.2283537440e+01    0.8512843    0.3169355 -38.90  0.003331187    3.097    0.677
       123 -11.3950     26.7925     86.5861   1.0115467145e+02   5.6387303318e+01    0.6269653    0.5277873  12.07  0.001827127    1.314    0.239
       124 -12.2080     34.5298     93.5727   9.9760052607e+01   5.4063031967e+01     1.411692    0.6945534 -58.00  0.005534614    1.758    0.431
       125 -11.8669     25.7034    113.5932   1.0668429677e+02   5.0043304701e+01     1.234372    0.5309394  14.77  0.005205886    3.005    0.667
       126 -11.9213     25.2336    108.0586   1.0590739673e+02   5.1432832919e+01    0.7604746    0.4390592 -37.32  0.003423249    1.807    0.446
       127 -11.7084     22.7213     94.9213   1.0439813776e+02   5.4780451933e+01    0.4842747    0.3476863 -29.71  0.002740408    1.421    0.296
       128 -11.4230     18.3015     90.3994   1.0516644338e+02   5.6173015034e+01    0.4398841    0.2652096 -62.57 0.0008031673    1.423    0.297
       129  -9.6804    113.7164    115.9130   7.8966643430e+01   3.6762013792e+01    0.3025322    0.2468858 -28.20  0.001189305    1.339    0.253
       130  -9.8963     79.2389    114.4598   8.9071506716e+01   4.3313109421e+01    0.3566973     0.259422 -81.15   0.00165087    1.759    0.432
       131 -12.8397      2.4390    111.0873   1.1400208517e+02   5.2253880840e+01    0.5421013    0.4090223 -73.65 0.0005932707    1.117    0.105
       132 -10.9898      3.7644    104.5600   1.1269457349e+02   5.3742349272e+01    0.3735256    0.2192766  27.33  0.001610897    1.988    0.497
       133  -9.6829     66.8265    113.9997   9.2997739968e+01   4.5298329009e+01    0.4019845    0.2659305  81.59  0.001699344    2.367    0.578
       134  -9.7490     66.1685    110.5929   9.2443993683e+01   4.6217950699e+01    0.3958936    0.2023747  30.45  0.001671273    2.102    0.524
       135 -10.5213    107.9883    112.1072   7.9652446317e+01   3.8759813666e+01    0.6795762    0.5040634  52.67  0.003198367    1.449    0.310
       136 -10.7542    101.7851    109.3825   8.0792205299e+01   4.0573997287e+01    0.5696129    0.3668107  22.56  0.002372775    1.963    0.491
       137  -9.9115    103.1592    105.8229   7.9450845621e+01   4.1123991882e+01    0.3850761    0.2338376  38.75  0.000840785    1.679    0.404
       138  -9.7290     94.1082    112.4153   8.3899497384e+01   4.1281721073e+01    0.3426073    0.2515246 -78.43  0.001547565    1.780    0.438
       139 -10.0374     49.1538    112.2545   9.8527205794e+01   4.8018639344e+01    0.3255042    0.2904747 -21.91   0.00190403    1.183    0.155
       140 -11.0160    171.4113    109.9740   6.3131688975e+01   2.5635962269e+01    0.6925966    0.4661926  22.41  0.002902732    2.199    0.545
       141 -10.4790    129.0123    109.7549   7.3166607411e+01   3.4998320847e+01    0.3406882    0.1937638  37.82  0.001369911    1.873    0.466
       142 -10.3323    120.5789    108.8925   7.5230462800e+01   3.6956832362e+01    0.3514454    0.3044473  17.91  0.001353821    1.276    0.216
       143 -11.4883     79.5215    108.2410   8.7482199567e+01   4.4752205357e+01    0.6350803    0.3517142  28.43  0.001230238    2.025    0.506
       144  -8.9188     58.8446    109.5993   9.4679680148e+01   4.7460678736e+01    0.1969603    0.1285097  43.19 0.0005573875    1.687    0.407
       145 -10.8713    143.4693    106.0154   6.8486883012e+01   3.2660256495e+01    0.3869339    0.3127073  76.83  0.001356008    1.465    0.318
       146 -11.6685    145.4720    100.1779   6.6454909093e+01   3.3418844437e+01    0.4396673    0.3543086 -36.23 0.0004241685    1.276    0.216
       147 -11.7082     88.5074    103.8774   8.3478474731e+01   4.4258026675e+01    0.6076332    0.4134219  37.64  0.001148624    1.508    0.337
       148  -9.7997    181.0415    103.1765   5.9489925579e+01   2.4823043826e+01    0.3730773    0.2408534 -69.11   0.00156416    2.133    0.531
       149 -10.0843     57.2364    102.8747   9.3700200034e+01   4.9285517249e+01    0.3393486    0.1886009 -59.49  0.001525534    1.733    0.423
       150 -10.1471    120.8675    101.2332   7.3104151414e+01   3.8568526906e+01    0.2971585    0.2048561 -17.26  0.001212765    2.050    0.512
       151  -9.9612    209.7777     98.4669   5.3257067665e+01   1.9452627300e+01    0.3594509    0.2506071 -24.31  0.001768409    1.718    0.418
       152 -10.4791     90.1037     89.3340   7.8987853721e+01   4.7210886282e+01    0.9262406     0.661258  17.59  0.004366164    1.671    0.402
       153 -10.8944     78.7678     97.3324   8.4937435244e+01   4.7405818603e+01    0.4937905    0.3579715  58.09  0.001019876    1.721    0.419
       154 -10.1132     82.7769     93.4030   8.2536116280e+01   4.7617219068e+01    0.3182145    0.2438822   6.01 0.0008402987    1.557    0.358
       155 -10.6714     77.9911     93.0000   8.4030214947e+01   4.8509114733e+01    0.4659517    0.2856669  32.32  0.001871737    1.705    0.413
       156 -11.2075     67.7126     95.6954   8.8279994564e+01   4.9505129664e+01    0.5322437       0.4414  11.41  0.002763008    1.297    0.229
       157  -9.4847     98.1592     97.4840   7.8728113035e+01   4.3939544646e+01    0.3165461    0.2368568  87.47  0.001409649    1.990    0.498
       158  -9.6667    157.3734    106.1385   6.5233761490e+01   2.9537562554e+01    0.2722274    0.2087296  37.03 0.0008184519    1.409    0.290
       159 -10.3470     43.1049     94.6651   9.6843993623e+01   5.2921723315e+01    0.3466619    0.3033013 -10.22  0.001679411    1.193    0.162
       160 -10.2355    117.0686     94.3567   7.2263309758e+01   4.0826437024e+01    0.4120867      0.33064   1.51  0.001977564    1.555    0.357
       161 -11.2057    124.6693     93.8666   7.0031403962e+01   3.9307584889e+01    0.6646185    0.3379793  44.42  0.001656267    1.962    0.490
       162  -9.6352    160.0189     93.5920   6.1372468005e+01   3.1416504583e+01    0.4626648    0.2521606  72.42  0.001572139    3.192    0.687
       163 -10.7909    152.4449     92.3543   6.2723530560e+01   3.3390827175e+01     0.378639    0.3135921  71.29  0.001198881    1.298    0.229
       164 -11.4020    120.6495     87.3979   6.9285291736e+01   4.1490413377e+01    0.6521334    0.4256417 -50.63  0.002764525    1.621    0.383
       165  -9.5918    104.1807     93.7584   7.5850118066e+01   4.3583506431e+01    0.3320492    0.2026524 -70.18  0.001227666    2.783    0.641
       166 -10.4406     99.0113     91.1873   7.6698864224e+01   4.5142281644e+01    0.3646035     0.261968  47.54 0.0007979724    1.448    0.310
       167 -10.6839    183.5165     85.6374   5.4646577429e+01   2.7491606378e+01    0.7185212    0.2884551 -48.06  0.002627355    2.560    0.609
       168 -10.1189     66.7021     88.7273   8.6779753372e+01   5.1229425977e+01    0.3470002    0.2334909 -18.34  0.001040631    1.861    0.463
       169 -10.4163     67.1577     82.2273   8.4794345229e+01   5.2584054238e+01    0.3886588    0.2969866 -40.15  0.002077236    1.234    0.190
       170 -10.9059    105.0650     86.7793   7.3578756471e+01   4.4872517374e+01    0.6733106    0.3443857 -26.81  0.002307739    3.121    0.680
       171 -11.3918    113.8831     83.8226   7.0131840691e+01   4.3649476152e+01    0.6580932    0.5094271 -44.82   0.00328477    1.312    0.238
       172 -10.6662     80.4638     83.7281   8.0562552522e+01   5.0112520370e+01    0.4714133    0.3054345 -35.50  0.002221416    1.579    0.367
       173 -11.7837     75.2524     79.1450   8.1005468625e+01   5.1952968311e+01    0.7156523    0.6044984  87.99  0.001699265    1.614    0.380
       174 -10.0998    165.5890     83.8597   5.7622168568e+01   3.1943079115e+01    0.3674927    0.2872507 -50.87  0.001187385    1.272    0.214
       175 -10.7986     60.6543     83.6139   8.7557111201e+01   5.3234448482e+01    0.3036895    0.2420497 -54.30 0.0004035574    1.264    0.209
       176  -9.8879     47.0105     75.1365   9.0371899670e+01   5.6859535209e+01    0.3798683    0.2168361 -50.25 0.0009494079    1.601    0.375
       177 -11.6138     53.1838     75.9578   8.8201517119e+01   5.5905028697e+01    0.6302763    0.4087456 -53.93  0.003126631    1.530    0.347
       178 -10.9459     58.2226     77.5955   8.6753557153e+01   5.4875202581e+01    0.3781693    0.2474275 -53.44 0.0006925192    1.528    0.346
       179  -9.7949    127.3531     82.9787   6.6209534233e+01   4.0890123888e+01     0.266614    0.2074824  60.50 0.0007539236    1.361    0.265
       180 -10.2929    109.1606     80.8271   7.0601479818e+01   4.5232357202e+01    0.2982897    0.2820672 -66.61 0.0009126638    1.148    0.129
       181 -10.9625    103.3745     75.5834   7.0720165240e+01   4.7444675256e+01    0.6421335    0.3731373 -49.69  0.002798759    1.876    0.467
       182 -10.2856    232.8750     77.8683   4.5360051825e+01   1.8133944347e+01    0.3176161    0.1730946 -40.62  0.001305402    1.629    0.386
       183  -9.9147     10.3367     68.2937   1.0372232369e+02   6.1676100578e+01    0.2446933    0.1278191 -45.40 0.0007980351    1.544    0.353
       184 -10.0119     14.7206     67.4065   1.0164987051e+02   6.1582607134e+01    0.3160555    0.2065106  14.86  0.001704887    1.687    0.407
       185 -11.8717      1.9696     71.3277   1.0786561398e+02   6.1472219240e+01    0.7059282    0.2248205 -63.88  0.003098699    2.464    0.594
       186 -11.4738      9.9082     62.2275   1.0248611098e+02   6.3000273777e+01    0.4981262    0.3132132 -30.18  0.002486405    1.451    0.311
       187 -10.2679     95.0175     76.3767   7.3548293519e+01   4.8953805632e+01    0.5819693    0.3266226  38.79  0.002026549    1.784    0.440
       188 -11.5228     86.0358     73.2483   7.5494067095e+01   5.1263468360e+01    0.8200955    0.4951415  40.20  0.003500337    1.651    0.394
       189 -11.7355     77.0686     65.2086   7.5981859026e+01   5.4413753861e+01     1.103938    0.5772494 -51.10  0.003049684    2.188    0.543
       190 -12.5380     74.6066     53.0409   7.2698631836e+01   5.7035428012e+01    0.9146874    0.5883337  15.77  0.001508499    1.900    0.474
       191 -11.0172     72.6929     47.4424   7.1369324791e+01   5.8308663282e+01    0.4082945    0.2384673 -44.09  0.002006933    1.864    0.463
       192 -12.2016     42.7825     85.7038   9.4817773147e+01   5.5020265726e+01    0.9575332    0.4291667  24.53  0.001645758    2.463    0.594
       193  -8.8579    134.4880     77.4851   6.2799307359e+01   4.0315558713e+01    0.1477463    0.1439684  66.20 0.0001387864    1.013    0.013
       194 -10.3031    127.0468     76.7748   6.4466391460e+01   4.2130641042e+01    0.2776752    0.2506967  46.66 0.0002844452    1.081    0.075
       195 -11.8263    122.9564     68.9915   6.3179120147e+01   4.4454562125e+01    0.5167074    0.4949386  30.29  0.001540787    1.035    0.034
       196 -13.2686      4.2937     61.6981   1.0483196368e+02   6.3433549957e+01    0.3910961    0.3036269 -34.62 0.0006287228    1.107    0.096
       197 -12.2753    186.0782     69.9900   5.0254411823e+01   2.9557553047e+01      1.07472     0.575083 -42.95  0.004069943    1.793    0.442
       198  -9.0205     66.4778     74.4821   8.2749901058e+01   5.4319298090e+01     0.201347    0.1813568  -7.72 0.0007044725    1.052    0.050
       199  -9.3718     63.5832     75.8181   8.4223160069e+01   5.4479530806e+01    0.4202246    0.2901481  81.57  0.001704124    2.999    0.667
       200 -11.0607    142.5536     84.4765   6.2851667324e+01   3.7166554452e+01     0.640238    0.3333423  42.85  0.001162827    2.012    0.503
       201  -8.8835     24.6664     73.9073   9.9063092740e+01   5.9413572698e+01    0.6161072    0.2121466 -43.01    0.0025308    2.571    0.611
       202 -11.2308     40.7627     71.4492   9.1826878970e+01   5.8372986171e+01    0.5172098    0.2664665 -55.08  0.001773227    1.852    0.460
       203 -11.4617     34.7827     72.0209   9.4422647909e+01   5.8887742981e+01    0.6890813    0.2641024  27.77  0.002949753    2.730    0.634
       204 -11.6175     13.9361     74.6787   1.0364508447e+02   6.0047804683e+01    0.5752482    0.3568553 -69.37  0.002281655    1.613    0.380
       205  -9.3834    207.4358     73.0883   4.7708677665e+01   2.4240579216e+01     0.315284    0.1370753  47.46  0.001255685    2.785    0.641
       206  -9.9963    153.3288     72.7083   5.7121620091e+01   3.6785987754e+01    0.4824462    0.1908791  43.06  0.001572163    2.990    0.666
       207  -9.1282     19.7153     71.9479   1.0063441281e+02   6.0237483322e+01    0.1774281     0.113228 -25.02  0.000772643    1.578    0.366
       208  -9.6086    161.9311     70.7113   5.4808521509e+01   3.5096465719e+01    0.2822486    0.2089201 -52.40   0.00110466    1.379    0.275
       209  -9.6831    172.1755     68.7959   5.2352679131e+01   3.2997107112e+01    0.2848738    0.2235759 -27.68  0.001004541    1.442    0.306
       210 -10.5238    170.6665     63.9011   5.1321644511e+01   3.4143391690e+01    0.4835898    0.3444287 -80.38  0.001428499    1.667    0.400
       211  -8.5602     22.9058     65.6534   9.7700450763e+01   6.1337479342e+01    0.4093145    0.3316112 -58.46  0.002602427    1.255    0.203
       212 -11.4013    219.7812     66.6482   4.4551474575e+01   2.2582867795e+01    0.5083686    0.3115823  65.22  0.001973983    1.700    0.412
       213 -10.6765     59.2632     62.7143   8.1762772177e+01   5.7754097843e+01    0.4780814    0.3702284 -42.78  0.001870531    1.272    0.214
       214  -9.4445     64.8787     61.3372   7.9150945319e+01   5.7163354746e+01    0.2839004    0.2015296 -46.15 0.0009616989    1.446    0.308
       215  -9.7443    192.4184     65.6573   4.8159894990e+01   2.8790930803e+01    0.2676235    0.2065091 -69.39 0.0007527191    1.299    0.230
       216 -10.3712    199.9323     63.9578   4.6624101805e+01   2.7347962671e+01    0.4735974    0.2823045 -82.28  0.002093352    2.274    0.560
       217  -9.8634     84.3469     61.4069   7.2206815333e+01   5.3801949604e+01    0.3943212    0.2586879 -34.64  0.001957919    1.546    0.353
       218 -11.4058     91.7214     63.0164   7.0320408867e+01   5.2106303646e+01    0.8256999    0.3993157  49.04  0.003420922    2.170    0.539
       219 -10.6832     87.6201     56.9091   6.9590394259e+01   5.3971513398e+01    0.5163743    0.2278489 -36.26  0.001487647    2.379    0.580
       220 -10.4628     91.9624     57.4972   6.8389352084e+01   5.3023361208e+01    0.3404564    0.2814449  45.13  0.001108143    1.208    0.172
       221  -9.6175     67.2884     31.7402   6.7315056920e+01   6.1639110601e+01    0.4700015    0.4442369 -74.64  0.002828086    1.487    0.327
       222  -9.4235    216.5258    249.5220   8.1783278597e+01  -7.7763834758e+00    0.1174262    0.0949814   8.54 0.0001366647    1.076    0.070
       223 -11.8328     60.3786     46.6248   7.5716068667e+01   6.0498452003e+01    0.9468485     0.545984 -42.46  0.004814735    1.773    0.436
       224 -10.2673     22.5903     36.9056   8.8891101979e+01   6.6967588388e+01    0.6068425    0.3599669  51.93  0.002873717    3.496    0.714
       225 -11.2768     60.9438     36.1860   7.1499334601e+01   6.2074309455e+01    0.4485379    0.2659786 -35.27  0.001406058    1.700    0.412
       226 -11.8978     24.2528     57.3653   9.4802042972e+01   6.2936641949e+01    0.9309988    0.5375789  30.83  0.005111184    1.928    0.481
       227 -11.0453     33.3019     53.0000   8.9407289457e+01   6.2921272139e+01    0.7868895    0.2474791  29.57  0.002723428    3.208    0.688
       228 -11.5880     26.7094     47.4092   9.0570316739e+01   6.4655396087e+01    0.6992261    0.3408135 -18.98  0.003092056    2.780    0.640
       229 -11.1129     20.8098     46.4218   9.3022223947e+01   6.5382888824e+01    0.5803002    0.3071963 -21.34  0.002384589    2.060    0.515
       230 -11.7831     53.4844     50.1943   7.9784690749e+01   6.0917928717e+01    0.5319304    0.4013789  46.36  0.001117119    1.631    0.387
       231  -9.5666    174.6648    246.7226   8.9433373589e+01  -1.5913719507e+00    0.2483034    0.1352133  25.22  0.001277625    1.728    0.421
       232 -12.3799     58.0852     30.0612   7.0153898027e+01   6.3438679375e+01    0.3777078    0.2698824   3.80  0.001586764    1.427    0.299
       233 -11.7865     48.7694     30.5939   7.4222018057e+01   6.4809757323e+01    0.8159803    0.2821932  39.88  0.003446128    2.856    0.650
       234 -11.1548     41.0512     57.1622   8.7379960095e+01   6.1247314224e+01    0.4719778     0.243185  32.09  0.001615989    2.020    0.505
       235 -11.8624     51.9545     61.6506   8.4311019626e+01   5.8992118998e+01    0.4049439    0.3578089  56.78  0.001324577    1.488    0.328
       236 -11.9934     44.7743     60.2209   8.6794623826e+01   6.0200034675e+01     0.752659     0.401884 -26.04  0.003330759    2.225    0.551
       237 -10.0290    106.1624     63.4956   6.6066497521e+01   4.9080765679e+01    0.3466749     0.302368 -83.34   0.00187899    1.425    0.298
       238 -11.0226    105.7568     58.1859   6.4446343719e+01   5.0070816741e+01    0.6684954    0.3747597  65.63  0.002630272    2.694    0.629
       239 -11.4522    234.7155     61.0287   4.1542082945e+01   2.0324469451e+01    0.3907358    0.3475101 -66.52  0.001367462    1.095    0.087
       240 -10.3232    238.1109     55.8127   4.0078090230e+01   2.0394662546e+01    0.2078988    0.1680727 -51.28            0    1.124    0.111
       241 -10.7132    240.2847     50.5330   3.8762188864e+01   2.0703487526e+01    0.3749571    0.2393002 -68.84  0.001856892    1.499    0.333
       242 -10.3042    159.0350     62.4917   5.3104787956e+01   3.7129364987e+01    0.5321543    0.2246029  48.37  0.002037632    2.407    0.585
       243 -12.4523    120.1073     57.5276   6.0329110397e+01   4.7029145180e+01     1.665204     1.123975 -79.15  0.007098512    2.496    0.599
       244  -9.2233    163.8062    243.8158   9.1211188978e+01   4.7935841005e-01    0.1701841    0.1411477  48.23 0.0007286413    1.342    0.255
       245 -10.8445    109.3978     43.3791   5.8454565040e+01   5.1567592895e+01    0.8036935    0.3912351 -34.05  0.003526597    2.195    0.544
       246 -11.9778    117.9181     44.0578   5.6501570803e+01   4.9562977948e+01    0.5345781    0.4465957  67.44    0.0018716    1.237    0.191
       247 -11.1370    127.5467    242.2438   9.8567286304e+01   6.2343320722e+00    0.3453537    0.3021633   5.05  0.001784317    1.278    0.217
       248 -11.5743    114.1693     39.0045   5.5739898509e+01   5.1108896409e+01    0.5043755    0.3029389 -36.22  0.001540612    1.791    0.442
       249  -9.8524    149.3693     60.8884   5.4588636058e+01   3.9683084766e+01     0.541032    0.1816219  55.72  0.001870697    2.811    0.644
       250 -10.3706    135.4919     50.9698   5.4602701059e+01   4.4492376778e+01    0.2836754    0.2322453 -48.20  0.001275807    1.300    0.231
       251  -9.8405    145.2343     39.5912   4.9153044233e+01   4.3772600884e+01    0.2182339    0.1276219  61.43 0.0006114167    1.570    0.363
       252 -10.6030    136.3556     56.7138   5.6164354612e+01   4.3414998250e+01    0.6116774    0.3928957  -2.24  0.002449743    2.723    0.633
       253 -11.2603    145.4078     48.4531   5.1756148489e+01   4.2509659121e+01    0.9357983    0.4570607 -21.62  0.003414031    3.048    0.672
       254  -9.8460     67.9741    240.4871   1.1096444547e+02   1.5123564379e+01    0.1893482     0.107915  36.75  0.001027833    1.581    0.367
       255 -11.1024    156.6768     53.1522   5.0930325168e+01   3.9129826922e+01     1.502845     1.088271  -6.07  0.007291197    1.992    0.498
       256  -8.7137    221.3283    239.3305   7.9283127728e+01  -6.9775384981e+00    0.1271527   0.07862452  -1.71 0.0002870836    1.712    0.416
       257 -11.2836    148.3634    238.0566   9.3596719373e+01   3.8060593889e+00    0.5157424    0.2481845  35.83  0.001637229    1.794    0.443
       258 -10.3538    157.4619     20.2871   4.1498039496e+01   4.3156988030e+01    0.4209366    0.1954162  62.56  0.001915166    1.851    0.460
       259  -9.7010    167.4946    237.5219   8.9526788061e+01   9.7322819088e-01    0.1295327    0.1103463  20.63 6.357802e-05    1.002    0.002
       260 -10.8819    198.4641    232.9736   8.2585328719e+01  -2.8828748733e+00     0.336593    0.3100306   1.44  0.002304008    1.204    0.169
       261  -9.2119     15.4280    233.7801   1.2105244829e+02   2.2628555234e+01     0.205619   0.09660561 -84.09  0.001126549    1.960    0.490
       262 -12.8642    152.9809     35.7442   4.6617024896e+01   4.2414245453e+01    0.3757577    0.3058128  68.31 0.0004687972    1.116    0.104
       263 -12.1217    159.4437     30.0780   4.3939363590e+01   4.1563978791e+01    0.5100225    0.4418221  83.36  0.001445346    1.048    0.045
       264 -10.9569    164.0490     27.6556   4.2566934007e+01   4.0750142322e+01     0.277318    0.2373177 -68.44 0.0005407549    1.156    0.135
       265  -8.4014    219.6714     56.7017   4.2339117955e+01   2.4093149242e+01    0.1199695     0.102916  29.07 0.0007028315    1.637    0.389
       266 -10.1758     66.7627     54.3511   7.6042552775e+01   5.8139738987e+01    0.4068625    0.2208866 -52.98  0.001812773    2.364    0.577
       267  -9.3642    188.4698     54.9984   4.6103084279e+01   3.1326185139e+01    0.2165493    0.1728396  69.94 0.0006498726    1.208    0.173
       268  -8.9390      6.8380     55.0577   1.0208184201e+02   6.4677326600e+01    0.1683958    0.1054639 -39.43 0.0003251013    1.293    0.227
       269  -9.8930    201.5840     53.2014   4.3817673984e+01   2.8584051976e+01    0.4681983    0.2491707  53.30  0.002219624    2.003    0.501
       270 -10.1507    201.5232     48.9943   4.2824130044e+01   2.9198744172e+01    0.2892797    0.2518001 -31.90  0.001090575    1.330    0.248
       271 -11.0771    201.7897     45.4055   4.1938382936e+01   2.9638470448e+01    0.6245252    0.3008206  72.45  0.002827423    2.158    0.537
       272 -10.5573    245.1541     51.0862   3.8397216111e+01   1.9663178717e+01    0.2443871     0.164983  80.95  0.001070075    1.520    0.342
       273  -9.5392     91.1531     48.2284   6.5425329757e+01   5.4698680186e+01     0.317732    0.1787914 -49.89  0.001079297    2.267    0.559
       274 -10.8115     12.6446     48.1648   9.7457816040e+01   6.5687224996e+01    0.3445535    0.1755367 -32.69  0.001458553    1.763    0.433
       275 -10.1465    247.2975    231.7404   7.3428128356e+01  -9.1939805372e+00     0.191098    0.1237697 -30.97 0.0005671034    1.431    0.301
       276  -9.4533     23.7429    231.6127   1.1929592556e+02   2.2217327608e+01    0.1650962   0.08601317  46.45 0.0009420669    1.598    0.374
       277  -9.9988    242.7940    232.2315   7.4283831347e+01  -8.7128805255e+00    0.2233975    0.2029237   0.45    0.0016561    1.391    0.281
       278  -8.9350    214.9875    228.0623   7.8605744901e+01  -4.4670775147e+00    0.1456375    0.1173231 -15.44 0.0003597737    1.134    0.118
       279  -9.5951     58.0405    226.0000   1.1174964170e+02   1.9405582544e+01    0.2043586   0.06504261  33.26 0.0008022551    2.941    0.660
       280  -9.7132    233.8665    223.1727   7.4320164513e+01  -6.2947809108e+00    0.1757403    0.1216753  -1.66 0.0009104071    1.342    0.255
       281  -9.4535     10.0000    218.0066   1.2122922462e+02   2.6465795878e+01    0.1860505   0.05705526 -77.96 0.0007985735    2.916    0.657
       282 -10.4646    164.6402    212.2654   8.6115427719e+01   5.9313009589e+00     0.264395    0.2205193  43.71  0.000681648    1.234    0.190
       283 -10.8242    134.8862     45.8239   5.3147642462e+01   4.5380438289e+01    0.4941847    0.2580715  66.99 0.0006941417    2.127    0.530
       284 -10.6609    139.7112     43.5965   5.1449970568e+01   4.4549174603e+01     0.362112    0.3007896  82.66  0.001624011    1.248    0.199
       285 -10.1739    211.3985     52.8934   4.2485009513e+01   2.6440331457e+01    0.2224914    0.2154544  36.66  0.001442647    1.323    0.244
       286 -10.9858    173.8569     48.2060   4.6598524737e+01   3.5743617356e+01    0.5781279    0.3444252  77.20   0.00270877    1.821    0.451
       287  -9.8052    177.4127     43.4545   4.4799582520e+01   3.5559537614e+01    0.3227418    0.2344576  60.41  0.001764811    1.324    0.245
       288 -10.6787     94.2848     41.2851   6.1980384358e+01   5.5101645293e+01    0.6761338    0.2697361  49.13  0.002743941    2.320    0.569
       289 -10.5611    189.1035     40.8696   4.2485183128e+01   3.3164058641e+01     0.510627    0.1916256 -31.04  0.001777822    3.022    0.669
       290  -9.7448     86.1252     30.8160   6.0577204540e+01   5.8196120267e+01    0.2744605    0.1924268 -11.03 0.0009648178    1.611    0.379
       291 -10.4946     80.9715     39.5868   6.5567142833e+01   5.8001116541e+01    0.5254426    0.3307177  66.06  0.002380067    2.563    0.610
       292  -9.8784    153.3806    207.7777   8.7832072045e+01   8.6749510677e+00    0.2677079    0.2133153  59.29 0.0008058309    1.473    0.321
       293  -9.7552     17.5336     41.8508   9.3104919141e+01   6.6519762462e+01     0.246537    0.1500475 -19.31  0.001362215    1.587    0.370
       294 -10.4852    231.1134     38.9269   3.7250516915e+01   2.4143886526e+01     0.408188    0.2241817 -76.60  0.002083307    2.011    0.503
       295  -9.3877    217.2053     38.8752   3.8653063550e+01   2.7101452024e+01    0.2799334    0.1048902 -52.48  0.001159934    2.646    0.622
       296 -10.7443    189.2063     27.5584   3.9186883179e+01   3.4827932056e+01    0.3464763    0.2970429  21.94  0.002127391    1.616    0.381
       297 -11.2393    183.2560     25.4261   3.9383398106e+01   3.6465848501e+01    0.5430449    0.2811413  54.16  0.002422146    1.957    0.489
       298 -11.1572    176.8355     36.4977   4.3069577570e+01   3.6616791007e+01    0.4464208    0.3746677 -18.18  0.002634597    1.486    0.327
       299 -10.9851    174.6974     31.5617   4.2081978650e+01   3.7744291316e+01    0.6997802    0.2686963  50.10  0.001580643    2.820    0.645
       300  -9.2450    183.8637     38.1461   4.2511122252e+01   3.4746957797e+01    0.2030212    0.1573551 -75.89 0.0006818368    1.240    0.194
       301  -9.7482    132.9279     36.9790   5.0801572776e+01   4.7038534295e+01    0.3362829    0.2112767 -74.25  0.001479547    2.419    0.587
       302  -9.1952    206.6648     37.0314   3.9397747254e+01   2.9663800133e+01    0.1787347    0.1497519 -59.60 0.0005808271    1.110    0.099
       303  -9.1224     11.9110     35.9472   9.3931783530e+01   6.8048651879e+01    0.2310246    0.1887912 -86.39  0.001490634    2.021    0.505
       304  -9.1602     94.2023     35.9254   6.0056025856e+01   5.5865492004e+01    0.1910828    0.1776676 -82.20 0.0007207926    1.333    0.250
       305  -9.4716     61.2013    206.6259   1.0912468405e+02   2.3269232493e+01    0.2118727    0.1653399  85.73 0.0007715258    1.211    0.174
       306  -9.2134    123.9613    205.9032   9.4248784168e+01   1.3996543738e+01    0.1945757      0.17581   4.44            0    1.221    0.181
       307 -11.8775    106.3302     32.5076   5.5481236957e+01   5.3705086706e+01    0.4547564    0.2781394  23.38  0.002124245    2.128    0.530
       308 -10.1950    238.2158    204.5492   7.0278467067e+01  -4.0793298512e+00    0.2434261    0.1557279 -33.69  0.001417926    1.409    0.290
       309 -11.4275    240.0810     32.0689   3.5024502944e+01   2.3198492115e+01    0.4519717    0.3179202 -36.26  0.002226379    1.518    0.341
       310  -9.5255    240.5008     26.4696   3.3870480913e+01   2.3812327653e+01    0.2060299     0.151881  89.52  0.000586733    1.236    0.191
       311  -9.7248    215.7350     33.1922   3.7549537291e+01   2.8156877577e+01    0.3280078    0.2144175  23.69   0.00150972    3.339    0.700
       312  -9.8859    183.0030     32.3121   4.1149810276e+01   3.5692635813e+01      0.18976    0.1541327  80.73 0.0004746828    1.105    0.095
       313 -11.6040     14.0690     23.7026   8.8229797050e+01   6.9986867501e+01    0.2229172    0.1623461 -18.88 0.0001948349    1.097    0.088
       314  -8.9796    221.6597     30.1387   3.6294590456e+01   2.7263260077e+01    0.1634681    0.1131576 -28.25 0.0009437997    1.752    0.429
       315 -10.0350     98.1567     27.8313   5.5961091947e+01   5.6061977724e+01    0.6706129    0.4050109 -65.36  0.002784483    3.340    0.701
       316 -10.5667    250.3439     27.5331   3.3300533771e+01   2.1741863041e+01    0.3018395    0.1422994 -36.74  0.001627178    2.025    0.506
       317 -10.1380    230.2531     27.7687   3.5002729432e+01   2.5745607812e+01    0.3414236    0.1644336 -45.43  0.001546132    1.785    0.440
       318 -10.3739    213.9559     24.4507   3.5799133446e+01   2.9623866810e+01    0.2897399    0.2658826  67.42  0.001536002    1.316    0.240
       319  -9.2389    196.4715    204.9642   7.8187000103e+01   2.0783543161e+00    0.1657823     0.120604 -68.73 0.0007348672    2.337    0.572
       320 -11.3477      5.7867    200.2406   1.2104325495e+02   3.0749560059e+01    0.7006279    0.1525519 -65.86  0.002732244    3.609    0.723
       321 -12.1271      4.6614    184.3840   1.2025831305e+02   3.4466229407e+01    0.6287086     0.453478  77.15  0.003024451    1.159    0.137
       322 -10.5886    245.8476    200.8219   6.8295028939e+01  -4.5477149374e+00    0.2410341    0.1545531  17.42  0.001036468    1.638    0.390
       323  -9.5536    168.8432     23.8815   4.0862899040e+01   4.0044571710e+01    0.1999032    0.1647118  52.94 0.0006770894    1.280    0.219
       324  -9.2313    223.6781     21.9516   3.4366767938e+01   2.7829832349e+01    0.1999734    0.1448628  73.17 0.0008184253    1.351    0.260
       325 -10.0413    125.3402     20.7874   4.7151843545e+01   5.0729214734e+01     0.469822    0.2236957  77.53  0.001833346    2.985    0.665
       326  -8.8659    195.4454    199.9330   7.7478033691e+01   3.1368011960e+00    0.1719696    0.1211202 -67.62 0.0007181738    2.400    0.583
       327 -10.5897    234.2912    196.8526   6.9562703113e+01  -2.3168923284e+00     0.382495    0.2769442   5.76  0.001559047    1.391    0.281
       328  -9.4404     82.7400    196.2251   1.0272779992e+02   2.2678441980e+01     0.332417    0.2076271  17.87  0.001507642    2.168    0.539
       329 -10.7569    246.6193    193.3678   6.6804569625e+01  -3.5044012096e+00    0.3162291   0.09977869 -35.42  0.001264118    2.906    0.656
       330  -9.3072     16.2090    191.4082   1.1813011705e+02   3.1831868143e+01    0.1974359    0.1414022 -74.23 0.0004631183    1.272    0.214
       331  -9.8004    170.0584    191.2184   8.1204774146e+01   9.0895379216e+00    0.3729072    0.1881876  26.86  0.001484743    2.369    0.578
       332  -9.0205    162.6626    191.2890   8.2854333276e+01   1.0378763229e+01    0.1407046    0.1128915  69.16  0.000449415    1.637    0.389
       333 -10.2274    239.5888    184.8963   6.6411436331e+01  -1.1562421341e+00    0.3403009    0.2155422 -10.43 0.0008234014    1.833    0.455
       334  -9.8223    214.3320    184.6681   7.0901666297e+01   2.7838122625e+00    0.1260443    0.1095156 -81.82 0.0007052142    1.725    0.420
       335  -8.6947      1.4368     20.5626   9.4051653902e+01   7.1467731538e+01    0.1130229   0.08429266 -23.97 0.0002489936    1.006    0.006
       336  -8.7276    173.5179    184.4922   7.9174487957e+01   9.8180335116e+00      0.14279    0.1341743   3.11 0.0008103666    1.005    0.005
       337  -9.6122    194.9696     19.2974   3.6547505241e+01   3.4465348739e+01     0.215437    0.1568968  83.39 0.0003068181    1.207    0.172
       338 -10.0460    250.3690    177.9368   6.3307656269e+01  -1.5961383672e+00    0.4089663   0.09983053 -36.08  0.001379028    3.915    0.745
       339  -9.1288    157.6190    179.7268   8.1813251514e+01   1.3685469588e+01    0.1517747    0.1129863   2.61 0.0006998259    1.702    0.412
       340  -9.2150    205.2255     17.4232   3.5076861699e+01   3.2365881679e+01    0.2277299    0.1032666  68.57 0.0009404145    1.990    0.498
       341 -10.3113    186.4646     15.1843   3.6478312285e+01   3.6871250315e+01    0.2417745    0.1872551  84.65 0.0005027927    1.110    0.099
       342  -8.9794    174.0864     15.9934   3.8112503134e+01   3.9671969379e+01    0.1578151    0.1240312  79.52 0.0004588871    1.101    0.092
       343 -10.4255     52.0438    173.6470   1.0755361895e+02   3.2283491579e+01    0.5682105    0.2647186 -88.23  0.002107888    3.049    0.672
       344 -10.1349    230.6894    175.4872   6.6142257241e+01   1.7644017602e+00    0.3071548    0.1754853  39.22  0.001365028    1.909    0.476
       345  -9.9113    247.6354    174.1494   6.3029043078e+01  -5.8984404586e-01    0.4320464    0.2038224  22.54  0.001729087    3.655    0.726
       346  -9.9590     27.7679    175.9348   1.1402908279e+02   3.4401037285e+01    0.2394938    0.1743284  49.85 0.0008299001    1.349    0.259
       347 -11.3894    155.6005     42.3714   4.8060149109e+01   4.0916962809e+01    0.7182702    0.3461479  67.46  0.003041839    2.108    0.526
       348  -9.7280     74.7396     19.4587   5.9693392060e+01   6.1822303536e+01    0.2454581    0.1636786  22.86  0.001185597    1.511    0.338
       349 -10.4193     16.7530    202.9557   1.1885142112e+02   2.9137209569e+01    0.3122259    0.1444718 -74.82   0.00160153    1.905    0.475
       350 -10.3292     37.9981    173.0000   1.1112493545e+02   3.4058946218e+01    0.4736068    0.1971841  48.50  0.002012673    2.438    0.590
       351 -10.1554     35.5095    169.4726   1.1137584333e+02   3.5192000785e+01    0.2395845    0.2017054  67.19 0.0007266186    1.130    0.115
       352  -8.8820    170.5349    171.9902   7.7364473942e+01   1.2910777284e+01    0.2165123    0.1422398 -45.09 0.0006649804    1.522    0.343
       353 -12.3850      3.6928    144.8062   1.1731974116e+02   4.3995706157e+01     1.007772    0.5026501 -80.54  0.003513654    1.716    0.417
       354 -12.3471     23.1305    148.7552   1.1235525574e+02   4.1528066098e+01    0.7142358     0.350265 -52.52  0.001672427    1.949    0.487
       355 -10.7616     16.0256    147.9060   1.1423944010e+02   4.2333904719e+01    0.3519177    0.2780293  74.66 0.0008027028    1.224    0.183
       356 -11.6363     12.9677    138.5967   1.1407759571e+02   4.4867839521e+01    0.7604445    0.4508659 -83.78   0.00403256    1.543    0.352
       357 -11.6075      9.4858    166.7762   1.1776405717e+02   3.8246177490e+01     0.526219    0.3939951  64.45  0.002767533    1.263    0.208
       358 -11.2401     13.7108    159.1537   1.1600117431e+02   3.9756116305e+01    0.7238284    0.2272038 -59.95  0.002358888    2.620    0.618
       359  -9.2401    198.1392    167.9033   7.0711317434e+01   8.6420509276e+00    0.2073763    0.1950604 -56.90 0.0008734369    1.213    0.175
       360  -9.6126    188.7290    163.8373   7.1783611465e+01   1.1161316700e+01    0.2381695    0.1741107 -21.02  0.001166638    1.512    0.339
       361  -9.0436    152.4007    166.7063   8.0444184357e+01   1.7471189540e+01    0.1997057    0.1405457 -37.62 0.0003855423    1.480    0.325
       362  -9.4144    156.1962    166.1588   7.9440271755e+01   1.6864742055e+01    0.2177081    0.1978683 -15.96 0.0004034493    1.137    0.120
       363 -10.2048     19.0191    164.8671   1.1517148377e+02   3.7912560288e+01    0.3204149    0.2638894  -5.07  0.001858489    1.630    0.387
       364 -10.2097    204.9756    162.9400   6.8348523849e+01   8.3570887996e+00    0.4784538    0.2705462  53.73  0.001632438    2.290    0.563
       365  -9.3516    208.4789    160.4894   6.7171418352e+01   8.1898596840e+00    0.2569606    0.1981734 -31.35  0.001363278    1.208    0.172
       366  -9.7036     39.4719    162.0771   1.0945457947e+02   3.6604448684e+01    0.4730589    0.2317926  74.05  0.001847766    2.900    0.655
       367 -10.6626     28.0227    162.4110   1.1256288326e+02   3.7688929238e+01    0.4444888    0.2144641 -63.94  0.002117194    1.794    0.443
       368  -9.5165     79.0768    160.2153   9.8269726195e+01   3.1960721671e+01    0.2816513    0.1826877  84.26  0.001216807    2.025    0.506
       369  -9.8888    246.4338    158.7162   6.0227123742e+01   2.1357714037e+00    0.2593303    0.1078187 -42.40  0.001148261    2.109    0.526
       370  -9.6171    224.2566    157.3546   6.3647672383e+01   5.9972453148e+00    0.3372207    0.1775542 -50.50  0.001502005    2.092    0.522
       371  -9.3727    215.6248    157.6806   6.5259810580e+01   7.4400244755e+00    0.2206458    0.1582507  -8.07  0.001105327    1.703    0.413
       372  -9.8822      9.4382    155.8548   1.1681148947e+02   4.0895737631e+01    0.2394494    0.1590397 -73.95   0.00139331    1.256    0.204
       373 -10.3125    104.7376    154.0349   9.0050651648e+01   2.9308421162e+01    0.3880175    0.3331155 -25.64  0.001982774    1.328    0.247
       374 -10.1948     33.0732    154.5068   1.1027367437e+02   3.9160723251e+01    0.2731273    0.2226884  42.36  0.001103734    1.310    0.237
       375 -10.3997     31.4870    151.5146   1.1034546974e+02   4.0065781648e+01    0.3167014    0.2339947 -23.69  0.001729748    1.773    0.436
       376  -9.9812     71.7391    150.7174   9.8718826944e+01   3.5423613771e+01    0.3813655     0.262411 -34.91  0.001791544    1.757    0.431
