#   1 NUMBER                 Running object number                                     
#   2 MAG_AUTO               Kron-like elliptical aperture magnitude                    [mag]
#   3 X_IMAGE                Object position along x                                    [pixel]
#   4 Y_IMAGE                Object position along y                                    [pixel]
#   5 X_WORLD                Barycenter position along world x axis                     [deg]
#   6 Y_WORLD                Barycenter position along world y axis                     [deg]
#   7 A_WORLD                Profile RMS along major axis (world units)                 [deg]
#   8 B_WORLD                Profile RMS along minor axis (world units)                 [deg]
#   9 THETA_WORLD            Position angle (CCW/world-x)                               [deg]
#  10 FWHM_WORLD             FWHM assuming a gaussian core                              [deg]
#  11 ELONGATION             A_IMAGE/B_IMAGE                                           
#  12 ELLIPTICITY            1 - B_IMAGE/A_IMAGE                                       
         1 -13.2273    196.6162     45.6396   3.5932242483e+02   3.1231769639e+01     1.059029    0.9520758  28.61  0.004556192    1.499    0.333
         2 -13.5576    223.5195     16.9710   3.5039864333e+02   2.9217259981e+01     0.972739    0.8909148 -33.00   0.00515122    1.363    0.266
         3 -12.9331      8.7569      6.3412   4.3326128333e+01   7.8238735270e+01     1.274363    0.7873402  19.22  0.007275115    1.547    0.354
         4 -11.2539    119.4550      9.5049   3.5782154967e+02   5.3937930008e+01    0.5788597    0.3761321  49.85  0.002577594    1.609    0.379
         5  -9.0053    189.5027     15.4717   3.5228189596e+02   3.6418157287e+01    0.1272123    0.1023745 -63.21  0.000386085    1.004    0.004
         6 -10.5773    150.7523    249.2887   4.8341336203e+01   4.2981272501e+00    0.2341494    0.1978947 -29.69  0.001128514    1.368    0.269
         7 -18.2585     15.8419    230.1868   7.6592146873e+01   2.2466137420e+01     5.833006     4.738685  31.96   0.02104087    1.195    0.164
         8 -15.9269     69.3606    153.2473   5.5428023406e+01   3.4730600967e+01     8.459618     4.763844  86.38   0.03229056    2.595    0.615
         9 -10.2673      6.5447    183.0642   7.7050825258e+01   3.3752378868e+01    0.2703376    0.1556384  25.31 0.0008645919    1.682    0.405
        10 -11.6149    144.9023    183.6857   4.0197192072e+01   1.6262251586e+01    0.4221114    0.3054243 -56.44  0.001307334    1.618    0.382
        11 -10.7579    138.1764    170.6998   3.9479177702e+01   1.9909322184e+01    0.3775332    0.2517798  54.87  0.001790879    1.920    0.479
        12 -10.5816    143.8034    166.7806   3.7437758714e+01   1.9807784837e+01    0.4531859    0.3015606 -77.22  0.001922394    2.742    0.635
        13 -10.9177      2.8035    168.9723   7.7505326197e+01   3.7505180342e+01    0.4131207    0.1623354  22.48  0.001353839    2.451    0.592
        14  -9.5579    123.6851    156.0138   4.0318328132e+01   2.5460249447e+01    0.2056441    0.1886572 -52.77 0.0007789609    1.130    0.115
        15 -11.0616    133.8747    145.8756   3.5700762319e+01   2.5927275059e+01     1.319865    0.3204706 -55.01  0.002872763    7.397    0.865
        16 -11.5003    112.0040    150.9004   4.2433076017e+01   2.8618862166e+01    0.6933339    0.4059299  68.88  0.002391002    3.281    0.695
        17  -9.2888     49.8086    213.7907   6.7554303036e+01   2.2601538463e+01    0.1670723    0.1520768  53.61 0.0005155079    1.089    0.081
        18  -9.3530     56.6218    211.3318   6.5650539587e+01   2.2383610183e+01    0.3096177    0.1648436  53.05  0.001133789    1.809    0.447
        19  -8.3595    148.7225    143.2894   3.1605286951e+01   2.3812771001e+01    0.1352269     0.115298 -89.43            0    1.520    0.342
        20 -11.0268    121.2445    136.2272   3.6901673338e+01   3.0387098945e+01     0.471085    0.3052365 -34.94  0.001269327    1.734    0.423
        21 -11.9372    105.8529    135.8241   4.1107710862e+01   3.3281278220e+01    0.6476758    0.4240299 -20.16  0.001989238    2.321    0.569
        22 -11.6134     93.4055    135.5544   4.4766552676e+01   3.5523173174e+01    0.3547526    0.3408247 -46.40  0.001914679    1.065    0.061
        23 -11.1830     99.4802    132.6149   4.2305686073e+01   3.5197483965e+01    0.3777525    0.2993068  68.43  0.001805061    1.457    0.314
        24  -9.8605    135.7937    128.9575   3.1515075310e+01   2.9269968740e+01    0.3356495    0.1719385 -47.18  0.001356605    1.904    0.475
        25 -10.8148    113.2845    128.0723   3.7272942215e+01   3.3769458900e+01    0.3602104    0.3155158 -14.42 0.0008582099    1.286    0.222
        26 -10.2782    100.8090    123.9692   3.9990539993e+01   3.7081495154e+01    0.3215347    0.2643964 -20.19 0.0006324305    1.443    0.307
        27  -7.0769     53.5775    205.5657   6.5944188269e+01   2.3991658031e+01    0.5707371     0.212343  58.48  0.002036416    3.566    0.720
        28  -9.6057     52.7400    247.4772   6.9149780261e+01   1.5567895429e+01    0.2749352    0.1299993 -63.61  0.001490294    2.502    0.600
        29  -9.4983    119.7179    122.5650   3.4201381042e+01   3.3819726624e+01    0.2881792    0.1511715  35.87 0.0009190189    2.041    0.510
        30 -10.9979     83.3113    118.5844   4.4359072823e+01   4.1561797680e+01    0.5198295    0.2623591  54.44  0.001502685    2.551    0.608
        31  -8.9759    109.1185    117.8675   3.6068756984e+01   3.6979506422e+01    0.2268444    0.2046845  79.95 0.0003021927    1.194    0.162
        32  -9.4702    101.7770    115.2130   3.7619040005e+01   3.9030922428e+01    0.3198236    0.2310842  77.35  0.000986879    1.880    0.468
        33 -10.6015    115.9945    109.5925   3.2017993071e+01   3.7537141226e+01    0.3514603    0.2706329  -2.69  0.001336049    1.810    0.447
        34 -10.5130    193.3559    195.4325   3.2284034257e+01   7.4095080447e+00     0.519547    0.3009645 -62.77  0.001981429    5.165    0.806
        35  -8.9158     76.6987    231.6760   6.2534959062e+01   1.5928113760e+01    0.1770758    0.1277463  14.51 0.0005945244    1.403    0.287
        36  -8.8763     33.0765    191.1070   7.0254186606e+01   2.9497346160e+01    0.1858103    0.1700278 -13.92  0.001151729    1.331    0.249
        37  -9.7513    167.2337    225.0645   4.1893022807e+01   6.0315802412e+00    0.2398437    0.1403182 -29.29   0.00093114    1.750    0.429
        38  -9.6560    102.6158    248.2913   5.8253210027e+01   9.9493801448e+00     0.325535    0.1706698 -67.66  0.001748728    2.687    0.628
        39  -8.9025     58.9640    217.0398   6.5537982742e+01   2.0900547565e+01     0.165446     0.151874  49.44 -0.001877172    1.092    0.084
        40  -8.6797     38.7114    186.5411   6.8358124218e+01   3.0024007321e+01    0.2480134     0.162441  72.13 0.0009200498    1.534    0.348
        41  -8.8445     40.6222    183.5265   6.7573452500e+01   3.0557263225e+01     0.290391    0.1543148  43.75  0.001368153    1.651    0.394
        42 -11.9455     66.6334     64.5357   3.5280990571e+01   5.7774149048e+01    0.4435853    0.3371314 -55.25  0.002181616    1.362    0.266
        43 -11.5526    180.7561     58.3372   4.4865881251e+00   3.2873113741e+01    0.4364857    0.3597472 -35.63 0.0007974179    1.216    0.178
        44  -9.9879     44.9116    247.3370   7.0867674060e+01   1.6388218061e+01    0.1732168     0.132574 -56.24 0.0005706143    1.665    0.399
        45 -11.9951    202.1073     40.1064   3.5740719024e+02   3.0800707090e+01    0.4527163    0.3770216 -58.80  0.001144867    1.027    0.026
        46 -11.4730     48.0085    239.7104   6.9734686952e+01   1.7511429006e+01    0.1924466    0.1591595  79.96 0.0005893582    1.317    0.241
        47  -9.6494     54.2304    239.9413   6.8338815879e+01   1.6821693635e+01    0.1569036    0.1268431  50.12 0.0003476567    1.106    0.096
        48  -8.5265     83.5627     28.4864   1.3854594154e+01   6.0718527183e+01    0.1401996    0.1324455  70.38 0.0001337246    1.043    0.041
        49 -10.4306     48.2078    233.6503   6.9312649067e+01   1.8669358614e+01    0.1780013      0.13754  69.16 0.0003867065    1.307    0.235
