#   1 NUMBER                 Running object number                                     
#   2 MAG_AUTO               Kron-like elliptical aperture magnitude                    [mag]
#   3 X_IMAGE                Object position along x                                    [pixel]
#   4 Y_IMAGE                Object position along y                                    [pixel]
#   5 X_WORLD                Barycenter position along world x axis                     [deg]
#   6 Y_WORLD                Barycenter position along world y axis                     [deg]
#   7 A_WORLD                Profile RMS along major axis (world units)                 [deg]
#   8 B_WORLD                Profile RMS along minor axis (world units)                 [deg]
#   9 THETA_WORLD            Position angle (CCW/world-x)                               [deg]
#  10 FWHM_WORLD             FWHM assuming a gaussian core                              [deg]
#  11 ELONGATION             A_IMAGE/B_IMAGE                                           
#  12 ELLIPTICITY            1 - B_IMAGE/A_IMAGE                                       
         1 -13.8469    244.8124    158.0255   9.1856335977e+01   1.7779629094e+00     2.744798    0.7965093 -41.99  0.009389731    3.732    0.732
         2 -14.2026    202.4288     17.1770   6.3385566807e+01   3.2302683899e+01     2.618874     1.586636  31.27   0.01110668    2.419    0.587
         3 -13.5323    207.3807     10.3806   6.1094252396e+01   3.1814826438e+01     1.212061    0.7062389  43.71   0.00131033    2.115    0.527
         4 -12.5328     12.8458      3.4285   1.0835909830e+02   7.2928439749e+01    0.7945997     0.427068   1.65  0.004619523    2.152    0.535
         5 -12.3930      2.0000     13.0025   1.1884058553e+02   7.2298207322e+01     1.115755     0.189893 -53.63  0.003642706    5.979    0.833
         6 -12.2944      2.1850      4.2169   1.1476034068e+02   7.3697296774e+01    0.7219726    0.3185298 -50.15  0.004068048    2.232    0.552
         7 -11.3071    143.3159    249.1483   1.2625529999e+02   5.1768984828e+00    0.4799165    0.3085015  83.68  0.002500401    2.749    0.636
         8  -9.9328    184.0605    250.3428   1.1909952489e+02  -1.3037880470e+00    0.1680965    0.1236947  33.75 0.0004910462    1.068    0.064
         9 -10.5530    136.1994    227.7942   1.2493200918e+02   9.6650598262e+00    0.3125181    0.1770444 -48.80  0.001700096    2.109    0.526
        10 -11.7524    149.9362    248.7289   1.2500781061e+02   4.2113561702e+00    0.4298437    0.3007588  50.27  0.002803604    1.257    0.204
        11 -11.3431    135.7936    241.1355   1.2667558171e+02   7.5689749551e+00    0.3071842    0.2032033  59.02 0.0009331847    1.519    0.342
        12 -12.0996    135.4380    236.3895   1.2616477707e+02   8.3785914821e+00    0.4202869     0.382557 -22.86  0.001228581    1.414    0.293
        13 -11.4980    121.5245    244.9655   1.2973757614e+02   9.1669357478e+00    0.4051688    0.1947908  42.18  0.001637151    1.675    0.403
        14 -12.0468    126.2332    240.8613   1.2841217986e+02   9.1015421300e+00    0.3988388    0.3475192 -61.66  0.001797683    1.392    0.281
        15 -11.4603    115.3540    250.2036   1.3140810208e+02   9.2650761579e+00    0.4810271    0.2060136  40.94  0.002522943    1.892    0.471
        16 -11.7529    109.7232    246.6307   1.3205498100e+02   1.0669072380e+01    0.4877967    0.2886935 -75.86   0.00287727    2.179    0.541
        17 -10.7627    123.1133    249.8768   1.2998190598e+02   8.1553917555e+00    0.3100208    0.1740976  38.75  0.001825455    1.520    0.342
        18 -10.1133    100.6910    250.3082   1.3403027263e+02   1.1390753181e+01    0.2198023    0.1299343  61.51 0.0007615227    1.572    0.364
        19 -11.3994     98.0355    246.5073   1.3414390205e+02   1.2392638052e+01    0.3577533    0.2063305  42.48  0.002170447    1.450    0.310
        20 -10.1154     87.7877    250.6034   1.3632889657e+02   1.3162753920e+01    0.3685812   0.08729737  40.27  0.001336936    3.374    0.704
        21 -10.4682     88.9001    247.2583   1.3583966930e+02   1.3561761816e+01    0.3178712    0.1426683  45.79  0.001388492    1.737    0.424
        22 -10.5013     81.5159    247.0357   1.3712337042e+02   1.4618299307e+01    0.3092714    0.2232362 -85.60  0.002185943    1.436    0.304
        23  -9.7255     79.3374    243.2009   1.3718233768e+02   1.5567208656e+01    0.1886082     0.104288  63.28            0    1.653    0.395
        24  -8.9460     74.5075    250.6651   1.3863912329e+02   1.4952387099e+01    0.2079103   0.08349867  41.20  0.001112201    2.059    0.514
        25 -12.1518     62.1594    245.7465   1.4039109750e+02   1.7390772146e+01    0.9959938    0.5514038  29.91  0.005710768    2.430    0.589
        26 -14.6061     24.8817    151.4732   1.3967355385e+02   4.0925179647e+01     3.838729     1.643177 -45.94   0.01695746    3.217    0.689
        27 -12.8498     41.7995    228.5413   1.4272257367e+02   2.2961965950e+01    0.3137704    0.3030704  72.69 0.0008126779    1.507    0.336
        28 -14.7591     47.8233    219.2834   1.4095330449e+02   2.4000502664e+01     1.953248     1.402006  33.15  0.008941615    1.704    0.413
        29 -10.6975    115.7713    239.9599   1.3024612679e+02   1.0852776707e+01    0.2114417     0.197957  79.33 0.0006759192    1.217    0.178
        30 -12.1541    244.6021    240.8014   1.0725773208e+02  -9.0814392630e+00    0.2948823    0.2469073  10.74  0.002244209    1.219    0.179
        31  -9.4102     83.7959    242.1760   1.3629738668e+02   1.5131371893e+01    0.1381811    0.1250755  54.26 0.0006084737    1.290    0.225
        32 -11.2824    172.9325    239.7726   1.1964764743e+02   1.8691920515e+00    0.3186265    0.2181664 -56.08  0.001941417    2.004    0.501
        33 -11.7156     96.4734    239.2296   1.3372402285e+02   1.3841612011e+01    0.4475653    0.2948464  89.31  0.002791249    1.726    0.421
        34 -10.5890    101.2297    239.9905   1.3292796928e+02   1.3019167145e+01    0.1504995    0.1174227 -75.28 0.0003100985    1.431    0.301
        35 -10.7076    104.4165    237.9828   1.3213547128e+02   1.2889973731e+01    0.2218512    0.1696132  42.03 0.0007967371    1.231    0.187
        36 -10.6079    144.2850    240.5232   1.2502861754e+02   6.3260196729e+00    0.2492337   0.09369568  44.94  0.001146262    2.181    0.541
        37 -10.9175     89.9123    237.7677   1.3478424522e+02   1.5035261265e+01    0.3056222    0.2094805 -86.02  0.001398606    1.565    0.361
        38  -9.7575     83.5114    238.4044   1.3601034814e+02   1.5824066092e+01    0.1749609    0.1275183  74.34 0.0005288405    1.247    0.198
        39  -9.8885     86.4625    237.4568   1.3538587315e+02   1.5577198618e+01    0.1866503    0.1473722  56.29  8.15528e-05    1.067    0.062
        40 -11.4717    133.5402    249.3556   1.2804561792e+02   6.6509103265e+00    0.6410561    0.2027204  49.13   0.00269899    2.936    0.659
        41 -10.3456    165.1003    241.9876   1.2138382214e+02   2.8004066005e+00    0.2112243    0.1495893  28.98 0.0004904213    1.299    0.230
        42 -10.1265    161.8200    232.6090   1.2070916794e+02   4.7154361892e+00    0.2016178    0.1549447  59.25 0.0007822832    1.428    0.300
        43 -12.1969    124.1539    233.1466   1.2789867701e+02   1.0691635915e+01    0.7451447    0.3077385  46.87  0.003580757    2.024    0.506
        44 -11.0911     98.6641    231.6758   1.3255132224e+02   1.4835137651e+01     0.323609    0.2548749 -84.36 0.0008127987    1.339    0.253
        45 -11.4008    112.6084    230.1767   1.2974525504e+02   1.2994210954e+01    0.3785771    0.3371578  48.33  0.001677485    1.155    0.135
        46 -11.0636    106.1072    229.2688   1.3088203924e+02   1.4146603233e+01    0.4705971    0.1965251  45.90  0.001030812    1.967    0.492
        47  -9.6005     77.9473    233.3380   1.3656823222e+02   1.7489753782e+01    0.1943797     0.135212 -89.81  0.001055364    1.431    0.301
        48 -11.2191    156.6196    231.6419   1.2155414283e+02   5.7135800967e+00    0.2392641    0.2146947   4.10 0.0005951631    1.274    0.215
        49 -10.2677    141.7829    230.7791   1.2425272503e+02   8.2678885324e+00     0.238784     0.202038 -15.46 0.0009678887    1.558    0.358
        50  -8.9089     92.4651    232.5153   1.3379976749e+02   1.5592121415e+01    0.1200825   0.09497678  60.81 2.019309e-05    1.014    0.014
        51 -10.4708    165.8432    235.0310   1.2029517516e+02   3.6971205742e+00    0.2439016    0.2175318  22.91 0.0009838707    1.131    0.116
        52 -10.2693     84.7249    229.5500   1.3495638895e+02   1.7230630936e+01    0.2091885    0.1871499  43.27 0.0006493141    1.324    0.244
        53 -10.5397     77.3778    220.9842   1.3551762511e+02   1.9847252013e+01    0.2730251    0.1635888  59.50 0.0004218693    1.460    0.315
        54 -10.7008     80.6235    227.2804   1.3550838514e+02   1.8220942961e+01    0.2850856    0.2475406 -20.77 0.0009429749    1.880    0.468
        55 -10.1169     78.9805    224.5372   1.3555579260e+02   1.8957510069e+01    0.2235271    0.1944189 -26.98 0.0008498502    1.825    0.452
        56  -8.8693    114.9488    244.4797   1.3088407523e+02   1.0238406541e+01    0.2048856    0.1049348  66.96 0.0009709008    2.775    0.640
        57  -9.8083    179.4976    228.1362   1.1674788881e+02   2.4843804146e+00    0.2420042    0.1771423  67.59  0.001063191    1.995    0.499
        58 -10.6519    165.4745    226.6097   1.1916282002e+02   5.0341634909e+00    0.3441159    0.2478612 -64.68  0.001913445    1.941    0.485
        59 -11.2175    160.9775    223.4035   1.1955345193e+02   6.2879596912e+00    0.5114502    0.2995257  24.23  0.002009226    2.075    0.518
        60  -9.0692    190.8287    228.1425   1.1464815673e+02   6.2940679531e-01    0.1627244    0.1247941  16.25 0.0002856242    1.258    0.205
        61  -9.7462    197.5159    226.7362   1.1320148848e+02  -2.5853311769e-01    0.2404199     0.196612  77.48  0.001460835    2.002    0.501
        62 -11.5753     98.8462    223.5086   1.3163941717e+02   1.6277002140e+01      0.46475    0.2720305  43.60  0.001245434    1.473    0.321
        63  -9.4988    147.2624    225.3263   1.2246918241e+02   8.2614453295e+00    0.1799592    0.1618915  19.81 0.0002299951    1.213    0.176
        64  -9.2401    149.7011    222.6424   1.2162220635e+02   8.2983455404e+00      0.21805    0.1397478  24.99 0.0007734213    1.807    0.447
        65 -11.2025    131.7243    223.6583   1.2525901500e+02   1.1093566279e+01    0.4391672    0.2931058  78.83  0.002356931    2.079    0.519
        66 -10.8832    117.3630    224.2960   1.2813617931e+02   1.3284765130e+01     0.220053    0.1886483  51.86 0.0002742736    1.057    0.054
        67  -8.6967    219.9969    223.4806   1.0863065499e+02  -3.3994361810e+00    0.1383839    0.1013686  57.83 -2.654029e-06    2.062    0.515
        68 -11.6213    142.1311    221.7068   1.2296558569e+02   9.7154517748e+00    0.3693931    0.2927391  43.56 0.0003295136    1.075    0.070
        69 -11.1329    137.8912    214.1165   1.2273974533e+02   1.1738571360e+01    0.5001306    0.2978244  35.10  0.001226686    1.616    0.381
        70 -10.3203    105.3049    219.2132   1.2988809426e+02   1.6085660276e+01    0.3905241    0.2153815  74.11 0.0008879831    2.633    0.620
        71 -10.9682     72.7660    210.0672   1.3533265073e+02   2.2598663037e+01    0.4343232    0.2535699  32.99  0.001913961    1.948    0.487
        72 -11.0060     70.7298    220.3400   1.3672871362e+02   2.0877849289e+01    0.4603329    0.2629154 -66.59  0.002716194    1.816    0.449
        73  -9.2673    177.1794    220.3724   1.1599481637e+02   4.0361507098e+00    0.1892905     0.102947  47.71 0.0009512002    1.759    0.431
        74  -9.5768    110.6441    221.5999   1.2912237434e+02   1.4821283137e+01    0.2827371    0.2125267 -46.76  0.001180579    1.678    0.404
        75  -8.3723     89.6395    218.2999   1.3286410393e+02   1.8609960357e+01    0.1322612   0.07756808  64.88 0.0007035753    1.716    0.417
        76  -9.3340     93.8850    217.0970   1.3189739704e+02   1.8211725202e+01    0.1994747    0.1367195  68.25 0.0008427105    1.399    0.285
        77 -10.4536     92.6590    226.0093   1.3309805877e+02   1.6735184182e+01    0.3024549    0.1599182  49.40 0.0009474234    1.574    0.365
        78  -9.7382     88.1446    213.0415   1.3258523020e+02   1.9835452314e+01    0.2060624    0.1546803  81.76 0.0005190403    1.283    0.221
        79  -9.9522     68.0070    214.9683   1.3674839423e+02   2.2278566249e+01    0.2789285    0.1700005 -79.90  0.001226396    1.632    0.387
        80  -9.7742    102.1759    212.0905   1.2966055624e+02   1.7907407719e+01     0.351836    0.1729299  56.88  0.001670158    2.089    0.521
        81  -8.8982    152.1822    212.0129   1.1957695055e+02   9.6700866557e+00    0.1940152    0.1450276  85.36 0.0007565854    1.893    0.472
        82  -9.6111     33.4297    211.4426   1.4304654375e+02   2.7189149262e+01     0.160684    0.1373989  46.35  0.001202258    1.410    0.291
        83  -9.2286    174.2729    211.3167   1.1511363200e+02   5.9591514579e+00    0.1257441   0.09529117   6.59 0.0002044247    1.563    0.360
        84 -10.2440    109.0521    207.6596   1.2770662209e+02   1.7678906587e+01    0.3143641    0.1825035 -68.88  0.001259953    1.988    0.497
        85  -9.5993    134.7125    208.2614   1.2253929472e+02   1.3329532923e+01    0.2491193    0.1861198   1.31   0.00121384    2.076    0.518
        86  -9.2163    119.9777    208.7040   1.2560875162e+02   1.5711399859e+01    0.1840467    0.1461551  47.57 0.0003570126    1.112    0.101
        87 -12.4079     93.5691    202.7437   1.3028065517e+02   2.1056786515e+01     0.497319    0.4308979 -84.25  0.002009843    1.158    0.136
        88 -10.3837    102.8561    202.6927   1.2834308726e+02   1.9631289760e+01    0.4067922    0.2264352  53.98  0.002038941    1.690    0.408
        89 -10.6253     98.2718    196.7649   1.2853329930e+02   2.1541450213e+01    0.5714474    0.2570495  40.54   0.00224371    2.057    0.514
        90 -10.3626    175.2643    205.3364   1.1393255100e+02   6.7619025886e+00    0.3019091    0.2221379 -17.27  0.001590489    1.667    0.400
        91  -9.5642    178.2949    204.7140   1.1323256099e+02   6.3289266216e+00    0.2105905    0.1772581  25.39 0.0002251996    1.091    0.084
        92  -9.3508    125.9350    205.7375   1.2397373455e+02   1.5280834233e+01    0.1870402     0.152273  50.01 0.0004744448    1.079    0.073
        93  -9.1794    149.2877    204.7124   1.1903424189e+02   1.1453860320e+01    0.2596708    0.1623993 -23.65  0.001187819    2.615    0.618
        94  -9.6318    166.9754    203.2291   1.1522422222e+02   8.5856017343e+00    0.1821459    0.1510886  39.21  0.001085668    1.073    0.068
        95  -9.4297    133.0864    202.8246   1.2207183316e+02   1.4614117368e+01     0.196899    0.1647872  66.66 0.0004320173    1.199    0.166
        96 -10.1170    138.0783    201.6356   1.2085815478e+02   1.3973799100e+01    0.2074511    0.1906405 -46.87 0.0003272331    1.234    0.190
        97  -8.5226     76.6499    202.7346   1.3377320482e+02   2.3531731806e+01    0.1086192   0.09930929  -5.25  0.000698426    1.617    0.381
        98  -9.7919     64.0530    202.1637   1.3628422136e+02   2.5361685788e+01    0.2402585    0.1598051  34.65 0.0006197869    1.683    0.406
        99 -10.1508     32.9395    201.9381   1.4244012038e+02   2.9147833605e+01    0.1686554    0.1289094  76.64 0.0003064795    1.001    0.001
       100 -10.1316    197.1730    200.6109   1.0886706439e+02   3.6562372811e+00    0.2954689    0.2175751  47.71  0.001679124    1.416    0.294
       101 -10.9643    115.2479    200.2027   1.2541385744e+02   1.8124890504e+01    0.2251835    0.2193882  70.36 0.0002535282    1.157    0.136
       102 -10.3375    120.0536    199.2918   1.2427355512e+02   1.7504031007e+01    0.3176771    0.2069148  62.00  0.001279803    1.627    0.386
       103  -9.2161    169.5735    200.2768   1.1420736350e+02   8.6269606424e+00    0.1618048    0.1281442 -27.98 0.0002952632    1.428    0.300
       104  -9.6690     44.2359    199.1375   1.3999213668e+02   2.8447066482e+01    0.2968805    0.1825336  42.50  0.001251757    1.584    0.369
       105  -8.7418     86.2709    199.2767   1.3138084134e+02   2.2851086485e+01    0.1743888    0.1475685 -75.41 0.0001974831    1.211    0.175
       106  -9.6051     85.9449    195.9641   1.3104712081e+02   2.3580324587e+01    0.1918361     0.162751  70.04 0.0003345934    1.007    0.007
       107 -11.2256     53.2889    198.0130   1.3806577861e+02   2.7591290025e+01    0.5498332    0.1848463  43.53  0.002520378    2.543    0.607
       108 -10.3989     56.3995    194.0708   1.3704247750e+02   2.8026976548e+01    0.2825301    0.2034231 -84.54 0.0008079642    1.245    0.197
       109 -10.0606    134.0353    197.9454   1.2113264638e+02   1.5372988867e+01    0.2317958    0.1930933 -74.45 0.0003669283    1.341    0.254
       110  -8.8241    133.4964    194.4572   1.2070195353e+02   1.6137264630e+01    0.1342011    0.1221557  46.28 -2.038952e-05    1.052    0.050
       111 -11.6073     66.9383    195.0321   1.3494561768e+02   2.6455347333e+01    0.3895352    0.3070169 -44.29   0.00160976    1.721    0.419
       112 -11.9017     72.4026    187.4574   1.3292073806e+02   2.7315552987e+01     0.338408    0.2829486 -39.39 0.0005697906    1.626    0.385
       113  -9.4817     77.2122    188.6461   1.3202179926e+02   2.6385518403e+01    0.2070893    0.1584029  89.15 0.0002855731    1.224    0.183
       114 -10.4359    112.8874    193.6298   1.2497711049e+02   1.9824099408e+01    0.4360293    0.2516598 -63.25  0.001216713    1.897    0.473
       115 -11.3714    247.8702    205.5618   1.0069508521e+02  -5.3832893523e+00    0.3941935    0.2251897  17.24  0.002126445    1.853    0.460
       116  -9.2855     31.1355    195.2319   1.4227571518e+02   3.0720888565e+01    0.2274822    0.1158795  55.03  0.001039706    1.720    0.419
       117  -9.6574    159.4451    194.0476   1.1520166619e+02   1.1558854272e+01    0.3029541     0.177259  54.67   0.00119735    1.883    0.469
       118 -10.7676    119.2211    191.5879   1.2331157012e+02   1.9171917862e+01    0.5023633    0.3508806  88.09 0.0009898208    1.809    0.447
       119  -8.7881     84.6815    192.3303   1.3086645336e+02   2.4523561889e+01    0.1322096    0.1192039  73.92 0.0004691494    1.089    0.082
       120 -10.5185     38.7392    192.3768   1.4051409170e+02   3.0485577530e+01    0.2167081    0.1656636 -67.40 0.0001584873    1.385    0.278
       121  -9.3625     41.9271    188.5969   1.3952205564e+02   3.0924821694e+01    0.2044194    0.1506773  87.46 0.0005811817    1.130    0.115
       122  -9.8007     72.9629    193.0563   1.3345531355e+02   2.6048778069e+01    0.1867268    0.1573768  72.79  0.001210113    1.016    0.016
       123  -9.5884     25.9969    192.8324   1.4310901185e+02   3.1757413527e+01     0.217418    0.1329622  89.74 0.0007954162    1.365    0.268
       124 -10.1584    191.3993    191.4086   1.0830491275e+02   6.1679284822e+00    0.2593296    0.2233308  13.18 0.0006380989    1.106    0.096
       125  -9.5301    172.9742    192.2302   1.1211847620e+02   9.4043480150e+00    0.2204961     0.149009  15.25  0.001016895    1.909    0.476
       126  -9.1822     47.6717    192.4615   1.3869210863e+02   2.9435260120e+01    0.1183042   0.09424652  87.24 -3.926721e-06    1.071    0.066
       127  -9.8191     20.1630    191.6639   1.4417452909e+02   3.2585476594e+01    0.1919061    0.1250579  84.00  0.001269005    1.226    0.185
       128  -9.2732    135.2908    190.1212   1.1962468986e+02   1.6663883930e+01    0.1793948    0.1679697  77.55 0.0003961208    1.086    0.079
       129  -9.9980     32.4073    189.4167   1.4155120841e+02   3.1802957271e+01    0.3171283    0.2639022  17.30  0.002184174    1.778    0.438
       130 -11.8801    249.8903    187.6067   9.6990471657e+01  -3.3298350977e+00    0.7923537    0.2085893 -33.11  0.002903347    3.694    0.729
       131 -10.4956    236.3921    145.9890   9.0668924347e+01   5.1850106827e+00    0.3450424    0.1949234  42.53 0.0009108194    1.855    0.461
       132 -12.5460    247.9833    172.0002   9.4220247139e+01  -8.3255594032e-01    0.7488675    0.4546027 -26.53  0.004035671    1.519    0.342
       133 -10.6346    193.5711    246.8047   1.1692364098e+02  -2.3082986962e+00    0.4062941     0.185921 -31.58  0.002077041    2.856    0.650
       134 -12.1027    248.6027    112.8920   8.1284824422e+01   8.0831241391e+00    0.9239871    0.5963826  -0.35  0.004216585    2.286    0.563
       135 -11.7908    248.0954    142.3628   8.7963799757e+01   3.5823759738e+00    0.6203273      0.50673   7.13  0.002955111    1.238    0.192
       136 -13.0405    248.4643    134.2329   8.6118962446e+01   4.7729552593e+00     1.587458    0.6124403 -36.52  0.006483405    2.293    0.564
       137 -10.5663     25.1604    184.2791   1.4261289747e+02   3.3644131167e+01    0.2019982    0.1582283  85.26 0.0006299487    1.040    0.039
       138  -9.6602     30.0491    183.0726   1.4150334899e+02   3.3402692725e+01    0.3517568    0.1542265  56.93  0.001796308    2.172    0.540
       139  -9.4025     86.2637    183.4243   1.2936586782e+02   2.6180457909e+01    0.2590652    0.1882965  -4.80  0.001000617    2.657    0.624
       140  -9.1580     37.1940    183.9909   1.4008999449e+02   3.2441370600e+01    0.2107251    0.1494806  47.08  0.001300612    1.402    0.287
       141  -9.1840     53.5757    182.2603   1.3641883721e+02   3.0907512538e+01    0.2630971    0.1826752 -18.70  0.001312329    3.016    0.668
       142  -9.7185     65.9506    181.9918   1.3368172529e+02   2.9376223028e+01    0.1880942    0.1605993  79.37  0.000306864    1.023    0.022
       143  -8.6649    104.2528    180.6669   1.2494978716e+02   2.3942433796e+01    0.1357698   0.09753248  79.45 0.0003380442    1.560    0.359
       144 -13.0001    248.3303    101.3785   7.8667716662e+01   9.9343755585e+00     1.854274    0.7885209 -22.00  0.006333716    3.542    0.718
       145 -10.0696    174.3999    179.6205   1.0949386823e+02   1.1389598303e+01    0.3342808    0.1263898  43.58   0.00125877    2.484    0.597
       146  -9.7281    109.2027    178.2182   1.2345501404e+02   2.3641397032e+01    0.2221548    0.2059732 -89.39  0.000475688    1.066    0.062
       147  -9.2203     48.1875    179.6700   1.3731668831e+02   3.2124519151e+01    0.1498301    0.1134753  31.95 0.0005546205    1.599    0.375
       148 -11.4709     81.5153    175.7558   1.2938887699e+02   2.8559059982e+01    0.4052118    0.3113693  43.27  0.001544012    1.320    0.242
       149  -9.9060     77.2177    175.7440   1.3036713248e+02   2.9186951226e+01    0.2030233    0.1582679 -88.02 0.0006346647    1.200    0.167
       150 -11.7443     68.7466    173.3181   1.3198128829e+02   3.0912126781e+01     0.531585    0.2378224 -53.58  0.001398069    2.335    0.572
       151 -10.9516     68.9534    166.8503   1.3107617436e+02   3.2337695579e+01    0.3127219    0.2035605 -55.38 0.0003602747    1.573    0.364
       152  -8.3955     31.2938    177.6609   1.4076741750e+02   3.4443277660e+01    0.1273544   0.07272447  71.62 0.0004811746    1.651    0.394
       153  -9.4121    114.8668    176.1030   1.2183089830e+02   2.3125467866e+01    0.2245722    0.1504215  89.89 0.0006412074    1.990    0.497
       154  -8.7095     82.2492    194.3423   1.3163382115e+02   2.4459362788e+01     0.178311    0.1206376  40.18 0.0001555062    1.473    0.321
       155  -8.8934    107.6386    173.2886   1.2302155004e+02   2.4964857885e+01    0.1462794   0.09940484  69.83 0.0003491095    1.691    0.409
       156  -9.7222     95.3785    172.8464   1.2577891318e+02   2.7074074840e+01    0.2415414    0.1696434  61.18 0.0005132001    1.420    0.296
       157  -9.2759     91.0160    172.7216   1.2676866481e+02   2.7789184877e+01    0.2472454    0.1756642 -48.84  0.000616809    1.573    0.364
       158 -10.5565     89.8991    160.6476   1.2514861943e+02   3.0670897701e+01     0.347342    0.2342211 -74.96  0.000548294    1.538    0.350
       159  -9.6049     93.4957    169.4144   1.2568715517e+02   2.8132414930e+01    0.2230568    0.1868386 -46.46 7.885123e-05    1.368    0.269
       160 -12.4924     87.7625    166.7798   1.2662877159e+02   2.9617480901e+01    0.7852337    0.5667343 -49.60  0.004253363    1.515    0.340
       161  -8.4714    167.0000    170.0210   1.0917138222e+02   1.4614907573e+01    0.2243939   0.08199758 -44.70 0.0007921825    2.872    0.652
       162 -11.1364     28.5249    171.3208   1.4078895557e+02   3.6116257631e+01    0.3777435    0.2552634 -72.82  0.001347239    1.296    0.229
       163 -10.7652     43.7288    168.8524   1.3715431790e+02   3.5039675968e+01     0.342774     0.288464 -56.13  0.001475075    1.385    0.278
       164  -9.5950    107.2188    168.2157   1.2228107926e+02   2.6142348729e+01    0.1894436    0.1840659  65.38 0.0003694577    1.113    0.101
       165  -9.1623     58.5642    167.6989   1.3361370166e+02   3.3515961507e+01     0.174838    0.1104782 -83.19 0.0005377039    1.522    0.343
       166  -9.4058    126.5045    167.5050   1.1767851962e+02   2.2883544724e+01    0.1436713    0.1318383  70.60 0.0008100361    1.055    0.053
       167  -8.7973    136.4035    165.4672   1.1503055969e+02   2.1466683584e+01    0.1426974    0.1336536  74.54 -3.30013e-05    1.064    0.060
       168  -9.1775     53.9667    164.7403   1.3431779118e+02   3.4760271751e+01    0.1726114    0.1463161  84.93 0.0002812302    1.019    0.018
       169  -9.4718     80.9593    164.2396   1.2785867886e+02   3.1219291269e+01    0.1857902    0.1662641  76.04 0.0009853357    1.040    0.039
       170  -8.6188     67.6300    186.7403   1.3387058752e+02   2.8122445099e+01    0.1123789    0.1003285 -18.98 0.0006976661    1.648    0.393
       171  -9.9354     48.5102    168.6355   1.3604170801e+02   3.4535458752e+01    0.3173324     0.166766  47.65   0.00166273    1.837    0.456
       172  -9.4091    154.6975    161.8604   1.1020266473e+02   1.8651662797e+01     0.193228    0.1802406 -65.96 0.0003475421    1.140    0.123
       173  -9.5631     36.9717    162.5376   1.3801540870e+02   3.7205183926e+01    0.1657104    0.1139669  43.38 0.0005469686    1.521    0.343
       174 -10.6416     96.0069    157.5886   1.2315330109e+02   3.0388076348e+01     0.426892    0.1924359 -60.12  0.001354864    2.220    0.549
       175 -11.1333     73.6720    157.9980   1.2867821172e+02   3.3702948151e+01      0.43685    0.3235691 -72.99  0.002001581    1.253    0.202
       176  -9.6240     78.9837    158.7325   1.2749476627e+02   3.2767539610e+01    0.1848942    0.1658936  75.58  0.000420324    1.052    0.049
       177 -12.3818     51.7389    237.8225   1.4162373998e+02   2.0082065515e+01    0.9397107    0.7017047  78.13   0.00522013    1.125    0.111
       178  -8.9956     52.4902    158.4574   1.3387761822e+02   3.6375818431e+01    0.1285458    0.1101594 -86.15 8.199977e-05    1.037    0.036
       179 -12.9902     12.5068    186.2914   1.4531013427e+02   3.4430632886e+01    0.9565396    0.7299728  33.30  0.002645885    1.649    0.394
       180  -9.7720    134.7893    156.0494   1.1356090502e+02   2.3773011329e+01    0.2281759    0.1971933  82.82 0.0007461666    1.264    0.209
       181  -9.2534    228.4459    155.1491   9.4027953276e+01   5.2135930293e+00    0.2067845     0.126362 -32.87 0.0005378681    1.547    0.353
       182 -10.5874    113.8601    150.9821   1.1757014728e+02   2.8810132960e+01    0.3874967    0.2658128 -55.38 0.0007197426    1.449    0.310
       183 -11.2915    100.5029    151.0747   1.2088665149e+02   3.1126064621e+01     0.618957    0.4368643  21.24  0.002980882    1.900    0.474
       184  -9.8732    103.7656    145.8346   1.1907918343e+02   3.1766326635e+01    0.3541285    0.2704996 -32.36  0.001272286    1.613    0.380
       185  -8.6963    132.2852    152.6238   1.1345658322e+02   2.4995195804e+01    0.1521209    0.1143827  88.55 0.0007015708    1.719    0.418
       186  -9.3797     52.9659    146.4772   1.3214074675e+02   3.9098661173e+01    0.2307229    0.1640068 -85.66 0.0005573379    1.321    0.243
       187  -9.8300     60.4707    151.1474   1.3092441075e+02   3.7074788961e+01    0.3351288    0.1607192  56.39  0.001285094    2.432    0.589
       188 -10.8227     56.0236    150.1538   1.3189299043e+02   3.7866891115e+01    0.3046179    0.2748547 -86.56   0.00130942    1.079    0.073
       189  -9.2062     90.4695    149.5359   1.2311936812e+02   3.3128448941e+01    0.1400212    0.1286681 -87.42 0.0002382645    1.006    0.006
       190 -12.9724     67.4881    144.2103   1.2807912829e+02   3.7771783978e+01     0.733004    0.5019518  72.69  0.003819671    1.626    0.385
       191 -12.1798     73.8207    139.7407   1.2567772668e+02   3.7940456681e+01    0.6710923    0.4718164 -76.66  0.002834172    1.415    0.293
       192 -10.4932    134.0000    145.0389   1.1146134897e+02   2.6307329778e+01    0.5933501    0.1761344 -50.76  0.001809806    3.529    0.717
       193 -10.6069    133.2563    140.3276   1.1061607122e+02   2.7483472679e+01    0.4365468     0.308729 -42.84  0.001293125    1.453    0.312
       194  -8.9853    122.0285    148.0127   1.1498076413e+02   2.7965990586e+01    0.1712089    0.1644735  79.72            0    1.005    0.005
       195 -14.0280     27.3287    247.3288   1.4630179504e+02   2.1227323633e+01     1.595673    0.8128054  55.04   0.01073877    1.449    0.310
       196 -11.9883      3.1781    145.1647   1.4419972187e+02   4.4136641584e+01    0.4752263    0.2830813  52.23  0.002993398    1.706    0.414
       197 -11.7435      2.1337    131.6325   1.4323973843e+02   4.7253935172e+01    0.4678795    0.1339809 -65.85  0.002126281    2.475    0.596
       198 -11.8324      8.1494    141.4334   1.4268669187e+02   4.4611102469e+01    0.6394075    0.1693512  46.01   0.00268064    3.785    0.736
       199  -9.6999    158.9921    145.0777   1.0566341646e+02   2.1194810058e+01    0.2125588    0.2097088  40.37  0.001182786    1.010    0.010
       200  -8.6484     93.4716    145.4941   1.2162481015e+02   3.3578934825e+01     0.143275    0.1295795  89.58 0.0008095152    1.048    0.045
       201 -13.0004     38.2648    245.4443   1.4440972769e+02   2.0332496068e+01     1.040834     0.431993 -72.66  0.006176204    2.376    0.579
       202 -11.8810     17.4880    140.1241   1.4027156494e+02   4.4172043482e+01     0.346947    0.1929282  58.38  0.001939415    1.888    0.470
       203  -9.4284    138.5419    138.8733   1.0901771726e+02   2.6734232764e+01    0.2241494    0.1470361 -46.41 0.0007977499    1.530    0.346
       204 -11.3446     60.3811    137.9771   1.2892662119e+02   4.0178708059e+01    0.2902275    0.2481706 -88.85  0.001224818    1.078    0.073
       205 -13.9402      2.4748    220.1924   1.4905064364e+02   2.8622866832e+01     2.353547    0.5517353 -75.97   0.01105023    3.474    0.712
       206 -11.7581     12.8370    137.0957   1.4110976915e+02   4.5239604617e+01    0.2742369    0.1809581  61.79  0.001698914    1.536    0.349
       207 -10.5633    111.5639    136.2246   1.1513672101e+02   3.2570899106e+01    0.4354578    0.3090161  26.67  0.001420704    1.710    0.415
       208 -10.9630     21.0070    133.9772   1.3869440994e+02   4.5292701055e+01     0.187908    0.1492718 -79.81 0.0003212004    1.009    0.009
       209 -11.0754    249.4517    150.9747   8.9605563952e+01   2.0239919296e+00    0.5099456    0.3048087 -34.52  0.002640026    1.520    0.342
       210 -12.0276     67.6183    128.1308   1.2526030178e+02   4.1553170302e+01    0.4372134    0.3733139  79.80  0.001647121    1.190    0.160
       211  -8.9703     98.4452    133.6411   1.1800492603e+02   3.5496796818e+01    0.3883512    0.1899189 -31.91  0.001186831    4.358    0.771
       212 -12.4440     45.6727    131.8444   1.3189015973e+02   4.3385550176e+01    0.5215338    0.3723366  62.50  0.002991715    1.495    0.331
       213 -11.9864     31.3106    127.1369   1.3508938954e+02   4.5965964429e+01    0.4175818    0.2130918  45.40  0.001741434    2.141    0.533
       214 -11.3314      9.5670    127.3739   1.4090981975e+02   4.7710145334e+01    0.2234888    0.1431539  84.27 0.0009694973    1.446    0.308
       215 -10.4582    209.8675    125.8073   9.0698122414e+01   1.3940966418e+01    0.2911349    0.2346212 -27.91 0.0004990395    1.196    0.164
       216 -11.5314     38.1869    121.6060   1.3236681125e+02   4.6596116260e+01    0.3594301    0.2137824  58.52   0.00185986    1.976    0.494
       217  -9.5673     86.0909    126.1198   1.1976683981e+02   3.9295895025e+01    0.3098863    0.2053485  -2.40  0.001253553    2.921    0.658
       218 -11.0445      2.1762    120.0744   1.4206926626e+02   4.9873913503e+01    0.3402146    0.1089316 -68.50  0.001584975    2.237    0.553
       219 -11.1640    141.6201    182.9612   1.1705437954e+02   1.6927192932e+01    0.4551863     0.348701  36.52 0.0009562345    1.272    0.214
       220 -13.5916      8.8380    206.7432   1.4725877435e+02   3.0616707230e+01     1.535434    0.8353581  35.92  0.009989747    1.997    0.499
       221 -12.9890     20.5562    121.6578   1.3728317115e+02   4.8189509580e+01    0.5329533     0.301515 -69.77  0.002000957    1.415    0.293
       222 -12.5017     24.1936    121.1051   1.3620516444e+02   4.8015374048e+01    0.3906553    0.3230006  34.36  0.001833347    1.456    0.313
       223 -14.2062      6.0276    246.1439   1.4960903095e+02   2.3626397197e+01     1.122689    0.6988146 -87.60  0.008811942    1.394    0.283
       224 -10.7775     54.8140    120.8477   1.2751965958e+02   4.4930453586e+01    0.2651129     0.208442  28.82  0.001174561    1.497    0.332
       225 -10.7489      7.1140    120.3152   1.4077458864e+02   4.9498078499e+01    0.1926856    0.1140661   5.55  0.001090932    2.555    0.609
       226  -9.3158     86.3513    116.6057   1.1763307543e+02   4.1479379287e+01    0.3222295    0.1737855 -67.83   0.00111501    2.261    0.558
       227 -11.6003     31.8177    116.9152   1.3344335157e+02   4.8317496953e+01    0.4196788    0.2116014 -49.45  0.002103516    1.892    0.471
       228 -10.4973    249.6918    117.9303   8.2273732774e+01   7.0830550254e+00    0.3940709    0.2748577  -5.67  0.001293999    1.738    0.425
       229 -11.9293     15.4032    114.5393   1.3777701439e+02   5.0241552942e+01    0.2904069    0.2153727 -63.49 0.0008967562    1.138    0.121
       230 -11.0071    168.0211    113.2251   9.5938448517e+01   2.5671560679e+01    0.3724192    0.3056002 -74.96 0.0009060209    1.474    0.321
       231  -9.1280    134.3258    114.3196   1.0414528755e+02   3.2933243480e+01    0.1565843    0.1235108  -1.18 0.0007046408    1.679    0.405
       232 -10.0533     50.1993    112.8803   1.2738740451e+02   4.7359013141e+01     0.194396    0.1633587 -82.94 0.0004464136    1.158    0.136
       233  -9.5364    203.7405    111.4493   8.8307101676e+01   1.7841631249e+01    0.2071398    0.1391118  38.45 0.0009407462    1.627    0.385
       234  -9.0080     83.7741    111.1669   1.1712877220e+02   4.3156584149e+01    0.1881329    0.1605868 -28.94 0.0003303971    1.293    0.227
       235 -10.3280     69.8758    111.1139   1.2119367803e+02   4.5256259018e+01    0.2037522    0.1756961 -89.66 0.0002752082    1.226    0.184
       236 -11.4105     57.5385    110.2161   1.2467886132e+02   4.7106328762e+01    0.3937326    0.2463559  18.99  0.001938767    2.129    0.530
       237 -11.3777     27.1903    106.7624   1.3318285965e+02   5.1105451805e+01    0.2805556    0.2183296 -49.60   0.00178273    1.238    0.193
       238 -10.5126     13.4915    107.9697   1.3743196409e+02   5.1896577275e+01    0.1903564   0.09650069 -69.36 0.0007953641    1.548    0.354
       239 -10.5833     31.6746    110.9090   1.3252640637e+02   4.9738546151e+01    0.2187276    0.1811587  50.16 0.0006058824    1.374    0.272
       240  -8.3581     95.2732    106.3373   1.1263218926e+02   4.2341020683e+01    0.1475131    0.1116803 -23.76 0.0002421194    1.605    0.377
       241 -11.0204     18.7781    104.6087   1.3537206666e+02   5.2285260638e+01    0.1958049    0.1542204  45.15  0.001283865    1.492    0.330
       242 -12.8738     13.8841    238.7440   1.4804118995e+02   2.4138072969e+01    0.5020611    0.2648428  54.52  0.003530577    1.429    0.300
       243  -9.7266     32.9993    100.0374   1.3022212420e+02   5.2150327909e+01    0.1615765    0.1199051 -63.61 0.0004289331    1.116    0.104
       244  -8.8944     85.9613     97.0418   1.1298713647e+02   4.6026581031e+01    0.1665199    0.1554473 -48.78            0    1.009    0.009
       245  -8.5665     80.2820     97.7216   1.1488878858e+02   4.6792234628e+01    0.1349623    0.1098916  87.10 0.0001842583    1.508    0.337
       246  -9.4434     72.1028     90.1670   1.1547804575e+02   4.9740588590e+01    0.2028201     0.173975 -28.66 0.0002626167    1.189    0.159
       247  -8.9500     24.3251     88.2976   1.3079438785e+02   5.5594755384e+01     0.128571   0.07847041 -40.04 0.0002328514    1.628    0.386
       248  -8.6021    124.2583     51.2960   8.7638225459e+01   4.7303771503e+01    0.1432361     0.110446  12.65            0    1.500    0.333
       249 -10.5145    169.6296    248.5921   1.2143923769e+02   1.1613501024e+00    0.2921817    0.1774514  20.72 0.0008258996    1.968    0.492
       250  -9.5403    209.6945    246.7196   1.1408633630e+02  -4.7360786576e+00    0.1157431   0.07431336  15.30 0.0001863102    1.555    0.357
       251 -10.2972    200.0509    245.8444   1.1564284953e+02  -3.1764979124e+00    0.1696663    0.1383537  42.25 0.0004672209    1.300    0.231
       252 -10.4376    222.8269    244.8108   1.1153962125e+02  -6.4447000747e+00    0.1853524    0.1271527  15.84 0.0009712319    1.268    0.211
