#   1 NUMBER                 Running object number                                     
#   2 MAG_AUTO               Kron-like elliptical aperture magnitude                    [mag]
#   3 X_IMAGE                Object position along x                                    [pixel]
#   4 Y_IMAGE                Object position along y                                    [pixel]
#   5 X_WORLD                Barycenter position along world x axis                     [deg]
#   6 Y_WORLD                Barycenter position along world y axis                     [deg]
#   7 A_WORLD                Profile RMS along major axis (world units)                 [deg]
#   8 B_WORLD                Profile RMS along minor axis (world units)                 [deg]
#   9 THETA_WORLD            Position angle (CCW/world-x)                               [deg]
#  10 FWHM_WORLD             FWHM assuming a gaussian core                              [deg]
#  11 ELONGATION             A_IMAGE/B_IMAGE                                           
#  12 ELLIPTICITY            1 - B_IMAGE/A_IMAGE                                       
         1 -14.4730    145.7973     43.2888   7.9614809502e+01   4.3372414960e+01     5.768381     3.495083 -81.54   0.02022957    3.018    0.669
         2 -14.6087    188.7842     20.3008   6.6025742175e+01   3.5716673545e+01     7.009222     2.000026  66.63   0.02524857    3.047    0.672
         3 -12.8344    209.0021     64.9667   7.4399946854e+01   2.4657520269e+01     3.668114     1.774365 -65.32    0.0125774    3.368    0.703
         4 -14.2964    242.7028     64.6768   6.9722682216e+01   1.6880682815e+01     2.262386     1.427099  85.49   0.01131863    1.776    0.437
         5 -15.6966    240.1437    100.8133   7.8198767417e+01   1.1429080302e+01     5.033572     4.755012  60.24   0.02613294    1.181    0.153
         6 -13.9706    242.9278     40.9853   6.4530881229e+01   2.0325750181e+01     1.503355    0.8022817  89.05  0.002706248    2.136    0.532
         7 -13.8022    247.5726     22.0778   6.0135237186e+01   2.1800255174e+01     1.011569    0.6265574 -40.21  0.003643895    1.605    0.377
         8 -14.9462    239.5836      7.1173   5.7782869640e+01   2.5330881951e+01     2.341448    0.6535397  65.18  0.009773975    3.056    0.673
         9 -13.9112    223.9203     39.5583   6.6330017472e+01   2.4861746883e+01      1.92296     1.235701 -48.41  0.007756703    1.461    0.315
        10 -10.9034      2.7201      5.0731   1.1234627725e+02   7.1816571559e+01    0.5231611     0.178516 -41.67  0.002921741    2.442    0.591
        11  -8.7084     90.3908      6.1681   7.9741736098e+01   5.9558315311e+01    0.1539856    0.1074789 -30.89 0.0004216949    1.651    0.394
        12  -8.8567    165.4277      1.3675   6.4114324433e+01   4.3250231543e+01    0.2117102    0.1044324  69.62 0.0006333974    1.712    0.416
        13  -8.8892    115.6160    152.1017   1.1651570713e+02   2.8253944652e+01     0.207433    0.1760567 -57.89 0.0003356941    1.146    0.128
        14 -13.2295    172.9680     62.9863   7.9984219901e+01   3.3834324346e+01     2.378917    0.9103386 -46.24  0.007211039    2.837    0.648
        15 -10.5295     90.6143    246.6532   1.3610366401e+02   1.1939804135e+01    0.2585121    0.1731076 -58.30  0.001563553    1.765    0.433
        16  -8.0500    113.5377    137.0015   1.1379776628e+02   3.2209272128e+01    0.2060394    0.1450499 -53.97 0.0001773299    1.370    0.270
        17 -10.6261    168.5134    133.6792   9.9584969885e+01   2.1272665250e+01    0.3235722    0.3036086  46.45  0.001675057    1.084    0.078
        18  -8.2197    143.3400    133.6430   1.0548373644e+02   2.6886419120e+01    0.1677792    0.1241323 -89.46 0.0003241712    1.817    0.450
        19 -10.3261     98.2734    239.3582   1.3388540371e+02   1.2124304506e+01    0.2768772    0.1562268  31.04  0.001346856    2.353    0.575
        20 -11.0876    159.3327    129.1792   1.0058719822e+02   2.4328370479e+01    0.5286273    0.4052791  21.74  0.002376835    1.655    0.396
        21 -11.3018    194.6367    127.6010   9.2535939683e+01   1.6566409840e+01    0.6764939    0.4212055 -87.05  0.002146211    3.372    0.703
        22 -10.1943    135.6715    125.1436   1.0531361887e+02   3.0451339876e+01    0.9741709    0.2837879 -53.74  0.002427385    4.822    0.793
        23  -9.8080    133.5590    144.6174   1.1043507080e+02   2.6450819675e+01     1.098971    0.2415203 -54.23  0.002255542    7.181    0.861
        24  -8.9103    151.3107    122.3400   1.0077561989e+02   2.7630988991e+01    0.1602821    0.1279418  -1.60 0.0007045183    1.692    0.409
        25  -9.3480    140.8747    121.1228   1.0300885193e+02   3.0219421349e+01    0.3456559    0.2365724 -87.24  0.001347415    2.314    0.568
        26 -11.0908    168.1033    114.1640   9.4811344655e+01   2.5501669719e+01    0.4859943    0.4246089 -76.45  0.001251137    1.228    0.185
        27 -10.5634    134.5454    110.1279   1.0175712517e+02   3.4005183383e+01     1.049623    0.2507988 -44.66  0.002796545    4.128    0.758
        28  -7.9760    151.2873    105.7009   9.6458482982e+01   3.1180334178e+01     0.155818    0.1232322 -81.92 0.0003207266    1.555    0.357
        29 -10.6153    180.3809    145.3505   9.9728254307e+01   1.6114589853e+01    0.3825836    0.3119383 -18.62 0.0003742378    1.438    0.305
        30  -9.2007    177.1482    102.9201   8.9941235119e+01   2.5629671921e+01    0.2453443     0.207073 -78.21 0.0006877735    1.296    0.229
        31 -10.9278     67.9441    144.3325   1.2726220797e+02   3.7978949203e+01    0.6283046    0.3865125  67.12   0.00268426    2.079    0.519
        32  -9.4598    123.8275    101.9370   1.0234003437e+02   3.8050461309e+01    0.3253743    0.1983694  20.42  0.001198957    2.711    0.631
        33  -9.6941    147.7523     98.4107   9.5327095687e+01   3.3489141537e+01    0.3291175    0.2682798  28.28 0.0009040521    1.387    0.279
        34  -9.5470    134.3748     95.2794   9.7757893219e+01   3.7153017383e+01    0.2789833     0.253624 -83.94 0.0006136076    1.205    0.170
        35 -10.0583    210.2411     94.3953   8.1472915414e+01   1.9328920606e+01    0.3078578    0.2359269 -75.87 0.0004210786    1.457    0.314
        36 -10.3421    158.3373     90.4508   9.0672705462e+01   3.2570132941e+01    0.4600859    0.3683196  15.94  0.001961008    1.591    0.371
        37  -9.6326    222.7556    145.5643   9.1298096419e+01   6.8875326672e+00    0.2379874    0.1820855  58.46 0.0007797834    1.473    0.321
        38  -9.9761    211.0770     86.3928   7.9363545776e+01   2.0562001996e+01    0.3905355    0.2833904  65.25  0.001924829    1.411    0.291
        39 -10.0894    141.6743     87.4129   9.3715424248e+01   3.7060517807e+01     0.306675    0.2865982 -81.02 0.0006977696    1.132    0.117
        40  -8.8541    206.6508     82.9115   7.9238102659e+01   2.2227397086e+01    0.2505027    0.1956875  81.01 0.0004368175    1.347    0.257
        41  -9.0359    202.4793     80.1664   7.9252154525e+01   2.3708904416e+01    0.3369545    0.2027092 -73.89  0.001321305    2.418    0.586
        42 -11.6229    156.5554     80.0636   8.8160372875e+01   3.4934571865e+01    0.3894058    0.3736947 -72.42 0.0008960235    1.049    0.047
        43  -9.4412    163.9955     80.0511   8.6543765890e+01   3.3139617617e+01    0.2784862    0.2107386  68.89  0.000770018    1.399    0.285
        44 -10.0057    190.5270     77.0181   8.0529893506e+01   2.7166878638e+01    0.2927205    0.2201582 -48.19  0.001154047    1.311    0.237
        45  -8.7344    188.6391     73.7064   7.9999339353e+01   2.8196755187e+01    0.2352851     0.153198 -34.82 0.0007287631    1.613    0.380
        46  -8.0584    140.3317     78.2986   9.1401304843e+01   3.9078439206e+01    0.1535073    0.1176781  16.58  0.000313058    1.645    0.392
        47  -8.5232    194.1965     73.1637   7.8878802693e+01   2.6922647391e+01    0.2139817    0.1645173 -66.32 0.0005071764    1.359    0.264
        48  -9.1518    137.1243     72.9169   9.0582652890e+01   4.0780542554e+01    0.2246251    0.2051223 -76.86 0.0006182822    1.210    0.173
        49  -9.0664    199.9390     72.1179   7.7636303631e+01   2.5692919130e+01    0.2438636    0.1848619 -71.92  0.000890354    1.403    0.287
        50  -9.8879    144.7081     69.4888   8.7767174197e+01   3.9614014336e+01    0.5651763    0.2267791 -48.49  0.001918675    3.031    0.670
        51  -8.7376    151.3339     71.3217   8.6806237520e+01   3.7729183294e+01    0.2102647    0.1601706 -15.52 0.0007957988    1.600    0.375
        52  -9.6495    149.9896     67.7360   8.6055209891e+01   3.8658856630e+01    0.3421691    0.2225684 -51.49 0.0002770539    1.708    0.414
        53  -9.8494    184.5929     68.4452   7.9329763840e+01   3.0073784509e+01     0.458592    0.2664779 -66.53 0.0009718125    2.407    0.585
        54  -9.2698    222.8541     69.1640   7.3381170679e+01   2.0690582765e+01     0.438255    0.1845656  64.59  0.001709221    2.508    0.601
        55 -10.8013    190.6135     66.6117   7.7787084992e+01   2.8886739420e+01    0.3863246    0.3202081  86.60 0.0008915816    1.207    0.171
        56 -10.8321    196.0474     63.2105   7.5993270940e+01   2.8094038171e+01    0.4252413    0.2730402  40.59  0.001468813    1.906    0.475
        57  -9.1626    192.3100    144.0230   9.6896041679e+01   1.3742946272e+01    0.2459198    0.2130892  70.13 0.0004588755    1.266    0.210
        58 -10.0992    139.9837     60.5922   8.6178867605e+01   4.2190175963e+01    0.4819625    0.1692691 -48.33  0.001479231    3.946    0.747
        59 -10.3796    144.2108     59.1826   8.4791323373e+01   4.1421211290e+01    0.3562143     0.284971 -69.50 0.0009689986    1.496    0.331
        60  -8.9702    125.6308     61.4222   8.9901586270e+01   4.5320088199e+01    0.1973231    0.1678162 -78.15 0.0004096205    1.465    0.317
        61  -9.8735    168.3363    208.2089   1.1516795743e+02   5.7486353712e+00    0.2305724    0.2084887  53.01   0.00031531    1.075    0.069
        62  -8.6024     72.6797     58.1034   1.0431092816e+02   5.5944891574e+01    0.1851043    0.1511631 -28.16  0.001112487    1.124    0.110
        63  -8.8560    159.0356    143.0261   1.0396808114e+02   2.1355231948e+01    0.2578097    0.1955255 -87.54  0.001131838    1.724    0.420
        64 -10.9590    227.5567    139.3458   8.9031202856e+01   7.0627193552e+00    0.3576928    0.2943597 -42.60  0.001911998    1.140    0.122
        65  -8.6991    111.2936     48.3305   8.9371634598e+01   5.0431191052e+01    0.1416634    0.1016031  14.08 0.0002541301    1.631    0.387
        66  -9.6597    103.9827     46.0466   9.0587702640e+01   5.2261783650e+01     0.352318    0.1843824 -19.88  0.001497125    2.458    0.593
        67 -13.2080      9.4331    201.1559   1.4712273915e+02   3.1588088428e+01    0.8864089    0.6064371 -89.50  0.003775551    1.091    0.083
        68  -9.5590    192.6899    194.0225   1.0749144732e+02   3.7367543133e+00    0.5874221    0.3335624 -71.97  0.001666207    5.990    0.833
        69 -13.2496     27.8346    191.3879   1.4276038880e+02   3.1847423416e+01     1.646285     1.018197 -86.33  0.009954475    1.332    0.249
        70 -13.1054     42.1737    177.3571   1.3827142150e+02   3.3422277202e+01    0.8569155    0.7811667  57.34  0.001541297    1.288    0.224
        71  -8.7558    201.2855     32.8523   6.7540825570e+01   3.1160196742e+01    0.1630837    0.1237192 -26.80 0.0001623625    1.576    0.365
        72  -8.4745    192.3633    153.2846   9.9000152552e+01   1.1836129154e+01     0.155911    0.1202025   9.84  0.000493594    1.686    0.407
        73 -13.0897     51.8386    169.8091   1.3515110131e+02   3.4018047832e+01     1.064413     0.961345 -48.38  0.002465757    1.361    0.265
        74  -9.4457    234.9568    173.9319   9.5200057380e+01  -6.8384354038e-01    0.3054169    0.2032444  52.27  0.001326889    1.758    0.431
        75  -9.8494    173.5819    143.7069   1.0083310218e+02   1.7977994175e+01    0.3002655     0.151002 -40.85 0.0009920759    2.033    0.508
        76 -11.1063    210.5711    136.5904   9.1535196153e+01   1.1210378943e+01    0.4863404    0.2980232 -19.00  0.001899789    2.427    0.588
        77  -9.5547    215.9560    168.4958   9.7610274507e+01   3.9435964747e+00    0.3832499    0.2459281  65.18  0.001181438    2.301    0.565
        78  -9.5338    211.9394    166.4552   9.7953084808e+01   5.1333128356e+00    0.2917598    0.2335443  87.32  0.001280157    1.758    0.431
        79 -10.2741    249.1190    158.0731   8.9382804122e+01  -5.2455874879e-01    0.3038577    0.2426976 -22.95  0.001419237    1.186    0.157
