#   1 NUMBER                 Running object number                                     
#   2 MAG_AUTO               Kron-like elliptical aperture magnitude                    [mag]
#   3 X_IMAGE                Object position along x                                    [pixel]
#   4 Y_IMAGE                Object position along y                                    [pixel]
#   5 X_WORLD                Barycenter position along world x axis                     [deg]
#   6 Y_WORLD                Barycenter position along world y axis                     [deg]
#   7 A_WORLD                Profile RMS along major axis (world units)                 [deg]
#   8 B_WORLD                Profile RMS along minor axis (world units)                 [deg]
#   9 THETA_WORLD            Position angle (CCW/world-x)                               [deg]
#  10 FWHM_WORLD             FWHM assuming a gaussian core                              [deg]
#  11 ELONGATION             A_IMAGE/B_IMAGE                                           
#  12 ELLIPTICITY            1 - B_IMAGE/A_IMAGE                                       
         1 -13.8198    193.9878     32.8202   5.8769568756e+01   3.2310318475e+01     1.457222     1.185088  11.56  0.007217772    1.762    0.432
         2 -13.8811    204.2097     20.4390   5.4726698756e+01   3.1421608840e+01     1.239784    0.9927478   9.98  0.003443068    1.853    0.460
         3 -12.6962     31.2793      4.0421   8.8363787455e+01   7.5244319925e+01    0.9512475    0.4992021 -26.59  0.004721869    2.096    0.523
         4 -11.8461     32.8038     29.6497   1.0279729326e+02   7.0712802508e+01     0.767807    0.1423417 -51.04  0.002111328    5.719    0.825
         5 -11.9138    159.4862    237.9319   1.0847193154e+02   5.0321419731e+00    0.5384587    0.3202439   1.82  0.002942438    2.032    0.508
         6 -12.3913    189.0363    227.0773   1.0120818593e+02   2.7643479293e+00    0.7374329    0.2669028 -37.04  0.003509814    2.953    0.661
         7 -11.4934    198.5206    232.0283   1.0017921208e+02   9.3419971513e-01     0.375636     0.294682  19.29  0.001831715    1.210    0.174
         8 -11.9075    183.0316    246.5559   1.0504310158e+02   9.2663800078e-01    0.8078921    0.4020771 -12.46   0.00395428    3.043    0.671
         9 -11.2904    179.0533    241.2457   1.0508447695e+02   2.1006631190e+00    0.3993328    0.2654641  33.17  0.001682701    1.410    0.291
        10 -12.0623    184.5679    237.7221   1.0356167287e+02   1.8903877353e+00    0.5349268     0.339841 -21.46  0.002680476    1.624    0.384
        11 -15.9075     54.3557    204.5979   1.2896977341e+02   2.5165150835e+01     6.968932     4.701938  62.73   0.03904562    1.416    0.294
        12 -11.5229    193.3400    232.8996   1.0125068662e+02   1.4502956636e+00    0.4037121    0.2683354   4.60   0.00202484    1.327    0.247
        13 -11.4809    119.2372    208.1873   1.1329325352e+02   1.5582928425e+01    0.5594756    0.4199341  77.10  0.002193584    1.895    0.472
        14 -11.7321    109.4520    207.3119   1.1550875546e+02   1.7184931920e+01    0.6021678    0.4440801   8.55  0.001822578    1.530    0.347
        15 -17.3839      7.0374    235.7484   1.4169887461e+02   2.3667518278e+01     12.04224     1.968991 -82.13   0.04170189    6.336    0.842
        16 -10.1365    100.2271    200.1553   1.1685544035e+02   1.9961086132e+01    0.3639283    0.2525339  41.57  0.001209133    1.250    0.200
        17 -11.5843    193.4728    193.9478   9.5131344055e+01   6.9565062750e+00    0.6714185    0.4647195 -57.74  0.003637682    2.382    0.580
        18 -12.9381    150.5676    166.8795   9.9230229438e+01   1.8507951110e+01     1.393319    0.9566228 -61.06  0.006301841    1.904    0.475
        19 -12.5231    136.7952    181.8854   1.0514776293e+02   1.7916097982e+01     1.098401    0.4958701 -51.12  0.004604118    2.484    0.597
        20 -13.5447    142.3155    176.1758   1.0285437186e+02   1.8113282395e+01     3.082295    0.9596985 -54.80  0.009430872    4.691    0.787
        21 -11.5430     94.9557    190.6759   1.1696691148e+02   2.2728120586e+01    0.4934946    0.4290659 -88.03  0.002356291    1.306    0.235
        22 -12.7864    121.5487    186.8998   1.0966486402e+02   1.9396904455e+01     1.676823    0.9334947 -30.58  0.007076852    2.599    0.615
        23 -10.5804    208.3941    183.6217   9.0603942055e+01   6.3737542309e+00    0.3605494    0.2223466 -14.69  0.001993177    1.709    0.415
        24  -9.4782    211.4015    179.1616   8.9279595130e+01   6.6041085469e+00    0.2313122    0.1070253 -33.94  0.001139945    2.027    0.507
        25 -11.2533     73.7057    180.4065   1.2136519110e+02   2.8097915494e+01     0.436926    0.2874013 -36.96  0.002085661    2.017    0.504
        26 -11.1608     77.8013    174.9016   1.1952026043e+02   2.8799210134e+01    0.3566381     0.268225 -33.03 0.0008847569    1.686    0.407
        27 -10.5997    167.4437    177.2337   9.7408025001e+01   1.3714358089e+01    0.5331964    0.2387806 -43.52  0.002318849    2.332    0.571
        28  -8.7353     99.5084    180.5556   1.1436154940e+02   2.4237744258e+01    0.1443453    0.1273988  39.17 0.0002805117    1.007    0.007
        29 -13.0392     31.5168    206.2194   1.3483480771e+02   2.7350079012e+01     1.008407    0.3408021  45.30  0.001428629    2.228    0.551
        30 -10.7675    195.7331    170.2574   9.0462994572e+01   1.0334714326e+01    0.3694903    0.2578495 -34.58  0.001460827    1.382    0.277
        31 -10.0546    193.1514    164.4620   8.9844441607e+01   1.1692329750e+01    0.3403737    0.2148291 -46.77  0.001773694    1.769    0.435
        32 -10.2621     84.5022    234.2425   1.2428849298e+02   1.5506670138e+01    0.2577941    0.1895286 -49.14 0.0008924002    1.732    0.422
        33 -13.3981     58.5525    130.5589   1.1897968629e+02   4.2642379200e+01       2.3843    0.8887693 -78.80   0.00640132    4.975    0.799
        34 -11.5212     76.3216    135.2972   1.1379162843e+02   3.8769995631e+01    0.8174872    0.6365318  37.77  0.001998454    1.229    0.186
        35 -11.8555     85.6069    165.0430   1.1589708634e+02   2.9959267165e+01     1.096005     0.387081  46.26 0.0004123716    2.864    0.651
        36 -12.9498     74.1812    160.4937   1.1857891991e+02   3.2782697770e+01    0.6904786    0.5581145 -49.11  0.002440134    1.378    0.274
        37 -13.0520     67.8384    144.0466   1.1805674054e+02   3.7831510380e+01     1.245491    0.7972399 -83.95  0.005539907    1.827    0.453
        38  -9.7090    131.5500    157.2394   1.0198671438e+02   2.3879852915e+01    0.4109352    0.1484217 -51.31  0.001418673    3.014    0.668
        39 -12.8127    124.8747    175.5352   1.0699246752e+02   2.1189479770e+01     1.503942    0.5721225  40.40  0.004629389    2.371    0.578
        40 -11.4899     46.2145    147.9929   1.2564944133e+02   3.9671238084e+01    0.5034198    0.2282232 -45.75  0.001916484    2.762    0.638
        41 -15.4525      2.2837      9.0482   1.1718892156e+02   7.7941633801e+01     6.275171     1.424833 -63.76    0.0201894    5.441    0.816
        42  -9.7075    175.0078    149.0164   9.0325454321e+01   1.7499741943e+01    0.2085045     0.176792 -85.67 0.0007237016    1.669    0.401
        43 -12.8904    146.6878    230.6852   1.1015868672e+02   7.8169378150e+00    0.9661646    0.5008536  14.77  0.004617476    2.295    0.564
        44 -11.5474     92.5841    142.3586   1.0996763555e+02   3.4301825990e+01    0.2886031    0.2630018 -32.16 0.0003374433    1.219    0.180
        45  -9.7779    104.9158    141.8473   1.0619000528e+02   3.2234344168e+01    0.5162286    0.3006667 -26.50  0.001853934    2.918    0.657
        46  -9.4020    113.2543    131.5505   1.0160256739e+02   3.3077916009e+01    0.3210996    0.2387232  -1.00 0.0008754748    1.903    0.475
        47  -9.2573    105.8678    130.7061   1.0357562370e+02   3.4700814729e+01    0.2959989    0.2335434 -67.04  0.001418075    1.391    0.281
        48 -12.5726     47.3006    128.1439   1.2257971572e+02   4.4741146125e+01    0.6909915    0.5214134 -48.45  0.003497223    1.417    0.294
        49 -10.1486    100.5636    128.0287   1.0459139745e+02   3.6347402598e+01    0.3182322    0.2523413 -17.98 0.0007786814    1.605    0.377
        50 -10.1153    118.2606    126.2733   9.8983141068e+01   3.3301271952e+01    0.4822198    0.2247949 -35.30  0.001585007    3.081    0.675
        51 -12.3310     40.2456    124.6544   1.2462870965e+02   4.6490939803e+01    0.6898705    0.2746875 -65.60  0.002639891    2.327    0.570
        52  -9.0059    109.0315    120.0157   1.0018928110e+02   3.6606416434e+01    0.2269745    0.2177796  41.27 0.0003129612    1.030    0.029
        53 -10.8949     92.0808    157.7802   1.1286518948e+02   3.0658948079e+01    0.6215328    0.4044206 -27.27  0.001714444    2.229    0.551
        54  -8.2582    110.3258    115.7229   9.8762610880e+01   3.7345929909e+01    0.1589101    0.1218571  73.05 0.0003707942    1.589    0.371
        55  -9.2266    167.5788    112.3960   8.3598708953e+01   2.5788954413e+01    0.3202495    0.2237373 -70.55  0.001430362    2.011    0.503
        56 -10.3736    119.4368    111.1184   9.4954445801e+01   3.6489211864e+01    0.3402509     0.205578  59.02  0.001344597    1.973    0.493
        57  -9.2541    205.5248    109.9799   7.6205510391e+01   1.8513387890e+01    0.2361275    0.1830917  29.74 0.0005827497    1.499    0.333
        58 -10.8359     32.9036    106.0620   1.2466463218e+02   5.2229544571e+01    0.5499885    0.1191229 -67.29  0.001615221    3.902    0.744
        59  -9.8208    134.5477    104.0638   8.9036049813e+01   3.4702852958e+01    0.4779489     0.151306 -45.18  0.001459836    3.205    0.688
        60 -10.4259     92.9366    236.1017   1.2255337542e+02   1.4094840625e+01    0.2059587    0.1884716  81.36 0.0003753751    1.322    0.243
        61  -9.0494     24.9476     82.4768   1.2406975834e+02   5.9197475504e+01    0.1939851    0.1376236  21.48 0.0004241035    1.481    0.325
        62  -9.2879     63.7163     69.9640   1.0248373716e+02   5.7199956752e+01    0.2108746    0.1930626 -51.18 0.0005394125    1.109    0.098
        63 -10.1365    159.8738     61.5216   7.1401121216e+01   3.6539297033e+01    0.3207912    0.2273361 -75.68 0.0006858994    1.619    0.382
        64 -10.2097    120.4020    238.2311   1.1669791780e+02   1.0134014315e+01    0.1875627    0.1694304  68.00  0.001230298    1.406    0.289
        65  -9.4240    161.7242     55.0141   6.9171823067e+01   3.7088375955e+01    0.2040716    0.1814553 -61.66 0.0004750021    1.065    0.061
        66 -12.8406    184.4537     40.3244   6.1798601735e+01   3.3603195881e+01    0.7746657    0.6320519  44.64 0.0009490167    1.491    0.330
        67  -9.0509    173.9072    248.1405   1.0697040921e+02   1.8183189057e+00    0.1711977    0.1323191  28.33  0.001223428    1.274    0.215
        68  -9.8012    199.1047    221.1059   9.8453851817e+01   2.3025590451e+00    0.1889815    0.1308875   0.89  0.001176327    1.273    0.214
        69 -11.5184    149.3357    239.1215   1.1068676518e+02   6.1777721131e+00    0.5117916    0.1755496  28.61  0.002009332    2.497    0.599
