#   1 NUMBER                 Running object number                                     
#   2 MAG_AUTO               Kron-like elliptical aperture magnitude                    [mag]
#   3 X_IMAGE                Object position along x                                    [pixel]
#   4 Y_IMAGE                Object position along y                                    [pixel]
#   5 X_WORLD                Barycenter position along world x axis                     [deg]
#   6 Y_WORLD                Barycenter position along world y axis                     [deg]
#   7 A_WORLD                Profile RMS along major axis (world units)                 [deg]
#   8 B_WORLD                Profile RMS along minor axis (world units)                 [deg]
#   9 THETA_WORLD            Position angle (CCW/world-x)                               [deg]
#  10 FWHM_WORLD             FWHM assuming a gaussian core                              [deg]
#  11 ELONGATION             A_IMAGE/B_IMAGE                                           
#  12 ELLIPTICITY            1 - B_IMAGE/A_IMAGE                                       
         1 -12.0047    248.7612      4.1677   2.7528807224e+01   2.4891086157e+01    0.4299578    0.2341775 -52.44 0.0009786135    1.460    0.315
         2 -15.0115    231.8132     19.5890   3.1659007719e+01   2.6524544414e+01     3.936433    0.6990101  63.70   0.01451373    4.560    0.781
         3 -16.2933    226.3767     53.5281   3.9293067911e+01   2.3323691909e+01     12.36472    0.9150847 -42.01   0.03388925    5.958    0.832
         4 -14.7704    182.4297     84.5825   5.2999714733e+01   2.8091277998e+01     6.856511      1.15622 -42.36  0.003549526    5.274    0.810
         5 -14.7748    146.0230     42.7200   4.8233558307e+01   4.3162687448e+01     2.874954     1.493406  72.10   0.01207092    2.263    0.558
         6 -13.6454    236.3672     46.9940   3.6867092982e+01   2.2188441058e+01     1.042954    0.6103387  33.30  0.002458852    3.934    0.746
         7 -12.2646    212.9462    124.5140   5.7143696324e+01   1.4368643640e+01    0.4592983     0.250839 -56.06  0.001923068    2.243    0.554
         8 -15.2476     27.6038    175.5928   1.1354946636e+02   3.4324028429e+01     2.365484     1.587179 -13.82  0.004082471    2.286    0.563
         9 -14.3152     41.3199    166.9700   1.0898454818e+02   3.5074937834e+01     1.094054     1.054074 -65.50  0.002781474    1.139    0.122
        10 -14.4726    204.6644    110.5126   5.5377296158e+01   1.8602716508e+01      1.42832      0.68167  34.85  0.005170846    3.314    0.698
        11 -12.0802    188.5569     75.7047   4.9681978834e+01   2.8203267529e+01     0.299947     0.274086  65.62 0.0003395694    1.124    0.110
        12 -11.7698    234.7290    197.3734   6.8318749341e+01  -2.2034670678e+00    0.3301465    0.2428781  37.15   0.00131252    1.586    0.370
        13 -11.0546    192.4523    194.3817   7.5898434573e+01   4.8088890745e+00     0.680311    0.3507201 -63.12  0.001895155    6.547    0.847
        14 -13.1821    215.1540    118.7425   5.5469492354e+01   1.4994256605e+01    0.5611491    0.4020943 -64.22  0.002204025    1.667    0.400
        15 -11.5185    158.6130    115.1409   6.5800108305e+01   2.7586638590e+01    0.4632462    0.3083599 -70.30  0.001253217    2.232    0.552
        16 -11.0126    135.0000    109.0227   7.0006645793e+01   3.4023657116e+01    0.8415305   0.08806927 -44.20  0.001466952    9.451    0.894
        17 -11.6011    167.8841    113.8002   6.3375308245e+01   2.5833685493e+01    0.3516132    0.3183884 -62.05 0.0006372379    1.146    0.127
        18  -9.8380    143.7804    103.4397   6.6274046871e+01   3.3278354340e+01    0.2129022     0.146298  34.27 0.0006408853    1.598    0.374
        19 -11.4677    150.9944     99.0676   6.3355832629e+01   3.2550836071e+01    0.3704954    0.3225992  -3.79 0.0008143378    1.313    0.238
        20 -10.4519    136.4008     95.9926   6.6079140360e+01   3.6434214381e+01    0.2688567    0.2156552  71.08 0.0005882035    1.480    0.324
        21 -12.7741    162.8781     91.8415   5.8751591603e+01   3.1245081008e+01    0.6168422    0.4081945  33.01  0.002720265    1.846    0.458
        22 -11.2965    175.1377     90.3864   5.5867059731e+01   2.8716009293e+01    0.2888505    0.2089023 -46.92 0.0006466806    1.348    0.258
        23 -11.5281    145.0002     88.5713   6.1876773043e+01   3.5954431275e+01    0.3221337    0.3042883 -52.11 0.0005201479    1.070    0.066
        24 -12.9544     11.2263    206.5515   1.1990168684e+02   2.8546406561e+01    0.4935878    0.2780665  32.16  0.002839202    1.855    0.461
        25 -12.9663    161.2347     81.7837   5.6377226748e+01   3.3460035836e+01    0.4867793    0.3687347 -19.58 0.0009510526    1.580    0.367
        26  -9.1963    211.2608    155.6285   6.4268367512e+01   8.8670770126e+00    0.1383796    0.1073838 -62.68 0.0005618045    1.654    0.395
        27 -12.1712    199.1949     69.1598   4.6388491641e+01   2.6861442043e+01    0.3148138    0.2452256  45.98  0.001732857    1.468    0.319
        28 -12.4186    205.2896     65.5861   4.4653995160e+01   2.6065068667e+01    0.4452451    0.2706093  43.15  0.002143972    2.087    0.521
        29 -10.8306    149.7177     63.3651   5.3586410142e+01   3.9271142139e+01    0.4392667    0.2946292  24.98  0.001957523    2.074    0.518
        30 -10.0954    148.5763     59.8264   5.2791240142e+01   4.0096543718e+01    0.2162398    0.1436341 -36.32 0.0005148035    1.566    0.361
        31  -9.3233    195.5439     60.8237   4.4891326088e+01   2.8955413876e+01    0.1970505    0.1129328 -50.43 0.0009315993    1.700    0.412
        32 -13.7398    180.6613     65.7002   4.8441582024e+01   3.1620119010e+01    0.6047239    0.4197841  32.33  0.002118507    1.930    0.482
        33  -9.5134    206.8323     44.8154   3.9578708735e+01   2.8700057417e+01    0.3439016    0.1409333 -49.33  0.001475735    2.348    0.574
        34  -9.9576    204.4195     41.4757   3.9087719476e+01   2.9676668295e+01    0.1852214    0.1274934 -65.17 6.819611e-05    1.398    0.285
        35 -11.3909     69.3276    145.6682   9.7717448347e+01   3.7067348728e+01     0.370846     0.312027  65.14  0.001217072    1.286    0.222
        36  -9.6224    189.9011     36.1294   3.9579043074e+01   3.3643226493e+01    0.1628295    0.1527242  48.09 0.0005791049    1.270    0.212
        37 -11.1408    161.0558    128.7146   6.8616032673e+01   2.4200026033e+01    0.3489078     0.288091  77.78   0.00168132    1.514    0.340
        38 -11.4750     66.4865    144.5046   9.8358743375e+01   3.7755063668e+01    0.5272583    0.3199977 -70.17  0.001646121    1.711    0.416
        39 -13.0930    200.9108    102.1495   5.4057904685e+01   2.0907502037e+01    0.6617956     0.606865 -37.40  0.001204284    1.073    0.068
        40  -9.7829    142.0027     13.3600   4.0119823911e+01   4.7443813114e+01     0.175939    0.1432853  69.32  0.001081943    1.063    0.059
