#   1 NUMBER                 Running object number                                     
#   2 MAG_AUTO               Kron-like elliptical aperture magnitude                    [mag]
#   3 X_IMAGE                Object position along x                                    [pixel]
#   4 Y_IMAGE                Object position along y                                    [pixel]
#   5 X_WORLD                Barycenter position along world x axis                     [deg]
#   6 Y_WORLD                Barycenter position along world y axis                     [deg]
#   7 A_WORLD                Profile RMS along major axis (world units)                 [deg]
#   8 B_WORLD                Profile RMS along minor axis (world units)                 [deg]
#   9 THETA_WORLD            Position angle (CCW/world-x)                               [deg]
#  10 FWHM_WORLD             FWHM assuming a gaussian core                              [deg]
#  11 ELONGATION             A_IMAGE/B_IMAGE                                           
#  12 ELLIPTICITY            1 - B_IMAGE/A_IMAGE                                       
         1 -10.0434     63.2966     20.6538   9.7375756157e+01   6.5510221425e+01    0.1318655    0.1117347 -64.08  0.000495753    1.674    0.403
         2 -12.8188    163.8819    226.9522   1.2025627206e+02   8.7211873102e+00    0.7073647    0.3561484  20.12  0.003756401    2.097    0.523
         3 -11.4993    165.9298    248.3603   1.2250570440e+02   5.8031494306e+00    0.2869279    0.1885322  25.86  0.001405322    1.117    0.105
         4 -12.1441    161.9194    245.4209   1.2288444413e+02   6.6571581617e+00    0.5007885    0.2266407 -36.69  0.002905376    2.836    0.647
         5 -12.9666    161.1551    236.4861   1.2196290322e+02   7.8569056306e+00      0.73087    0.4039575   5.02  0.003821683    2.738    0.635
         6 -11.1281    147.4885    244.5030   1.2540786688e+02   8.5992772687e+00    0.1749038    0.1090522 -44.62  0.001141087    2.090    0.522
         7 -12.5003    157.3400    246.0021   1.2377883236e+02   7.1659302940e+00    0.4429035    0.2526574 -17.74   0.00260407    2.638    0.621
         8  -9.5393    107.6719    248.6722   1.3317118578e+02   1.2961137814e+01    0.1017208   0.07406943   7.13 0.0007050747    1.705    0.413
         9 -11.0353    144.7040    230.4395   1.2432970165e+02   1.0815815144e+01    0.2948861    0.1382215 -40.52  0.001632168    2.693    0.629
        10  -9.1656    195.3203    230.6765   1.1502249320e+02   4.0988812358e+00   0.09973187   0.08047003  42.02 0.0007045649    1.676    0.403
        11  -9.7135    177.6003    244.6149   1.1998461691e+02   4.7697457868e+00    0.1846992   0.08433822 -23.95 0.0009472502    3.332    0.700
        12 -10.3145    228.6920    228.3305   1.0900193338e+02   1.4053103738e-01     0.091859   0.07962707  23.80 0.0007040054    1.663    0.399
        13 -10.3933    182.9005    221.0758   1.1591279283e+02   6.8987881052e+00     0.240879    0.1474978 -16.58  0.001375176    1.875    0.467
        14 -10.3585    174.2512    220.8525   1.1748864458e+02   8.1079112548e+00    0.2239943    0.1266656 -25.24  0.001296204    2.125    0.529
        15 -10.2764    148.5224    221.3941   1.2248602606e+02   1.1563187061e+01    0.2022451    0.1159803 -45.27  0.001204385    2.148    0.534
        16 -10.2230    114.5114    221.9607   1.2930081339e+02   1.6032865647e+01    0.1500247   0.09054035 -27.42 0.0008099132    2.633    0.620
        17 -11.1572    126.1387    220.7997   1.2684044529e+02   1.4679195979e+01    0.2286856    0.1262612  42.01 0.0007705497    1.538    0.350
        18  -9.4851    193.3636    219.8528   1.1382818642e+02   5.6319169334e+00    0.1528216   0.09384631 -17.41 0.0009406705    1.758    0.431
        19 -10.1532    143.8365    216.3455   1.2276548896e+02   1.2936632601e+01    0.1701548    0.1679526 -83.32  0.001049011    1.351    0.260
        20  -9.4639    204.6727    216.6927   1.1133705059e+02   4.4877218605e+00    0.1205712   0.07130744   8.47 0.0007037604    1.654    0.396
        21 -11.5781    186.3916    212.1342   1.1396082424e+02   7.5541388832e+00    0.4746994     0.243177 -18.42  0.002399037    2.636    0.621
        22 -10.4557    131.0310    214.9839   1.2516713521e+02   1.4906662467e+01     0.182997    0.1326775   0.46  0.001132579    1.679    0.404
        23 -11.0969    112.0175    214.4909   1.2899917707e+02   1.7545273154e+01    0.2107326    0.1589844 -30.34  0.001378418    1.701    0.412
        24 -10.2835    193.2779    209.3040   1.1225697883e+02   6.9518260965e+00    0.2075593    0.1265982 -18.15  0.001235392    1.761    0.432
        25  -9.6652    199.3494    213.7860   1.1184261554e+02   5.5551689215e+00     0.154042   0.09425581 -17.76 0.0009385865    1.708    0.415
        26  -9.9060    217.5026    209.0043   1.0789782358e+02   3.6616254720e+00    0.1622698     0.100747 -23.16  0.001033348    1.593    0.372
        27  -9.7214    176.8512    208.0058   1.1513967647e+02   9.4513298342e+00    0.1941084    0.1199038  -7.75  0.001074939    1.982    0.496
        28 -10.4190    205.9084    206.4040   1.0951332823e+02   5.5513237323e+00    0.2362036    0.1324402 -12.76  0.001317197    1.989    0.497
        29 -10.5990    185.9347    202.9160   1.1262779231e+02   8.8314781769e+00    0.2695491    0.1592971 -24.17  0.001544262    1.850    0.460
        30 -10.4161    198.6372    202.2200   1.1015372877e+02   7.0968206663e+00    0.2605895    0.1586857 -16.73  0.001530075    1.723    0.420
        31 -10.9280    249.9484    200.6168   1.0118187704e+02   3.5682895195e-01    0.3180182    0.1139916 -19.73  0.001443361    3.213    0.689
        32  -9.0390    223.3068    201.3633   1.0565392130e+02   3.7615264400e+00    0.1252794    0.0721206   4.21 0.0007038605    1.741    0.426
        33  -9.9887    211.3575    200.4577   1.0757665012e+02   5.5181570802e+00    0.2106942    0.1372305 -29.07  0.001326805    1.618    0.382
        34  -9.1149    244.3420    199.3152   1.0184465155e+02   1.2070386911e+00     0.122045   0.06751937   6.65 0.0007047975    1.708    0.415
        35 -10.9616    126.1504    197.3479   1.2393029890e+02   1.8437843002e+01    0.2560147    0.1510128  17.41  0.001298905    2.024    0.506
        36 -10.6090    172.8545    195.6302   1.1400026896e+02   1.1779693936e+01    0.2138204    0.1858674   8.68 0.0006649759    1.114    0.103
        37 -10.5405    173.0309    190.3499   1.1310928331e+02   1.2529277430e+01    0.3391431    0.2047449 -53.67  0.001737514    2.541    0.606
        38  -8.9386    215.3243    193.3085   1.0567008441e+02   5.8364965120e+00    0.1265469   0.07602856   6.94 0.0005143245    1.650    0.394
        39 -10.0237    161.8093    191.8723   1.1562315586e+02   1.4014672094e+01    0.2574269    0.1454646 -36.76  0.001372234    1.975    0.494
        40 -10.0210    245.9435    191.2977   1.0020860729e+02   1.8680130659e+00    0.2062942    0.1164473 -10.25 0.0008143032    1.598    0.374
        41  -9.4565    179.4437    189.9894   1.1178008902e+02   1.1601296291e+01    0.1724659    0.1186139 -32.91 0.0008884692    1.573    0.364
        42  -9.6846    129.3347    188.6619   1.2202955663e+02   1.9460166038e+01    0.1283709   0.09263997  60.72 0.0007051704    1.748    0.428
        43 -10.1387    165.0019    184.4537   1.1375871779e+02   1.4673285172e+01     0.276605    0.1529877 -33.90  0.001416104    2.002    0.500
        44 -11.5073    164.5459    200.0702   1.1634460676e+02   1.2368147139e+01    0.4151905    0.2328697 -26.01  0.001994833    2.205    0.546
        45 -11.0668    174.4265    180.7959   1.1121054488e+02   1.3752588233e+01    0.4009466    0.2178775 -27.13  0.001983875    2.111    0.526
        46  -8.7863    211.6878    181.6894   1.0426498246e+02   7.8460940855e+00    0.1294974    0.0803964   5.89 0.0005922194    1.628    0.386
        47 -11.5409    147.6142    178.0440   1.1637461417e+02   1.8473342358e+01    0.5145476    0.1662899 -44.68  0.001987267    3.404    0.706
        48  -9.9495    243.8464    179.7520   9.8475263856e+01   3.4466628385e+00    0.2143579    0.1255587 -12.68  0.001279043    1.509    0.337
        49 -10.4445    137.7649    177.2507   1.1841726039e+02   2.0170760611e+01    0.3036378    0.1437029 -39.00  0.001362131    2.481    0.597
        50  -9.3940    205.4554    176.5029   1.0444651770e+02   9.4896155194e+00    0.1306195    0.1005658   6.68 0.0008078333    1.076    0.071
        51 -10.3579     77.6424    176.2596   1.3233583097e+02   2.9031602144e+01    0.3675749   0.08482143  44.86  0.001218206    4.099    0.756
        52  -9.8619    192.6841    174.3741   1.0645256229e+02   1.1799906080e+01     0.258251    0.1374498 -14.25  0.001152951    2.542    0.607
        53 -10.3779    183.2877    173.7768   1.0817835948e+02   1.3400070150e+01    0.3047513      0.17904 -19.11  0.001524263    1.963    0.491
        54  -9.8833    121.3555    169.6695   1.2096232036e+02   2.4137503708e+01    0.1376068   0.09845807  63.35 0.0007044857    1.784    0.440
        55  -9.8828    185.2250    165.3994   1.0621827060e+02   1.4360031959e+01     0.242593    0.1467563 -23.11  0.001025805    1.752    0.429
        56 -10.4903    139.6377    165.3122   1.1597901495e+02   2.2019153481e+01    0.2060288    0.1621877  68.49  0.001110113    1.747    0.427
        57 -10.2685     80.9776    165.2196   1.3017299148e+02   3.0884236981e+01    0.2396425    0.1211672  70.67  0.000893071    3.650    0.726
        58  -9.9781    192.3719    163.2586   1.0439844572e+02   1.3493126936e+01    0.2490552    0.1168857 -30.71  0.001128147    2.202    0.546
        59 -10.1481    105.9917    158.4947   1.2290410997e+02   2.8725688907e+01    0.2063902   0.09770071  52.71 0.0008105818    2.665    0.625
        60 -10.2502     49.7982    155.2228   1.3701872881e+02   3.6787289688e+01    0.2286612    0.1012089  60.97 0.0009533298    2.788    0.641
        61 -10.2614    133.2023    153.0153   1.1524995175e+02   2.5415901519e+01    0.2182566    0.1663287  88.84  0.001075251    2.049    0.512
        62 -11.0631     56.2473    145.8661   1.3423084992e+02   3.8190369238e+01    0.4334174    0.1946754  62.61  0.001682242    3.184    0.686
        63 -10.0743     39.3197    147.6630   1.3904568073e+02   3.9553399057e+01     0.136024   0.08042987  62.65 0.0007049668    1.707    0.414
        64 -11.1387    148.9077    145.0782   1.0997106741e+02   2.4170706129e+01    0.3717622    0.2702371  81.05  0.001652093    2.585    0.613
        65 -10.9834    107.5529    145.6889   1.2032543708e+02   3.1158873418e+01    0.4223222    0.1919798  58.42  0.001276451    4.713    0.788
        66 -10.4759     88.6549    144.3278   1.2512459673e+02   3.4342183382e+01    0.2234148    0.1552479  66.61  0.001114224    1.733    0.423
        67  -9.8530    200.1623    146.1503   9.9413948688e+01   1.4740004583e+01    0.2859627    0.0916406 -30.40 0.0009859948    3.463    0.711
        68 -10.8249     83.8065    132.2837   1.2443216788e+02   3.7760327521e+01     0.371391    0.2358746  63.92  0.001291223    2.015    0.504
        69 -10.6578    131.6619    131.0173   1.1116685180e+02   3.0064151351e+01    0.3508648    0.1890147 -67.69  0.001119674    4.226    0.763
        70  -9.8913    168.6183    129.8279   1.0218912025e+02   2.3256116876e+01    0.2017898    0.1316104 -46.97 0.0009452495    1.739    0.425
        71 -10.8352     99.7254    128.8585   1.1926277642e+02   3.6089259981e+01     0.377729    0.2487648  72.91  0.001617381    2.343    0.573
        72 -10.3096    152.5378    128.5778   1.0552951969e+02   2.6596659626e+01    0.2659904    0.1360521 -52.18   0.00103839    2.492    0.599
        73 -10.6012    118.3756    125.7948   1.1348734319e+02   3.3568333302e+01    0.3169906    0.1641674  62.35 0.0009629996    4.365    0.771
        74 -10.8049     59.5631    124.6316   1.3033431308e+02   4.2775274171e+01    0.4575309    0.2262008  73.93  0.001572975    3.910    0.744
        75  -9.8717    179.8060    124.9848   9.8690204310e+01   2.1914820562e+01    0.2281364    0.1696884 -63.11  0.001081449    2.068    0.516
        76 -10.8260     29.2618    123.6849   1.3947246564e+02   4.6081441690e+01    0.3283187    0.1200373  60.53   0.00114606    3.983    0.749
        77 -11.1901     43.4737    122.5847   1.3498076208e+02   4.5039562540e+01    0.4973535    0.2335652  82.32  0.001876371    3.285    0.696
        78  -9.7133    158.3515    121.6535   1.0255657253e+02   2.6751480597e+01    0.1459567    0.1204232 -87.40 0.0007039099    1.820    0.451
        79 -10.8144    141.9977    119.6240   1.0595892306e+02   3.0381364777e+01     0.373979    0.2522439 -71.02  0.001527718    2.562    0.610
        80 -10.6469     93.0550    113.1510   1.1790910769e+02   4.0739949000e+01    0.3245202    0.2380234  83.40   0.00151296    1.894    0.472
        81 -10.8493     79.3946    113.0436   1.2209129935e+02   4.2891881867e+01    0.3736311    0.2416712  88.22   0.00159863    2.325    0.570
        82 -10.1246    122.6370    113.3149   1.0944570898e+02   3.5432830042e+01    0.1518859    0.1198429  78.30 0.0007041061    1.762    0.432
        83  -9.7686    174.8309    112.0229   9.6566786723e+01   2.5131216537e+01    0.2374186    0.1680043 -59.51  0.001076949    2.025    0.506
        84 -10.2940     66.5197    111.0114   1.2578848079e+02   4.5176756888e+01    0.1996287    0.1192992  87.85 0.0007794373    2.520    0.603
        85 -10.9583     14.2378    110.1562   1.4280186427e+02   5.0461767963e+01    0.3384597    0.2010784  70.22  0.001817695    1.704    0.413
        86 -10.8950    110.0712    115.2171   1.1339033523e+02   3.7350787217e+01    0.2817485    0.2021868 -84.09  0.001173664    2.119    0.528
        87 -10.1910    139.8054    105.1999   1.0287607856e+02   3.3678485485e+01    0.2497837    0.1746877 -88.48 0.0009542282    2.858    0.650
        88 -11.4659     22.9177    102.6486   1.3909847328e+02   5.1708136032e+01    0.6220058    0.2527597  63.83  0.002298515    3.645    0.726
        89 -10.4132    150.3798    103.6109   9.9857636035e+01   3.1775221069e+01    0.3005155    0.1257438 -50.98 0.0009586143    3.323    0.699
        90 -11.4341     44.9551    101.9385   1.3137247435e+02   4.9940763687e+01    0.5719448    0.2629989  68.17  0.001835622    4.530    0.779
        91 -10.2957    128.4823    102.4993   1.0510874651e+02   3.6541767964e+01    0.1496269    0.1459678  -3.24 2.633091e-05    1.044    0.042
        92 -11.4142    110.0467     99.9686   1.0962116768e+02   4.0701640798e+01    0.6136182     0.366782  66.01  0.002219352    3.032    0.670
        93  -9.9912     82.3174    100.6420   1.1841966833e+02   4.5374770364e+01    0.1508684    0.1135464  77.70 0.0007044395    1.755    0.430
        94  -9.9843     95.2908     97.6350   1.1350872461e+02   4.3915768878e+01    0.1504017    0.1183935  86.65 0.0007026399    1.705    0.414
        95 -11.1172     63.6867     96.1667   1.2369973554e+02   4.9147991748e+01     0.407227    0.2471936  82.08  0.001625656    2.755    0.637
        96 -10.0502    139.1709     92.7700   9.9633394549e+01   3.6251966997e+01    0.2506032     0.174079 -83.37  0.000948204    2.807    0.644
        97 -10.9450    125.2097     91.8437   1.0306033183e+02   3.9400233116e+01     0.337893    0.2497821  79.31  0.001455617    2.114    0.527
        98 -10.6801     34.7824     89.7184   1.3292314174e+02   5.3955839039e+01    0.3881381    0.1753132 -89.58  0.001363583    3.586    0.721
        99 -10.8055     86.1985     86.6643   1.1355256560e+02   4.7990891486e+01     0.313041    0.2365418 -86.32  0.001251792    1.848    0.459
       100 -10.7005     48.3008     84.4113   1.2674292712e+02   5.3908372897e+01    0.3095786     0.188119  74.49  0.001318316    2.513    0.602
       101 -10.7816    104.5932     83.4040   1.0662939273e+02   4.5346050239e+01    0.3298175    0.2480879 -81.41  0.001453558    1.986    0.497
       102  -9.5381    158.6529     83.3319   9.2263142114e+01   3.3661478235e+01     0.154791    0.1216414 -72.32 0.0001747654    1.765    0.433
       103 -10.1242    141.0178     83.5240   9.6466970108e+01   3.7612511493e+01    0.2113258     0.140544  74.98 0.0008098934    2.534    0.605
       104  -9.8759    150.4893     80.9804   9.3419620949e+01   3.5938411698e+01    0.2171256     0.125857 -56.15 0.0008094284    2.457    0.593
       105 -10.0423    119.5018     80.9995   1.0144661993e+02   4.2805002223e+01    0.2157208    0.1333097 -63.12 0.0008099459    2.485    0.598
       106 -10.6600     24.6153     80.9479   1.3533572595e+02   5.6969818383e+01    0.2669414    0.1554559 -88.86  0.001292124    1.884    0.469
       107 -10.6120    128.1785     75.8391   9.7423065726e+01   4.1935094037e+01    0.3159453    0.2438316 -78.18  0.001414769    1.895    0.472
       108 -10.2618    249.2553     74.9794   7.5290148723e+01   1.5552481232e+01    0.1737771    0.0935891 -27.43 0.0007769407    1.542    0.352
       109 -10.5235     82.4193     73.2685   1.1094440731e+02   5.1671601976e+01    0.3238032    0.2222322  74.86  0.001325694    2.541    0.607
       110  -9.8276    106.0010     72.4792   1.0277942764e+02   4.7360706609e+01    0.2087336    0.1365588  68.45 0.0008090453    2.474    0.596
       111 -10.2139     95.3839     71.6131   1.0592714639e+02   4.9656269259e+01    0.2955943    0.1337329 -57.06 0.0009526831    3.247    0.692
       112 -10.4245     51.3548     69.7030   1.2191663428e+02   5.7120640558e+01    0.4620758    0.2288678 -80.84  0.001346694    5.172    0.807
       113  -9.3597    194.3172     68.6453   8.1177790762e+01   2.7801054156e+01    0.1513147    0.1065873 -57.62 0.0007045951    1.746    0.427
       114 -10.0271    147.0251     68.2338   9.0265021248e+01   3.8977793669e+01    0.2336508    0.1670701 -53.79  0.001050168    1.648    0.393
       115  -9.3728    203.6833     67.3254   7.9343679665e+01   2.5876812226e+01    0.1455278    0.1040466 -56.81 0.0007044313    1.671    0.402
       116 -10.1724    138.8869     66.7452   9.1720710383e+01   4.1153069528e+01    0.3055571    0.1951814 -58.01  0.001237031    2.136    0.532
       117  -9.8328    110.3900     64.2023   9.8641167081e+01   4.8086807383e+01    0.2233029    0.1391791 -48.91 0.0008119484    1.742    0.426
       118 -10.1465     37.4970     64.5136   1.2646776949e+02   5.9907479119e+01    0.1357371     0.122072 -58.39 0.0001012479    1.058    0.055
       119  -9.9590    100.4986     60.5307   1.0045070517e+02   5.0901693795e+01    0.2792994    0.1375637 -50.54  0.001031404    2.376    0.579
       120 -10.4893     73.4474     59.8733   1.0989969649e+02   5.6154926982e+01    0.2909428    0.2091754 -67.62  0.001360313    1.816    0.449
       121  -9.8293    130.9666     58.4672   9.0899773613e+01   4.4457195576e+01    0.2079927    0.1407084  82.78  0.000808745    2.460    0.593
       122  -9.6886    139.9946     56.5031   8.8007449332e+01   4.2624302662e+01    0.2063647    0.1396391  87.07 0.0008090003    2.424    0.588
       123 -10.0861    119.3980     56.2057   9.3182197027e+01   4.7555224507e+01     0.224197    0.1376961 -45.33 0.0009106593    1.731    0.422
       124 -10.1402     63.2235     55.2473   1.1242390908e+02   5.8810554963e+01    0.2274545     0.114013 -59.20 0.0008804696    2.423    0.587
       125  -9.3048    184.3239     77.6552   8.5451481493e+01   2.8733435447e+01    0.1514699    0.1126825 -61.37 0.0007050331    1.737    0.424
       126  -9.9265    100.6567     54.0628   9.8026030545e+01   5.2113940597e+01    0.2110827    0.1826064 -27.53 0.0003401994    1.115    0.103
       127 -10.2738     54.3758     54.2010   1.1587939354e+02   6.0330267202e+01    0.2052301    0.1287444 -61.66 0.0009514205    1.755    0.430
       128  -9.6727    105.6748     53.3359   9.6161652351e+01   5.1163372111e+01    0.1521462    0.1226472 -74.91 0.0007051348    1.718    0.418
       129 -11.0262    232.8064     51.1880   7.1303059234e+01   2.1646686400e+01    0.2380052    0.1127059 -55.83 0.0009595385    2.922    0.658
       130 -10.3760     92.4312     50.7332   9.9503254332e+01   5.4464823577e+01    0.3005439      0.13826 -44.50  0.001140456    2.213    0.548
       131  -9.8167     30.8332     51.6011   1.2606895279e+02   6.3626973200e+01    0.1755013    0.1203019  36.85 0.0006556982    1.687    0.407
       132  -9.8393     82.0000     47.0115   1.0178986523e+02   5.7255295557e+01    0.2433008   0.08056186 -41.41 0.0007966715    2.903    0.655
       133 -10.3765    219.6665     46.3368   7.1512965251e+01   2.5025634759e+01    0.1448261   0.09184851 -54.58 0.0007052033    1.741    0.426
       134 -10.1820     58.4775     42.9807   1.0987633324e+02   6.2162561573e+01     0.195938    0.1255029 -69.35   0.00081025    2.603    0.616
       135 -10.8740      4.8927     41.1887   1.3686985737e+02   6.7820052868e+01    0.3973412    0.1528656 -85.11    0.0014778    3.599    0.722
       136 -10.3440     69.4855     41.9763   1.0468031739e+02   6.0546359320e+01    0.1994763    0.1258915 -63.77 0.0008102588    2.550    0.608
       137  -9.9366    106.3006     41.6541   9.1403921330e+01   5.3060984710e+01    0.1505437     0.119091 -65.99 0.0004638121    1.682    0.406
       138  -9.9659    111.7986     34.4155   8.6848040908e+01   5.2910073958e+01    0.3264953    0.1512774 -54.60 0.0009562968    4.355    0.770
       139 -10.0576    225.6749     41.3139   6.9522164366e+01   2.4302158616e+01    0.1395772   0.08924343 -54.11 0.0004382594    1.665    0.399
       140  -9.8725     72.3169     31.6522   9.8955039291e+01   6.1951412055e+01    0.1388351    0.1162093 -72.40 0.0007048096    1.727    0.421
       141  -9.8328     91.6812     26.3553   8.9355408605e+01   5.8777673267e+01    0.1463445    0.1150979 -64.08 0.0003732822    1.752    0.429
       142  -9.5325     48.3138     21.6510   1.0510455200e+02   6.7891937643e+01     0.126755    0.1107182 -76.56 0.0004017756    1.722    0.419
       143  -9.9449     12.4983     21.4644   1.2651328279e+02   7.1938400254e+01    0.1273732     0.103679 -41.45 0.0001869788    1.018    0.018
