#   1 NUMBER                 Running object number                                     
#   2 MAG_AUTO               Kron-like elliptical aperture magnitude                    [mag]
#   3 X_IMAGE                Object position along x                                    [pixel]
#   4 Y_IMAGE                Object position along y                                    [pixel]
#   5 X_WORLD                Barycenter position along world x axis                     [deg]
#   6 Y_WORLD                Barycenter position along world y axis                     [deg]
#   7 A_WORLD                Profile RMS along major axis (world units)                 [deg]
#   8 B_WORLD                Profile RMS along minor axis (world units)                 [deg]
#   9 THETA_WORLD            Position angle (CCW/world-x)                               [deg]
#  10 FWHM_WORLD             FWHM assuming a gaussian core                              [deg]
#  11 ELONGATION             A_IMAGE/B_IMAGE                                           
#  12 ELLIPTICITY            1 - B_IMAGE/A_IMAGE                                       
         1 -14.7710     68.4212    144.4305   1.0391564137e+02   3.7477476273e+01     5.170142     2.607433  66.14  0.008801851    3.525    0.716
         2 -14.3191    216.1317     25.1703   3.8578806965e+01   2.8261801523e+01     1.328518    0.9675073  34.24  0.007336232    1.922    0.480
         3 -14.4969    203.1126     38.0814   4.3243200163e+01   2.9739875362e+01     2.103699     1.494489  30.52  0.008118121    1.955    0.488
         4 -12.4812    241.3848      2.7902   3.1517987363e+01   2.5137716190e+01    0.6927454    0.2835436  76.68  0.003461951    2.272    0.560
         5 -10.2722     55.2129      5.4038   6.5330585912e+01   6.7373449320e+01    0.1617198    0.1088418  48.05 0.0009484879    1.658    0.397
         6 -10.7194      1.8718      3.4499   9.2457848747e+01   7.4089757297e+01    0.2600622    0.1109489 -49.32   0.00142496    2.342    0.573
         7  -9.7675     60.6800      3.3317   6.2153666467e+01   6.6631946277e+01    0.1066268     0.099567 -61.96 0.0005073487    1.694    0.410
         8 -11.2251    204.1923    199.1762   8.0944340444e+01   1.8100265929e+00    0.3538885    0.2298126  45.27  0.001808734    1.693    0.409
         9 -11.2670    139.6327    248.2231   1.0205465528e+02   4.3017620512e+00    0.4142452    0.2125864 -64.74  0.001962318    3.134    0.681
        10 -15.5934      5.0153    160.0472   1.2260106009e+02   4.0128404219e+01     5.334954     1.237333 -74.62   0.02043097    3.346    0.701
        11 -13.7130     39.1352    203.0364   1.1835724734e+02   2.7265258982e+01     0.649284    0.5655461 -65.06  0.001505626    1.341    0.254
        12 -14.9483     49.1310    192.6364   1.1520165492e+02   2.8417087291e+01     2.114198     1.397076  82.62  0.009483955    1.458    0.314
        13  -9.4630     72.0176    188.1570   1.0934642669e+02   2.6504084091e+01    0.2023498    0.1558195  69.06 0.0004654463    1.240    0.194
        14  -9.1233     80.6031    184.2206   1.0675464530e+02   2.6189792504e+01    0.1827172    0.1229881 -55.73 0.0005614224    1.542    0.352
        15  -9.2907     69.5815    183.7516   1.0938159719e+02   2.7850397833e+01    0.1794274    0.1207681 -85.17 0.0003410352    1.541    0.351
        16 -16.7640      8.7653    240.6141   1.2653940344e+02   2.2826643814e+01     8.251811     3.314395  25.20   0.04059589    3.781    0.736
        17  -8.8833     91.3995    182.5181   1.0385629554e+02   2.4957689261e+01    0.1386543    0.1273495  74.27 0.0001302171    1.022    0.022
        18 -11.0463    150.7337    179.1335   8.8787335387e+01   1.5310921474e+01    0.4448144      0.29849 -78.10  0.001567417    2.554    0.608
        19  -9.9587     99.4102    180.6939   1.0159137982e+02   2.4106295389e+01    0.2429244    0.2382969  32.59 0.0005793347    1.119    0.106
        20 -11.4402    144.1004    178.7841   9.0294388468e+01   1.6635225752e+01     0.409082    0.3294384 -70.67  0.001993353    1.508    0.337
        21 -15.7155     46.1945    249.7163   1.2039281610e+02   1.7120801680e+01     8.300183     2.315236  27.67   0.01756543   15.833    0.937
        22 -12.1296     69.9650    171.3095   1.0763661560e+02   3.0721168316e+01    0.3251995    0.3082061   5.78  0.001026962    1.271    0.213
        23  -9.1042    204.0000    175.9464   7.6403519646e+01   5.8501154207e+00    0.2291462   0.07802571 -40.21 0.0007999982    2.926    0.658
        24  -9.6096    197.0981    176.1797   7.7870034094e+01   7.0829879205e+00    0.2362772    0.1867988   5.39  0.001245856    1.289    0.224
        25  -9.4890    188.5023    174.5073   7.9339786762e+01   9.0099870668e+00    0.2548151    0.1374604 -52.20  0.001031793    2.355    0.575
        26 -12.9668     86.2997    155.1126   1.0077219509e+02   3.2248840006e+01     1.753633    0.9359689 -59.72  0.001776156    1.830    0.454
        27 -12.3228     79.2591    161.8788   1.0380341030e+02   3.1670065702e+01    0.5089088    0.3747562  76.63 0.0004062366    1.511    0.338
        28 -13.6448     66.8888    157.6218   1.0645822071e+02   3.4441238949e+01    0.6207346    0.4980663 -47.33  0.001357017    1.332    0.249
        29 -13.8289     58.4009    242.3604   1.1759410972e+02   1.6991434686e+01    0.5317096    0.3578646  58.13  0.001030803    1.189    0.159
        30 -10.0142     66.2497    194.5777   1.1146985770e+02   2.5831142335e+01    0.2829167    0.2177166  34.17 0.0009003999    1.378    0.274
        31 -11.3411     33.1868    156.0848   1.1521015832e+02   3.8699355719e+01    0.3029917    0.2488736  82.62 0.0008441958    1.103    0.093
        32  -9.8848     58.7638    151.2825   1.0771861088e+02   3.7043922849e+01    0.2847899     0.180253 -34.96  0.001228302    2.066    0.516
        33 -11.0212    133.6341    144.2866   8.5803525008e+01   2.6322719204e+01     1.157709    0.3044935 -54.48  0.002673462    5.836    0.829
        34 -10.4640    174.4449    148.7966   7.6866220665e+01   1.6888967536e+01    0.3198482    0.2854001  65.09  0.001039825    1.297    0.229
        35  -8.6040    110.3500    148.6603   9.2966213915e+01   2.9757974779e+01    0.1618322    0.1178542  74.65 0.0007044873    1.795    0.443
        36 -11.6902     29.1847    144.1404   1.1488411009e+02   4.1963699280e+01    0.4007993    0.3087924  55.80  0.002438047    1.349    0.259
        37  -8.9041     36.3186    145.2669   1.1306877637e+02   4.1018349242e+01    0.1265602   0.09276822 -40.47 0.0003166369    1.556    0.357
        38 -10.8676    100.8765    140.3542   9.3875578964e+01   3.3436275685e+01    0.5573567    0.3601152 -21.01  0.002215698    2.431    0.589
        39 -12.2949     88.0007    140.2286   9.7524908586e+01   3.5618988962e+01    0.2993575    0.2581363 -46.88 0.0003936464    1.163    0.140
        40  -9.5173     30.3224    137.0113   1.1367775667e+02   4.3598166631e+01    0.1824256    0.1453058 -74.80 0.0004603269    1.073    0.068
        41 -14.3755     24.1930    225.9343   1.2299090094e+02   2.4109959446e+01      1.46975    0.5551879  67.90  0.002521331    2.809    0.644
        42 -10.1988    110.4146    130.6907   8.9039070155e+01   3.4028569867e+01    0.3191383    0.2628913  -7.20 0.0009853169    1.464    0.317
        43 -10.3893    105.8882    130.6550   9.0326496165e+01   3.4875734340e+01    0.3734273    0.3325406 -88.06  0.001430306    1.240    0.194
        44 -11.1464    135.5959    127.3233   8.1293950174e+01   2.9775509524e+01    0.6945893    0.1546716 -47.96  0.001716183    4.684    0.787
        45 -12.0710     65.3380    176.4893   1.0949867781e+02   3.0115379291e+01    0.4222213    0.2836282 -37.95  0.001590232    1.972    0.493
        46 -10.8934     97.6710    126.6940   9.1822471601e+01   3.7297055424e+01    0.3084044     0.259766   0.87 0.0008696641    1.391    0.281
        47  -9.9657    116.6285    124.6798   8.5848223602e+01   3.4251070238e+01    0.2441688    0.1867553  -9.56 0.0008680212    1.698    0.411
        48 -10.1792    160.5184    127.3737   7.5014209926e+01   2.4364644579e+01    0.3528824    0.2615763 -78.67  0.001489479    1.989    0.497
        49  -9.9578    107.1663    119.2309   8.7246771977e+01   3.7349404316e+01    0.2171153    0.2005375  -7.89 0.0003529885    1.139    0.122
        50  -9.3656    167.9649    112.9616   6.9594009523e+01   2.5675612603e+01    0.2611291    0.2001408 -82.12  0.001139033    1.824    0.452
        51  -9.9903    134.7132    112.5191   7.7738076729e+01   3.3259936045e+01    0.2871354    0.1412014 -44.48 0.0009589011    2.036    0.509
        52  -9.6718     34.9122    171.7150   1.1644835790e+02   3.4808138168e+01    0.1749552    0.1457683  74.34 0.0003601808    1.079    0.073
        53 -11.7507     18.6098    111.5315   1.1369386812e+02   5.0721991823e+01    0.3720848    0.2182638 -80.11  0.001962688    1.627    0.385
        54 -10.0964    205.4385    110.1688   6.1158430005e+01   1.7709414175e+01    0.3116933    0.2128113  40.84 0.0009369164    1.577    0.366
        55 -10.7296    137.8128    169.4015   9.0013125523e+01   1.9852894945e+01    0.3860514    0.2730337  50.89 0.0009738366    1.455    0.313
        56  -9.5561    134.6656    106.1209   7.6024861827e+01   3.4659580525e+01    0.3223226    0.1423558 -50.53  0.001086823    2.536    0.606
        57 -10.8610     41.6938    103.2745   1.0465197778e+02   5.0766720977e+01    0.3148812     0.189996  44.79 0.0009985103    1.960    0.490
        58 -10.3695     42.4808     91.6880   1.0190957865e+02   5.3438678977e+01    0.3261843    0.2192909   3.08  0.001023285    1.805    0.446
        59 -11.8968    241.5836    100.2038   5.2888059803e+01   1.1803407606e+01    0.3992905    0.1716961 -47.17  0.001500385    2.295    0.564
        60 -10.1433     52.9993     90.5490   9.7836044336e+01   5.2546304451e+01    0.2882589    0.1624688 -42.64  0.001354852    1.634    0.388
        61  -8.7027    156.3421     88.6559   6.5645649799e+01   3.3199776714e+01    0.1639645    0.1245027 -78.95 -0.0003714693    1.785    0.440
        62 -15.4610      9.5594    207.8603   1.2475599706e+02   2.9212036849e+01     2.604657      1.35135 -50.54     0.014278    2.710    0.631
        63 -10.2884    243.4868     77.5175   4.7512490211e+01   1.5000549407e+01    0.1347734    0.1168965 -52.36 0.0001396587    1.019    0.019
        64  -9.7718    159.3336     81.9720   6.3039802440e+01   3.3724498823e+01    0.2184273    0.2000412 -37.70 0.0005018327    1.107    0.096
        65 -10.4909     51.2033     63.9054   9.1081951826e+01   5.8618721065e+01    0.3112613    0.2201072  46.86 0.0009997789    1.851    0.460
        66 -10.3580     13.4861     59.7975   1.0581713878e+02   6.2921350037e+01    0.2146485    0.1787525 -42.30 0.0004055885    1.063    0.059
        67  -9.0209     78.4970     57.5349   7.8382884714e+01   5.5794805257e+01    0.1409357    0.1278982  -3.65 0.0008093605    1.037    0.036
        68 -10.2270    172.6293    240.7720   9.4376837734e+01   3.1325129437e-01    0.3252951     0.217893 -68.28  0.001656029    2.812    0.644
        69 -12.1583    194.4018     44.1890   4.6002808738e+01   3.1043769190e+01    0.5918543    0.4485206  57.97  0.001030833    1.304    0.233
        70 -11.3257     61.7701    199.2636   1.1301021231e+02   2.5374233085e+01    0.3996743     0.226687 -63.88 0.0008201348    1.753    0.429
        71 -10.1747    142.2312     39.7818   5.3807399145e+01   4.4667018821e+01    0.2338293    0.2123359  69.16 0.0004590073    1.096    0.087
        72 -10.9977    138.5745     44.4366   5.6130261414e+01   4.4932222008e+01    0.3086542    0.2567955 -83.41  0.001613998    1.435    0.303
        73  -8.6657    155.3242     23.6691   4.6205057725e+01   4.3348653458e+01    0.1442538    0.1009044 -70.00 0.0007050351    1.703    0.413
        74  -9.6162    189.8077     15.1032   3.8958720052e+01   3.5671935611e+01    0.2044358    0.1620789 -70.98 0.0006544577    1.204    0.170
        75  -9.5324    107.3208    210.2944   1.0401055312e+02   1.6391004979e+01    0.1274586    0.1056123  -2.62 0.0006186397    1.612    0.380
        76 -10.9840    109.5995    201.4874   1.0226511795e+02   1.7861622692e+01    0.3001461    0.2419047 -15.30 -0.0002265939    1.686    0.407
        77 -11.8595    194.4309    196.7174   8.2474452069e+01   3.9094246298e+00     1.164232    0.7240957 -69.84  0.003997448    4.889    0.795
