#   1 NUMBER                 Running object number                                     
#   2 MAG_AUTO               Kron-like elliptical aperture magnitude                    [mag]
#   3 X_IMAGE                Object position along x                                    [pixel]
#   4 Y_IMAGE                Object position along y                                    [pixel]
#   5 X_WORLD                Barycenter position along world x axis                     [deg]
#   6 Y_WORLD                Barycenter position along world y axis                     [deg]
#   7 A_WORLD                Profile RMS along major axis (world units)                 [deg]
#   8 B_WORLD                Profile RMS along minor axis (world units)                 [deg]
#   9 THETA_WORLD            Position angle (CCW/world-x)                               [deg]
#  10 FWHM_WORLD             FWHM assuming a gaussian core                              [deg]
#  11 ELONGATION             A_IMAGE/B_IMAGE                                           
#  12 ELLIPTICITY            1 - B_IMAGE/A_IMAGE                                       
         1 -10.5924     83.7826     45.9116   7.6781237205e+01   5.6717369184e+01     1.031997    0.5636692 -48.63  0.004543513    2.217    0.549
         2 -10.5134     50.9195     37.1503   8.5646000672e+01   6.3433105832e+01    0.6744086      0.54472 -70.67  0.003861977    2.072    0.517
         3  -9.6352     39.2496      8.6169   7.7734628632e+01   6.9321306613e+01    0.4929554    0.2295752 -20.57  0.002429354    2.259    0.557
         4 -10.6606     39.8776     30.2838   8.7562702333e+01   6.5998592716e+01    0.5180795    0.3429429 -42.85  0.002498856    1.461    0.316
         5 -11.9896     45.0179     22.3041   8.1786493989e+01   6.6624577086e+01     1.048255    0.9061499 -59.80  0.006723244    1.861    0.463
         6  -8.9991     40.1676      2.0247   7.3828066534e+01   7.0003068478e+01    0.2829563    0.1806152   9.55  0.001283789    1.445    0.308
         7 -10.9332    128.6038     15.4497   5.2737052381e+01   5.1020136193e+01      0.83843    0.4978721 -10.99   0.00399118    1.970    0.492
         8 -11.4478    131.5040      3.6135   4.7878586025e+01   5.1403981519e+01      1.47191    0.3587066  62.24  0.005071278    3.204    0.688
         9 -12.0210     82.4756      6.8274   6.0560050291e+01   6.2176332964e+01     1.590029    0.8877509  11.98    0.0077083    2.112    0.526
        10 -10.2579     71.6079      5.5271   6.3376506831e+01   6.4416973589e+01    0.5823422    0.3668115  26.41  0.003202462    1.453    0.312
        11 -10.8113    120.4101      4.1263   5.0140560022e+01   5.4031748053e+01    0.6457133    0.4513444  69.03  0.002815341    1.423    0.297
        12 -11.3673    109.0130      4.5772   5.2711034186e+01   5.6652181663e+01     1.571732    0.4697282  63.86  0.005497699    3.449    0.710
        13 -11.4636    155.6801     21.0307   4.9689839346e+01   4.3698425157e+01    0.7591339    0.4594702  66.03  0.002339993    1.548    0.354
        14 -13.6938    166.5695     10.6880   4.4766663643e+01   4.2001211366e+01     2.940931      1.94125  68.96   0.01531235    1.373    0.271
        15 -10.1558    116.3336     17.0019   5.5973898837e+01   5.3778082485e+01      0.83977    0.3386451 -40.99  0.003271457    2.981    0.665
        16  -9.2684    111.3090     16.8551   5.7099574565e+01   5.4953655330e+01    0.3071605    0.2462942  42.60  0.001208479    1.119    0.106
        17 -10.0036    248.4942     15.5384   3.7539991097e+01   2.1769333159e+01      0.30762    0.1978866 -55.64  0.001436376    1.333    0.250
        18  -9.3683     94.1461     17.5260   6.1879386914e+01   5.8656650319e+01    0.4250326    0.3435935  81.50  0.002385416    1.749    0.428
        19  -9.7355     65.0957     16.4082   7.0870712169e+01   6.4364187504e+01    0.3243045    0.2523401  67.22  0.001838223    2.128    0.530
        20 -10.9810    140.4950     14.3251   5.0065296949e+01   4.8213835470e+01    0.5440774    0.4368234 -51.24  0.003049645    1.403    0.287
        21  -8.7879     20.1489     14.5065   9.0061732031e+01   7.0668341626e+01    0.5030537       0.1957 -28.59  0.002313575    2.695    0.629
        22  -9.6284     69.7395     14.1432   6.8122651549e+01   6.3823091899e+01      0.38987     0.217765 -36.79  0.002009918    1.979    0.495
        23  -9.6757    104.3148     11.9036   5.6810321958e+01   5.7040950837e+01    0.4116867    0.2997184 -13.28  0.001949009    1.426    0.299
        24  -9.1474     90.7901     28.5718   6.7532157515e+01   5.7989406455e+01    0.2820817    0.2599673 -85.02  0.001689355    1.488    0.328
        25 -10.8264     60.3564      3.8019   6.6473794376e+01   6.6621300792e+01    0.7826973    0.4416542 -16.95  0.004337789    1.704    0.413
        26  -8.6196     52.3401      1.8786   6.8565629040e+01   6.8164723765e+01    0.3027488    0.1470113  37.45  0.001607726    1.872    0.466
        27  -9.6191    200.4385      8.0047   3.9995941135e+01   3.3773315279e+01    0.2642159    0.1623471  57.60 0.0009122934    1.606    0.377
        28 -10.1204    203.9958      3.7590   3.8548241334e+01   3.3326169583e+01    0.3014766     0.265732  72.76   0.00142328    1.141    0.124
        29  -9.4415    230.6874      6.9195   3.7002008361e+01   2.6695224833e+01    0.1826552    0.1474655 -59.72  0.001088095    1.089    0.081
        30  -9.7212    222.5135      5.0163   3.7222184254e+01   2.8783363077e+01    0.2906845    0.1639912 -40.08  0.001515837    1.648    0.393
        31 -10.9952    250.0740      6.7041   3.5504716894e+01   2.2416328558e+01    0.5345472    0.4941876  -6.46  0.003736032    1.466    0.318
        32  -9.7986    213.2883      4.7808   3.7956637243e+01   3.0985804830e+01    0.2728667    0.1558502  64.39  0.001418942    1.662    0.398
        33  -8.6674     17.4317      2.4166   8.5457883357e+01   7.2721580711e+01    0.2893269    0.1738373 -50.92  0.001629281    2.672    0.626
        34  -9.2321    217.6605      2.1506   3.6939787405e+01   3.0212147235e+01    0.2676625    0.1695147  89.61  0.001472339    1.466    0.318
        35 -10.2025      3.3099     40.3829   1.0801309553e+02   6.7182504762e+01    0.3833427    0.3641086  56.71  0.002624038    1.473    0.321
        36  -9.8633    173.1725    238.8210   9.9024656124e+01   1.0311502593e+00    0.1760321    0.1316326  17.61  0.001092917    1.360    0.265
        37  -8.9382    200.0000    223.9872   9.1663493279e+01  -1.1637252304e+00    0.1885044   0.07095311 -39.75  0.000809541    2.992    0.666
        38  -9.5128    207.7357    219.9834   8.9540396812e+01  -1.8472094205e+00    0.2072454    0.1391115  68.41 0.0009035337    3.601    0.722
        39  -9.0592     21.4738    156.3012   1.2112421706e+02   3.9661101175e+01    0.2699847     0.122181  17.88  0.001232283    3.509    0.715
        40 -11.1260      9.2905    141.3252   1.2260898633e+02   4.4117966984e+01    0.3575886     0.308576  64.11  0.002584834    1.258    0.205
        41  -9.1795     68.1132     36.1457   7.8457247397e+01   6.1037097961e+01    0.4031173    0.2402499  48.60  0.001998277    2.076    0.518
        42  -9.1759     12.1676     34.1118   1.0192874348e+02   6.7883882997e+01     0.390763     0.168325 -49.21  0.001707829    1.740    0.425
        43  -8.7436      6.6739     35.0650   1.0485520215e+02   6.8045221968e+01    0.3099925    0.1682453  38.11  0.001756127    2.656    0.623
        44  -8.2273     28.0105     35.2413   9.4914258335e+01   6.6391333930e+01    0.1739094    0.1393327 -17.12  0.001168942    1.108    0.098
        45  -9.2769     40.7816    141.6090   1.1465998830e+02   4.1253793826e+01    0.2710721    0.2131055  60.27  0.001400707    1.307    0.235
        46  -9.5497     86.3345     31.5426   7.0177976421e+01   5.8462235499e+01    0.2501534    0.2124168 -23.27  0.001478756    1.180    0.152
        47  -9.2485     66.5236     29.6242   7.6298257345e+01   6.2307474999e+01    0.3614257    0.1871228 -24.71  0.001704398    1.974    0.493
        48 -10.0948    226.0976     28.6063   4.2588784760e+01   2.5270268099e+01    0.3828449    0.3258547 -39.49  0.001386958    1.190    0.160
        49  -8.0582     23.8240    141.8416   1.1904600713e+02   4.2828283593e+01    0.1762621    0.1250073  79.55 0.0006578494    1.317    0.241
        50 -12.7608    241.5490    130.5914   6.5204343790e+01   6.2572606453e+00     1.465856     1.356459   9.45  0.006556354    1.122    0.109
        51 -11.4433     11.7583    128.1417   1.2063098065e+02   4.7013951919e+01    0.5840812    0.2222679 -67.24  0.002812863    1.969    0.492
        52  -8.7049     22.9829    125.5069   1.1729083914e+02   4.6774799923e+01    0.1622932   0.09668062 -26.50 0.0008102186    2.526    0.604
        53  -8.9689     58.1438    124.1246   1.0713700646e+02   4.3509239408e+01    0.2680732     0.178566 -68.87  0.001384228    1.370    0.270
        54 -10.6325     17.5039    104.5599   1.1594069327e+02   5.2165031951e+01    0.7385712    0.3219351 -71.68  0.003539531    1.922    0.480
        55 -10.2287    240.9715    108.0655   6.0057830956e+01   1.0091046096e+01     0.270926    0.2222597  70.36  0.001434866    1.484    0.326
        56 -10.1533     46.8735    101.3481   1.0613718343e+02   5.0308299722e+01    0.5970279    0.1642307 -51.64  0.002154865    2.885    0.653
        57  -9.2863    132.5900     25.8934   5.5704902887e+01   4.8909641233e+01     0.360294    0.2633545 -13.98  0.001485001    1.495    0.331
        58  -9.5102    134.6300     19.3502   5.2942705784e+01   4.9144577396e+01    0.3930514    0.2414688  19.17  0.001787469    2.079    0.519
        59  -9.3637     30.5531    101.4896   1.1137157936e+02   5.1863712504e+01    0.3251055    0.2069597 -26.68  0.001732262    1.979    0.495
        60  -9.4158      2.3548     88.1957   1.1825619596e+02   5.6882390657e+01    0.4637001    0.1833829 -73.71  0.002221247    2.109    0.526
        61  -8.2543     21.3153     23.1680   9.3307239475e+01   6.9142302030e+01    0.1987981    0.1322248  30.25   0.00126113    1.817    0.450
        62  -9.6113     75.3574     27.2571   7.2060765756e+01   6.1121559439e+01    0.2813416    0.2428604 -17.37  0.001743329    1.148    0.129
        63 -11.9790     43.2799     81.2844   1.0280142870e+02   5.5361725828e+01     1.111799    0.8131102 -26.80  0.006355551    1.446    0.309
        64  -8.6109     97.3854     28.3023   6.5436813070e+01   5.6666490298e+01    0.3925173    0.2034748  -6.84  0.001513049    2.971    0.663
        65  -8.8290     20.1588     88.6933   1.1243185924e+02   5.5684880151e+01    0.1851295    0.1498757  61.95  0.001187069    1.496    0.332
        66  -8.3984    101.3250     83.6625   8.4078548754e+01   4.6194530374e+01    0.1507938    0.1209895 -85.30 0.0007051336    1.721    0.419
        67  -9.3346    225.7843     14.5859   3.9222354830e+01   2.6992617450e+01    0.2578518    0.1653704  81.47   0.00140342    1.489    0.328
        68  -8.8212    228.1528     78.9373   5.4881041251e+01   1.7603072573e+01    0.4319099     0.271092  -3.42  0.001730541    2.749    0.636
        69 -10.4078     25.3955     65.2407   1.0540080205e+02   6.0568924070e+01    0.7967888    0.2748527 -44.05  0.003451843    2.416    0.586
        70 -11.1903      3.9168     76.0747   1.1575655966e+02   5.9546141245e+01    0.8647386    0.4979592  32.47  0.005159564    2.182    0.542
        71 -10.4993     17.2706     73.9604   1.1052100035e+02   5.9240083481e+01    0.5145879    0.3958314 -81.80  0.003285394    1.410    0.291
        72 -10.5782     12.3988     70.2634   1.1154292215e+02   6.0373815974e+01    0.6499624    0.3380637 -62.34  0.003587989    1.510    0.338
        73  -8.5631    139.0334     77.7274   7.1745643156e+01   3.9290411470e+01    0.4082748    0.2012311 -27.76  0.001435389    2.520    0.603
        74  -9.7084     75.2638     68.6071   8.7798613805e+01   5.3918880315e+01    0.5662675    0.4242246   0.71  0.002937251    1.561    0.359
        75  -9.0073     83.2592     68.6335   8.5082381682e+01   5.2592203061e+01    0.3065924    0.2937402  61.54  0.001796961    1.249    0.199
        76  -8.6963     49.2652     62.1556   9.5237569355e+01   5.8865864472e+01    0.3382019    0.1590476 -48.24  0.001568314    1.806    0.446
        77  -8.0602     70.3122     61.6913   8.7248198224e+01   5.6089243980e+01    0.1288306    0.1117775 -84.98 0.0004254746    1.624    0.384
        78  -9.1483     14.5430     60.9445   1.0860445157e+02   6.2275230732e+01    0.4865391     0.243973 -24.62  0.002483706    2.347    0.574
        79  -8.8593    102.9465     25.9974   6.2923197253e+01   5.5770485792e+01    0.3148449    0.2227866  48.00  0.001281092    1.341    0.254
        80  -8.8945    199.2240     55.7263   5.3100158367e+01   2.8095481940e+01    0.2573477    0.2327468  -7.95 0.0005690262    1.252    0.201
        81  -8.8410     66.2714     54.3409   8.6160119424e+01   5.8132774790e+01     0.446888    0.1389372 -44.13  0.001611974    2.921    0.658
        82  -8.4347     35.3274     52.8558   9.7841929174e+01   6.2287620857e+01    0.1895636    0.1728827  19.17  0.000668444    1.313    0.238
        83  -8.1284     23.6243     52.3621   1.0257332093e+02   6.3432449074e+01    0.1612787    0.1403935  89.99  0.001067022    1.563    0.360
