#   1 NUMBER                 Running object number                                     
#   2 MAG_AUTO               Kron-like elliptical aperture magnitude                    [mag]
#   3 X_IMAGE                Object position along x                                    [pixel]
#   4 Y_IMAGE                Object position along y                                    [pixel]
#   5 X_WORLD                Barycenter position along world x axis                     [deg]
#   6 Y_WORLD                Barycenter position along world y axis                     [deg]
#   7 A_WORLD                Profile RMS along major axis (world units)                 [deg]
#   8 B_WORLD                Profile RMS along minor axis (world units)                 [deg]
#   9 THETA_WORLD            Position angle (CCW/world-x)                               [deg]
#  10 FWHM_WORLD             FWHM assuming a gaussian core                              [deg]
#  11 ELONGATION             A_IMAGE/B_IMAGE                                           
#  12 ELLIPTICITY            1 - B_IMAGE/A_IMAGE                                       
         1 -15.0973      5.1172     98.9556   1.2453423261e+02   5.4569553411e+01     4.908195    0.8439591 -82.25   0.01329139    6.622    0.849
         2 -13.7421    209.1405     34.7280   5.2307813976e+01   2.7975830356e+01     1.270667     1.210744 -47.04  0.005742191    1.037    0.035
         3 -14.1099    227.7730     17.5739   4.5758485474e+01   2.5386446366e+01     1.056348    0.8820187  16.70  0.001308695    1.391    0.281
         4 -13.7838      6.0935      9.5347   1.0604242181e+02   7.5293318834e+01       1.6212    0.6741264 -52.19  0.008252872    1.824    0.452
         5 -11.2068    243.4922    246.0220   9.1413489890e+01  -2.6314643849e+00    0.1321226    0.0826453 -15.10  0.001049267    1.639    0.390
         6 -14.4777    123.1719    246.7007   1.1083302610e+02   1.2721743654e+01     2.145309    0.6206793  38.31   0.01076495    2.453    0.592
         7 -10.4574    198.0321    245.4811   9.8232270417e+01   3.0431847880e+00    0.1640265   0.07454371  35.15 0.0007581916    1.598    0.374
         8 -11.3576     78.1944    226.0934   1.1719795729e+02   2.1298796995e+01    0.3128571    0.2713336 -18.17  0.002437141    1.794    0.443
         9 -11.5497    101.4920    220.5064   1.1235224119e+02   1.9189154496e+01    0.2840482    0.2080384  24.25  0.001972357    1.518    0.341
        10 -13.8579      3.2995    193.4436   1.2990195674e+02   3.4681674490e+01     1.953236     0.477519 -86.33  0.007904189    3.952    0.747
        11 -15.1903     19.8881    218.9006   1.2761807725e+02   2.8775786873e+01     1.294235    0.8320615  53.54   0.01009526    1.104    0.094
        12 -10.8287     72.6376    219.4255   1.1774728765e+02   2.3021390552e+01    0.3517683    0.1324013  50.71  0.001871601    2.172    0.540
        13  -9.3566     59.9783    220.5162   1.2022482784e+02   2.4335112981e+01     0.153263   0.08171389  40.17 0.0003240922    1.459    0.315
        14 -10.6302     50.8040    218.5439   1.2183658207e+02   2.5687551822e+01    0.2521307    0.1406238  66.54 0.0005526383    1.623    0.384
        15 -10.0265     45.9609    214.2503   1.2250768520e+02   2.6930843647e+01    0.3136482   0.07830259  51.89  0.001420964    3.136    0.681
        16 -12.2286    144.6512    243.0917   1.0679079866e+02   1.0351173076e+01    0.2611751     0.239651 -34.06  0.002271659    1.475    0.322
        17 -11.5922     90.5736    224.8551   1.1479012676e+02   1.9947460832e+01    0.3975944    0.1787476  51.05  0.002287545    1.881    0.468
        18  -9.2532     88.4589    213.9298   1.1425380878e+02   2.1923216781e+01    0.1499994   0.08207679  75.30 0.0008083025    2.542    0.607
        19 -11.1301     62.9264    209.5135   1.1889936869e+02   2.5817299773e+01    0.2896743    0.1739761  44.05  0.001925196    1.296    0.229
        20  -8.5831    137.4980    207.5403   1.0407767565e+02   1.6060559314e+01    0.1179913   0.09318578  41.36 0.0001371082    1.050    0.048
        21 -15.2369     11.1088    240.4148   1.2983199951e+02   2.6160851707e+01     2.390425     1.065391  44.24  0.006477179    1.498    0.333
        22 -10.0412     56.0807    208.8338   1.2020087619e+02   2.6727573112e+01    0.2334528    0.1483726 -70.03  0.001600702    1.786    0.440
        23  -9.6358    106.6207    203.7385   1.0967012460e+02   2.1114882102e+01    0.1412965    0.1068666 -86.86  0.000615281    1.616    0.381
        24  -8.7168     73.6319    204.2572   1.1635293878e+02   2.5416280551e+01    0.1208589   0.06443957  55.54 0.0002581362    1.639    0.390
        25  -9.1621     88.4304    201.5082   1.1310700625e+02   2.3977072529e+01    0.1171496   0.09106551  53.79 0.0001316667    1.055    0.052
        26  -9.6922    250.5152    200.5022   8.3723127310e+01   3.8183644213e-01     0.110445   0.07885278  11.37 -6.705891e-05    1.023    0.022
        27  -9.3812     80.2715    197.1445   1.1436360885e+02   2.5804652605e+01    0.1555193    0.1275903  60.74 0.0005830922    1.068    0.064
        28  -9.6514     52.5176    231.7426   1.2227431515e+02   2.3390234040e+01    0.1908295    0.1150226 -58.52    0.0013423    2.258    0.557
        29 -11.4574     21.6975    193.3374   1.2620339412e+02   3.3085229137e+01    0.4462871    0.1457579  45.86  0.002419773    2.146    0.534
        30 -12.1736     19.1866    189.3018   1.2653042997e+02   3.4067827183e+01    0.6692179    0.1546502  47.86  0.003184218    2.795    0.642
        31  -9.6093    250.3195    194.0105   8.2689986810e+01   1.0183007433e+00    0.1751295   0.07273822  -7.25 0.0007048034    4.275    0.766
        32 -10.8331    180.8019    243.4127   1.0076018278e+02   5.5028487133e+00     0.205913   0.07508548  40.57  0.001128241    2.099    0.524
        33 -12.1920     47.6773    191.3439   1.2070175131e+02   3.0796287735e+01    0.2406706    0.2034681  78.28 0.0006032319    1.167    0.143
        34  -8.7012    191.5112    191.5325   9.1791352898e+01   9.9433172687e+00    0.1201424   0.09636477  23.05 0.0008096836    1.005    0.005
        35 -10.0703     33.9842    190.9096   1.2354343842e+02   3.2334327254e+01    0.2457476     0.141781  68.17  0.001583069    1.490    0.329
        36  -9.9818     57.4264    190.2554   1.1855833084e+02   2.9884087840e+01    0.1500149    0.1046303 -82.97 0.0003048825    1.473    0.321
        37  -8.9862     66.6687    188.7284   1.1645803860e+02   2.9051281652e+01    0.1012618   0.08995539   2.11 0.0002789526    1.589    0.371
        38 -12.2142     55.3099    183.7860   1.1849024814e+02   3.1348068090e+01     0.234579     0.196742  54.08 0.0005326159    1.111    0.100
        39  -9.6169     29.2106    183.8092   1.2413867868e+02   3.4154812021e+01    0.1653777    0.1211489 -37.16  0.001077754    2.214    0.548
        40 -10.0130     37.2056    179.9546   1.2216537623e+02   3.4089446260e+01    0.2048703    0.1532722  35.05 0.0008846204    1.394    0.283
        41  -8.7086     74.7076    178.3398   1.1369925796e+02   2.9980440843e+01    0.1269037    0.0772583  64.74 0.0002130118    1.649    0.394
        42 -10.5690     45.4556    177.7559   1.2018286023e+02   3.3634182280e+01    0.2030619    0.1743579  59.22 0.0002801274    1.127    0.112
        43  -9.6835     32.0143    176.9408   1.2311093843e+02   3.5209769517e+01    0.1690203    0.1367588  65.92 0.0005113191    1.052    0.050
        44 -10.5779    249.1009    172.8856   7.9214569739e+01   3.2899222323e+00    0.2130862    0.1337285  27.16  0.001370733    1.382    0.276
        45 -10.9326     67.8933    171.8230   1.1456553511e+02   3.2131740866e+01    0.2198525    0.1844048 -74.91 0.0003832259    1.278    0.217
        46 -12.6496      3.5002    158.1233   1.2857105513e+02   4.1530689219e+01     0.528977     0.230596 -84.45  0.002974177    1.993    0.498
        47 -11.8963     12.0635    172.1721   1.2725827026e+02   3.8000731434e+01    0.3315212    0.1572973  66.84  0.001949044    1.767    0.434
        48 -13.0495     33.8643    205.2747   1.2436194338e+02   2.9744614809e+01    0.5360991    0.4697529  63.91     0.003839    1.238    0.192
        49 -12.9513      5.9166    166.7590   1.2838536951e+02   3.9586558628e+01    0.5655006    0.4264029 -16.44   0.00386921    2.212    0.548
        50 -10.8483     19.8235    168.8244   1.2535338322e+02   3.7990124946e+01    0.2511756    0.1585377 -48.34   0.00127403    2.245    0.555
        51 -11.0260     52.2549    170.5547   1.1804534917e+02   3.4293529168e+01    0.2392062    0.2303127  53.56 0.0005113354    1.282    0.220
        52 -10.6445     41.1165    167.7184   1.2038698780e+02   3.6111416148e+01    0.2571427    0.2140498  18.61  0.001769517    1.560    0.359
        53 -12.2783     76.0390    163.8429   1.1177887757e+02   3.2650788900e+01    0.5204012    0.4198961 -68.17  0.002179735    1.324    0.245
        54 -11.0506    245.4979    162.4458   7.7824298155e+01   4.9357344371e+00    0.2352384    0.1019436 -27.43  0.001210024    2.165    0.538
        55 -11.2284    248.0228    157.4926   7.6512296784e+01   5.0887096780e+00    0.3137679    0.1686824  50.27  0.001697552    2.344    0.573
        56  -9.9541     49.9129    161.1203   1.1773483576e+02   3.6491982283e+01    0.1788184    0.1473827  63.89 0.0003246453    1.025    0.024
        57  -8.9122     42.6800    161.2844   1.1948714712e+02   3.7266457704e+01    0.1263973   0.07171527  61.02 0.0002325335    1.591    0.371
        58 -11.5350     25.8018    155.8146   1.2313516880e+02   4.0124608058e+01    0.2938088    0.1996424  51.43  0.001133677    1.268    0.211
        59 -10.9992     23.3751    149.9187   1.2331570394e+02   4.1604308598e+01    0.1822104    0.1626727  34.41  0.001163046    1.343    0.256
        60 -11.5672     16.2277    154.8983   1.2539307662e+02   4.1176595838e+01    0.2264947    0.1224303  46.91 0.0008064502    1.571    0.364
        61 -11.0792     91.3784    149.5580   1.0614291178e+02   3.3357770047e+01    0.2799419    0.2545607  60.75 0.0009664358    1.029    0.028
        62 -10.4160     79.1679    148.4471   1.0902771472e+02   3.5394882575e+01    0.2220894    0.1966121  70.74 0.0002805765    1.021    0.021
        63 -14.4937     89.2570    243.5850   1.1648749395e+02   1.7390929815e+01     2.198317    0.8645248  41.43   0.01315611    1.769    0.435
        64 -10.8967     36.2957    141.9042   1.1934192490e+02   4.2101225701e+01    0.2910734    0.1643686  29.69  0.001600211    1.890    0.471
        65  -8.6912     45.2835    139.6798   1.1673493212e+02   4.1631950675e+01    0.1308664   0.08027753  67.29 0.0002350761    1.590    0.371
        66 -10.1176    105.6532    135.2602   1.0018075651e+02   3.4018668444e+01     0.392318    0.2615806  -5.60   0.00161137    3.115    0.679
        67 -12.9553    248.1031    142.5062   7.3553972761e+01   6.7443796462e+00     0.782414    0.3568641 -30.96  0.004016028    2.029    0.507
        68 -14.0050      6.4267    142.1478   1.2709316620e+02   4.4683896880e+01    0.9384412    0.5185617 -72.04  0.005683835    1.674    0.402
        69 -12.2701    244.1770    120.9744   6.9595342041e+01   9.9197828976e+00    0.4491566    0.3376304  68.25   0.00260866    2.031    0.508
        70 -10.3792    249.7929    117.6005   6.8085712951e+01   9.3402833374e+00    0.2323183    0.1935549  12.45 0.0008762286    1.125    0.111
        71 -12.6851    248.1235    113.0421   6.7309879235e+01   1.0170439289e+01     0.585728    0.4646032   3.65  0.003723594    1.142    0.124
        72 -12.7928     15.4949    119.8845   1.2311398361e+02   4.8967271912e+01    0.4736016     0.241095  85.73  0.001057236    1.814    0.449
        73 -13.3416    248.2010    101.7683   6.4765793379e+01   1.1498138187e+01    0.9800664    0.5202428 -20.28  0.004947727    1.722    0.419
        74 -11.4739     68.4555    143.6164   1.1110692067e+02   3.7914280466e+01    0.5827844    0.2997145  65.99  0.001971596    2.459    0.593
        75 -12.4181    249.3910    131.8083   7.1173669741e+01   7.7561051955e+00    0.7575728    0.2658587 -23.10  0.003155988    2.859    0.650
        76  -9.6411     95.0396    145.3073   1.0457464591e+02   3.3669938043e+01    0.1851252    0.1577298  50.70 0.0003754494    1.081    0.075
        77  -9.6324    162.5069     80.4819   7.3245067241e+01   3.2914037922e+01    0.1491324    0.1444341  -0.26 1.548806e-05    1.013    0.013
        78 -13.7753     61.4622    246.4995   1.2151097022e+02   2.0206349975e+01     2.144789    0.5714528  35.69   0.01090014    2.785    0.641
        79 -12.7534    103.9782    229.9186   1.1274487692e+02   1.7473533954e+01    0.8104033    0.2073173  35.38  0.003437343    3.303    0.697
