#   1 NUMBER                 Running object number                                     
#   2 MAG_AUTO               Kron-like elliptical aperture magnitude                    [mag]
#   3 X_IMAGE                Object position along x                                    [pixel]
#   4 Y_IMAGE                Object position along y                                    [pixel]
#   5 X_WORLD                Barycenter position along world x axis                     [deg]
#   6 Y_WORLD                Barycenter position along world y axis                     [deg]
#   7 A_WORLD                Profile RMS along major axis (world units)                 [deg]
#   8 B_WORLD                Profile RMS along minor axis (world units)                 [deg]
#   9 THETA_WORLD            Position angle (CCW/world-x)                               [deg]
#  10 FWHM_WORLD             FWHM assuming a gaussian core                              [deg]
#  11 ELONGATION             A_IMAGE/B_IMAGE                                           
#  12 ELLIPTICITY            1 - B_IMAGE/A_IMAGE                                       
         1 -14.0923    222.9525     25.7972   3.4870564854e+02   2.9059210846e+01    0.9141422    0.7820423 -39.87  0.004554295    1.331    0.249
         2 -12.0457     59.9351      3.0062   3.5173650511e+00   6.8742418873e+01    0.6156577    0.1473767  52.83  0.002215249    3.122    0.680
         3 -11.6432     22.7432    246.4908   7.1005189348e+01   1.7878461201e+01    0.1778485    0.1070239  26.88  0.001049503    1.393    0.282
         4 -12.6216    246.5934    246.2792   2.5737013181e+01  -4.3544677561e+00    0.6322776    0.3502564 -12.76  0.004709805    1.418    0.295
         5 -10.7388     53.7814    189.7119   5.9176834142e+01   2.7366012861e+01    0.2311815    0.1844601  63.58  0.000417241    1.244    0.196
         6  -7.6931     43.7441    186.9681   6.1802495634e+01   2.9155201407e+01    0.3047848    0.1499426  61.37  0.001231406    2.318    0.569
         7 -11.7936     54.1925    180.9617   5.8136563391e+01   2.9489955422e+01    0.4418273    0.2789499 -29.95  0.001497808    2.111    0.526
         8 -11.8584    179.5326    169.4489   2.4750427343e+01   1.3998772711e+01    0.7968888    0.5624597 -15.97  0.004488756    1.497    0.332
         9 -10.7390    174.5392    180.5055   2.7697999757e+01   1.2715192673e+01    0.2994199    0.2427498 -11.85 0.0008607737    1.140    0.123
        10 -11.3208    172.9877    177.0179   2.7387057089e+01   1.3560234409e+01    0.4041321    0.3274999 -59.60  0.001831679    1.559    0.359
        11 -10.2927     27.0566    251.0000   7.0218213203e+01   1.6617078947e+01    0.1680303   0.05558654  23.92  0.000361916    2.479    0.597
        12  -9.8994     73.4401    181.0791   5.2536614377e+01   2.7072179195e+01    0.1977788    0.1827264  50.63 0.0003776204    1.044    0.042
        13  -9.5773     86.0000    241.2669   5.5923167530e+01   1.2513838489e+01    0.1659996    0.0727405 -64.06 0.0007768646    2.768    0.639
        14 -11.5786    229.9411    167.6076   1.6040689848e+01   7.6833319251e+00    0.3370377    0.1365484 -37.07  0.001739315    1.973    0.493
        15 -10.3910     53.2353    241.0618   6.3603819450e+01   1.6047600790e+01     0.107439    0.1024231  70.83 0.0004005604    1.204    0.169
        16  -9.9296    193.4941    195.9828   2.6771466476e+01   7.6434837679e+00    0.2526117    0.1414694 -51.23  0.001316327    2.196    0.545
        17 -19.5059     12.5698    144.5854   6.8085032647e+01   4.3260308953e+01     20.27707     5.712946 -83.36   0.06238678    3.762    0.734
        18 -11.3944     58.7626    233.3621   6.1719556803e+01   1.7018234587e+01    0.1710396    0.1377336  21.53 0.0003163098    1.153    0.132
        19 -11.8080    133.7606    145.7281   2.9992853514e+01   2.6046244740e+01     1.300095     0.311906 -54.58  0.003077299    6.249    0.840
        20 -10.7423     47.1321    234.3863   6.4612076630e+01   1.8009032654e+01    0.1408715    0.1211774  21.19 0.0002585534    1.156    0.135
        21 -10.7138     98.5184    150.9953   4.0470110681e+01   3.0817249929e+01    0.3129031    0.2460064  86.00  0.001175681    1.560    0.359
        22 -11.1403     87.7018    149.8011   4.3461560000e+01   3.2847149306e+01    0.2858681    0.2676806 -46.52 0.0004029935    1.096    0.087
        23 -12.6916     93.1963    143.7760   4.0666576351e+01   3.3477352574e+01    0.7760233    0.7069659 -59.84  0.002540506    1.108    0.097
        24  -9.8491    112.2913    150.4006   3.6483403814e+01   2.8675619136e+01    0.2120309    0.1356983  44.33 0.0008743078    1.596    0.374
        25 -11.2964    105.8927    133.0110   3.4698218115e+01   3.3935484671e+01    0.5385614    0.3716474 -23.74  0.002316194    1.944    0.486
        26 -11.0580    135.7569    131.3494   2.6423113747e+01   2.8825557664e+01     0.578775     0.257891 -57.09  0.002060815    2.748    0.636
        27 -11.7026     94.1955    131.8790   3.7943215565e+01   3.6283237386e+01    0.3619213    0.3046547 -72.00 0.0004532565    1.252    0.201
        28 -10.6411    113.6603    126.1620   3.0970963948e+01   3.4134204248e+01    0.4070394    0.3092243  -8.15  0.001616191    1.800    0.445
        29 -10.9650    118.4790    123.4492   2.9026210950e+01   3.3849016963e+01    0.3927191    0.3441174  83.16  0.001570714    1.277    0.217
        30 -10.4564    101.3013    121.0615   3.3361772708e+01   3.7662487378e+01    0.2946398    0.2462768 -20.67 0.0006257577    1.406    0.289
        31  -9.5989    162.0927    119.9531   1.8052451745e+01   2.6242620195e+01       0.2107    0.1882043 -51.42 0.0003448732    1.061    0.058
        32  -9.6929    135.0000    120.0225   2.4007156009e+01   3.1417098545e+01    0.2486014   0.08151942 -46.98 0.0008000689    2.926    0.658
        33  -9.1817     86.3253    120.2987   3.7898922587e+01   4.0573090417e+01    0.2140694    0.1959108 -26.00 0.0003533043    1.187    0.158
        34  -9.6963     86.4559    117.4649   3.7203841121e+01   4.1264349610e+01    0.3074456    0.2340361 -88.12   0.00139551    1.602    0.376
        35  -9.7064    109.3509    116.1017   2.9812272274e+01   3.7308537688e+01    0.2380958    0.2107622  25.02 0.0003234167    1.225    0.184
        36 -11.8511     52.9984    231.7401   6.3001156990e+01   1.7954003690e+01    0.2085968    0.1689409 -56.40 0.0004703774    1.460    0.315
        37 -10.4305    158.2415    114.3100   1.7524575536e+01   2.8072660794e+01    0.3416736    0.2436924 -74.20 0.0008793694    1.866    0.464
        38  -9.0908    177.5274    112.9219   1.3581676436e+01   2.4700484338e+01    0.2017654    0.1200262 -44.52 0.0004024225    1.491    0.329
        39 -11.4039    115.5864    108.6237   2.6198384721e+01   3.7786466204e+01    0.5054984    0.3228288  69.53   0.00202121    2.270    0.560
        40 -12.3499    118.6129    103.4073   2.4031202566e+01   3.8325126114e+01     1.030446     0.541409 -60.23  0.003879029    2.358    0.576
        41 -11.5401    120.9585     99.0171   2.2250049310e+01   3.8786410410e+01    0.4097748    0.3437387  76.20   0.00139654    1.305    0.234
        42  -9.4615    151.2490    106.0885   1.6993650228e+01   3.1061472957e+01    0.2605116    0.1804729 -60.93 0.0007114948    1.564    0.361
        43 -10.6878    134.7744    105.2766   2.0450269390e+01   3.4584724277e+01    0.4900877    0.1850617 -47.90  0.001718433    2.578    0.612
        44  -9.8502     79.7562    101.3379   3.5523772760e+01   4.6504428989e+01    0.2578108    0.2237929  71.98 0.0004275667    1.235    0.190
        45 -11.2589     62.3318     98.6303   4.1384967830e+01   5.0205900085e+01    0.6135568    0.2411294  47.90  0.001972493    3.030    0.670
        46 -10.0678     69.3133     98.1571   3.8540871379e+01   4.9158390585e+01     0.294549    0.2801227 -38.98  0.001548426    1.086    0.080
        47  -9.8345     74.6293     98.1944   3.6553417256e+01   4.8213286986e+01     0.264088    0.2103876  40.16 0.0002544246    1.249    0.199
        48 -11.6762     33.5539    189.5517   6.4965755430e+01   2.9559142971e+01    0.5406033    0.3810247  49.76   0.00171639    1.278    0.218
        49  -9.8798    155.1534    195.1758   3.4149309402e+01   1.2678299203e+01    0.1644897    0.1595383 -73.53    0.0010723    1.349    0.259
        50  -9.0381    109.5147     84.4419   2.1253870272e+01   4.4330692374e+01    0.1507849    0.1444359  89.03  6.68108e-05    1.006    0.006
        51  -9.0294    146.5066     82.5352   1.1909559524e+01   3.6546718515e+01     0.145206    0.1313678 -68.79 8.290117e-05    1.032    0.031
        52  -9.3324    105.4452     81.0282   2.1392450079e+01   4.5932075866e+01    0.2197907     0.198096  61.11 9.325799e-05    1.094    0.086
        53 -16.3371     68.8230    142.3221   4.8141381704e+01   3.7654208635e+01      11.7158     5.139764  61.93   0.02730715    5.084    0.803
        54 -10.9201     88.1868    221.0706   5.3366893525e+01   1.6220077982e+01    0.3898625    0.2654853   5.40  0.001600116    1.612    0.380
        55  -7.4095     56.3742    193.9443   5.8870747238e+01   2.6042173088e+01    0.3544454    0.1168341  42.14   0.00128804    2.664    0.625
        56 -12.8399    177.9976     65.5175   2.2075015229e+00   3.2640965624e+01    0.6031417    0.4527915 -56.33 0.0008193321    1.170    0.145
        57 -13.7898    194.4004     53.3803   3.5725609588e+02   3.1056192425e+01     0.986007    0.9018316  43.09  0.003512033    1.463    0.316
        58 -12.5325    200.9066     47.5705   3.5523609907e+02   3.0554754838e+01    0.4583439    0.4479167  64.21  0.001753728    1.363    0.266
        59 -10.0555     48.7011    193.7802   6.1012247758e+01   2.6943384298e+01    0.1720668    0.1464228  62.96 0.0002866832    1.131    0.116
        60  -9.5907    122.2256     57.0624   9.5503690419e+00   4.6586393083e+01    0.2894298     0.182489 -86.79  0.001223513    2.193    0.544
        61 -10.5600     62.2072     53.2994   2.7052976306e+01   6.0749141165e+01    0.3672181    0.2374637  57.07  0.001193069    1.748    0.428
        62  -8.8637    116.5700     52.8285   9.4465359777e+00   4.8630862188e+01    0.1925265    0.1282056 -53.53 0.0003441874    1.538    0.350
        63 -10.5576     71.4202    222.9930   5.7718180945e+01   1.7774298386e+01     0.174356    0.1388367 -59.93 0.0007343892    1.436    0.304
        64 -10.7133     58.8268    247.5207   6.2744001644e+01   1.4226397055e+01    0.1016113    0.0918513 -83.10 6.674555e-05    1.325    0.245
        65 -10.7881     60.9081     21.5703   1.3233996297e+01   6.6385186646e+01    0.2954974    0.2139369  58.19 0.0007654021    1.300    0.231
        66  -9.2351    189.5163     15.0151   3.4848575178e+02   3.6817674368e+01    0.1738164      0.10303 -37.26 0.0005765178    1.541    0.351
        67  -8.9999    250.3007     11.3032   3.4445610045e+02   2.5921195581e+01   0.08331161   0.07832546 -26.56 0.0002813851    1.589    0.371
        68  -9.7095     81.0879     32.7198   1.1368511920e+01   6.0208833261e+01    0.3769461    0.1729051  71.23  0.001278293    3.420    0.708
