#   1 NUMBER                 Running object number                                     
#   2 MAG_AUTO               Kron-like elliptical aperture magnitude                    [mag]
#   3 X_IMAGE                Object position along x                                    [pixel]
#   4 Y_IMAGE                Object position along y                                    [pixel]
#   5 X_WORLD                Barycenter position along world x axis                     [deg]
#   6 Y_WORLD                Barycenter position along world y axis                     [deg]
#   7 A_WORLD                Profile RMS along major axis (world units)                 [deg]
#   8 B_WORLD                Profile RMS along minor axis (world units)                 [deg]
#   9 THETA_WORLD            Position angle (CCW/world-x)                               [deg]
#  10 FWHM_WORLD             FWHM assuming a gaussian core                              [deg]
#  11 ELONGATION             A_IMAGE/B_IMAGE                                           
#  12 ELLIPTICITY            1 - B_IMAGE/A_IMAGE                                       
         1 -12.2120    162.5063     46.4995   7.9134128721e+01   3.8821990499e+01     1.132054    0.9748742  17.63  0.004382709    1.341    0.255
         2 -10.6714    174.9120     18.3962   6.9033255198e+01   3.9250340560e+01    0.7197344    0.4033812 -87.17  0.003162096    2.310    0.567
         3 -11.7146    177.8711     13.3611   6.7247070796e+01   3.9055807005e+01    0.8551572     0.647478  83.87  0.004458309    1.230    0.187
         4  -9.1744    233.3584      9.9729   6.0236976674e+01   2.6118350729e+01    0.3024897    0.2207099 -31.74  0.001828666    1.618    0.382
         5  -9.2026    120.1166      9.6174   7.5970603354e+01   5.3088479380e+01     0.325696    0.2740694  18.54  0.001724863    1.196    0.164
         6  -9.2114    205.9052      4.9461   6.1771040601e+01   3.3101958474e+01    0.1955137    0.1617221 -86.10 0.0003842705    1.036    0.035
         7  -9.3736    176.4564    227.9936   1.1872585581e+02   8.6287844921e-01    0.1848749    0.1329328 -45.93  0.001034408    1.608    0.378
         8 -10.2272    135.3129    242.7068   1.2883303926e+02   5.6474797364e+00    0.6051353    0.4409778  66.77  0.001249232    1.365    0.267
         9  -8.9290    135.9113    237.7461   1.2806931913e+02   6.4124242707e+00    0.2343081    0.1847604  60.59 0.0004684424    1.130    0.115
        10  -8.8913    126.8390    249.9908   1.3132147225e+02   5.8289591670e+00    0.2796125    0.1557508  51.69 0.0004367751    1.487    0.327
        11 -13.9903    103.1255    243.5491   1.3495524080e+02   1.0837555605e+01     1.028335    0.3692125 -64.42  0.004444008    3.307    0.698
        12 -18.4885     67.9431    233.1254   1.4032386211e+02   1.8115559758e+01      4.67215     3.625349  87.96   0.01256541    1.143    0.125
        13  -9.9593    139.7462    180.3557   1.1821060474e+02   1.7087651196e+01    0.5780994    0.3643351  73.32  0.001724177    2.283    0.562
        14  -8.7111    212.2156    178.4523   1.0242424940e+02   2.7594974091e+00    0.3349744    0.1875262 -56.52   0.00113264    2.557    0.609
        15  -8.5495    222.4747    178.8900   1.0053146841e+02   6.7925798052e-01    0.2072458    0.1342919 -37.11 0.0004755435    1.528    0.345
        16  -8.7988    164.8158    181.1053   1.1280626156e+02   1.1887491849e+01    0.3139867    0.2259052 -75.80 0.0007769591    1.871    0.466
        17  -9.8365    204.7000    176.6981   1.0354991877e+02   4.5842881318e+00      0.37029    0.3527822   8.55  0.001062217    1.007    0.007
        18  -9.1188    197.4531    177.2813   1.0513672047e+02   5.9451595488e+00    0.2853266    0.2418142  61.10  0.001298247    1.312    0.238
        19  -7.2748      1.5701    178.7624   1.4805211797e+02   3.7012059459e+01   0.09944292   0.07534588 -49.81 0.0002725721    1.737    0.424
        20  -9.4408    126.3503    172.9724   1.1989315278e+02   2.1319537346e+01    0.3793967    0.2477136  63.28  0.001715786    1.719    0.418
        21  -8.3533    121.7304    172.1798   1.2081741978e+02   2.2374380523e+01     0.255398    0.2058495  74.24 0.0006346063    1.278    0.217
        22  -9.5261    136.1852    171.0464   1.1725811436e+02   1.9836174957e+01    0.4369253    0.3317404  39.42  0.002169044    1.349    0.259
        23  -8.8288    200.8065    169.0954   1.0273241642e+02   6.8205256350e+00    0.2241409    0.2008465 -84.46  0.000769579    1.338    0.253
        24  -8.2106    189.5176    153.9155   1.0174145659e+02   1.2228816966e+01    0.5969738    0.4010605 -86.57  0.002271121    2.738    0.635
        25  -9.8989    193.7372    167.2394   1.0378478386e+02   8.6586425675e+00    0.3688519    0.3193787 -48.40  0.000832875    1.200    0.166
        26  -9.5795    190.3867    162.1704   1.0338630989e+02   1.0375829334e+01    0.6084188    0.4148392 -24.11  0.002640335    1.794    0.443
        27  -9.9958     19.2990    166.9633   1.4342486577e+02   3.8041884003e+01    0.3187889    0.2201192 -72.23  0.001494157    1.191    0.161
        28  -9.9753     21.9961    162.3004   1.4236147455e+02   3.8835973545e+01    0.2264952    0.1861229 -66.08 0.0003502864    1.247    0.198
        29  -8.9798    141.4865    165.3054   1.1489807816e+02   2.0050594556e+01    0.2883593    0.2385823  86.76 0.0004982044    1.337    0.252
        30  -8.6890    203.9584    162.9147   1.0076197244e+02   7.3522761714e+00    0.3965467    0.2164851 -41.24   0.00105699    1.829    0.453
        31  -9.2020    142.2856    154.0146   1.1235842295e+02   2.2414264525e+01    0.2343748    0.2220075  78.92 0.0003082461    1.026    0.026
        32 -10.0943    146.7453    158.5695   1.1228283134e+02   2.0466994708e+01    0.4519679    0.3886542 -89.39  0.001518502    1.260    0.206
        33 -10.2375    174.1248    203.8313   1.1509432201e+02   5.5734121305e+00    0.2529452    0.2451959 -29.39 0.0003741582    1.125    0.111
        34  -8.6611     16.7495    159.8760   1.4325154140e+02   3.9856881681e+01    0.1679373    0.1593361 -83.85 0.0005613285    1.317    0.241
        35  -9.3033     54.1908    158.3020   1.3451972014e+02   3.6275120818e+01    0.2435668    0.2105009 -16.88  0.001038655    1.641    0.391
        36  -8.9989    158.7275    157.4215   1.0927676455e+02   1.8185906242e+01    0.2922527    0.2333782 -85.80  0.001320729    1.518    0.341
        37 -10.2040    172.1822    196.8120   1.1422145197e+02   7.2819714629e+00    0.5073379    0.3236164 -69.92  0.001303473    2.410    0.585
        38  -8.2544     18.1265    155.2103   1.4245279404e+02   4.0783703713e+01    0.1691357    0.1157757  74.76  0.001063725    1.404    0.288
        39  -9.2227     10.0530    153.2480   1.4403885057e+02   4.1901790497e+01    0.4065601    0.2116699 -30.35  0.001876568    3.979    0.749
        40  -9.0780    129.9373    154.0008   1.1530583380e+02   2.4934092782e+01    0.2304583    0.2138594  84.78 0.0003244744    1.048    0.045
        41 -10.4808    124.8589    143.4915   1.1430249184e+02   2.8363777839e+01    0.4998088    0.4085643 -72.52  0.002501725    1.278    0.218
        42 -11.1435    133.7728    146.8874   1.1285430311e+02   2.5786939406e+01    0.9741226      0.50611 -62.90  0.003564152    2.468    0.595
        43 -10.6815    146.1989    149.1679   1.1037549978e+02   2.2680625590e+01    0.9161365    0.4982483 -74.49  0.002620643    4.473    0.776
        44 -10.7169    131.7064    140.2190   1.1187693603e+02   2.7734653790e+01    0.5291842    0.3662192  52.59  0.002153696    1.484    0.326
        45  -9.9850     10.0666    222.8353   1.4957422886e+02   2.7155467760e+01     0.376186    0.1219464 -72.97  0.001397623    2.494    0.599
        46  -8.0063     15.8891    143.1718   1.4160541824e+02   4.3689900424e+01    0.2189361    0.1256707 -43.04 0.0004530926    2.090    0.522
        47  -8.2747    185.8115    140.7968   9.9512846601e+01   1.5738718541e+01    0.2155825    0.2063117  16.61 0.0003603929    1.093    0.085
        48  -8.9282     35.0915    140.1635   1.3656847514e+02   4.2635923205e+01    0.1874868    0.1494393 -55.40 0.0004719589    1.238    0.192
        49 -10.5394     45.8614    137.0887   1.3338570426e+02   4.2216476877e+01    0.4387569    0.3113399  -5.65   0.00168788    2.246    0.555
        50 -10.1231    231.8201    133.5905   8.8895235905e+01   7.0062248061e+00    0.2632725    0.2541611  48.40 0.0004744248    1.108    0.098
        51  -9.0262    152.9467    201.5518   1.1911910490e+02   1.0106890136e+01    0.4568819    0.2541272 -66.69  0.001776041    2.604    0.616
        52  -8.1979    141.4988    199.9583   1.2128226670e+02   1.2615911374e+01     0.261777    0.1400764 -59.53  0.001006083    2.146    0.534
        53  -9.4850    121.2456    128.4971   1.1180960187e+02   3.2534572953e+01    0.2844121     0.208226 -50.28 0.0007551832    1.327    0.246
        54  -8.9816    137.4079    201.4515   1.2240248239e+02   1.3081920985e+01    0.4796833    0.2020379  44.60  0.001681746    2.167    0.538
        55  -9.3534    110.3048    123.8340   1.1357035662e+02   3.5722352268e+01    0.3010746     0.253134 -31.20 0.0005199489    1.304    0.233
        56  -9.2959    136.2725    197.2171   1.2194562249e+02   1.4169542397e+01    0.2878085    0.2216028 -66.79 0.0006490729    1.389    0.280
        57  -8.2446    121.7572    199.2032   1.2539254908e+02   1.6433405986e+01    0.2022286    0.1701533  79.28 0.0003898513    1.145    0.126
        58 -10.1391    156.3485    192.1775   1.1673348292e+02   1.1325405744e+01    0.8080074    0.4285196 -71.00  0.002039735    3.859    0.741
        59 -10.5572    176.3928    221.4500   1.1767138339e+02   1.9843276352e+00    0.4421462     0.303637 -81.88   0.00207234    2.563    0.610
        60  -8.2255    114.7923    118.0905   1.1098808938e+02   3.6171871663e+01    0.2321489    0.2007024 -84.34 0.0005939475    1.279    0.218
        61 -11.4312     11.5368    207.1178   1.4829213366e+02   3.0160909280e+01    0.5248017    0.3591129  45.31  0.002449402    1.607    0.378
        62  -8.8435    135.0000    120.9611   1.0646644330e+02   3.1395367892e+01    0.2639572   0.08749113 -46.33 0.0008064102    2.970    0.663
        63  -8.8770    249.7390    114.9938   8.1731160139e+01   6.6026978646e+00    0.2236214    0.2011449  39.65 0.0003030922    1.256    0.204
        64  -8.0007    235.3851    114.2386   8.3835889643e+01   9.7686149150e+00    0.2048412    0.1250123 -47.75 0.0003110734    1.567    0.362
        65  -9.3892    100.3521    113.0720   1.1367226782e+02   3.9998619699e+01    0.3032681    0.1234293 -43.98  0.001093353    2.446    0.591
        66  -8.6240    128.5263    190.3218   1.2247523372e+02   1.7085169982e+01    0.2504084     0.202471  86.70  0.001337418    1.304    0.233
        67  -9.6102    174.6485    188.8224   1.1219692197e+02   8.3431196098e+00    0.4203572      0.24433  32.85   0.00109019    1.887    0.470
        68 -11.5320     64.0144    109.1546   1.2312494629e+02   4.6505740968e+01    0.8538829    0.7438664   2.47  0.004471885    1.353    0.261
        69  -9.8042    110.7208    185.2538   1.2559125742e+02   2.1440924172e+01    0.6369424    0.3542131  69.16   0.00256336    2.523    0.604
        70  -9.3983    110.3001    106.7818   1.0933154606e+02   3.9559098065e+01    0.2392606    0.1888006 -65.68  0.001179863    1.391    0.281
        71  -9.7502    105.7693    105.4484   1.1023447876e+02   4.0708399253e+01    0.3239814    0.2360405 -59.28  0.001565082    1.439    0.305
        72 -10.0881     72.7291    104.3623   1.1946491213e+02   4.6395138706e+01    0.5789124    0.2048439  41.93  0.002169999    3.162    0.684
        73  -8.8520     37.4661    103.0035   1.2965648669e+02   5.0888531587e+01    0.1760833    0.1730939  -4.07  0.001011543    1.214    0.176
        74  -9.7215    140.0694    229.2045   1.2608651724e+02   7.2172144914e+00    0.3350362    0.2956533  60.28  0.002124048    1.047    0.045
        75  -9.0417      5.2580     94.2088   1.3760670838e+02   5.5270005854e+01    0.1780181    0.1364627 -31.08 0.0008103305    1.422    0.297
        76  -7.3782    203.7128     92.7032   8.4064850785e+01   2.0989093883e+01    0.1457585    0.1213731  14.03 0.0003593692    1.550    0.355
        77  -8.3781     23.8602     87.2602   1.3062838453e+02   5.5491822185e+01    0.2207471     0.147837 -24.76  0.001341853    1.671    0.402
        78  -7.9275     37.9744     83.0000   1.2514444442e+02   5.5165063452e+01    0.1775129   0.07166538  26.41 0.0007391166    2.931    0.659
        79  -7.9191    103.4626     80.5062   1.0392360727e+02   4.6334048948e+01    0.1433009    0.1354168 -18.89  8.61904e-05    1.004    0.004
        80  -8.5441    150.2795     73.3985   8.9645721496e+01   3.7524824681e+01    0.2603973    0.1808599 -26.10  0.001184732    1.622    0.384
        81  -8.4424    187.5723     70.8534   8.1286584492e+01   2.8796993901e+01    0.2281211    0.1929788  51.81 0.0004261345    1.197    0.164
        82  -7.8844     37.4627     71.4480   1.2242269806e+02   5.7576383688e+01    0.1245931    0.1000798 -37.84 6.727062e-05    1.028    0.027
        83 -11.4252    151.2615     60.4053   8.5569024211e+01   3.9473454795e+01     0.799105    0.5102524 -29.74  0.002325197    1.701    0.412
        84  -9.8361    242.8942     58.7811   6.9969255025e+01   1.7415459411e+01    0.2519602    0.2290839  81.29 0.0004511991    1.156    0.135
        85  -8.7387    128.7406     57.9889   9.0078530638e+01   4.5101664113e+01    0.2336425     0.194149  47.30 0.0003605103    1.162    0.140
        86  -9.4161    189.5017    247.4485   1.1926334390e+02  -4.4661831713e+00    0.3316179    0.1255103 -43.36  0.001333003    3.169    0.684
        87 -10.7960    166.8651     37.6471   7.5757597677e+01   3.8946677876e+01    0.5137496     0.386027  49.53 0.0008200961    1.280    0.219
        88  -7.7720    244.3284     47.3188   6.7246997135e+01   1.8788121660e+01    0.1248043    0.1049452  31.88  0.000616957    1.684    0.406
        89  -8.7600    247.0322     54.6818   6.8562062582e+01   1.7103648400e+01    0.1853356    0.1620758 -86.22 0.0004321706    1.094    0.086
        90 -10.4256    138.9922     34.7038   8.0266511222e+01   4.6072399727e+01    0.2224779    0.2105383  12.00  0.000222528    1.103    0.093
        91  -8.6044    165.2121    249.1920   1.2406487657e+02  -5.7133682298e-01    0.3405718    0.1303427  51.22 0.0007705837    2.672    0.626
        92  -8.9542    195.8953    183.2908   1.0668435266e+02   5.1242888833e+00    0.3065847    0.2061176 -26.14  0.001436049    1.738    0.425
        93 -10.0594    169.8181    241.3679   1.2207014559e+02  -1.3868077478e-01    0.3446548    0.1867032  46.33  0.001768303    1.578    0.366
        94  -8.3204    150.9565    240.3643   1.2553589815e+02   3.3358583994e+00    0.1836319    0.1737236  -1.52 0.0005832511    1.304    0.233
