#   1 NUMBER                 Running object number                                     
#   2 MAG_AUTO               Kron-like elliptical aperture magnitude                    [mag]
#   3 X_IMAGE                Object position along x                                    [pixel]
#   4 Y_IMAGE                Object position along y                                    [pixel]
#   5 X_WORLD                Barycenter position along world x axis                     [deg]
#   6 Y_WORLD                Barycenter position along world y axis                     [deg]
#   7 A_WORLD                Profile RMS along major axis (world units)                 [deg]
#   8 B_WORLD                Profile RMS along minor axis (world units)                 [deg]
#   9 THETA_WORLD            Position angle (CCW/world-x)                               [deg]
#  10 FWHM_WORLD             FWHM assuming a gaussian core                              [deg]
#  11 ELONGATION             A_IMAGE/B_IMAGE                                           
#  12 ELLIPTICITY            1 - B_IMAGE/A_IMAGE                                       
         1 -11.4502    225.3177     22.3177   3.5011004579e+01   2.7219688695e+01    0.5485826    0.2757208 -84.10  0.001927472    2.368    0.578
         2 -11.6536    111.5390     19.4347   5.0729435326e+01   5.3726624438e+01    0.4510577    0.3646916  40.35  0.001876891    1.096    0.088
         3 -11.0764    149.8476     18.5618   4.3105383806e+01   4.4905914525e+01    0.3470937    0.3011756  53.45 0.0005728073    1.089    0.082
         4 -11.9179    156.1904     12.6678   4.0407994954e+01   4.3981777066e+01    0.7074983    0.3625128  -5.30   0.00302974    3.165    0.684
         5 -10.7167     87.0106     16.2638   5.5793015827e+01   5.9320319482e+01    0.3594421    0.2352259 -33.34  0.001492589    1.715    0.417
         6  -9.8323     29.4826     17.2365   7.8278780571e+01   6.8765632017e+01    0.3421776    0.1523213 -19.07  0.001057257    2.953    0.661
         7 -10.9206    101.8931     15.8319   5.1679817856e+01   5.6220713193e+01    0.3891509    0.2576115  18.46  0.001329759    1.656    0.396
         8 -11.2576     57.2293     13.6279   6.4506291050e+01   6.5189298973e+01    0.5346005    0.2988949  17.95  0.001865858    1.937    0.484
         9 -11.3601     39.5846     16.0169   7.2962453988e+01   6.7621748489e+01    0.2236477    0.1673474  14.08 0.0002519432    1.142    0.124
        10 -11.2954    189.6741      7.3037   3.4943590779e+01   3.6678680494e+01    0.5948333    0.2729912  39.47  0.002474606    3.502    0.714
        11 -10.8240    186.9279     13.7516   3.6839500158e+01   3.6669293998e+01    0.2275368    0.2029882  79.68 0.0003405455    1.071    0.066
        12 -11.6716    182.4746     12.7366   3.7081533708e+01   3.7800890945e+01    0.4187306    0.3376438  54.74  0.002135635    1.283    0.220
        13 -10.4074      6.1980      1.9800   8.3306600936e+01   7.3335889630e+01    0.4303576    0.1510251  23.39  0.002176025    2.833    0.647
        14  -9.8176     20.1484     15.2230   8.2053139518e+01   7.0104747504e+01    0.2345036    0.1627761 -14.15 0.0008082779    1.140    0.123
        15  -9.9421     19.0276     10.9851   8.0627637108e+01   7.0830947693e+01    0.1943163    0.1368132 -23.45 0.0004144893    1.198    0.165
        16 -11.5606     14.3757      7.6665   8.1514335678e+01   7.1774326560e+01    0.4440619    0.3311299  32.55  0.002432578    1.791    0.442
        17 -12.6030    122.2432     11.3226   4.5612810778e+01   5.2075752539e+01    0.4297246    0.2988737  60.56 0.0004250649    1.279    0.218
        18 -12.1838    127.0943      4.9134   4.2562284370e+01   5.1505944947e+01    0.4235657    0.3380086  37.55 0.0003668928    1.220    0.180
        19 -10.9871    210.3142      9.3085   3.3463979074e+01   3.1864878105e+01    0.3194669    0.2570869 -64.22  0.001612437    1.107    0.097
        20 -11.4809    212.8987      6.3391   3.2577310584e+01   3.1603077731e+01    0.5318894    0.3320915 -73.09  0.003062504    1.514    0.340
        21 -10.5263     46.8089      9.2947   6.6607049150e+01   6.7374297225e+01    0.3602073    0.2239866  12.43  0.001592127    1.539    0.350
        22  -9.9342     92.8907     10.1014   5.1713226177e+01   5.8698150695e+01    0.1798231     0.167344  61.64 0.0003898052    1.246    0.197
        23 -10.6192     86.0351      9.1511   5.3151754732e+01   6.0214917150e+01    0.3674247     0.188403 -43.13  0.001729275    2.716    0.632
        24  -9.8103    250.3107      9.0685   3.0353275493e+01   2.3633139387e+01    0.1602003    0.1195888 -55.69 0.0005799163    1.116    0.104
        25 -10.6051     78.7423      7.6345   5.4587156091e+01   6.1828412495e+01    0.4052705    0.1958368  29.15  0.001912226    2.193    0.544
        26 -10.0251    102.0947      8.1635   4.8717377777e+01   5.6888397413e+01    0.2079369    0.1482645  34.45 0.0007092956    1.277    0.217
        27 -10.5688     24.0180      7.4986   7.6291416818e+01   7.0739083609e+01     0.295191    0.1602303  14.46  0.000790057    1.817    0.450
        28 -10.9090    107.5895      5.2508   4.6413722998e+01   5.5919488108e+01    0.4005339    0.2676795 -48.14  0.001610511    1.921    0.480
        29  -9.8767    101.7726      1.4747   4.6246856910e+01   5.7504726458e+01    0.2665957    0.1513831  69.29  0.001085075    1.855    0.461
        30  -9.5082      4.4288      7.0268   8.6874897694e+01   7.2768994111e+01    0.1590665    0.1280097  -1.10 0.0004576209    1.268    0.212
        31 -10.2292     65.0703      5.3248   5.7862068450e+01   6.4662500045e+01    0.1760987    0.1370849  30.05 0.0008630345    1.074    0.069
        32 -10.1537     69.2491      1.9998   5.4985243890e+01   6.4176243145e+01    0.2545221    0.1456248  43.13  0.000877412    1.453    0.312
        33  -8.6919     40.7165      5.2936   6.7228194988e+01   6.8752318359e+01    0.0978405   0.09226317 -10.60 0.0001812668    1.538    0.350
        34 -11.1833     90.4552      3.2038   4.9561096545e+01   5.9806651196e+01    0.4002239    0.2775619  71.15  0.001394808    1.696    0.411
        35  -9.9133     85.1027      1.3144   5.0149861195e+01   6.1075593806e+01    0.2271259    0.1076652  60.23 0.0006826257    2.044    0.511
        36 -10.4376     17.8939      3.1913   7.7300122506e+01   7.1996649803e+01    0.2904227    0.2345641  34.52  0.002068114    1.793    0.442
        37  -9.7276     23.7579      2.5330   7.3857153453e+01   7.1389067657e+01    0.1869459   0.09590761  30.13 0.0008212847    1.803    0.445
        38  -9.7892    163.9182      2.9455   3.6651848928e+01   4.3040758071e+01    0.1966406    0.1323317 -68.07 0.0005754477    1.601    0.375
        39  -9.1326     51.4867      2.4781   6.1395880207e+01   6.7327814737e+01    0.1206621   0.09594112  16.50 9.520336e-05    1.038    0.037
        40  -9.1690     34.4180      1.7987   6.8265341544e+01   7.0054617384e+01    0.1520911    0.0918548  -9.57 0.0003539084    1.533    0.348
        41  -9.4767    137.2534      1.3981   3.9786574688e+01   4.9422130323e+01    0.1769775     0.109697  79.79 0.0005113455    1.626    0.385
        42 -10.2421      6.4922    108.7567   1.1340000507e+02   5.1779145697e+01    0.2457172    0.1854452 -87.45  0.001519643    1.317    0.241
        43 -10.5771     79.9275    103.7110   8.8077587125e+01   4.5267323423e+01    0.3296972    0.2521764   3.58 0.0007888163    1.536    0.349
        44 -10.5665      8.2514    103.3141   1.1203285380e+02   5.2980286898e+01    0.2791505    0.2024724 -75.89 0.0009553303    1.249    0.199
        45 -10.1668     11.5522    101.8681   1.1071240112e+02   5.3127857660e+01    0.2884448    0.1391854 -60.69  0.001057167    1.590    0.371
        46 -10.3805     45.3664    101.9026   9.9205551036e+01   5.0276660599e+01     0.237808    0.2238364 -76.88 0.0004373612    1.176    0.150
        47  -9.1440     53.5452    100.2726   9.6027428546e+01   4.9734300849e+01    0.2085972    0.1118345 -45.45 0.0009386904    1.657    0.397
        48  -8.6885     97.4615     98.4752   8.1125493493e+01   4.3486590275e+01    0.1507707     0.142434 -27.73 8.234232e-05    1.028    0.027
        49 -10.5903     16.2380     95.2049   1.0796745209e+02   5.4409455951e+01    0.3294913    0.2232993  78.71  0.001253379    1.949    0.487
        50  -9.5335     69.1311     96.2990   8.9710519171e+01   4.8606856732e+01    0.2590369    0.1760471 -41.04 0.0005610554    1.351    0.260
        51  -9.5421    116.5268     93.6027   7.4091867136e+01   4.0851140170e+01    0.2236255    0.1794182  66.02  0.001066494    1.559    0.359
        52  -9.1997      1.2869     94.1721   1.1296452005e+02   5.5510544449e+01    0.1742983   0.09407304 -75.69 0.0003961583    1.677    0.404
        53  -8.5519    126.3044     91.6895   7.0838281812e+01   3.9204387604e+01    0.1504975    0.1241306 -82.48 0.0005536782    1.611    0.379
        54  -9.5966     88.2788     90.9768   8.1889302697e+01   4.6762441335e+01    0.3027485    0.2038515  58.42  0.001330861    2.081    0.519
        55  -8.8089     86.4295     86.6349   8.1220481509e+01   4.8018262166e+01    0.3585598    0.1435143 -52.96  0.001229659    2.883    0.653
        56  -8.7643     60.6946     90.7164   9.1141869765e+01   5.1051830684e+01    0.1442533     0.100253 -23.07  0.000237454    1.560    0.359
        57  -9.8330     34.9379     89.8286   1.0016972881e+02   5.4174881611e+01    0.2045128     0.151523 -35.20 0.0004168438    1.237    0.192
        58 -10.0890    139.2428     87.6321   6.6316487085e+01   3.7184243154e+01    0.3814265     0.221162 -50.26  0.001083823    1.907    0.476
        59 -10.0263    121.0105     87.7752   7.1128692145e+01   4.1113057253e+01     0.241914    0.2105441 -34.54  0.000301377    1.124    0.110
        60 -10.0177    131.4568     86.5911   6.7985240895e+01   3.9103907473e+01    0.2482914    0.2339174 -24.61 0.0003469132    1.039    0.037
        61  -9.8250     27.9808     85.0566   1.0164199238e+02   5.5895296034e+01    0.2003418    0.1717099 -50.30 0.0005844618    1.070    0.066
        62  -9.8039     76.0883     83.0362   8.3613410220e+01   5.0501095810e+01     0.214338    0.1954299 -27.46 0.0003864183    1.041    0.039
        63  -9.6501     71.2128     82.6590   8.5187937838e+01   5.1339926196e+01    0.2469935    0.2124888 -73.17 0.0004840374    1.479    0.324
        64 -10.4058     54.7737     80.5174   9.0474395539e+01   5.4099516763e+01    0.3167481    0.2127204 -44.07  0.001644729    1.311    0.237
        65  -8.9933    112.5729     81.5545   7.1625779272e+01   4.4102135935e+01     0.150224    0.1404682  -6.30 0.0002974405    1.020    0.020
        66  -9.0975     22.4528     80.0466   1.0258773937e+02   5.7480795713e+01     0.201426   0.06786535 -43.59 0.0008082432    2.498    0.600
        67 -10.5093      7.5244     79.9257   1.0824551437e+02   5.8483360790e+01    0.3074265    0.1814655 -55.13  0.001313052    1.300    0.230
        68  -9.7659    104.3924     78.6419   7.3127705994e+01   4.6324880683e+01    0.2726909    0.2270167 -40.56 0.0007260729    1.203    0.169
        69  -9.5465     35.9269     76.7866   9.6587640645e+01   5.7040596068e+01    0.1935726    0.1493666 -33.81 0.0003714138    1.125    0.111
        70  -8.9436     98.9963     76.4586   7.4085930065e+01   4.7807398197e+01    0.2118691    0.1432135  38.96 0.0003995547    1.496    0.332
        71 -11.5311     77.5954     75.0536   8.0647384230e+01   5.1923101126e+01    0.5003024    0.2807228  27.40  0.001837147    1.971    0.493
        72  -9.8018     49.9286     76.6798   9.1191789651e+01   5.5535524757e+01    0.1908726    0.1678307 -12.33  0.001024636    1.101    0.092
        73  -8.9091     20.6893     75.2865   1.0216380516e+02   5.8683455225e+01    0.1146848   0.09754068  74.63 0.0001918157    1.576    0.366
        74 -10.4059      2.8881     73.4659   1.0874875005e+02   6.0177713576e+01    0.2971992    0.2266171  73.53   0.00131244    1.762    0.432
        75  -9.3628     55.2060     74.4538   8.8549974375e+01   5.5352030694e+01    0.2562365    0.1348536  21.55  0.001140574    2.190    0.543
        76  -9.1858    103.7850     72.7451   7.1439391244e+01   4.7580095100e+01    0.1814431    0.1704395 -66.26 0.0002826823    1.266    0.210
        77 -10.0353     45.6897     71.9450   9.1446351267e+01   5.7052579731e+01    0.2168708    0.1894108  12.88 0.0003411336    1.228    0.186
        78 -11.4470     97.2111     69.1065   7.2266375235e+01   4.9556745268e+01    0.4033243    0.2540211 -34.87 0.0009488402    1.563    0.360
        79 -10.9894    101.1506     67.9747   7.0681342284e+01   4.8991593509e+01    0.4034829      0.27471 -62.47 0.0008340725    2.201    0.546
        80  -9.9123     64.5676     70.6051   8.3878728454e+01   5.4857307867e+01     0.340939    0.1589536  35.61  0.001458655    2.256    0.557
        81  -9.3609     17.8132     70.8197   1.0223712501e+02   5.9880388394e+01    0.1994989    0.1346224 -37.99 0.0005519148    1.243    0.195
        82  -9.9080    136.6989     69.5380   6.1533437160e+01   4.1059145996e+01    0.2375557    0.2208516   4.54  0.000327428    1.090    0.082
        83  -9.0033    142.9836     68.7359   5.9812583657e+01   3.9754067296e+01    0.1829869    0.1264274  51.03 0.0003341594    1.429    0.300
        84  -9.3262     90.0482     67.8940   7.4144324997e+01   5.1142282238e+01    0.1983095    0.1945291 -69.67 0.0003145048    1.244    0.196
        85  -9.3341    110.9836     65.7747   6.7066424157e+01   4.7371754552e+01    0.1938926    0.1802185  30.11 0.0002253843    1.070    0.066
        86  -9.5670     70.7755     66.2134   8.0189673560e+01   5.4784087581e+01    0.1907612    0.1782633 -15.60 0.0003524315    1.119    0.107
        87  -9.0434     59.4631     66.4740   8.4457251944e+01   5.6423837719e+01    0.2039999    0.1169615 -35.92 0.0009470982    1.619    0.382
        88  -8.9996     61.7639     64.0145   8.2780895664e+01   5.6582449317e+01    0.1942863    0.1464238 -17.29 0.0003548755    1.281    0.219
        89  -9.1736     49.2560     65.4325   8.8067613912e+01   5.7983404733e+01    0.1635143    0.1263101  33.01 0.0004500143    1.468    0.319
        90 -10.1690      3.7310     64.9818   1.0662043896e+02   6.2004166542e+01    0.2310758    0.2114876  89.49 0.0009367794    1.387    0.279
        91 -10.9979      3.8991     59.6417   1.0531622115e+02   6.3142799010e+01      0.28495     0.157307 -42.54 0.0005537641    1.403    0.287
        92 -12.2726      7.9593     56.5594   1.0279164766e+02   6.3570919595e+01     0.239681    0.1851883 -33.64 0.0002332196    1.081    0.075
        93 -10.7483     42.8718     62.3324   8.9640320461e+01   5.9374355849e+01    0.3726191    0.2976112  70.35  0.001612501    2.091    0.522
        94  -9.8308     32.9859     63.2447   9.3976337287e+01   6.0234228474e+01    0.2165369    0.1988285 -20.49  0.001426797    1.164    0.141
        95  -9.5353     17.6343     63.8606   1.0055633251e+02   6.1400704504e+01     0.309379     0.122735  44.56  0.001123721    4.940    0.798
        96  -9.4536     90.2972     61.7650   7.1994059844e+01   5.2218378269e+01    0.3353455    0.1861593  55.41  0.001376955    2.487    0.598
        97  -9.3577     50.9785     59.7928   8.5552516381e+01   5.8890644582e+01    0.1783852    0.1739109 -19.95 0.0004658083    1.282    0.220
        98 -12.1229    150.8464     57.7051   5.4770805542e+01   3.9691284887e+01    0.2909775    0.2666066 -56.58  0.000284121    1.144    0.126
        99 -10.3709     96.0639     57.2276   6.8599564708e+01   5.1892341214e+01     0.479698    0.2608712 -36.86    0.0021489    1.835    0.455
       100 -10.2966     59.8217     58.1063   8.1515898030e+01   5.7999574712e+01    0.3150516    0.2352528 -16.32  0.001104321    1.278    0.217
       101  -9.1438     34.4423     57.2873   9.1533844180e+01   6.1304259557e+01    0.1703406     0.116435 -56.42 0.0009337054    1.579    0.367
       102  -9.7869    199.7946     55.8184   4.5829226891e+01   2.8517533946e+01    0.2285329    0.1421266  24.35 0.0009532594    2.871    0.652
       103  -9.9919    112.0520     55.7500   6.3421855336e+01   4.8828752528e+01    0.2249976    0.2009064 -27.72 0.0003970802    1.145    0.126
       104  -9.0228     26.5504     56.5036   9.4666748086e+01   6.2217432322e+01    0.1293254     0.103159 -31.69 6.198095e-05    1.005    0.005
       105  -8.8219     85.3339     55.2877   7.1356107738e+01   5.4277096889e+01    0.1452487    0.1025006   6.57 0.0003356807    1.627    0.385
       106 -10.2571     81.0026     53.7617   7.2266944484e+01   5.5327919845e+01    0.4556125    0.2722068 -19.10  0.002073395    1.972    0.493
       107  -9.6213    207.3025     50.3728   4.3463182006e+01   2.7598497283e+01    0.2042963    0.1691632  -6.81 0.0007036496    1.550    0.355
       108  -9.6667    144.7740     53.2020   5.4671555039e+01   4.1798105750e+01    0.1983254    0.1605515  25.24 0.0005289525    1.358    0.264
       109  -9.2594     43.9965     52.7092   8.5984295188e+01   6.1127742003e+01    0.1810104    0.1494492  -1.40 0.0007382638    1.132    0.116
       110  -9.6214    162.7904     51.8986   5.0738272980e+01   3.7722151199e+01    0.2718227    0.1834799 -51.40  0.001327215    1.598    0.374
       111  -9.1598     29.4324     52.5572   9.2168394480e+01   6.2738548734e+01    0.1291531    0.1023913 -27.56  9.87466e-05    1.015    0.015
       112 -10.3268    126.9040     50.1330   5.7721838061e+01   4.6395876999e+01    0.2357179    0.2002182 -10.96  0.001293223    1.241    0.194
       113 -11.0646    106.5965     50.6060   6.3171059117e+01   5.0802302838e+01    0.2463031    0.2423514 -88.58 0.0001543116    1.206    0.171
       114  -9.2920    212.8333     49.8643   4.2638840084e+01   2.6444276203e+01    0.1867757    0.1741136  47.13 0.0007532356    1.255    0.203
       115  -9.5476    206.5217     53.5381   4.4338005558e+01   2.7329889834e+01     0.262546    0.1160434 -39.56 0.0006605076    2.068    0.516
       116  -9.4001     55.5234     49.5367   8.0140420774e+01   6.0187419201e+01    0.2373128    0.1500219 -25.68 0.0009884723    1.515    0.340
       117 -10.3050     59.0693     47.8443   7.8113390661e+01   5.9965740140e+01    0.2749601     0.232391  49.53  0.001626526    1.595    0.373
       118  -9.8463     17.4971     50.5835   9.6855776930e+01   6.4154755797e+01    0.2676791    0.1517022  -4.61  0.001060948    1.970    0.492
       119  -9.2442     49.7041     49.2310   8.2381693896e+01   6.1045082373e+01    0.1850832    0.1309169 -12.29 0.0009298691    1.373    0.272
       120  -9.8048     28.5237     48.4177   9.1198016220e+01   6.3628948718e+01    0.2403451     0.173978  -4.75  0.000701076    1.331    0.248
       121  -9.5221     25.4338     48.5112   9.2614487110e+01   6.3900151840e+01    0.2035061    0.1651411 -38.78 0.0005887526    1.158    0.136
       122 -10.1481      5.7926     48.2314   1.0150895848e+02   6.5404602009e+01    0.2373919    0.1353153 -33.59 0.0003475734    1.443    0.307
       123  -9.3458    233.0655     47.8960   3.9861246438e+01   2.2398754641e+01    0.1939943    0.1439904 -60.42 0.0003861949    1.212    0.175
       124  -9.1917    170.3110     48.3169   4.8399292025e+01   3.6441990668e+01    0.1404414    0.1057946  27.31  0.000300404    1.639    0.390
       125  -9.3772     89.0459     48.0026   6.7511355022e+01   5.4769568504e+01    0.2020762    0.1797942   7.67  0.000311229    1.002    0.002
       126  -9.9654     84.9207     46.7529   6.8387810155e+01   5.5753930268e+01    0.3765663      0.18127 -27.45  0.001583939    2.286    0.563
       127  -8.9099     10.9954     48.0134   9.9046655227e+01   6.5128421113e+01    0.1470642    0.1130073 -34.36 0.0009718341    1.007    0.007
       128  -9.4213     45.8887     47.0978   8.3185198802e+01   6.1927197379e+01    0.1758317      0.15918 -17.52 0.0002842233    1.194    0.163
       129  -9.4563     42.5776     46.0375   8.4198693195e+01   6.2532568650e+01    0.2228446    0.1749149 -47.58  0.001341426    1.448    0.309
       130 -10.0028     34.0425     46.3090   8.8012288359e+01   6.3464576634e+01    0.2190256    0.1634918 -41.82 0.0003699563    1.273    0.215
       131  -9.5490    142.7694     46.4004   5.2982483823e+01   4.3245920458e+01    0.2073527     0.121516  47.66   0.00094983    1.631    0.387
       132  -8.9435     68.3009     45.3607   7.3662707973e+01   5.8927011975e+01    0.1432555   0.09517749  -3.11 0.0007036406    1.719    0.418
       133 -10.6507    167.2942     43.1571   4.7449909535e+01   3.7858918243e+01    0.3183739    0.2376994  59.49 0.0006924891    1.278    0.217
       134  -9.3364    163.4138     42.4756   4.7910552675e+01   3.8872902877e+01    0.2078052     0.170496  76.99 3.916294e-05    1.223    0.182
       135  -9.2416    108.7941     43.8214   6.0180141986e+01   5.1338962523e+01    0.1827472    0.1684684 -62.28 0.0009771279    1.320    0.242
       136 -10.0959    143.1069     42.8763   5.1812795050e+01   4.3647526205e+01    0.4094737    0.1388818  47.80  0.001454926    2.827    0.646
       137 -10.5556     56.1638     42.0083   7.7036779136e+01   6.1385764223e+01    0.3432112    0.2200922  13.03  0.001028976    1.663    0.399
       138  -9.2522     19.9818     43.4971   9.3433618159e+01   6.5335891218e+01    0.1696929    0.1126883  12.95 0.0005714858    1.565    0.361
       139  -9.5373     28.0024     41.3108   8.8942682379e+01   6.5007834922e+01    0.1732028     0.135179  -8.06 0.0004102212    1.139    0.122
       140 -10.0843    112.5761     39.3694   5.7612629559e+01   5.1129414711e+01    0.2530967    0.2186813  19.12 0.0006546184    1.121    0.108
       141  -8.9638     40.3624     39.1739   8.2564023992e+01   6.4009352487e+01    0.1559393    0.1094858 -43.23 0.0001986383    1.479    0.324
       142  -9.4540     35.5334     39.0058   8.4647375220e+01   6.4612175233e+01    0.1852708    0.1074301 -39.52 0.0003901895    1.527    0.345
       143 -10.2507     83.5762     36.7886   6.5040613273e+01   5.7494122943e+01    0.4540104    0.2439781 -54.24  0.001730009    3.717    0.731
       144  -8.8130     76.2899     38.6766   6.8218170937e+01   5.8580791973e+01    0.1204505    0.1092339 -68.70  0.000214563    1.609    0.378
       145  -9.1859     49.4960     38.4980   7.8381217733e+01   6.2922885499e+01    0.1288521    0.1095052  -8.29 0.0008096577    1.072    0.067
       146  -9.0689    149.0021     37.5454   4.9020244108e+01   4.2944065358e+01    0.2028574     0.127059  58.68 0.0004942231    1.486    0.327
       147  -9.6966    127.8704     36.3990   5.2945244979e+01   4.8056225628e+01    0.2238955    0.1920055 -42.78 0.0009045432    1.280    0.219
       148  -9.8978     67.8992     35.5580   6.9967130802e+01   6.0517259728e+01    0.2090972    0.1786274 -46.95 0.0009784984    1.539    0.350
       149  -9.0577    170.5398     35.5364   4.4786950468e+01   3.8064522382e+01    0.1341863    0.1242425  87.59  4.14213e-05    1.023    0.022
       150 -10.9496     78.4056     30.9991   6.4449309595e+01   5.9268715985e+01    0.3898239     0.224671 -20.90 0.0003203297    1.832    0.454
       151 -10.4021     80.8614     26.2641   6.1731016914e+01   5.9408456735e+01    0.3206389    0.2347686 -44.84  0.001561474    1.753    0.429
       152  -9.9531     77.1783     23.6183   6.1835351342e+01   6.0437512187e+01    0.1974582    0.1182546  45.22 0.0004093233    1.562    0.360
       153  -9.5184     33.6939     34.9270   8.3891297383e+01   6.5520867775e+01    0.1744793    0.1339708 -24.86 0.0004693056    1.102    0.093
       154  -9.4499    192.9973     33.8818   4.1206850114e+01   3.3005328470e+01    0.3301203    0.1268837  46.89  0.001247106    3.270    0.694
       155  -8.8696     99.0104     34.0493   5.9324866820e+01   5.4756780862e+01    0.1617735    0.1439083  20.44 0.0004036722    1.013    0.013
       156 -10.9673    237.9847     32.5043   3.6052846115e+01   2.3375960876e+01    0.4534403      0.24012  79.05  0.002243269    2.005    0.501
       157 -11.5673    236.5012     27.1776   3.5060535648e+01   2.4324886238e+01    0.4096509    0.2995393  11.84   0.00142882    2.447    0.591
       158 -10.7197    239.3772     22.2034   3.3780392414e+01   2.4326201412e+01    0.3115352    0.1516583 -54.25  0.001310636    1.831    0.454
       159 -10.0476    114.9736     32.0646   5.4438144409e+01   5.1533660049e+01    0.2084515    0.1834647  32.97 0.0004570654    1.039    0.037
       160  -9.5600     60.5713     31.7645   7.1172740268e+01   6.2290317011e+01    0.2390442    0.1381152  27.32 0.0007158063    1.694    0.410
       161  -8.8296    143.4739     31.4865   4.8179063563e+01   4.4998734312e+01    0.1363578    0.1245372  50.03 0.0008096999    1.035    0.034
       162  -9.9168    124.8243     30.2905   5.1560438388e+01   4.9506718359e+01    0.2218296    0.2012387  49.59 0.0005636723    1.039    0.037
       163 -10.5039     43.0976     29.4678   7.7412967550e+01   6.5228909806e+01    0.2561955    0.1619126 -38.33 -6.930786e-05    1.589    0.371
       164  -9.5105    151.7804     30.2141   4.6297134137e+01   4.3173606730e+01    0.1912857    0.1483327  39.02 0.0005888158    1.342    0.255
       165  -9.8040    110.5741     29.7736   5.4696954641e+01   5.2790885923e+01    0.2485809     0.175619  50.69 0.0005533655    1.300    0.231
       166  -8.7639     21.3154     30.6671   8.8095250664e+01   6.7532939066e+01    0.1010204   0.09831012  87.24 0.0006302359    1.686    0.407
       167  -9.0485     99.9811     29.0152   5.7167185424e+01   5.5183006095e+01    0.1614368    0.1439505  19.92 0.0003443033    1.034    0.033
       168 -10.3909     47.8457     28.6704   7.5023432704e+01   6.4688230191e+01    0.2217615    0.1874822  10.51 0.0003389012    1.151    0.131
       169  -9.9837     15.3580     28.2035   9.0108364836e+01   6.8487527478e+01    0.3829112    0.1701715 -19.49  0.001743133    2.785    0.641
       170  -9.4173    216.3242     27.9876   3.7136758054e+01   2.8485852095e+01    0.1743918     0.150914 -52.74  0.001143321    1.124    0.110
       171  -8.9624      1.9916     27.9550   9.6954530189e+01   6.9497476970e+01    0.1434658    0.1042135 -31.36 0.0004973315    1.019    0.019
       172  -9.9546    206.3851     25.9341   3.7695050059e+01   3.0917905752e+01    0.2277899    0.1718426  67.41 0.0006761412    1.299    0.230
       173 -10.2723    183.9931     25.7125   4.0253740752e+01   3.6060352627e+01    0.2838596    0.2423488  78.85  0.001404887    1.078    0.073
       174  -9.8762    120.7614     25.9920   5.0978997319e+01   5.0933705828e+01    0.2420934    0.1802636  54.75 0.0006498104    1.228    0.186
       175  -9.4599     21.5941     25.7895   8.5975468383e+01   6.8320532853e+01    0.2497604    0.1400182 -18.15 0.0009768945    1.725    0.420
       176 -10.0569    155.8520     25.1514   4.4111766222e+01   4.2778514891e+01    0.1816117    0.1511116  28.65 0.0005953779    1.348    0.258
       177 -10.1026    100.5458    247.2817   1.0698447763e+02   9.6065384608e+00    0.2094414    0.1212648 -68.92  0.001143897    2.097    0.523
       178 -10.2634    179.3496     22.9848   4.0131925707e+01   3.7451674397e+01    0.2558178    0.1740018  61.17 0.0008270258    1.375    0.273
       179 -10.7581    165.0544     21.5304   4.1675681519e+01   4.0983360696e+01    0.3263389    0.2189931  46.78  0.001018165    1.527    0.345
       180  -8.9910     98.5199     23.5419   5.5483869725e+01   5.6133011647e+01    0.1316454     0.117728  32.10 0.0001765658    1.049    0.047
       181  -9.6831     29.7693     23.9622   8.1171540041e+01   6.7737468175e+01    0.1571766   0.08624297 -35.83 0.0007049124    1.623    0.384
       182 -10.4311    141.6594     21.6208   4.5416171852e+01   4.6531205441e+01    0.2995386    0.2045374  31.81  0.001205301    1.643    0.391
       183 -10.0729    216.1848    222.3934   7.9921796412e+01  -3.3855024856e+00    0.1751325    0.1090201  39.71 0.0009559325    1.766    0.434
       184  -9.9347     51.2526     21.3478   7.0389291527e+01   6.5206823997e+01    0.2367226    0.1661191   5.43  0.001419293    1.308    0.236
       185  -9.4380      1.5271     22.5000   9.5191526105e+01   7.0488907551e+01    0.1176364   0.08407641 -27.28 0.0008099584    1.023    0.023
       186  -9.5181    205.9799     21.1036   3.6596992160e+01   3.1559498802e+01    0.1833851     0.158815 -80.63   0.00028464    1.012    0.012
       187  -9.0561     69.2955     19.4706   6.2731540220e+01   6.2397457115e+01     0.217884    0.1079843 -27.62  0.001070203    2.047    0.511
       188 -11.6796     75.3191    219.1626   1.0918797796e+02   1.8563075652e+01    0.6518345     0.500173 -87.29  0.003731074    1.322    0.244
       189 -10.5524    154.5401     18.0887   4.2234960377e+01   4.3839519106e+01    0.2488777    0.2285272 -44.24 0.0007290923    1.180    0.153
       190 -11.6660     68.6275    217.4612   1.1044957803e+02   1.9800592802e+01    0.6063476    0.4166104  78.44  0.002586123    1.519    0.342
       191  -9.6329    119.5109     18.8024   4.8751491082e+01   5.1986512889e+01     0.237095     0.169633  55.82  0.000607892    1.250    0.200
       192  -9.2603    155.2322    214.3235   9.0948328994e+01   7.4139776967e+00    0.1926753    0.1141443 -59.76 0.0006704608    2.287    0.563
       193  -9.7519    248.8026    211.6341   7.2084274855e+01  -6.2846781085e+00    0.1564494    0.1071928  35.59 0.0009495327    1.694    0.410
       194  -9.1293    242.2930     17.3187   3.2552431123e+01   2.4299197287e+01     0.101585    0.0902592  35.92 0.0002290679    1.605    0.377
       195 -10.3600    236.2414     16.6810   3.2891862320e+01   2.5590987049e+01    0.1943058    0.1541698 -49.32 0.0006536441    1.179    0.152
       196 -10.4068    236.1897    206.5547   7.3363817663e+01  -3.8283282028e+00     0.252729    0.1414539  -6.85  0.001210233    2.212    0.548
       197  -9.2483    124.0014    205.9915   9.6558527071e+01   1.4129874292e+01    0.1905769    0.1791686  34.59            0    1.010    0.010
       198  -9.9065    127.6353    201.3569   9.4991766810e+01   1.4504934050e+01    0.2879958    0.2157289 -31.72  0.001507281    1.529    0.346
       199  -9.7635     76.7031     16.4170   5.8962806345e+01   6.1351785552e+01    0.2811321    0.1146253  51.44  0.001237451    2.346    0.574
       200 -10.2736     10.8502     15.5403   8.7179869574e+01   7.0942835622e+01    0.2583164    0.1691829   3.74   0.00112944    1.380    0.275
       201  -9.2959    216.3202    187.6490   7.3416007210e+01   2.1964346637e+00    0.1246338    0.1105934 -73.09 0.0007047978    1.744    0.427
       202  -9.6380    221.2348    186.4043   7.2240869862e+01   1.6238825624e+00    0.1737082    0.1255627  42.33 0.0009482011    1.618    0.382
       203  -9.7611      1.3777    184.7897   1.2216902989e+02   3.4071834102e+01    0.2896499   0.08686829 -74.10  0.001270873    2.636    0.621
       204 -10.1668      7.2763    168.9677   1.1967469790e+02   3.7258044801e+01    0.1778021    0.1340371 -86.53 0.0005502057    1.073    0.068
       205 -10.6921      7.1793    163.4375   1.1923383934e+02   3.8566304620e+01    0.1890772    0.1253715  14.66  0.000670209    2.000    0.500
       206 -11.0081    216.6706    157.7300   6.7174902524e+01   7.4108624641e+00    0.5589529    0.3016092 -47.64  0.002475608    1.991    0.498
       207 -11.5455      9.0184    155.7239   1.1809174939e+02   4.0265504161e+01    0.2732728    0.1984753 -14.31 0.0006055159    1.935    0.483
       208  -9.3139    143.8574     14.2255   4.2743159898e+01   4.6753075840e+01    0.1830648    0.1383335  40.58 0.0005985108    1.335    0.251
       209 -11.5573      3.1001    152.8596   1.1930809678e+02   4.1364114330e+01    0.3703505    0.2554176 -39.11  0.002255542    1.732    0.423
       210  -9.9088     25.1337    152.1484   1.1357082893e+02   3.9840321969e+01    0.1764636    0.1338023  78.73            0    1.294    0.227
       211  -9.0698     32.0194    147.4491   1.1113903318e+02   4.0373736107e+01    0.1687707    0.1325572  26.72 0.0003632659    1.485    0.327
       212 -11.0844     11.5970    145.1178   1.1636919309e+02   4.2634639542e+01    0.2320481    0.2017079  49.98 0.0002759204    1.300    0.231
       213  -9.0533     78.2775     12.6955   5.6889108799e+01   6.1433701859e+01    0.1096728    0.1005484 -63.28 0.0001823574    1.547    0.354
       214 -11.6051      3.6402    142.5023   1.1820250541e+02   4.3807937390e+01    0.3754673    0.2304623 -60.65  0.001712803    1.386    0.278
       215 -12.7449    213.2857    130.2008   6.1680593388e+01   1.3067702336e+01     1.558214    0.7117991 -50.15  0.005953196    2.533    0.605
       216 -13.6190    221.2572    115.0389   5.6818645526e+01   1.4238335578e+01     2.249077     1.520363 -19.22   0.01095149    1.711    0.416
       217  -9.6406     19.5130    136.5155   1.1320801879e+02   4.4142370698e+01    0.1308345    0.1084135 -71.90 0.0008103481    1.002    0.002
       218 -10.5981     11.6921    139.6100   1.1574350351e+02   4.3966143853e+01    0.1941108     0.119934 -46.69 0.0005737885    1.637    0.389
       219 -13.4164    236.0684    132.7151   5.8363042668e+01   8.3857360094e+00      2.02477     1.489841  -4.23   0.01081384    1.627    0.385
       220 -10.5651     15.8988    131.3949   1.1358844440e+02   4.5671097603e+01    0.2415592    0.1561243 -89.01  0.000962104    1.528    0.345
       221 -10.3984     23.7858    125.3017   1.1043883953e+02   4.6565668318e+01    0.2165552    0.1766605  88.17 0.0005839254    1.244    0.196
       222  -9.1404     47.7431    125.8168   1.0321711662e+02   4.4167268295e+01    0.2815628    0.1167044  16.82  0.001011691    3.593    0.722
       223  -9.4701     30.8403    123.8472   1.0807521220e+02   4.6329788036e+01    0.1791938    0.1424638 -89.68 0.0003429474    1.302    0.232
       224  -8.7334     94.0000    122.9395   8.8476835839e+01   3.8421770987e+01    0.2400317   0.08286989 -52.26 0.0006310059    2.746    0.636
       225 -10.4261      8.5005    121.9584   1.1454961299e+02   4.8472639781e+01    0.2005916    0.1029392 -70.11 0.0005730163    1.562    0.360
       226 -10.8552     28.5694    138.7968   1.1094695524e+02   4.2827813836e+01    0.3791153    0.2083672 -55.87  0.001247977    1.572    0.364
       227  -9.1632     57.8641    117.8525   9.8497946516e+01   4.4959349814e+01    0.1832312    0.1614999 -89.73 0.0003420382    1.259    0.206
       228  -8.5538     98.4817    117.4060   8.5805147483e+01   3.8967017746e+01    0.1513248    0.1430132 -24.78 0.0001558469    1.031    0.030
       229 -10.1303     25.1620    116.1923   1.0861073646e+02   4.8693777166e+01    0.2816626    0.1638589  32.59  0.001462082    1.967    0.492
       230 -10.8312     11.1229    115.1346   1.1284520238e+02   4.9962147205e+01    0.2734033    0.1930994 -41.64  0.001215135    1.394    0.282
       231 -10.4451      2.1842    112.0046   1.1518589391e+02   5.1237481287e+01    0.2037621    0.1773037  76.58 0.0006104596    1.271    0.213
       232  -9.5396     32.0420    113.2631   1.0591324072e+02   4.8828448365e+01    0.1773504    0.1597406 -56.43 0.0002531222    1.062    0.058
       233 -11.5548     20.3399    109.4273   1.0905046815e+02   5.0714411626e+01    0.4178261    0.2461604  43.02  0.001645155    2.046    0.511
