#   1 NUMBER                 Running object number                                     
#   2 MAG_AUTO               Kron-like elliptical aperture magnitude                    [mag]
#   3 X_IMAGE                Object position along x                                    [pixel]
#   4 Y_IMAGE                Object position along y                                    [pixel]
#   5 X_WORLD                Barycenter position along world x axis                     [deg]
#   6 Y_WORLD                Barycenter position along world y axis                     [deg]
#   7 A_WORLD                Profile RMS along major axis (world units)                 [deg]
#   8 B_WORLD                Profile RMS along minor axis (world units)                 [deg]
#   9 THETA_WORLD            Position angle (CCW/world-x)                               [deg]
#  10 FWHM_WORLD             FWHM assuming a gaussian core                              [deg]
#  11 ELONGATION             A_IMAGE/B_IMAGE                                           
#  12 ELLIPTICITY            1 - B_IMAGE/A_IMAGE                                       
         1  99.0000     93.8381     75.5080   7.4602762887e+01   4.9454576696e+01     4.590385     1.728442 -57.04  0.009108253    9.802    0.898
         2 -11.5619     60.2201     46.6354   7.6539452413e+01   6.0703792890e+01     1.422971     0.729291 -28.52  0.006475075    2.085    0.520
         3 -11.4833     61.2209     36.7294   7.2199045130e+01   6.2143924930e+01    0.8351961    0.5629436  -6.31  0.004005264    1.599    0.375
         4 -13.1608     42.5717     45.5766   8.3593873866e+01   6.3389189875e+01    0.8073686    0.5826342  46.57 0.0006215305    1.917    0.478
         5 -12.3836    124.8268     27.8160   4.9756306668e+01   5.0129190258e+01    0.9220654    0.4874934  54.48  0.004344156    1.656    0.396
         6 -12.3144    120.8903     57.6682   6.0765136402e+01   4.6918126428e+01     2.256572     1.422015 -77.39  0.008210266    3.398    0.706
         7 -11.3543    106.0101     20.2231   5.1322437521e+01   5.5316193018e+01    0.4505177     0.357621 -38.76  0.001282839    1.448    0.310
         8 -11.2821    145.8590     47.5868   5.1788666765e+01   4.2533834716e+01    0.9897924    0.4191821 -24.28  0.003540726    3.203    0.688
         9 -11.0460    154.7500     23.5616   4.2939702996e+01   4.3392809239e+01     1.179796    0.6977275  33.63  0.005522245    2.236    0.553
        10 -12.0679    130.7870     14.8095   4.4232450722e+01   5.0082356375e+01      1.92914    0.5715657  69.21  0.006276004    3.891    0.743
        11 -11.4481    165.0550     17.8300   3.9802941851e+01   4.1510582272e+01    0.4651211    0.2676312  40.53  0.001540502    2.124    0.529
        12 -10.6529     46.9180     19.2077   7.0478728586e+01   6.6888709502e+01    0.3356318    0.2299159 -16.28  0.001210468    1.358    0.264
        13 -10.7427      5.5555     32.9002   9.7094417601e+01   6.9206622952e+01     2.064811    0.1614777 -51.92  0.006839731    4.859    0.794
        14 -10.5548     10.9727     30.0360   9.3144712906e+01   6.9349540765e+01    0.7957662    0.2646445 -56.87  0.003194734    3.778    0.735
        15 -11.9185     27.2331     28.0786   8.3841953579e+01   6.8179912225e+01    0.5550258    0.4086582   6.49  0.002259157    1.226    0.184
        16 -10.8162     13.9468     23.5914   8.8939232652e+01   7.0213633895e+01    0.3519563    0.2685111 -51.57 0.0002774939    1.652    0.394
        17 -11.9453     35.9394     17.3948   7.4668830779e+01   6.8709740455e+01    0.6776056    0.5066843 -32.09  0.003599487    1.439    0.305
        18 -12.0636     48.4903     12.8831   6.6786220304e+01   6.7422992718e+01    0.6037813    0.2956277  42.52  0.001927768    1.948    0.487
        19 -12.0891     19.9934     21.7188   8.4839247030e+01   6.9952407244e+01    0.6546782     0.247704 -39.56  0.002531559    2.277    0.561
        20 -12.6620     17.1515     12.4154   8.2052291654e+01   7.1640902674e+01    0.8235223    0.4816158 -18.61  0.003747065    1.514    0.340
        21 -12.1955     22.9669     11.4070   7.8347690829e+01   7.1147204741e+01    0.5126297    0.3128833  -8.01  0.002209643    1.537    0.349
        22 -12.2115     26.6151     56.5019   9.4551453784e+01   6.3012823787e+01     1.184288    0.7599835   2.44   0.00665311    1.675    0.403
        23 -11.4860    136.5501     22.8808   4.5807169563e+01   4.7877809020e+01    0.9364616    0.3662635  51.49  0.003703752    2.245    0.555
        24 -10.8971    178.7218     21.2469   3.8959488353e+01   3.7860353002e+01    0.5529767    0.2686964  47.16   0.00178205    2.393    0.582
        25 -10.9725     86.9453      7.5873   5.1210881902e+01   6.0704564785e+01    0.5344569    0.3193698  58.33  0.002022995    1.560    0.359
        26 -10.9246     90.8525     20.9901   5.5596060785e+01   5.8554753164e+01     0.566825    0.3987747 -27.90  0.003217213    1.543    0.352
        27 -11.3864     86.0053     14.1726   5.4201518790e+01   6.0287405855e+01    0.5022659    0.2938587 -11.51  0.001950886    1.969    0.492
        28 -11.8703     68.2385     18.0932   6.1547297765e+01   6.3394538454e+01    0.4827757    0.3866489  20.14  0.001803099    1.059    0.056
        29 -11.9334    234.1252      6.7299   3.0432576007e+01   2.7032160257e+01     0.744146    0.4060086 -89.77   0.00428382    1.689    0.408
        30 -12.0880    238.1265     15.9314   3.2001537817e+01   2.5188412449e+01    0.9068371    0.3735344  76.82  0.004521649    2.375    0.579
        31 -11.4697    227.5383     15.4974   3.2729048810e+01   2.7442783793e+01    0.5036342    0.3102868 -88.09  0.001335237    1.494    0.331
        32 -11.1072    243.4798      3.0210   2.9088880016e+01   2.5531412174e+01    0.4777787    0.2213161  62.97  0.002655305    2.307    0.567
        33 -11.5715    243.9594     10.9987   3.0605683511e+01   2.4566806432e+01    0.3382364    0.2849371 -34.42  0.002435877    1.469    0.319
        34 -11.1797    247.6241      5.8319   2.9369282568e+01   2.4408870246e+01    0.3360543    0.2660432  44.19  0.001674599    1.946    0.486
        35 -11.0798    218.8335      3.1366   3.0785869406e+01   3.0633028017e+01    0.3062095    0.2388419 -42.74 0.0009739595    1.348    0.258
        36 -11.0010    223.8208      2.0031   3.0187024016e+01   2.9682778997e+01    0.4755838    0.1869527  78.20  0.002239236    2.335    0.572
        37 -10.5038    211.3192     17.8811   3.4644152970e+01   3.0697530368e+01    0.3259691    0.1946316 -35.13  0.001822472    1.718    0.418
        38 -11.3729    192.4285      9.4460   3.4470965315e+01   3.5891580312e+01    0.8655841    0.4871516 -11.57  0.004173128    2.870    0.652
        39  -9.4747    198.3841     17.8577   3.5895626185e+01   3.3626303098e+01    0.2720124    0.1984295  14.39  0.001312564    2.244    0.554
        40 -11.6638    140.7421     29.1262   4.7022308740e+01   4.6164900034e+01     1.361559    0.7176843  22.96  0.005020996    3.626    0.724
        41 -12.1531    104.5109     12.6484   4.8837051405e+01   5.6403720755e+01    0.4821376    0.4714494 -28.76  0.002597094    1.196    0.164
        42  -8.9841     94.3406     13.0113   5.1464683116e+01   5.8622049504e+01    0.2302481    0.1208683 -11.71  0.001088703    2.348    0.574
        43 -10.0920      4.8402     11.6233   8.8878108467e+01   7.2871755507e+01    0.3756765    0.2369672 -29.59  0.002537912    1.238    0.192
        44  -9.5410      1.0000      8.2299   8.9647356320e+01   7.3681139667e+01    0.2477524   0.06463662 -44.66  0.001127284    3.011    0.668
        45 -11.3947      2.5371      2.0553   8.5570813995e+01   7.4465606582e+01    0.3267481    0.1715185   5.46  0.001657409    1.831    0.454
        46 -11.3928    211.8274      9.4607   3.2712681035e+01   3.1504922404e+01    0.5145787    0.3411251   0.74  0.002657644    2.828    0.646
        47 -10.4511     65.6138     10.2925   5.8945296984e+01   6.4721475262e+01     0.321711    0.2239942  50.77  0.001258318    1.465    0.317
        48  -9.7994     62.4911      7.0465   5.8532183871e+01   6.5621444916e+01     0.287913    0.1614838  21.52  0.001518071    1.855    0.461
        49  -9.6251    168.6909      9.7739   3.7131698348e+01   4.1446671234e+01    0.3263437     0.118527  56.04  0.001382528    2.461    0.594
        50  -9.2639    162.9492     10.0465   3.7915240878e+01   4.2796083467e+01    0.1991214    0.1371378  43.47 0.0006751951    1.617    0.381
        51  -9.4010     78.2309      7.4446   5.3608116397e+01   6.2526635111e+01    0.2568859    0.1789991  62.76  0.001156985    1.589    0.371
        52 -11.2207     75.2391      3.4187   5.2726301382e+01   6.3481788782e+01    0.6970193    0.2569583  48.48  0.003209781    2.138    0.532
        53 -10.7232    183.9930      4.6699   3.4134907879e+01   3.8318542495e+01    0.4093016    0.3031079 -36.57  0.001999874    1.470    0.320
        54 -10.9919    177.1254      5.8342   3.5137555976e+01   3.9819041954e+01    0.4218968    0.1887491  82.19  0.000660961    2.241    0.554
        55 -10.5875     41.6754      4.3178   6.5452303530e+01   6.9450563535e+01    0.4115459    0.2160262   4.85  0.001838125    2.413    0.586
        56 -10.7994    109.7305      2.0045   4.3772369026e+01   5.6117465532e+01     1.098644     0.259526  68.10  0.003238322    5.128    0.805
        57 -10.6762    105.0847      1.7366   4.4612073127e+01   5.7195507768e+01    0.4770113    0.1919763  67.98  0.001946302    2.472    0.595
        58  -9.2735    121.9780      5.1394   4.2577130202e+01   5.3028312364e+01    0.1845092    0.1548553  83.78 0.0004116343    1.224    0.183
        59  -9.6815    142.8496      3.4468   3.8699129577e+01   4.8210116830e+01    0.3176725    0.1879057  74.77  0.001581186    1.520    0.342
        60 -11.8434    134.2625      2.5863   3.9700609481e+01   5.0329540531e+01    0.4036245    0.2424107  73.78 0.0005997964    1.509    0.337
        61  -8.9030     53.1439      2.8631   5.9958773456e+01   6.7697735969e+01      0.29642   0.09882799 -37.19  0.001211374    3.958    0.747
        62 -10.3805    207.5149      2.4910   3.1519148234e+01   3.3171939257e+01    0.2481789    0.1897607 -82.31 0.0006514339    1.074    0.069
        63 -10.2474    203.5131      1.5468   3.1631997839e+01   3.4155469964e+01    0.2811849    0.1887007  79.55 0.0008284869    1.295    0.228
        64 -10.0846    158.0770      3.8423   3.6793486370e+01   4.4530022598e+01    0.4551977    0.2496542  -5.96  0.002166842    2.804    0.643
        65 -10.2133     12.8747      1.8042   7.9029276657e+01   7.3528840486e+01    0.2922771    0.1340086  22.40  0.001510651    2.061    0.515
        66  -9.1698    151.8563      1.2524   3.6836981544e+01   4.6237329615e+01    0.2517966   0.09949224  77.38 0.0008182682    2.518    0.603
        67  -9.2870    122.8012      1.3390   4.1143908275e+01   5.3136417367e+01     0.245129    0.1074737  70.14  0.000778735    2.100    0.524
        68 -10.4597     82.2237      1.3164   4.9837574903e+01   6.2217822554e+01    0.2007125   0.09528489  54.70 0.0003531373    1.758    0.431
        69  -8.8874     33.5578      1.5244   6.7728499947e+01   7.0967126273e+01    0.1192831   0.08812114   9.06 0.0002583951    1.051    0.049
        70 -10.5259     31.1926    151.5962   1.1186391980e+02   3.9834254111e+01    0.2958682    0.2407257 -26.17  0.001719231    1.530    0.346
        71 -10.0338    142.8692    249.3934   9.7986822663e+01   2.3986272241e+00     0.193872     0.180612  85.27  0.001315332    1.334    0.251
        72 -10.7012     62.8943    150.7969   1.0276993826e+02   3.6423380818e+01    0.4313655    0.3208086   3.39  0.001586422    1.799    0.444
        73  -9.7835     41.4684    149.0394   1.0863624876e+02   3.9439362644e+01    0.2265495    0.2040457   7.15 0.0004380115    1.344    0.256
        74 -11.3122     46.4133    146.5383   1.0685159701e+02   3.9534339755e+01    0.7223954    0.3552633 -62.39  0.002483512    1.766    0.434
        75 -10.0173     71.5778    150.8993   1.0029535335e+02   3.5204304603e+01    0.3090894    0.2706444   4.72  0.001672506    1.357    0.263
        76  -9.9798    234.6757    149.9860   6.1399078640e+01   5.0590090773e+00     0.391051    0.1970902 -25.21  0.001628245    2.357    0.576
        77 -11.0179    249.1608    141.7787   5.7356899479e+01   4.0414927075e+00    0.4672058    0.2618523 -28.53  0.002299989    1.714    0.417
        78 -10.1405    239.6990    146.6165   5.9858859643e+01   4.7927185222e+00     0.242249    0.1859992 -28.75 0.0006213856    1.132    0.117
        79  -9.0956    107.6973    145.9575   8.9047222507e+01   3.0581737580e+01    0.2196028    0.1949283 -58.26 0.0003710125    1.107    0.096
        80 -10.8593     33.5101    144.3822   1.1027050000e+02   4.1438670315e+01    0.4368184    0.2755922  52.68  0.001781857    1.730    0.422
        81  -8.8691    104.4658    142.5259   8.9216074947e+01   3.2012565674e+01    0.1538612    0.1494651 -62.54 3.116586e-05    1.004    0.004
        82  -9.7240    132.8888    140.6089   8.1015067148e+01   2.7034843824e+01    0.3137572    0.2334695 -56.67 0.0007757209    1.397    0.284
        83 -11.9170     23.4097    135.4283   1.1201675294e+02   4.4621009109e+01    0.8911234    0.5254399  39.06  0.004641273    1.866    0.464
        84 -11.8972     30.0074    132.8810   1.0968818558e+02   4.4690109889e+01    0.4922777     0.341287  86.30 0.0003486178    1.518    0.341
        85 -10.5627    217.2431    138.3695   6.1897325529e+01   1.0306260455e+01    0.3794798    0.3196286 -69.93  0.001436167    1.466    0.318
        86  -8.3112     53.2852    139.6552   1.0372726562e+02   4.0496374834e+01    0.1466964    0.1040646  76.28 0.0007018616    1.645    0.392
        87 -10.1464     46.9520    135.6575   1.0497110850e+02   4.2259351839e+01     0.529727    0.2642133 -73.59  0.001882344    2.078    0.519
        88  -9.9693     80.2052    137.1861   9.5166552287e+01   3.7420602650e+01    0.4447361    0.2889157 -31.78  0.001927005    1.907    0.476
        89  -9.5817     39.8701    138.1915   1.0751157788e+02   4.2377324825e+01    0.2766583    0.2056528  30.04  0.001018298    1.514    0.340
        90  -9.9336    245.0000    134.7184   5.6513532861e+01   5.9423972565e+00    0.1822008    0.1618624 -32.98 0.0004361448    1.064    0.060
        91 -10.8005     93.2223    129.5903   8.9618248237e+01   3.7204559585e+01    0.5809877     0.330326 -47.34  0.002419352    1.694    0.410
        92  -9.1809     87.4813    135.4789   9.2634839410e+01   3.6694364193e+01    0.1524083    0.1443923 -50.77  0.000233098    1.029    0.028
        93 -10.3062     74.1370    132.5392   9.6054914947e+01   3.9518690343e+01    0.3293433    0.2177291 -29.80  0.001450877    1.886    0.470
        94  -9.2389     59.6475    132.7164   1.0055374076e+02   4.1479918087e+01    0.2457296    0.1858512  23.58  0.001260325    1.498    0.332
        95  -9.5066     62.7509    131.2662   9.9315781774e+01   4.1443527313e+01    0.3267739     0.122471 -54.58  0.001199299    2.317    0.568
        96  -9.5608     38.4244    133.2267   1.0717893254e+02   4.3792773626e+01    0.2001836    0.1218132 -80.80 0.0009440512    1.690    0.408
        97 -10.1541    103.7927    130.9768   8.6813947823e+01   3.4983850162e+01    0.2437953    0.2212994  28.66 0.0002717958    1.151    0.131
        98 -10.6726     10.2835    127.1820   1.1487892212e+02   4.7671167913e+01     0.702942    0.2155928 -53.95  0.002860802    2.608    0.617
        99 -10.1335     81.0243    124.8099   9.2264386976e+01   4.0413983138e+01    0.4581026    0.3186972  23.55  0.002124957    1.641    0.391
       100 -10.7409     22.7025    127.1771   1.1110030058e+02   4.6759050210e+01    0.2211747    0.1920163 -62.04 0.0003094166    1.069    0.065
       101 -10.0171     70.0659    139.1771   9.8600772259e+01   3.8416024500e+01    0.2264611    0.1894345 -36.82 0.0005025594    1.270    0.212
       102  -9.5935     58.1029    118.2185   9.8169154096e+01   4.5357123854e+01    0.2556004    0.1812472 -49.70 0.0007804397    1.282    0.220
       103  -9.4832     53.4862    125.0044   1.0102778242e+02   4.4216388421e+01    0.3251314    0.1921955 -61.31  0.001493353    1.517    0.341
       104  -9.4825     56.4653    122.4840   9.9576808316e+01   4.4488724523e+01    0.2315667    0.2015204 -50.42 0.0007305977    1.065    0.061
       105 -11.1129     44.6800    119.0504   1.0274550241e+02   4.6736407444e+01    0.6094379    0.3676076  89.18   0.00263913    2.293    0.564
       106  -9.7635      2.1673    125.9570   1.1715395305e+02   4.8475315140e+01    0.2321256    0.1700005 -88.94 0.0007429963    1.236    0.191
       107 -12.3214    103.8470    122.4559   8.4757664430e+01   3.7049721250e+01    0.4545909    0.4035209   1.52 0.0006501334    1.246    0.197
       108  -9.9179     49.5186    123.1903   1.0195547189e+02   4.5146263669e+01    0.3015465    0.2562521  -4.87  0.001094194    1.370    0.270
       109  -9.7628     19.0037    122.6636   1.1160902766e+02   4.8180606468e+01    0.2161188    0.1599318 -73.52 0.0005001122    1.159    0.137
       110  -8.5738    143.3353    122.3080   7.3842853038e+01   2.9055542767e+01    0.1627682    0.1266417  -0.61 0.0007042042    1.675    0.403
       111  -9.2852     71.3671    120.9047   9.4444101959e+01   4.2863360613e+01    0.2158893    0.1755527 -52.76 0.0005426753    1.136    0.120
       112  -9.0737    221.4602    120.4940   5.7147844500e+01   1.2782413773e+01     0.143213    0.1262151 -42.22 0.0002545975    1.028    0.028
       113  -9.1249    148.2062    120.1873   7.2081327723e+01   2.8468098073e+01    0.2704932    0.1776739  -1.55 0.0009497191    2.834    0.647
       114 -10.6077     33.0527    119.1986   1.0657545818e+02   4.7871165476e+01     0.327542    0.2967288 -69.05  0.001896842    1.060    0.057
       115  -9.3576    185.3239    119.3274   6.3518999557e+01   2.0500930482e+01    0.1553213    0.1202766   0.86  0.000704919    1.693    0.409
       116  -8.7332     13.6809    118.7481   1.1273640990e+02   4.9537984063e+01    0.1282849   0.08351045 -42.29 0.0002563327    1.532    0.347
       117  -9.5761    113.5502    116.1100   8.0311609749e+01   3.6689260400e+01    0.2898244    0.2271967 -42.78   0.00137036    1.247    0.198
       118  -9.6592     79.6129    114.8273   9.0387654491e+01   4.3112142766e+01    0.3981847    0.2871121 -86.68   0.00177439    1.919    0.479
       119  -9.2670     66.9991    114.2052   9.4357401788e+01   4.5161367958e+01    0.4178809    0.3133501 -62.62  0.002103165    1.301    0.231
       120  -9.3264     65.6932    110.6756   9.3975732257e+01   4.6216721887e+01    0.4169285    0.1941525  23.15  0.001573618    2.720    0.632
       121 -10.6198     42.8797     94.5937   9.8211876058e+01   5.2949796934e+01    0.5671756    0.3613438 -16.04  0.001267212    1.959    0.489
       122 -11.9182      7.0272     88.8337   1.1036924271e+02   5.7199618083e+01    0.6515589    0.4522911  20.22   0.00394773    1.725    0.420
       123 -11.1761     16.9989    101.0357   1.0888722944e+02   5.3667030640e+01    0.3070074    0.2211175 -58.43 0.0003498868    1.131    0.116
       124 -11.6668      9.5550     97.3368   1.1089240054e+02   5.5035166394e+01    0.5054389    0.4723783   9.52 0.0007759244    1.290    0.225
       125  -9.9950     45.6249    105.9258   9.9776761609e+01   4.9904914321e+01    0.2233683     0.187208 -58.99 0.0003914869    1.086    0.079
       126 -11.0582     51.2629     98.6172   9.6122761561e+01   5.1030945630e+01     1.291505    0.3893778 -53.37  0.004554212    2.725    0.633
       127 -11.3864     18.7236    106.0442   1.0913979524e+02   5.2323110902e+01    0.2340714    0.2142193 -26.13 0.0002057516    1.206    0.171
       128 -11.2992     26.7515     86.5491   1.0243550206e+02   5.6389823033e+01    0.6049702    0.5408008   4.00  0.001661515    1.250    0.200
       129 -12.9799     25.4917    110.6533   1.0761914422e+02   5.0666292279e+01     1.436644     1.160982 -30.29  0.008619526    1.311    0.237
       130 -11.9650     34.5402     93.6650   1.0107986460e+02   5.4015394100e+01    0.8165638    0.5396161 -48.13  0.003006209    1.289    0.224
       131 -12.2265     42.4761     85.4654   9.6124351067e+01   5.5134224236e+01     1.034602    0.4887987  23.79  0.004571106    2.369    0.578
       132 -11.7150     22.3905     94.9283   1.0582705828e+02   5.4750415909e+01    0.4842158    0.3199004   3.34  0.000751315    1.815    0.449
       133 -11.6361     18.1111     90.3887   1.0652231970e+02   5.6145644701e+01    0.4349445    0.2599094 -61.91 0.0004316462    1.394    0.283
       134 -12.7704      2.1732    111.3241   1.1541579598e+02   5.2057091016e+01    0.4748902    0.3545084  79.57  0.000505828    1.413    0.293
       135 -11.2397      4.1655    104.8527   1.1389445121e+02   5.3523052213e+01    0.4294945    0.2994631  34.96   0.00220178    1.726    0.421
       136  -9.6567    139.9689    113.5066   7.2413190137e+01   3.1736526959e+01    0.2417722    0.1572474  45.25   0.00072892    1.567    0.362
       137  -9.1175    126.9227    113.5233   7.5872535353e+01   3.4539753283e+01    0.2361142     0.156989  42.29 0.0006649113    1.533    0.348
       138 -10.2807    107.4960    112.0194   8.1013702930e+01   3.8836207824e+01    0.3858792    0.3351651  52.90  0.001116883    1.233    0.189
       139 -10.9803    102.9830    108.8351   8.1523141910e+01   4.0448464544e+01    0.6961916    0.5422245 -28.23  0.003315891    1.379    0.275
       140  -9.7371     94.1216    112.2929   8.5155715212e+01   4.1271924210e+01    0.3443378    0.2574874 -70.87  0.001581686    1.598    0.374
       141  -9.8498     48.7122    112.4068   1.0008555723e+02   4.7952108019e+01    0.2777843     0.228288  85.45  0.001072825    1.400    0.286
       142 -10.7520    170.3657    110.5647   6.4450777678e+01   2.5572172424e+01    0.4525135    0.3366085 -34.45  0.001382353    1.348    0.258
       143 -10.6396    175.3587    107.8605   6.2691203190e+01   2.4990643863e+01    0.3419357    0.2570461  13.19  0.001232704    1.825    0.452
       144 -10.1209    132.4321    112.2115   7.4037762005e+01   3.3658885068e+01    0.3475687    0.1970661 -54.84  0.001326677    1.974    0.494
       145 -10.1318    120.7186    109.1296   7.6413766002e+01   3.6832931485e+01    0.3663656    0.3035622   4.25  0.001242389    1.425    0.298
       146 -11.4496     79.6265    108.3505   8.8783943565e+01   4.4684526072e+01    0.6920907    0.3815022  31.87  0.001262675    1.954    0.488
       147  -9.0437     59.1368    109.6946   9.5961003295e+01   4.7345992588e+01    0.2164276    0.1751225  54.43  0.000481026    1.439    0.305
       148  -9.8522    157.5437    106.2081   6.6178883782e+01   2.9362923957e+01    0.3291929    0.2527449  25.11 0.0008635929    1.551    0.355
       149 -10.5217    143.4828    106.1112   6.9537249167e+01   3.2557013897e+01    0.3587666    0.3035915 -79.55  0.001262481    1.401    0.286
       150 -11.5810    145.4396    100.1263   6.7409995318e+01   3.3368882107e+01    0.4572972    0.3477006 -36.54 0.0003778806    1.322    0.244
       151  -9.6112     57.2643    102.4661   9.4919104646e+01   4.9354858279e+01    0.2830925    0.1844769 -54.88 0.0009411757    1.391    0.281
       152  -9.1427    208.7846    100.9906   5.4714100189e+01   1.8914020042e+01    0.2616213     0.180344 -31.42 0.0003413526    1.465    0.317
       153  -9.9246    210.0018     97.7579   5.3739908239e+01   1.9231321736e+01    0.2712241    0.2426246  69.26  0.001150135    1.207    0.171
       154  -9.4561    121.0639    101.1287   7.4106082617e+01   3.8535425622e+01    0.2519604    0.2166939  -2.03  0.001234092    1.310    0.237
       155 -10.1372     66.6590     88.6969   8.7992224852e+01   5.1290628977e+01    0.3440707    0.2383748 -18.19 0.0009903598    1.704    0.413
       156 -10.4349     67.1136     82.0841   8.5915310536e+01   5.2697107453e+01    0.4551426    0.3407025 -27.95  0.002289284    1.319    0.242
       157 -11.0443     90.1042     89.5350   8.0161595597e+01   4.7223763063e+01    0.8557706    0.5093946 -20.41  0.003029997    2.525    0.604
       158 -10.7265     78.7035     97.2237   8.6161163550e+01   4.7463326008e+01    0.5206055    0.3284673  58.97  0.001075036    2.316    0.568
       159 -10.8311     78.1413     93.0863   8.5202347623e+01   4.8504391125e+01    0.6615666    0.3543282  37.38  0.002815242    1.951    0.487
       160 -11.2481     78.1313     81.0723   8.1666371415e+01   5.1155501274e+01     1.211213    0.6549522 -64.35  0.004369772    3.160    0.684
       161 -10.6627     72.8915     78.0996   8.2607424836e+01   5.2652515297e+01    0.4702972    0.2950608 -52.49  0.001959868    1.663    0.399
       162 -11.1121     67.8269     95.7338   8.9506189152e+01   4.9498631997e+01    0.5421794    0.4378565   9.91  0.002726541    1.355    0.262
       163  -9.4419     97.9159     97.3024   7.9907679185e+01   4.4049796341e+01    0.2734906    0.2203269 -76.66 0.0007621943    1.588    0.370
       164  -9.7975     57.7862     97.2591   9.3456344374e+01   5.0535703148e+01    0.3327293    0.1788835 -53.57   0.00125313    1.676    0.403
       165 -11.6086     88.5009    104.0865   8.4784470763e+01   4.4208597368e+01    0.5710418    0.4006311  36.66 0.0009653516    1.485    0.327
       166 -10.2784    117.1397     94.1765   7.3227283537e+01   4.0865205272e+01    0.4336082    0.3538231  -5.29  0.001614406    1.440    0.306
       167 -11.1922    124.8449     93.7030   7.0930969770e+01   3.9306578770e+01    0.6997039    0.3380136  44.09  0.001421842    2.088    0.521
       168 -11.1997    120.7706     87.2659   7.0158417011e+01   4.1521663047e+01    0.6274616    0.3909872 -45.64  0.002720156    1.623    0.384
       169  -9.6923    104.6895     93.7546   7.6785729306e+01   4.3516691696e+01    0.3435564    0.2392385 -78.49  0.001382022    2.370    0.578
       170 -10.5740     99.0887     91.0561   7.7726934481e+01   4.5202416570e+01    0.4447825    0.2754452  44.26  0.001743744    1.677    0.404
       171  -9.6723    160.0338     93.5996   6.2201201286e+01   3.1313349942e+01    0.5556675    0.3031163  74.84  0.001706381    3.895    0.743
       172 -10.8476    152.2252     92.2028   6.3582233070e+01   3.3402517987e+01    0.5248722    0.3690125  70.04  0.002306808    1.751    0.429
       173 -10.5882    183.7562     85.7952   5.5302263231e+01   2.7234743292e+01     0.746927    0.2976552 -47.25  0.002657011    2.574    0.612
       174 -11.4945    103.9476     76.0345   7.1589436822e+01   4.7331252696e+01     1.761731     0.433478 -45.61  0.004824834    4.407    0.773
       175 -11.2696    113.7199     83.7788   7.1106464777e+01   4.3746728993e+01    0.6273198    0.4397074 -37.32   0.00260155    1.430    0.301
       176 -11.0755    142.6349     84.4417   6.3632655344e+01   3.7135856172e+01    0.5792085     0.332967  42.85  0.001075171    1.796    0.443
       177 -10.2628    165.6669     83.8681   5.8315449713e+01   3.1824347077e+01    0.3806992    0.3038309 -54.01  0.001301487    1.272    0.214
       178 -10.4181     60.6606     83.5276   8.8714654144e+01   5.3315161072e+01    0.2918846    0.2384807 -51.22 0.0003357627    1.203    0.169
       179 -10.2133     47.0805     74.7473   9.1391030340e+01   5.7013866643e+01    0.4429382     0.235563 -54.07  0.001034874    1.781    0.439
       180 -10.9884     58.0268     77.6311   8.7979670521e+01   5.4978283071e+01    0.4509817    0.3592976 -28.62  0.001145516    1.162    0.139
       181 -11.4269     53.0098     76.0284   8.9435575509e+01   5.5996071977e+01    0.5098734    0.3604687 -45.27    0.0027192    1.278    0.218
       182 -10.3779     52.4389     72.4856   8.8592676240e+01   5.6832131188e+01    0.2607141    0.2321375 -32.89 0.0006876981    1.067    0.063
       183  -9.9962    127.2274     82.6552   6.7010463821e+01   4.1009283158e+01    0.4005824     0.254795 -55.49   0.00151464    1.864    0.463
       184 -10.6392    126.9047     76.8891   6.5335161204e+01   4.2184405841e+01    0.2913758    0.2722091   5.97  0.001564819    1.102    0.092
       185 -11.8493    122.8497     69.0045   6.3934802395e+01   4.4544778860e+01    0.5383725    0.5339732   7.74  0.001622902    1.040    0.038
       186  -9.3169     21.1280     80.8382   1.0335039264e+02   5.8159133482e+01    0.1826593    0.1695915 -88.43 0.0005949624    1.285    0.222
       187 -10.4219    232.7771     77.8564   4.5824005465e+01   1.7800929089e+01    0.3748874    0.1844647 -38.50  0.001742349    1.802    0.445
       188  -9.6369    174.8478    246.9910   9.1127592191e+01  -1.9867234372e+00    0.2397738    0.1611031  29.29  0.001409608    1.254    0.202
       189 -11.5630     85.3596     73.3217   7.6710725646e+01   5.1485919038e+01    0.7764083    0.6316511  68.68  0.003671881    1.680    0.405
       190 -11.4036     76.6658     64.9873   7.6964519544e+01   5.4664598768e+01    0.9602214    0.4956953 -60.71  0.001642158    3.908    0.744
       191 -11.5843     76.7716     59.1474   7.4890932961e+01   5.5736288541e+01    0.6150212    0.4356014 -36.36   0.00150128    1.378    0.274
       192 -11.5272     72.7990     47.8811   7.2192224794e+01   5.8396141028e+01    0.8982816    0.6198401 -55.73  0.004109288    2.054    0.513
       193 -11.5575     13.9377     74.7827   1.0488606825e+02   6.0039120520e+01    0.5450723    0.3525353 -65.70  0.002499633    1.436    0.304
       194  -9.2172     14.0512     67.5424   1.0314670321e+02   6.1644334412e+01    0.4805696    0.2614972   3.18  0.002520079    2.150    0.535
       195  -9.9566      2.7483     77.6935   1.0998896096e+02   6.0000213175e+01    0.3320507    0.1711691  -9.43  0.001714483    2.358    0.576
       196  99.0000     15.5311     61.3723   1.0092659064e+02   6.2880125963e+01    0.4687817    0.3151561  78.04  0.001814315    2.703    0.630
       197 -11.6893      1.9417     71.3614   1.0908311122e+02   6.1469646992e+01    0.6429096    0.1683956 -65.30  0.002525632    2.984    0.665
       198 -12.5980      4.4548     61.7728   1.0592984800e+02   6.3457987488e+01    0.4433969    0.3358226 -38.77  0.002938768    1.085    0.078
       199 -11.0161      9.9954     62.5262   1.0367164854e+02   6.2989322813e+01    0.3942484    0.2434989 -49.54 0.0008867046    1.266    0.210
       200 -12.1700    186.4497     70.5860   5.0847150864e+01   2.9209546967e+01    0.8852938    0.5856476 -44.10  0.002947984    1.448    0.309
       201  -9.3230     63.4210     76.1606   8.5491090339e+01   5.4527214003e+01    0.4072127    0.2833606 -78.76  0.001801465    2.499    0.600
       202  -9.0105     66.4494     74.4943   8.3838930442e+01   5.4425322937e+01    0.2059827     0.182482 -18.34  0.001037053    1.028    0.027
       203 -10.5858    109.0930     80.8925   7.1572882525e+01   4.5303269695e+01    0.3653111    0.3011995 -15.58  0.001099629    1.309    0.236
       204  -9.9780    184.1470     61.1469   4.8743245832e+01   3.1256198374e+01    0.3288631    0.2381224 -59.96  0.001673652    1.416    0.294
       205 -11.2237     40.7346     70.9530   9.2843195887e+01   5.8565666378e+01    0.5146825    0.2815046 -52.20  0.001746228    1.650    0.394
       206 -11.4781     34.2716     72.1096   9.5829790781e+01   5.8987990494e+01    0.7118672    0.2669657  26.48  0.002986224    2.853    0.650
       207  -9.3130     24.5476     73.6196   1.0024521743e+02   5.9528405964e+01    0.3585314    0.1413691 -60.58  0.001532294    2.296    0.564
       208  -9.3810     22.1504     65.8285   9.9225713475e+01   6.1432106011e+01     0.443119    0.2086391 -64.35  0.001802682    2.271    0.560
       209  -9.5120    206.1584     73.3633   4.8436055462e+01   2.4227952942e+01    0.1938737     0.129335  77.41 0.0005117867    1.709    0.415
       210  -9.9917    153.6911     72.6286   5.7656448094e+01   3.6678698144e+01    0.5099771    0.2043555  43.99  0.001740687    2.775    0.640
       211  -9.6694    162.0791     70.7657   5.5376872823e+01   3.4986666563e+01     0.305604    0.2344864 -63.40  0.001332557    1.437    0.304
       212  -9.8091    172.4778     68.4943   5.2742485484e+01   3.2869881871e+01    0.3357157     0.301873 -38.34  0.001411803    1.142    0.124
       213 -10.1608    170.8799     63.9839   5.1788923174e+01   3.3984529379e+01    0.4839371    0.3052217  89.29  0.001707398    2.230    0.551
       214 -11.4080    219.7978     66.5807   4.4924455220e+01   2.2293536716e+01    0.5074882    0.3336879  66.79  0.001956364    1.604    0.376
       215  -9.6425     64.7262     61.3103   8.0132463005e+01   5.7339386550e+01    0.3098997    0.2114194 -37.39 0.0009796517    1.378    0.274
       216 -10.4665     59.4952     63.9704   8.3075210275e+01   5.7611470066e+01    0.4589506     0.258955 -31.66  0.001425964    1.802    0.445
       217  -9.5475     57.3281     61.3169   8.3033182705e+01   5.8447613710e+01    0.2618598    0.1781361 -22.35 0.0006871254    1.493    0.330
       218  -9.7400    192.4057     65.7542   4.8628300102e+01   2.8592497592e+01    0.2721778    0.2028304 -73.73 0.0007565224    1.448    0.310
       219  -9.4859     53.2701     65.9924   8.6216294575e+01   5.8076994920e+01    0.2745585    0.1784379  39.07 0.0009497688    1.743    0.426
       220 -10.3864    200.2290     64.0830   4.7020538001e+01   2.7044594759e+01    0.4799613    0.3085347 -86.84  0.002244353    1.941    0.485
       221  -9.7718     84.4826     61.5425   7.3032907103e+01   5.3897500150e+01    0.3870606    0.2401763 -33.69  0.001833864    1.610    0.379
       222 -11.5248     91.5078     63.1459   7.1240673865e+01   5.2260793016e+01    0.8582442    0.4240943  47.24  0.003504037    2.103    0.524
       223 -10.8071     87.9056     56.7647   7.0190303624e+01   5.4093280257e+01    0.5691798    0.2480692 -35.18   0.00152623    2.373    0.579
       224 -10.5763     91.9724     57.5052   6.9119923688e+01   5.3166352843e+01    0.3184352    0.2799569  46.16 0.0009682396    1.210    0.174
       225 -11.4689    234.7448     61.0476   4.1865440733e+01   1.9969760027e+01    0.4404555    0.3672053 -62.38  0.002026535    1.025    0.024
       226  -9.9724    238.1021     55.8499   4.0367494774e+01   2.0036935754e+01    0.2161518    0.1620568 -42.46  0.000280678    1.234    0.190
       227 -10.4871    240.1128     50.5641   3.9027594906e+01   2.0375189330e+01    0.3425929    0.2469564 -53.16  0.001486652    1.162    0.139
       228 -11.3306     21.0748     46.7636   9.3987710929e+01   6.5435836471e+01    0.4628691    0.2772973 -37.06  0.001672772    1.370    0.270
       229 -10.2699     22.5765     36.9197   8.9748274546e+01   6.7141068539e+01    0.5691895    0.3513861  50.11  0.002836975    3.108    0.678
       230 -11.4379    127.1579    242.0989   1.0030899633e+02   6.0512869883e+00    0.4061816    0.3312477  31.16  0.002034855    1.104    0.095
       231  -9.1778    163.2442    243.4216   9.2960432793e+01   3.1677749758e-01    0.1855845    0.1038781  41.82 0.0009518082    1.662    0.398
       232 -11.5184     52.9601     49.5323   8.0605811972e+01   6.1283352478e+01    0.5561528    0.4049597  50.78  0.003005555    1.921    0.479
       233  -9.9749    135.9950    240.4815   9.8230317363e+01   4.9905715574e+00    0.2035565    0.1112046  36.37 0.0004672836    1.563    0.360
       234 -12.2212     58.2314     29.8182   7.0487543306e+01   6.3653082784e+01     0.446932    0.2628245  25.40 0.0008298495    1.683    0.406
       235 -11.6923     49.0296     30.6306   7.4690728632e+01   6.4971856118e+01    0.8551043    0.3402666  40.96  0.003782234    2.628    0.619
       236 -11.3015     41.0465     57.1586   8.8387114969e+01   6.1385745970e+01    0.4507889    0.2748108  31.10  0.001691158    1.762    0.432
       237 -11.5862     51.6001     61.5184   8.5415643036e+01   5.9201482928e+01    0.4097668    0.2934415  43.49  0.002209753    1.712    0.416
       238 -11.8807     44.9210     60.1637   8.7736926723e+01   6.0325284668e+01    0.7540427    0.3796179 -25.97  0.003226992    2.435    0.589
       239 -10.1623    244.9705     51.0650   3.8651208582e+01   1.9328157505e+01    0.2101152    0.1694733 -89.88 0.0006805134    1.230    0.187
       240 -10.4681    158.4495     62.4160   5.3702891598e+01   3.7236895997e+01      0.61127    0.2712182  51.43  0.002390682    2.174    0.540
       241  -9.8542     68.0127    240.4928   1.1250572825e+02   1.4863948509e+01    0.1875145    0.1068478  37.52 0.0009219446    1.577    0.366
       242  -8.7765    221.3326    239.3288   8.0876104516e+01  -7.4134579433e+00    0.1294858   0.07882151  -0.38 0.0003868929    1.718    0.418
       243 -11.2437    148.4081    237.8893   9.5247813728e+01   3.5317737462e+00    0.5234762    0.2523554  40.00   0.00173912    1.811    0.448
       244 -12.8280    116.4154     41.9126   5.6564349721e+01   5.0308940623e+01     1.022045    0.7435775  89.70  0.004938658    1.981    0.495
       245 -12.1776    106.7066     31.9538   5.5490600295e+01   5.3816230028e+01    0.6724105    0.3683501  18.64  0.002227143    2.945    0.660
       246 -12.2698    114.5326     24.9838   5.1048458200e+01   5.2855992040e+01    0.7306689    0.2831415  55.46  0.002065371    2.209    0.547
       247  -9.8367    148.9730     61.0041   5.5226167367e+01   3.9752282008e+01    0.4851385    0.2022813  56.45  0.001815883    2.326    0.570
       248 -10.2904    135.2699     50.6427   5.4999533205e+01   4.4639584062e+01    0.3125925    0.2129049  59.99  0.001521462    1.431    0.301
       249 -10.7614    136.3414     56.7706   5.6702957968e+01   4.3450626355e+01    0.6859263    0.4422489   3.86  0.002776665    2.608    0.617
       250  -9.6276    177.3380    236.3360   8.8995658988e+01  -6.5931483458e-01    0.1357694   0.09077241   0.90 0.0007051526    1.751    0.429
       251  -9.9922    145.5118     39.5014   4.9362801982e+01   4.3722844464e+01    0.2228304    0.1710894  69.40 0.0005945326    1.259    0.205
       252 -11.1289    105.8055     58.3642   6.5162401282e+01   5.0153886577e+01    0.5003542    0.2804821  51.98  0.001462159    1.825    0.452
       253 -11.2201    156.5514     53.0564   5.1336622601e+01   3.9141045922e+01     1.005892    0.5312769 -42.38    0.0043867    1.930    0.482
       254 -10.9472    198.1639    233.0856   8.4283554078e+01  -3.2498975680e+00    0.3655227    0.3206796  29.50  0.002408574    1.287    0.223
       255 -10.1025    242.6930    232.0362   7.5774741155e+01  -9.1672330623e+00    0.2383626    0.2250522 -13.56   0.00174471    1.593    0.372
       256 -12.5331    152.9674     35.7990   4.6868914372e+01   4.2383059940e+01     0.349716    0.3008527  47.00  0.000418734    1.181    0.153
       257 -10.1681    247.1365    231.6373   7.4929368868e+01  -9.6643581447e+00    0.2261308    0.1413425 -21.04 0.0007284486    1.368    0.269
       258 -12.3133    159.7991     29.9083   4.3999887173e+01   4.1437784125e+01    0.4363179     0.386704 -37.92 0.0007691972    1.227    0.185
       259 -11.0657    164.0381     27.6554   4.2705799090e+01   4.0671513175e+01    0.2778333    0.2607573 -79.11 0.0005005415    1.078    0.072
       260 -10.2372     66.6253     54.1760   7.6860472766e+01   5.8359818182e+01    0.4082977    0.2451638 -53.11  0.001898756    2.135    0.532
       261  -9.3236    187.9409     55.1692   4.6579861093e+01   3.1261257868e+01    0.2537519    0.1831955  61.81  0.001329551    1.367    0.269
       262  -9.3682    211.9978     52.8293   4.2689140400e+01   2.6058869794e+01    0.2335764    0.1399604 -77.00   0.00109726    2.007    0.502
       263  -9.3726    201.6077     53.1735   4.4119885004e+01   2.8364660721e+01    0.3702264    0.2775975  57.29  0.001663545    1.403    0.287
       264 -10.5261    201.9814     48.7350   4.2977695408e+01   2.8912587608e+01    0.5323208    0.2893224 -65.73  0.002351926    2.224    0.550
       265 -10.8859    200.3403     44.8182   4.2226199650e+01   2.9834553821e+01    0.6525422    0.2644703  71.52  0.002586707    2.728    0.633
       266 -10.4519    175.0046     49.2763   4.7025609538e+01   3.5210665563e+01    0.3940395    0.2871199  56.87  0.002027418    1.346    0.257
       267  -9.9491    171.5036     47.5199   4.7109250974e+01   3.6305664816e+01    0.3220013    0.2561313  -7.19  0.001508889    1.629    0.386
       268  -9.0593    215.5026     49.4702   4.1473345552e+01   2.5757083630e+01    0.1343088    0.1140585 -68.64  3.08551e-05    1.026    0.026
       269 -12.5552    119.3389     37.8160   5.4427582968e+01   5.0186063433e+01    0.8262374    0.6044776 -84.38  0.002756992    1.925    0.481
       270  -9.5525     91.2041     48.3497   6.6058381341e+01   5.4828688618e+01    0.2971954    0.1753239 -46.16  0.001110744    1.989    0.497
       271 -10.8800     12.7082     47.9931   9.8404565927e+01   6.5837131016e+01     0.382461    0.1720871 -32.73  0.001899829    2.026    0.506
       272  -9.3758     15.2815    233.7896   1.2243501144e+02   2.2365453267e+01    0.1940882    0.1180971 -88.49  0.001100604    1.431    0.301
       273  -9.5051     23.9255    231.9402   1.2067045502e+02   2.1854054559e+01    0.1981305    0.1021078  62.02 0.0009645115    1.662    0.398
       274  -9.0576    190.1641    229.8099   8.5336977929e+01  -1.5413045862e+00    0.1821025    0.1348687   0.14 0.0006217193    1.332    0.249
       275  -9.1791    108.6748    229.3592   1.0265565356e+02   1.1296436755e+01    0.1405823   0.09232453  64.92            0    1.780    0.438
       276  -9.7367    233.6438    223.1734   7.5850411530e+01  -6.7493127908e+00    0.2529576    0.1562999  -6.48  0.001195102    1.645    0.392
       277  -9.2253     10.2242    217.9987   1.2252281052e+02   2.6151974404e+01    0.1525349   0.08032501 -82.31 0.0004890354    1.644    0.392
       278 -10.3163    164.7141    212.3193   8.7719541939e+01   5.5670669066e+00    0.2595801    0.2180617  36.03 0.0007701825    1.153    0.133
       279  -9.2902    172.6673    211.6977   8.5893882002e+01   4.3614347513e+00    0.1421605    0.1007345   0.30 0.0004535869    1.656    0.396
       280  -9.5112    154.9861    210.4953   8.9548364904e+01   7.5468649399e+00    0.2191046    0.2116669 -14.35 0.0006221294    1.109    0.098
       281  -9.7382    153.2926    207.6444   8.9441983769e+01   8.3927889035e+00    0.2812964    0.2445526  50.95 0.0008736677    1.238    0.192
       282 -10.7796    134.9964     45.7079   5.3477750225e+01   4.5417613611e+01    0.4363213    0.2448272  62.31  0.000994486    1.785    0.440
       283 -10.8068    139.9182     43.9442   5.1867749339e+01   4.4480554203e+01    0.3780454    0.3620645  85.30  0.001403077    1.063    0.059
       284  -9.4023     61.2039    206.7596   1.1067135925e+02   2.2956039425e+01    0.1991473    0.1585297  67.27 0.0009753621    1.125    0.111
       285  -9.5808    176.9365     43.6481   4.5190794825e+01   3.5527655131e+01    0.2608791     0.177255 -64.57  0.001308088    1.593    0.372
       286  -9.1894    101.4743     44.5055   6.1523490993e+01   5.3267246726e+01    0.1969688     0.130308 -42.87  0.000736554    1.690    0.408
       287 -10.5970     93.5016     41.1763   6.2665561567e+01   5.5438056823e+01    0.5365027    0.2727522  44.47  0.002419685    1.820    0.451
       288 -10.6253    189.2318     40.9622   4.2717558675e+01   3.2952189533e+01    0.5105811    0.2196699 -28.27  0.002071033    2.723    0.633
       289 -10.4759     81.9446     40.1810   6.5997597439e+01   5.7904945109e+01    0.6778986    0.3721015  50.96  0.003161683    1.942    0.485
       290 -10.4642     78.2832     34.4503   6.4969292844e+01   5.9429834683e+01    0.4373288    0.2683118  44.26  0.001813562    1.544    0.352
       291 -10.6819     82.5576     32.6455   6.2814499580e+01   5.8842701958e+01    0.5685567    0.4315741  49.05  0.002266398    1.345    0.256
       292  -9.6142     17.4550     41.8331   9.4077087286e+01   6.6680933004e+01     0.251289    0.1479512 -23.54  0.001239296    1.567    0.362
       293 -11.7527     26.8873     47.3201   9.1417630557e+01   6.4803837017e+01    0.7497447     0.363105 -25.05  0.003483863    2.319    0.569
       294  -9.5674    231.4238     38.5386   3.7307373256e+01   2.3803054716e+01    0.2594308    0.1398891 -36.25    0.0013537    1.782    0.439
       295 -11.2324    176.9301     37.0963   4.3420840825e+01   3.6394946318e+01    0.4836929      0.37004 -22.01  0.002667725    1.554    0.356
       296 -10.5821    174.3560     31.7185   4.2334400036e+01   3.7688906545e+01    0.6848263    0.2879337  46.57  0.001809457    2.824    0.646
       297  -8.8531    184.2080     38.3664   4.2730473665e+01   3.4486590918e+01    0.1832885    0.1198104  80.09 0.0009242222    1.536    0.349
       298  -9.2102    206.6865     37.0762   3.9582047670e+01   2.9413259937e+01    0.1789905    0.1557756 -61.36 0.0006052833    1.083    0.076
       299  -9.7444    123.9988    205.9707   9.5878517344e+01   1.3687426098e+01    0.1978705    0.1858088  29.88            0    1.051    0.049
       300  -9.0180     94.3951     36.1179   6.0479269571e+01   5.5956231707e+01    0.1787933    0.1234354 -43.21 0.0007840464    1.687    0.407
       301  -9.4377    215.5430     33.4973   3.7780727639e+01   2.7885906891e+01    0.3168923    0.1940001  31.85  0.001436812    3.109    0.678
       302 -10.3673    239.8406     32.4509   3.5247235388e+01   2.2843439604e+01    0.3543781    0.2937788 -31.67  0.002334223    1.441    0.306
       303  -9.5534    240.5148     26.4884   3.3962724800e+01   2.3449036494e+01    0.2013755    0.1756774 -58.85  0.000702365    1.184    0.156
       304  -8.6186    183.3020     32.3084   4.1269189044e+01   3.5470941116e+01    0.1291385   0.09999965  37.60 0.0003060166    1.602    0.376
       305 -10.2990    161.9362     23.3065   4.1781761990e+01   4.1675433668e+01     0.229041    0.2177709 -78.99 0.0002471469    1.099    0.090
       306  -9.2051     36.0166     31.9274   8.1169510806e+01   6.6536270941e+01    0.1601603    0.1563024  59.51 0.0004917015    1.610    0.379
       307 -10.6582    198.4949     29.0915   3.8595078645e+01   3.2295523078e+01    0.4053146    0.3534462 -82.07   0.00171475    1.022    0.021
       308  -8.8738    199.7047     24.6508   3.7386049878e+01   3.2547391429e+01    0.1707053    0.1164644  59.06 0.0007527384    1.506    0.336
       309  -9.3398    221.6882     29.8528   3.6346336112e+01   2.6995820452e+01    0.1791109     0.136534 -52.33  0.001111889    1.179    0.152
       310 -10.4703    189.4196     27.5041   3.9263434325e+01   3.4604177124e+01    0.3308122    0.2756058  10.99  0.001683709    1.672    0.402
       311 -11.3439    183.2026     25.6096   3.9540105774e+01   3.6297692517e+01    0.5240977    0.3201959  55.88  0.002743602    1.625    0.385
       312  -8.9741     99.7424     30.4184   5.6780582843e+01   5.5545024794e+01    0.1893203    0.1133405  43.41  0.000468049    1.505    0.336
       313 -10.2756    230.2738     27.0718   3.4951976764e+01   2.5500580912e+01    0.3291605    0.1775066 -40.26  0.001799041    1.685    0.407
       314 -10.1161    250.5224     26.9597   3.3267560382e+01   2.1391442833e+01    0.2379727    0.1115957 -30.19  0.000893144    2.447    0.591
       315  -9.6245     97.5151     26.4020   5.5859441892e+01   5.6512176152e+01    0.2322322    0.2196573 -62.85 0.0008439975    1.297    0.229
       316 -10.4766    214.6255     23.4988   3.5602515359e+01   2.9314667434e+01    0.3923573    0.3107786   3.33  0.002330637    1.982    0.495
       317 -10.4981    237.8259    204.2867   7.1676618758e+01  -4.4917924804e+00    0.3104712    0.2669407  57.92  0.001932633    1.906    0.475
       318  -9.3847    169.2235     23.8069   4.0888791077e+01   3.9855366020e+01    0.2776542    0.1586004  59.05  0.001389749    1.600    0.375
       319 -10.7303    234.1764    197.0113   7.0959878023e+01  -2.8260744369e+00    0.4041877    0.2880773  -3.10  0.001759534    1.358    0.264
       320  -9.3281     80.7409     19.2304   5.7885058487e+01   6.0839948940e+01    0.3308199    0.1519552  43.90  0.001015702    1.885    0.470
       321 -11.4499      6.1348    197.3409   1.2211573521e+02   3.1067213949e+01     1.176634   0.07206643 -68.09  0.003584371    5.718    0.825
       322 -12.1318      4.8240    184.2957   1.2154267637e+02   3.4170096660e+01    0.6508661    0.4575604  82.80  0.003262958    1.158    0.136
       323  -9.1275     59.5617     23.5261   6.7203691869e+01   6.4283896680e+01     0.216019    0.1688603   0.76 0.0007791061    1.149    0.130
       324  -9.5608     60.6030     20.1035   6.5265134851e+01   6.4534795069e+01     0.306402    0.2188814 -53.82  0.001391749    2.331    0.571
       325  -9.2323    223.3635     22.1593   3.4504564292e+01   2.7564958173e+01    0.1978538    0.1274721  86.27 0.0007089145    1.446    0.309
       326 -10.1584    125.4157     20.9350   4.7299107583e+01   5.0745474421e+01    0.4417191    0.2194374  74.43  0.001846321    2.458    0.593
       327 -10.8557    245.7544    200.9913   6.9672549678e+01  -5.0868650872e+00    0.2096534    0.1658205  12.67 0.0006767916    1.214    0.176
       328  -9.4806     74.7229     19.4704   5.9926201325e+01   6.2004295026e+01    0.2496562    0.1725308  31.19 0.0008032438    1.282    0.220
       329  -9.0760    195.5512    199.7881   7.8918862714e+01   2.7379025013e+00    0.1821032    0.1298894 -49.88 0.0006036928    1.655    0.396
       330  -9.4581     82.6041    196.2178   1.0433964998e+02   2.2426527374e+01    0.3334437    0.2027397  21.38   0.00151759    2.098    0.523
       331 -10.8284    246.4991    193.0455   6.8045463295e+01  -3.9666814517e+00    0.3404342    0.1077596 -37.86  0.001373056    2.768    0.639
       332  -9.9006    169.9531    191.4417   8.2788735820e+01   8.7158158552e+00    0.3658229    0.2252405  21.25  0.001468842    1.885    0.469
       333 -10.2291    239.6012    184.8596   6.7655323494e+01  -1.6643905415e+00    0.3512621    0.2172374 -10.54  0.001272653    1.842    0.457
       334  -9.8613    214.7930    184.3858   7.2099839101e+01   2.3082229820e+00    0.2690355    0.1013115 -42.73  0.001041673    2.574    0.612
       335  -9.0673     16.4366    191.4872   1.1945901482e+02   3.1491012136e+01    0.1238685    0.1008345  87.60 9.334715e-05    1.045    0.043
       336 -10.2949    250.3960    178.2649   6.4535491277e+01  -2.1877368574e+00    0.4715382     0.104093 -35.94  0.001497693    4.229    0.764
       337  -9.1073    157.4768    179.5813   8.3313784984e+01   1.3431327694e+01    0.1485067    0.1389239   8.60 8.675808e-05    1.031    0.030
       338 -10.4198     52.0254    173.4317   1.0902901501e+02   3.2074536325e+01    0.6029015    0.2711956 -87.95  0.002134364    3.327    0.699
       339  -9.4437    194.8243     19.2190   3.6595378653e+01   3.4296291627e+01    0.2127778     0.147877  87.09 0.0002654088    1.313    0.238
       340  -9.9228     27.7631    176.0379   1.1546189326e+02   3.4091095118e+01    0.2518074     0.189958  65.74  0.001022333    1.242    0.195
       341  -9.7652    230.5467    175.5603   6.7406256067e+01   1.2885055644e+00    0.2710083    0.1565905  32.55 0.0006129091    1.873    0.466
       342 -10.3105    186.4013     15.1717   3.6504799055e+01   3.6701014360e+01    0.2425174    0.1909658  87.07 0.0003378078    1.108    0.097
       343  -8.9329    174.3561     15.9594   3.8100753980e+01   3.9471892177e+01    0.1662165    0.1505034 -86.84 0.0005903404    1.063    0.059
       344 -10.0194    247.4053    174.0547   6.4200609211e+01  -1.0670255997e+00    0.4431247    0.1911765  25.37  0.001685972    3.810    0.738
       345 -10.3394     16.8883    203.2753   1.2021747944e+02   2.8751199518e+01    0.2955375    0.1221594 -65.90  0.001452123    2.191    0.544
       346  -9.4008     75.8546     13.9644   5.7174960074e+01   6.2376210014e+01    0.2138036    0.1532872  43.44 0.0005658764    1.228    0.186
       347 -11.5571    156.7154     42.3922   4.8164707804e+01   4.0609949403e+01     0.885067    0.4053692  70.62  0.003435446    2.514    0.602
       348  -9.8469     39.5111    173.4936   1.1225201940e+02   3.3499084678e+01    0.2541875    0.1795093 -76.16 0.0007481369    1.257    0.205
       349 -10.8052     35.8500    170.6675   1.1286955750e+02   3.4589175975e+01    0.4525715    0.2591699  89.93  0.002198719    1.779    0.438
       350  -8.9954    170.5210    171.9735   7.8781977622e+01   1.2589588696e+01     0.219714    0.1443096 -43.68 0.0006044657    1.513    0.339
       351 -11.4737     19.0287    164.9294   1.1656322362e+02   3.7619586412e+01     0.826623    0.3166775 -52.43  0.003520421    2.662    0.624
       352 -11.8806     15.8144    147.9261   1.1567249016e+02   4.2098989127e+01    0.7887588    0.4089889  45.18  0.003975504    2.056    0.514
       353 -12.1316     12.8737    138.2840   1.1542671924e+02   4.4726356014e+01      1.89859     1.036409  88.31   0.00935953    1.867    0.464
       354 -11.7515      9.4919    166.8998   1.1912310954e+02   3.7929847699e+01    0.6977232    0.4117188  86.72  0.003840683    1.512    0.339
       355 -12.3344     13.5598    159.2742   1.1741848270e+02   3.9467159026e+01      0.79975    0.5425618 -65.94  0.003373281    1.292    0.226
       356 -11.4821      3.5959    147.3122   1.1890356109e+02   4.3136394909e+01    0.7407014    0.2326959 -71.61  0.002498529    2.425    0.588
       357 -11.3891      2.7462    141.6018   1.1859622215e+02   4.4593052476e+01    0.7581987    0.3882508 -89.33  0.003811102    1.819    0.450
       358 -10.9631     21.2974    150.6980   1.1448015337e+02   4.0957024609e+01    0.2668717    0.1710075  84.20 0.0005117534    1.536    0.349
       359 -11.4201     24.0000    148.0028   1.1342380767e+02   4.1400171899e+01    0.3901275    0.1779798 -68.68 0.0009639307    1.816    0.449
       360  -9.2321    198.1524    167.8697   7.1996239501e+01   8.2541850697e+00    0.2100151    0.1985736 -38.59 0.0008752288    1.161    0.139
       361  -9.8639    187.9660    168.0260   7.4141837486e+01   1.0108166041e+01    0.2918408    0.1832374 -28.39  0.001308423    1.699    0.412
       362  -9.3288    156.2259    166.1573   8.0863138671e+01   1.6573650826e+01    0.2250647    0.1996792 -16.54 0.0004187467    1.159    0.137
       363  -9.0720    152.4576    166.5321   8.1838728715e+01   1.7219429675e+01    0.1509569    0.1466147  -1.85 0.0001159587    1.006    0.006
       364  -9.8053     39.0160    161.8848   1.1100954732e+02   3.6446761197e+01    0.5517445    0.2611573  71.02  0.002090634    3.102    0.678
       365 -10.6167     28.0401    162.5680   1.1399600525e+02   3.7382629975e+01    0.4235266    0.2139563 -63.64   0.00206218    1.704    0.413
       366  -9.7654    204.9729    162.9644   6.9588974820e+01   7.9487087770e+00    0.2765502    0.2133149   4.37 0.0005759392    1.445    0.308
       367  -9.8779    208.3913    160.2518   6.8341167243e+01   7.8399354369e+00    0.2964105     0.128716 -43.86  0.001058739    2.198    0.545
       368 -10.1814    246.3821    158.9739   6.1335410983e+01   1.5885429836e+00    0.3141933    0.1088264 -38.68  0.001252693    2.448    0.592
       369  -9.1653     79.0154    160.0264   9.9778129212e+01   3.1799888477e+01    0.2401025    0.1709847  73.76     0.001072    1.657    0.396
       370  -9.5782    224.1688    157.6245   6.4840604857e+01   5.5124680997e+00    0.3457035    0.1705916 -51.10  0.001408687    2.459    0.593
       371  -9.4200    215.5347    157.9582   6.6491748399e+01   6.9774987138e+00    0.2971936    0.1672117 -24.91  0.001243999    2.019    0.505
       372 -10.3925    104.7858    154.1008   9.1543347497e+01   2.9089220262e+01    0.3915043    0.3464674 -28.30  0.002022926    1.232    0.188
       373 -10.2344     33.0511    154.4916   1.1171117074e+02   3.8922056941e+01    0.3166518    0.2328169  25.29  0.001382644    1.592    0.372
