#   1 NUMBER                 Running object number                                     
#   2 MAG_AUTO               Kron-like elliptical aperture magnitude                    [mag]
#   3 X_IMAGE                Object position along x                                    [pixel]
#   4 Y_IMAGE                Object position along y                                    [pixel]
#   5 X_WORLD                Barycenter position along world x axis                     [deg]
#   6 Y_WORLD                Barycenter position along world y axis                     [deg]
#   7 A_WORLD                Profile RMS along major axis (world units)                 [deg]
#   8 B_WORLD                Profile RMS along minor axis (world units)                 [deg]
#   9 THETA_WORLD            Position angle (CCW/world-x)                               [deg]
#  10 FWHM_WORLD             FWHM assuming a gaussian core                              [deg]
#  11 ELONGATION             A_IMAGE/B_IMAGE                                           
#  12 ELLIPTICITY            1 - B_IMAGE/A_IMAGE                                       
         1 -13.9075      2.3455     92.4365   1.4972320478e+02   5.6196792419e+01     3.405958    0.4384629 -84.44  0.008069606    8.257    0.879
         2 -14.4840      3.8305    134.3113   1.5135250266e+02   4.6225818016e+01     3.944717    0.9637562 -86.53   0.01486041    3.724    0.731
         3 -13.7287    196.1283     24.9804   6.9762023533e+01   3.2447838609e+01     1.763093     1.461718  17.10  0.008880131    1.397    0.284
         4 -12.4541      3.0496     19.9671   1.4023379699e+02   7.3699239194e+01     1.246503    0.1203609 -70.20  0.003630134    5.531    0.819
         5 -12.2585      2.2882      4.2118   1.3602892814e+02   7.7249658263e+01    0.6551276    0.4396641   8.02  0.004125491    1.654    0.395
         6 -13.4173    210.8732      6.8973   6.3100893203e+01   3.0531791497e+01    0.9751358    0.8714412  64.13  0.004970774    1.191    0.161
         7 -10.5531     19.8137    247.4056   1.5139065697e+02   2.3262119551e+01    0.3883531    0.1777159  26.93  0.002485411    2.132    0.531
         8 -11.9201    174.2634    248.5913   1.2261119228e+02   4.6485125868e+00    0.3460454    0.2521586  32.75  0.002606564    1.198    0.165
         9 -13.8109    136.7967    247.0014   1.2938892425e+02   9.8303215998e+00     1.390599    0.3520264  38.75  0.006215117    2.683    0.627
        10 -11.3425    238.2844    247.1031   1.1148309579e+02  -3.2930322435e+00    0.2206735    0.1235132  17.41  0.001437478    1.262    0.208
        11  -9.6195     29.9107    249.3154   1.4964410267e+02   2.2031971312e+01    0.2197077    0.1006984  69.03  0.001465402    2.011    0.503
        12 -10.8185     37.5063    214.3162   1.4684504917e+02   2.7031392260e+01    0.5480062    0.5283651 -54.09   0.00454142    1.484    0.326
        13 -12.8827     49.4792    217.5134   1.4453042948e+02   2.5225686474e+01     1.087165    0.6337054  66.14  0.007079266    1.578    0.366
        14 -12.8447     34.8446    235.9670   1.4827656545e+02   2.3638525772e+01    0.2790929    0.2261043  89.32  0.000755602    1.443    0.307
        15 -13.8488     39.6285    229.1731   1.4708196064e+02   2.4270939467e+01    0.7715218    0.4925577  44.49  0.002478525    1.130    0.115
        16 -11.9997    185.8325    239.1451   1.1936585014e+02   4.1495883423e+00    0.3532349     0.278638  57.20  0.002455462    2.129    0.530
        17 -11.7940     92.5284    228.1052   1.3638160172e+02   1.8358983476e+01     0.315674    0.2001803  53.25  0.001828231    1.394    0.283
        18 -11.4861     86.7887    226.5490   1.3743041956e+02   1.9334543662e+01    0.4645871   0.08821094  38.15  0.001851239    3.163    0.684
        19 -13.0268    116.7986    231.5985   1.3177561138e+02   1.4628214533e+01     1.667548    0.1460269  34.84  0.004046682    8.409    0.881
        20  -9.7480    172.5039    221.9894   1.1961297592e+02   8.0586870381e+00     0.151938    0.1144092 -26.96  0.001036086    1.610    0.379
        21 -10.2240     27.6871    221.8675   1.4913935598e+02   2.6670844549e+01    0.2504437    0.1579969  14.40  0.001305712    2.174    0.540
        22 -11.4852     49.1710    206.2434   1.4395167074e+02   2.7272186140e+01    0.8616761    0.1373232  51.10  0.002814212    5.320    0.812
        23  -9.6590     20.7369    212.1332   1.5019113511e+02   2.9012469956e+01    0.2472906    0.1404112  23.86  0.001584786    1.888    0.470
        24 -12.0666     10.5262    206.8897   1.5210604732e+02   3.0834791541e+01    0.5407026    0.3004815  22.33  0.002980752    1.989    0.497
        25 -11.6570     61.1868    201.1571   1.4097137849e+02   2.6863534445e+01    0.2257054    0.2147373  57.41  0.000572887    1.260    0.206
        26  -9.3850    192.8085    194.6209   1.1160108994e+02   8.5485415184e+00    0.2253268     0.150215 -60.82  0.001077948    3.522    0.716
        27 -11.9352     67.5802    192.4870   1.3883325555e+02   2.7742462283e+01    0.2360084    0.2177547  47.00 0.0003273377    1.191    0.160
        28 -13.1555     64.5747    177.3667   1.3821905064e+02   3.1117045928e+01    0.4516251    0.2749022 -44.51  0.002293755    2.267    0.559
        29 -10.7377     77.7927    179.2182   1.3513869906e+02   2.9057384599e+01    0.2188399    0.1870527  50.16 0.0002729777    1.033    0.032
        30  -9.0032    101.4867    178.0810   1.2918970670e+02   2.5933756597e+01    0.2124929    0.1502935  55.47 0.0006732324    1.372    0.271
        31 -10.8630    249.2681    247.5266   1.0981550555e+02  -4.5978635496e+00    0.2872144    0.1280964 -19.31  0.001869244    2.306    0.566
        32 -12.5611      8.7042    153.3890   1.5080332278e+02   4.1662546988e+01     2.451699    0.5008017  71.46  0.006357726    8.387    0.881
        33 -12.2779    125.0342    249.7237   1.3187454010e+02   1.1024333508e+01    0.7724175    0.1514308  39.96  0.003149766    3.299    0.697
        34 -10.1699     97.7160    153.6965   1.2673032108e+02   3.1500426936e+01    0.2993597    0.2758466 -42.15 0.0009205511    1.248    0.199
        35 -11.8942     86.3576    152.7622   1.2967379123e+02   3.3432510663e+01    0.2697743    0.2568352 -18.32 0.0004892372    1.242    0.195
        36  -9.9234    134.0518    145.7354   1.1580117262e+02   2.6866005031e+01     0.820865    0.2255547 -55.48  0.001986511    7.136    0.860
        37  -9.2978    100.8830    149.0922   1.2514651740e+02   3.1984258287e+01    0.2053803    0.1922571  28.99 0.0004584921    1.106    0.096
        38 -12.0705     67.3454    143.5874   1.3377220491e+02   3.8134300318e+01    0.6840684    0.3778965  53.69  0.002889546    1.799    0.444
        39  -9.8061    109.3280    138.2209   1.2092325922e+02   3.2917063535e+01    0.4261298    0.2800142 -16.45  0.001453018    2.576    0.612
        40 -10.3964     96.6665    135.4414   1.2400207139e+02   3.5682040259e+01    0.2493369     0.227691  -7.55 0.0003147818    1.266    0.210
        41  -9.0138    117.6387    128.0415   1.1658076689e+02   3.3616690723e+01    0.2461463    0.1117631 -31.71 0.0007042524    4.519    0.779
        42 -12.1081     15.7325    123.5396   1.4728024892e+02   4.7986234692e+01    0.6521944    0.2159984  43.45  0.002874788    2.625    0.619
        43  -8.8135    106.6929    124.4094   1.1895195742e+02   3.6435054573e+01    0.1837298    0.1382333  29.88 0.0002644261    1.337    0.252
        44  -9.1398    167.8840    113.0584   1.0024332689e+02   2.6174725124e+01    0.2230535    0.2061518 -87.61 0.0008062161    1.345    0.256
        45 -11.8506     85.5416    169.6905   1.3211780236e+02   2.9943360338e+01    0.6579262    0.5678055   8.94  0.004043248    1.390    0.281
        46  -9.4876    157.2405     75.9697   9.2375788436e+01   3.5314021010e+01    0.2042696    0.1323965 -34.64 0.0005181231    1.569    0.362
        47 -10.9845      2.5391    153.2831   1.5237314934e+02   4.2096793114e+01    0.6447633    0.2665201 -86.36  0.003161186    2.142    0.533
        48 -11.0935     13.7165     54.7640   1.4081075404e+02   6.5015335818e+01    0.2410393    0.1681239  29.88 0.0008048439    1.628    0.386
        49  -9.0376      2.2810    248.9904   1.5447462721e+02   2.4536854691e+01    0.1314706   0.08826755  59.87 0.0005226184    1.131    0.116
        50 -10.9939     99.3522    249.1680   1.3670536783e+02   1.4368499868e+01    0.2656217    0.1157379  41.28  0.001577624    1.579    0.367
        51  -9.6012     81.4822    248.4626   1.4005202614e+02   1.6634136157e+01    0.1570076   0.09239253  81.74 0.0009537764    2.268    0.559
