#   1 NUMBER                 Running object number                                     
#   2 MAG_AUTO               Kron-like elliptical aperture magnitude                    [mag]
#   3 X_IMAGE                Object position along x                                    [pixel]
#   4 Y_IMAGE                Object position along y                                    [pixel]
#   5 X_WORLD                Barycenter position along world x axis                     [deg]
#   6 Y_WORLD                Barycenter position along world y axis                     [deg]
#   7 A_WORLD                Profile RMS along major axis (world units)                 [deg]
#   8 B_WORLD                Profile RMS along minor axis (world units)                 [deg]
#   9 THETA_WORLD            Position angle (CCW/world-x)                               [deg]
#  10 FWHM_WORLD             FWHM assuming a gaussian core                              [deg]
#  11 ELONGATION             A_IMAGE/B_IMAGE                                           
#  12 ELLIPTICITY            1 - B_IMAGE/A_IMAGE                                       
         1 -13.5501    160.9174     53.8523   7.6975933574e+01   3.7655355310e+01     1.691671     1.312544  15.50  0.005483455    1.646    0.393
         2 -13.4846    173.3645     38.7759   7.0035230416e+01   3.6533946478e+01     1.000378    0.9366666 -32.03  0.003409186    1.124    0.111
         3 -13.6487    191.0115      6.9246   5.8330707831e+01   3.5573694138e+01     1.008681    0.9172776  84.51  0.004299066    1.129    0.115
         4 -11.4916    167.5578    232.5310   1.1521655580e+02   5.2233772057e+00    0.3207357    0.1860524  29.45 0.0007161995    1.306    0.234
         5 -18.5045     59.8797    242.0851   1.3846949489e+02   1.7907858108e+01     6.004861     5.269042  47.66   0.03613022    1.232    0.188
         6  -9.6149    206.8870    177.9948   9.8845366180e+01   7.0565199579e+00    0.2915528    0.1444232  16.49  0.001219074    2.793    0.642
         7  -9.8791    203.2412    170.6635   9.8151005439e+01   8.7144634756e+00    0.3426832    0.1685153  26.92  0.001561626    2.126    0.530
         8 -11.5511    195.3267    168.9295   9.9347588295e+01   1.0290792294e+01    0.3514085     0.298539  13.60 0.0005479433    1.053    0.050
         9 -10.2937    192.7158    164.0864   9.8919833658e+01   1.1498814188e+01    0.3495066     0.271236  11.09  0.001484312    1.186    0.157
        10 -11.5758    193.3467    195.3149   1.0451312673e+02   6.6620109737e+00    0.9477225    0.5719224 -62.41  0.003428232    5.948    0.832
        11  -8.6660     11.7190    168.4509   1.4588934013e+02   3.7562816170e+01    0.1180201   0.09472284  81.73 0.0002000263    1.137    0.121
        12 -11.3026    121.1048    164.4553   1.1552361288e+02   2.4247804083e+01    0.3642359    0.2450547  53.71  0.001176472    1.583    0.368
        13  -8.7868     24.6618    165.6825   1.4229697282e+02   3.7118460226e+01    0.1213189   0.09358404 -41.39 0.0007048817    1.704    0.413
        14 -12.2760    157.0687    200.7048   1.1287306515e+02   1.1469951430e+01    0.6035879    0.4141257  73.71  0.002731578    3.305    0.697
        15 -11.2093    113.5128    160.2281   1.1680665847e+02   2.6477143010e+01     0.319544     0.265201 -76.14 0.0008843227    1.410    0.291
        16 -10.1805    120.7416    156.5661   1.1422554067e+02   2.5999704300e+01    0.2140072    0.1275011  45.50 0.0005685283    1.586    0.369
        17 -12.1639    134.0178    146.0882   1.0869389046e+02   2.5778655322e+01     1.275726    0.3552053 -55.13  0.003167551    5.946    0.832
        18  -9.5314    163.8439    203.1357   1.1179556317e+02   1.0028018253e+01    0.1881447    0.1562775  37.47 0.0003641917    1.254    0.203
        19  -9.9253    174.6520    148.9340   9.9579566609e+01   1.7348995890e+01    0.2405827    0.2291313  86.51 0.0006916863    1.359    0.264
        20 -10.9578    143.7171    145.0345   1.0599222847e+02   2.4113650875e+01    0.4149889    0.2152707 -59.66  0.001522956    2.864    0.651
        21 -10.1697    207.4447    194.2576   1.0164909309e+02   4.7033052721e+00    0.2115661    0.1098243 -28.54 0.0008624746    1.960    0.490
        22 -12.1275    106.4770    131.0196   1.1326807160e+02   3.4434861123e+01    0.5535365      0.43911  66.60  0.001665616    1.408    0.290
        23 -10.7835    107.3308    124.8776   1.1168484650e+02   3.5735919198e+01     0.314873     0.263242   9.50 0.0005702358    1.393    0.282
        24 -11.6128    135.3842    122.3082   1.0303194748e+02   3.0629895889e+01    0.8105784    0.2257393 -51.33  0.002105297    4.654    0.785
        25 -10.5918    160.2180    127.4637   9.8026344197e+01   2.4287467848e+01     0.381032    0.2749981 -56.95  0.001560603    1.691    0.409
        26 -10.1922    113.4676    118.5918   1.0838031636e+02   3.6018526995e+01    0.2933756    0.2618788  62.66  0.001476202    1.158    0.137
        27  -9.9836    168.5805    113.4227   9.2664562873e+01   2.5188515576e+01    0.3228731    0.2464199  89.45  0.001250937    1.989    0.497
        28 -11.4637    118.9560    129.1252   1.0919252787e+02   3.2477817413e+01    0.3420759    0.3038536 -11.34 0.0007143993    1.267    0.211
        29  -9.9826    205.0599    110.5904   8.4781403437e+01   1.7874466649e+01    0.3325874    0.2244018  28.04  0.001209198    1.690    0.408
        30 -19.2297     48.4090    102.9393   1.2773061387e+02   5.0694053813e+01     19.22784     1.287639 -67.17   0.02913657   14.587    0.931
        31  -9.8956    134.6444    106.1789   9.9117766790e+01   3.4291775993e+01    0.2318846      0.14918 -34.00 0.0007507071    1.723    0.420
        32 -10.1345    153.5916    186.7671   1.1142470741e+02   1.4373943976e+01    0.1683395    0.1348189 -58.87 0.0009492319    1.661    0.398
        33  99.0000     10.4525    206.7311   1.4747718817e+02   2.9481461535e+01    0.3468283    0.3165787  34.15  0.002684897    1.356    0.263
        34  -8.8632    148.3144     80.3195   8.8106509901e+01   3.6317521308e+01    0.1632878    0.1259119  14.55 0.0004580187    1.653    0.395
        35 -10.4979     88.3560     78.0154   1.0568245671e+02   5.0757696975e+01    0.3204293    0.2230258  42.92 0.0005584031    1.428    0.300
        36  -9.8311    113.8105     76.5436   9.6398859550e+01   4.5521022103e+01     0.390249    0.1523219  55.20  0.001142591    3.228    0.690
        37 -10.5413     29.3831    208.3064   1.4330836152e+02   2.7421763133e+01    0.1197762    0.1090839  20.69 0.0003649833    1.397    0.284
        38 -10.5763     13.5012    244.6814   1.4781356216e+02   2.2236857053e+01    0.2442196   0.08888344 -74.22  0.001365421    3.166    0.684
        39 -12.3704    177.7312     31.3797   6.7103403642e+01   3.6333540930e+01    0.5233049    0.4435293  24.11  0.001098505    1.428    0.300
        40  -9.5247     13.2693     59.8163   1.3619495873e+02   6.4967408028e+01    0.1900812    0.1667854  88.80 0.0005712649    1.160    0.138
        41 -10.4711      6.7211    220.4836   1.4861346388e+02   2.7146940349e+01    0.1005944   0.07197751 -47.76 0.0005688633    2.163    0.538
