#   1 NUMBER                 Running object number                                     
#   2 MAG_AUTO               Kron-like elliptical aperture magnitude                    [mag]
#   3 X_IMAGE                Object position along x                                    [pixel]
#   4 Y_IMAGE                Object position along y                                    [pixel]
#   5 X_WORLD                Barycenter position along world x axis                     [deg]
#   6 Y_WORLD                Barycenter position along world y axis                     [deg]
#   7 A_WORLD                Profile RMS along major axis (world units)                 [deg]
#   8 B_WORLD                Profile RMS along minor axis (world units)                 [deg]
#   9 THETA_WORLD            Position angle (CCW/world-x)                               [deg]
#  10 FWHM_WORLD             FWHM assuming a gaussian core                              [deg]
#  11 ELONGATION             A_IMAGE/B_IMAGE                                           
#  12 ELLIPTICITY            1 - B_IMAGE/A_IMAGE                                       
         1 -12.5445     79.0537     32.1165   3.2637397126e+01   5.8810732786e+01    0.4834366    0.2790561 -38.18   0.00147146    1.995    0.499
         2 -12.4531     84.0556     23.9868   2.8009137419e+01   5.8784817796e+01    0.2643321     0.175472  60.21  0.001350713    1.657    0.397
         3 -10.9739    122.8547     11.8507   1.4482284409e+01   5.1462744807e+01    0.1626029    0.1354906  83.64 0.0002698221    1.241    0.194
         4 -11.4955     85.2259      9.9644   2.2349126961e+01   5.9948298067e+01    0.2302287    0.1298109 -46.66  0.001153516    2.613    0.617
         5 -11.5971     92.3822      8.2245   1.9834171479e+01   5.8592662098e+01    0.1535681      0.11459 -34.09 0.0006336042    1.629    0.386
         6 -12.1547     33.3956      7.7914   4.0171931815e+01   6.9331161133e+01    0.1985023    0.1528623  13.85 0.0003753901    1.057    0.054
         7 -10.5880    215.4462      2.5258   8.5866753150e-01   3.1114631840e+01    0.1157026    0.0914844 -84.44  5.05384e-05    1.046    0.044
         8 -10.5940     49.4137      2.5156   3.0862521603e+01   6.7386543086e+01     0.118843   0.09010816  22.28 0.0001448533    1.031    0.030
         9 -10.4157    136.9912      1.2302   8.9359709755e+00   4.9063552264e+01    0.1619743   0.08606968  68.06            0    1.525    0.344
        10 -11.3143    143.1750    242.3584   6.4816923064e+01   3.8418535787e+00    0.1966064    0.1044662  41.77 0.0004419046    1.672    0.402
        11 -12.8232    245.9339    249.7665   4.5554001857e+01  -1.1828406440e+01    0.2719111    0.1924022  28.67  0.001642363    1.502    0.334
        12 -11.8800    139.5624    248.4432   6.6443351754e+01   3.3229376008e+00    0.3338662    0.1501944 -51.29  0.001508304    2.624    0.619
        13 -11.8125    124.3821    250.2938   6.9942871963e+01   5.3267524129e+00    0.2257693    0.1581273  19.85  0.001252925    1.518    0.341
        14 -13.7330     69.7417    247.4271   8.1271616240e+01   1.3824933273e+01    0.4798433    0.3394352  35.33  0.001522673    1.339    0.253
        15 -11.8606     64.4744    245.5055   8.2195837866e+01   1.4909421092e+01    0.2151548    0.1687294  69.03 0.0005722252    1.156    0.135
        16 -12.7570     60.1863    249.1640   8.3405832927e+01   1.4745515130e+01    0.2296528    0.2012652  69.96 0.0005651635    1.114    0.102
        17 -12.1917     56.2813    249.5294   8.4234073710e+01   1.5175250109e+01    0.3335414    0.2137384 -62.86  0.002000523    1.752    0.429
        18 -16.4065     56.3824    206.4664   8.0109525018e+01   2.4363057129e+01     3.403182     1.660522 -84.06   0.01452176    2.547    0.607
        19 -15.4509      8.8694    185.7287   8.9390667913e+01   3.4268200738e+01     1.622642     1.034175  57.67  0.007107507    1.486    0.327
        20 -16.0988     39.3262    242.5792   8.7125929650e+01   1.8643064981e+01     1.989382      1.68138 -51.73   0.01367703    1.559    0.358
        21 -16.4156     18.3628    212.2253   8.9263649944e+01   2.7377913648e+01     2.554763    0.9123564  60.85   0.01046733    3.172    0.685
        22 -16.2811      6.5818    216.7173   9.2042225043e+01   2.7519049793e+01     1.537202    0.6813799  61.86  0.007935644    2.095    0.523
        23 -15.8842      7.5418    249.0538   9.3647442370e+01   2.0788321597e+01     1.644068    0.5703334  24.44  0.006928947    4.432    0.774
        24 -16.9810     12.2513    238.8298   9.2218952166e+01   2.2349830415e+01     1.468822     1.123367  -6.27  0.009462241    2.281    0.562
        25 -16.2823      5.6526    230.7675   9.3042839160e+01   2.4639840642e+01    0.9440427    0.6136441  74.93  0.006252951    1.257    0.204
        26 -10.9476    198.5098    241.0114   5.3023793010e+01  -4.3810466079e+00    0.2296102    0.1522712  61.62  0.001034496    3.392    0.705
        27 -10.9515    186.9890    241.2240   5.5383546958e+01  -2.7245917292e+00     0.174942    0.1382983  19.55  0.001076808    1.065    0.061
        28 -11.6439    107.1862    240.7617   7.2487447480e+01   9.7423752536e+00    0.2263689    0.1608465 -45.53 0.0008105188    1.688    0.408
        29 -13.0787    103.6300    237.1428   7.2828080055e+01   1.0995195466e+01    0.3234416    0.2908345  16.03 0.0006794695    1.240    0.193
        30 -12.2331     70.2027    240.2196   8.0485362818e+01   1.5205933190e+01     0.296294    0.2200775  -8.00  0.001604769    2.240    0.554
        31 -12.3919     71.1962    236.1877   7.9869863193e+01   1.5896099722e+01    0.3711125    0.2254836  48.72  0.001774961    1.418    0.295
        32 -13.5459     73.4876    230.2684   7.8751140454e+01   1.6814861210e+01    0.4834891    0.2853532 -69.90 0.0009282792    1.824    0.452
        33 -12.2385    148.2690    238.9935   6.3223729869e+01   3.6427940698e+00     0.306542    0.1736427  31.55 0.0007395317    1.559    0.358
        34 -11.3120     79.8185    237.1572   7.8088522020e+01   1.4496008827e+01    0.1969601    0.1744012 -66.66  0.000872753    1.281    0.219
        35 -11.4848    177.0491    235.7296   5.6561595743e+01  -3.1215058387e-01     0.200505    0.1732293 -10.21 0.0005425471    1.153    0.133
        36 -10.6587    137.2274    235.9096   6.5195151626e+01   5.9666423779e+00    0.1491413    0.1145748 -55.03 0.0002734255    1.530    0.347
        37 -10.9249    210.5004    235.5180   4.9755386902e+01  -5.2497944101e+00    0.1277969      0.10355   4.95 0.0001111858    1.004    0.004
        38 -11.1721    122.0253    236.0000   6.8583467129e+01   8.3653606331e+00    0.2292108   0.06777472  35.69 0.0005770156    2.929    0.659
        39 -11.4618    182.0968    232.0008   5.4899954990e+01  -4.6499625669e-01    0.2382007    0.2236669  56.02   0.00152111    1.405    0.288
        40 -11.4022    194.1270    228.8301   5.1889790665e+01  -1.7839849684e+00    0.1925851    0.1719697  29.02 0.0008611272    1.246    0.197
        41 -12.0007    178.2667    228.6078   5.5144088098e+01   7.1464972347e-01    0.2122021     0.195866  -2.07 0.0003064659    1.134    0.118
        42 -11.3108    149.4864    229.0002   6.1445777192e+01   5.2808712638e+00      0.17261    0.1234756 -87.58 0.0008091662    2.450    0.592
        43 -10.7129    139.4494    229.5748   6.3769352665e+01   6.8073628616e+00    0.1371576    0.1193773  30.36 6.665591e-05    1.008    0.008
        44 -12.6745    237.6117    219.5573   4.1925912210e+01  -6.5661894703e+00    0.3035107    0.2269512 -42.29  0.001894437    1.589    0.371
        45 -12.3363    232.1600    227.1789   4.4242709748e+01  -6.9739797696e+00    0.5133108    0.2084534 -27.71  0.002239179    2.773    0.639
        46 -12.4860    233.0079    220.2292   4.2876141153e+01  -6.0466306984e+00    0.2278009     0.180331 -24.14 0.0003584008    1.192    0.161
        47 -11.7240    129.0057    226.4054   6.5655716515e+01   9.1258258566e+00    0.2366181     0.185781 -29.61 0.0003633793    1.506    0.336
        48 -14.0148     86.6643    221.0918   7.4701309910e+01   1.6881823413e+01     1.272812    0.7263092 -14.73  0.003478002    7.620    0.869
        49 -12.6051     80.2854    222.3348   7.6324510064e+01   1.7546312371e+01    0.3719383    0.2321935 -49.93  0.001905965    1.860    0.462
        50 -13.4574     77.3727    219.7661   7.6695660716e+01   1.8522762440e+01    0.3913951    0.2941634  71.32  0.001259525    1.346    0.257
        51 -12.1019    100.3733    225.5690   7.2101033496e+01   1.3854416957e+01     0.269764    0.1315088  54.25 0.0009417358    2.321    0.569
        52 -12.4915     91.6672    224.7523   7.3998731343e+01   1.5351829916e+01    0.2789857    0.1621585 -67.75  0.001038144    1.947    0.486
        53 -10.9447    222.4576    225.5346   4.5760191043e+01  -5.4010503201e+00    0.1263472    0.1037676  -0.72 0.0001657088    1.021    0.021
        54 -11.8508    116.2264    225.4171   6.8435872913e+01   1.1390882286e+01    0.1978839    0.1135751  44.50 0.0005742478    1.579    0.367
        55 -12.7579     68.1791    224.1326   7.9287314437e+01   1.8856759506e+01    0.2894622    0.2204585 -65.30 0.0006262955    1.398    0.285
        56 -10.8519    211.6155    222.8657   4.7374622872e+01  -3.4295523534e+00    0.1711732    0.1176459 -46.15 0.0009483863    1.743    0.426
        57 -12.1879    159.8472    222.5265   5.8118715647e+01   4.7903632215e+00    0.3463818     0.236615  38.22  0.001035284    1.342    0.255
        58 -12.5487    124.3214    221.6664   6.6030327940e+01   1.0844174773e+01    0.3920828    0.1838714  43.98  0.001671862    1.970    0.492
        59 -12.5990    173.8229    219.4290   5.4547892991e+01   3.0587766120e+00    0.3411755    0.2481547 -46.59  0.001028036    1.547    0.354
        60 -11.2710    193.3914    220.2151   5.0561051781e+01  -2.2269033567e-01    0.1784072    0.1259957 -49.48 0.0009578046    1.724    0.420
        61 -12.7900    246.2049    220.6345   4.0596896385e+01  -7.8494864600e+00      0.27611    0.1906145 -15.53 0.0004423267    1.241    0.194
        62 -14.5086    144.5299    202.2613   5.8174092224e+01   1.1413553262e+01    0.6820697    0.5850865 -51.57  0.003765224    1.276    0.216
        63 -13.1000    140.0669    212.4006   6.0933161509e+01   1.0098313929e+01    0.5290232    0.3672801 -21.84  0.001869616    1.870    0.465
        64 -11.1195     94.4423    218.4510   7.2550779115e+01   1.6280224213e+01    0.1371298    0.1222677  52.59 1.704991e-05    1.005    0.005
        65 -12.5508    129.9087    216.6523   6.3973982280e+01   1.0945273707e+01     0.226311    0.1926859 -32.67 0.0004643786    1.313    0.238
        66 -13.5566    107.7095    214.7285   6.8907945802e+01   1.5000261837e+01    0.5091982    0.3244852  70.22  0.002306513    2.155    0.536
        67 -10.8397    225.9930    216.4838   4.3505321668e+01  -4.4938729387e+00    0.1747694    0.1144022  29.15 0.0003665465    1.479    0.324
        68 -12.8574     84.1375    214.7737   7.4505616643e+01   1.8637147305e+01    0.5310972    0.3071024  47.46  0.002406486    1.590    0.371
        69 -11.2713     79.9946    212.6937   7.5226856712e+01   1.9707640288e+01      0.28144    0.2287115 -88.90  0.001617461    1.266    0.210
        70 -10.8483    207.5948    215.5128   4.6865322812e+01  -1.6265555345e+00    0.1327125    0.1108393  -2.26 0.0001281477    1.038    0.036
        71 -12.2549    247.6426    213.2055   3.9039076736e+01  -6.9419841101e+00    0.2215948    0.2151211   2.81 0.0009197301    1.496    0.332
        72 -10.6908    176.2737    214.6618   5.3194808121e+01   3.5255109298e+00    0.1265595    0.1108242  75.51 0.0003829437    1.608    0.378
        73 -12.7609    119.0101    213.4880   6.6046219825e+01   1.3420539234e+01    0.4244689    0.1953584  46.96   0.00113351    2.163    0.538
        74 -12.1392    113.7587    210.5668   6.6853966934e+01   1.4913488549e+01    0.3085253    0.1219865  39.42  0.001186953    2.249    0.555
        75 -11.1424    156.4905    213.0782   5.7287195418e+01   7.1579296240e+00    0.2558496    0.1422915 -53.56   0.00113776    2.119    0.528
        76 -13.6125    159.1765    206.2813   5.5500857192e+01   8.0319987949e+00    0.4732865     0.361939   5.25  0.001415811    1.459    0.315
        77 -13.2911    123.5962    210.3964   6.4481087190e+01   1.3311291543e+01    0.4013808    0.2899203 -81.00   0.00108549    1.863    0.463
        78 -11.6424     74.6987    212.0417   7.6404005641e+01   2.0615390644e+01    0.3535582    0.1805602  29.54  0.001063065    2.050    0.512
        79 -11.6021     90.9375    210.1794   7.2282930567e+01   1.8634501384e+01    0.2147128    0.1904273 -84.45 0.0003030819    1.166    0.143
        80 -13.0428    228.7072    206.6498   4.1228293649e+01  -3.3208540935e+00    0.3524309     0.316901 -74.97 0.0008820494    1.797    0.444
        81 -15.3339      6.9353    197.8414   9.0730438120e+01   3.1657543404e+01    0.9992215    0.8277925  85.19  0.006933215    1.043    0.041
        82 -11.7334    242.3094    207.9919   3.9031681119e+01  -5.4437704376e+00    0.1745307    0.1328903 -22.04 0.0003022405    1.121    0.108
        83 -11.9145    180.2122    207.9427   5.1152448153e+01   4.1082737888e+00    0.2545463    0.1915453  28.10   0.00137852    1.233    0.189
        84 -13.1116    103.9112    206.8002   6.8666269595e+01   1.7345874589e+01    0.3593796      0.28415  67.18  0.001685861    1.359    0.264
        85 -11.3215     68.4835    207.5176   7.7343108368e+01   2.2510196965e+01     0.227162    0.1263005  32.87  0.001078321    1.772    0.436
        86 -11.8771     71.5592    206.0006   7.6419349788e+01   2.2429133102e+01    0.3229177    0.2419113  80.49  0.001607956    1.389    0.280
        87 -10.3333    205.2771    206.2854   4.5653016056e+01   3.0064759615e-01    0.1332241   0.09433831  -3.75 0.0001826262    1.512    0.339
        88 -12.9241    116.6180    205.0483   6.5314087447e+01   1.5638297155e+01    0.3274225    0.2300078 -67.34  0.001562044    1.656    0.396
        89 -11.6182    238.9578    204.6799   3.9020434821e+01  -4.4678293283e+00    0.1732225    0.1433071   6.40 0.0004394992    1.124    0.110
        90 -13.7735     61.8161    170.7364   7.4186605454e+01   3.2197685030e+01    0.4751149    0.3785671  59.97  0.002242845    1.267    0.211
        91 -13.7354     82.6479    196.0894   7.2377306742e+01   2.3114890745e+01     1.168167    0.6994508 -84.04  0.005147761    2.168    0.539
        92 -13.5195     61.7083    177.3296   7.5159585072e+01   3.0591953611e+01    0.5455238    0.3108065  23.19  0.002053968    2.069    0.517
        93 -13.2865     90.1290    201.2749   7.1245402992e+01   2.0773666233e+01    0.7496917     0.395518 -40.86  0.003107321    2.510    0.602
        94 -14.3954     94.0931    193.4822   6.9103612602e+01   2.1954115335e+01     1.112773    0.4714543  44.03  0.003910294    2.248    0.555
        95 -13.7283     66.7014    184.5353   7.4845286357e+01   2.8164125809e+01    0.8975947    0.5609537  66.23  0.004135994    1.858    0.462
        96 -13.7164     89.8306    183.1243   6.8586234015e+01   2.5077364353e+01    0.5623001    0.3820814 -73.52  0.001127304    1.639    0.390
        97 -13.0891     92.0921    188.1054   6.8784808138e+01   2.3534302258e+01     0.413758    0.3234731 -10.62 0.0009603203    1.720    0.419
        98 -14.4872     94.0906    183.7186   6.7567512476e+01   2.4254654010e+01    0.7644936    0.5045019 -78.92  0.003474358    1.861    0.463
        99 -13.4303    121.1806    200.9034   6.3538275241e+01   1.5773340436e+01    0.5728747    0.3238704  70.19   0.00195242    3.693    0.729
       100 -13.1412    122.3038    196.0203   6.2449182061e+01   1.6658494027e+01    0.3483514    0.3011817  79.35  0.001631362    1.318    0.241
       101 -11.7205    110.1822    203.1915   6.6590852643e+01   1.7122070125e+01    0.2023334    0.1601608  63.05 0.0002478732    1.349    0.258
       102 -10.7133    196.6711    202.2897   4.6655026543e+01   2.3969887923e+00    0.1259513    0.1108191  69.54 0.0002535547    1.620    0.383
       103 -14.0218     75.4880    185.2973   7.2666521554e+01   2.6735712118e+01     1.098047    0.3974572 -61.32   0.00405649    2.724    0.633
       104 -12.7121    144.8772    216.7612   6.0538096872e+01   8.4048695005e+00    0.4461457    0.3903927 -67.69   0.00256501    1.375    0.273
       105 -11.5261    212.0650    199.5620   4.3065579397e+01   3.8723073523e-01    0.2351066    0.1860082 -52.24  0.000968858    1.584    0.369
       106 -12.7308    219.4985    198.3121   4.1403345485e+01  -5.6353830536e-01    0.2406593    0.2073226  -6.39 0.0002679662    1.012    0.012
       107 -11.8754    180.6938    198.5731   4.9325939210e+01   5.7892789684e+00    0.2557912    0.2279772  42.26  0.001467593    1.229    0.186
       108 -11.8884    176.3792    198.6939   5.0286291299e+01   6.5165411015e+00    0.2433158    0.2055311  71.10 0.0006870324    1.626    0.385
       109 -13.0241    173.0247    195.5990   5.0444439169e+01   7.7092403315e+00    0.3129256    0.2845368  43.26 0.0004831272    1.193    0.162
       110 -16.1750     35.4484    199.6604   8.4361799607e+01   2.8437624757e+01     3.192774     1.500717  81.88   0.01345181    2.738    0.635
       111 -12.2361    166.3573    196.4718   5.2096942978e+01   8.7209197760e+00    0.2503526    0.2362937   0.14 0.0004049999    1.049    0.047
       112 -13.3956    160.6494    191.2793   5.2421634473e+01   1.0800753770e+01    0.5179688    0.3183821  55.08  0.001903644    2.071    0.517
       113 -12.1408    201.9693    195.9126   4.4377396547e+01   2.6683050400e+00     0.239049     0.184573 -33.67  0.001049321    1.259    0.206
       114 -12.2757    191.4820    195.9867   4.6545095314e+01   4.4199205654e+00    0.4004112    0.2687191 -18.95  0.001315324    1.684    0.406
       115 -12.0859    189.2498    192.9601   4.6436074314e+01   5.3704868585e+00    0.3909245    0.2561165  15.99  0.001347044    1.770    0.435
       116 -12.2580    153.2241    195.2182   5.4876034544e+01   1.1330196634e+01    0.2698451    0.2411457  49.71  0.001176544    1.185    0.156
       117 -12.9045    149.2946    195.3575   5.5821792446e+01   1.2008244144e+01    0.3154648    0.2359647  27.56  0.001151712    1.303    0.233
       118 -10.8435     69.5814    193.9339   7.5372576445e+01   2.5516979635e+01    0.1865583    0.1306692 -68.11 0.0002764199    1.425    0.298
       119 -11.1885    212.4874    193.5090   4.1838661271e+01   1.3734532029e+00    0.1347022    0.1198003  -7.78 0.0008101927    1.038    0.037
       120 -13.0027    133.8036    190.3781   5.8636295068e+01   1.5871083053e+01    0.3756964    0.2563349  24.50  0.001743137    1.572    0.364
       121 -12.7261     50.8010    189.9084   7.9594320749e+01   2.8943826139e+01    0.3840882    0.2762451  11.74  0.001036388    1.830    0.453
       122 -14.0195    110.8933    187.6009   6.3877415582e+01   2.0540324603e+01     0.727379    0.3165697  42.67  0.002785233    2.182    0.542
       123 -11.1060    240.9861    187.9784   3.5570227783e+01  -2.0875519697e+00    0.1552552    0.1264719 -20.79 0.0003436405    1.038    0.037
       124 -12.7840    208.8911    185.7676   4.1046067178e+01   3.3432713860e+00    0.5498953    0.2855333 -20.87  0.001481124    2.848    0.649
       125 -11.3830    174.0021    188.5110   4.8874621979e+01   8.9373661409e+00    0.2251252    0.1372851  37.30  0.001031063    1.585    0.369
       126 -14.0511    118.1028    179.5969   6.0616683795e+01   2.1130903849e+01    0.5837663    0.3827063  61.01  0.001710678    1.898    0.473
       127 -13.5117    121.8577    186.5952   6.0924053455e+01   1.8855560033e+01      0.37867    0.3497609 -40.31  0.001219798    1.143    0.125
       128 -13.8119    127.9199    185.8521   5.9270473704e+01   1.7938706993e+01    0.4156785    0.3717974 -28.18  0.001905019    1.200    0.167
       129 -12.3294     43.3256    186.7613   8.1108544097e+01   3.0588426513e+01    0.2610137    0.2035493  68.20 0.0007021029    1.218    0.179
       130 -11.7836    247.6845    185.6618   3.4000621831e+01  -2.6831877834e+00    0.2405269    0.1772115  13.08  0.001461793    1.423    0.297
       131 -12.0840    163.9024    185.1035   5.0489466587e+01   1.1477433341e+01    0.3026188    0.2346087 -59.25 0.0008633967    1.522    0.343
       132 -14.3116     32.0417    178.0637   8.3005585081e+01   3.3917486697e+01      1.14199    0.5118437 -88.43  0.004589641    2.795    0.642
       133 -11.3979     11.8455    160.5497   8.6424492523e+01   3.9992048094e+01     0.454988    0.1979588  69.25  0.001826768    3.164    0.684
       134 -13.6073     38.9783    181.7248   8.1641176643e+01   3.2291234011e+01    0.5050206    0.3848445  -7.66  0.002788389    1.842    0.457
       135 -12.3068     37.6283    178.1167   8.1578791895e+01   3.3311654467e+01    0.2735037    0.1996814 -62.02  0.001041182    1.313    0.238
       136 -12.6609     23.0932    168.9022   8.4334016327e+01   3.7010000039e+01    0.3576006    0.2910922 -86.54  0.001872873    1.080    0.074
       137 -12.8601     18.4380    168.3748   8.5487679861e+01   3.7556767927e+01    0.2762797    0.2482741 -40.57 0.0005532251    1.300    0.231
       138 -13.5227     12.9353    167.0417   8.6773685987e+01   3.8344249572e+01     0.456747     0.337433  33.09  0.002806446    1.496    0.331
       139 -12.3078     28.6110    171.2354   8.3146709140e+01   3.5917180632e+01    0.3750804    0.2314297 -72.12  0.001198657    1.449    0.310
       140 -12.0693     31.1567    167.7755   8.2085233539e+01   3.6506826707e+01     0.235029     0.200738 -87.04 0.0005367642    1.045    0.043
       141 -12.9304     49.4931    182.7117   7.9064513501e+01   3.0833306455e+01    0.3763909    0.2709056  52.39  0.001425587    1.354    0.261
       142 -12.6576    201.7985    182.5056   4.1812514245e+01   5.1508992827e+00    0.2602484    0.2344143  20.27 0.0003261873    1.110    0.099
       143 -11.2554    198.2702    180.3073   4.2089802741e+01   6.1796452875e+00    0.2076979    0.1816315  -5.54 0.0001931724    1.083    0.077
       144 -13.1193    110.2715    196.4799   6.5506780553e+01   1.8613895659e+01    0.4051837    0.2845347   7.14  0.001381894    1.978    0.494
       145 -12.3331    142.1928    181.0683   5.4846771070e+01   1.6382653574e+01    0.2545922    0.2082539  35.32 0.0003271849    1.170    0.145
       146 -11.2656    246.2397    179.7353   3.3123449954e+01  -1.5157910786e+00    0.1716602    0.1289344  -9.48 0.0004298395    1.310    0.237
       147 -14.2004    106.1177    176.7916   6.3230099950e+01   2.3893927888e+01    0.4719009    0.3842131 -65.80  0.001569424    1.294    0.227
       148 -12.0508     17.3812    179.2228   8.6795997265e+01   3.5055129035e+01    0.3229348    0.1499643  65.71 0.0009382368    2.507    0.601
       149 -12.0837     16.9717    175.2958   8.6533554225e+01   3.6025935808e+01    0.2349962    0.1554813 -86.29 0.0003972977    1.355    0.262
       150 -13.9940    126.9840    166.7023   5.5847371585e+01   2.2489924319e+01    0.5178782    0.3711525  35.70  0.002404624    1.369    0.269
       151 -14.7016    127.0435    173.5535   5.7182905168e+01   2.0898001094e+01    0.8616319    0.5385162 -74.37   0.00196331    2.442    0.591
       152 -13.8715    130.2023    169.5726   5.5592689808e+01   2.1221135360e+01    0.4539784    0.3303613  23.42  0.001638975    1.510    0.338
       153 -12.3504    248.0965    176.1591   3.2138220855e+01  -1.2061948301e+00    0.2252451    0.1826987 -48.76 0.0003555965    1.411    0.291
       154 -12.9723    137.5753    176.8626   5.5169601127e+01   1.8180173884e+01    0.2844559    0.2560023  35.50 0.0004657152    1.068    0.064
       155 -11.3349     53.5057    177.3711   7.7340763482e+01   3.1638897345e+01    0.2457556    0.1410076  51.74  0.001149887    1.798    0.444
       156 -11.8921    225.0622    175.5132   3.5981497907e+01   2.4860032480e+00     0.273144     0.188811  56.25  0.001404237    2.018    0.504
       157 -10.5559    212.2471    176.3540   3.8537824110e+01   4.4808815983e+00    0.1401337    0.0985908 -13.52 0.0003967119    1.592    0.372
       158 -11.6635    187.9254    176.3046   4.3432572576e+01   8.8114401212e+00    0.2005212    0.1778225  18.80 0.0003260154    1.096    0.088
       159 -12.4452    101.0430    175.7939   6.4395746615e+01   2.4997486904e+01    0.1980194    0.1890212  45.02            0    1.027    0.027
       160 -15.0562     83.1409    167.5563   6.7816785028e+01   2.9905140279e+01     1.002435    0.6674464 -21.53  0.004295649    2.258    0.557
       161 -13.6763     88.8677    153.3905   6.3632028865e+01   3.2477191277e+01    0.4421141    0.3162716  48.15  0.001859832    1.438    0.305
       162 -15.3593     78.2943    154.2540   6.6839018871e+01   3.3936418310e+01     1.047766    0.6809903 -78.53  0.002456756    1.875    0.467
       163 -13.2454     84.4125    149.8737   6.4240499190e+01   3.4064623054e+01    0.3635159     0.305599 -28.32  0.001082318    1.321    0.243
       164 -14.2614     83.3367    145.0665   6.3613477463e+01   3.5421286393e+01     0.557264    0.4247083  34.30  0.002772474    1.335    0.251
       165 -14.1813     90.3960    172.3283   6.6649713714e+01   2.7591217731e+01    0.6355771     0.375012 -53.52  0.001272409    1.697    0.411
       166 -13.3885     91.8308    166.1750   6.5177706392e+01   2.8857004917e+01     0.363263    0.2588199  50.06 0.0002904841    1.433    0.302
       167 -14.1213     76.5175    170.6316   7.0148737509e+01   3.0154328332e+01    0.6442022    0.3733265  73.11  0.002504096    2.666    0.625
       168 -11.6699    208.2205    173.6242   3.8768320158e+01   5.6781923614e+00    0.1952702    0.1263692  27.90 0.0009481153    1.675    0.403
       169 -12.3649     41.3614    172.1144   7.9889890540e+01   3.4362349552e+01    0.2023986    0.1917118   9.44 0.0006769756    1.244    0.196
       170 -13.9453    149.3580    175.5502   5.2024807083e+01   1.6240633167e+01    0.7237821    0.3943023  53.80  0.001190631    2.291    0.563
       171 -12.1784    235.2469    170.9939   3.3295742154e+01   1.6248559916e+00    0.2407865    0.1675875  16.63  0.001306145    1.675    0.403
       172 -13.1223    153.0189    170.0312   5.0026630399e+01   1.6739628845e+01    0.3858506    0.3395171 -50.07 0.0007279975    1.190    0.160
       173 -14.4617    155.7252    165.6572   4.8472537243e+01   1.7161971070e+01    0.9426055    0.3994786  43.67  0.002048673    2.344    0.573
       174 -12.8104    100.1356    171.0860   6.3799826674e+01   2.6280846385e+01    0.2270662    0.2069205 -18.59 0.0004527339    1.224    0.183
       175 -11.0137    166.1376    170.8624   4.7120928680e+01   1.4024265722e+01    0.1978649    0.1680184   5.13  0.001013998    1.254    0.203
       176 -11.4268    197.5838    170.1899   4.0183220442e+01   8.2277788436e+00    0.2059191    0.1275537 -30.09 0.0009423133    1.685    0.406
       177 -12.9225     57.0634    164.3667   7.4557314950e+01   3.4395017422e+01    0.3952205    0.2385752  85.88  0.001481512    2.149    0.535
       178 -12.2030     45.0188    164.8138   7.7959230803e+01   3.5745514891e+01    0.2169617    0.1717578  79.24  0.001205079    1.272    0.214
       179 -13.2227     54.1587    167.8528   7.5866558113e+01   3.3898403588e+01    0.4220305    0.3194756  74.27  0.002253671    1.395    0.283
       180 -11.9233     52.0579    162.0000   7.5608788227e+01   3.5609148919e+01    0.2875687    0.1764619  35.38  0.001219239    1.665    0.399
       181 -12.3457     50.3453    165.0350   7.6519815522e+01   3.5064099356e+01    0.2771734    0.2336453 -57.66 0.0006776528    1.169    0.144
       182 -13.7765     47.4081    161.2019   7.6797590725e+01   3.6363658704e+01    0.5910769    0.3520229  84.92  0.002655489    2.102    0.524
       183 -12.9377    212.2943    163.9272   3.6015002580e+01   6.7517553942e+00    0.2960276    0.2546961 -51.53 0.0005057231    1.273    0.215
       184 -12.7801    200.8818    165.7879   3.8612994369e+01   8.4661977219e+00    0.4924688     0.236748  50.09   0.00127365    2.493    0.599
       185 -11.3813    184.3334    165.8085   4.2034514679e+01   1.1564351443e+01     0.220653    0.1290374 -34.49 0.0009523694    1.777    0.437
       186 -13.4971    110.6826    165.0960   5.9836491334e+01   2.5874798663e+01    0.3707335    0.2805771   0.63  0.001693059    1.753    0.430
       187 -12.5828    104.2951    164.9442   6.1535614087e+01   2.7043560780e+01    0.2158535     0.203172 -63.74  0.001151285    1.078    0.073
       188 -14.1970     64.8475    163.9089   7.2310925587e+01   3.3479268331e+01    0.5177873    0.3352481 -58.04  0.002522303    1.478    0.324
       189 -13.7452     26.5040    148.3242   8.0990860361e+01   4.1729937496e+01    0.6458828    0.3944485  87.73  0.003220241    1.804    0.446
       190 -12.4609     31.6947    147.4285   7.9368327970e+01   4.1462731393e+01    0.3441161    0.2168694  42.78  0.001075219    1.686    0.407
       191 -11.5243     26.1725    153.7981   8.1776427645e+01   4.0414081098e+01    0.2494815    0.2128076 -23.84  0.001250804    1.391    0.281
       192 -13.5713     37.7355    161.5071   7.9531450893e+01   3.7367619862e+01    0.4754001    0.3616007  19.97  0.002676948    1.526    0.345
       193 -12.0683     32.3712    157.7157   8.0533747652e+01   3.8855636072e+01    0.2886644    0.2062002  85.37 0.0007699531    1.428    0.300
       194 -12.0994     29.1740    156.3946   8.1258758191e+01   3.9493662534e+01    0.2804356    0.2288131  35.18  0.001684514    1.335    0.251
       195 -12.6837     25.4670    161.9962   8.2944580744e+01   3.8470031083e+01    0.3984175    0.3488275  34.11  0.002528465    1.275    0.215
       196 -13.7442    121.8426    159.3674   5.5703430432e+01   2.5171475253e+01    0.4779722    0.2896147 -61.78  0.001971504    1.921    0.479
       197 -13.3275    117.6742    157.6922   5.6472133530e+01   2.6350892002e+01    0.3408649    0.2580834  -9.65  0.001532778    1.756    0.431
       198 -12.1968      4.2349    159.8648   8.8346937408e+01   4.0727912398e+01    0.3084614    0.2006363 -65.28 0.0009407467    1.333    0.250
       199 -12.8910      3.6644    152.2317   8.7784597934e+01   4.2591049655e+01    0.5913304    0.2288174 -62.90  0.002766323    2.065    0.516
       200 -13.0932    170.0790    159.4423   4.3816913576e+01   1.5649379115e+01    0.3973902    0.2854532  49.15  0.001884943    1.468    0.319
       201 -13.5674     95.9503    157.9519   6.2502283194e+01   3.0177779617e+01    0.3986871    0.2866625 -38.66 0.0007782221    1.525    0.344
       202 -12.9966    133.9928    157.8471   5.2207270867e+01   2.3182179835e+01    0.4361698     0.284719  71.74  0.001666051    2.514    0.602
       203 -12.6964    105.1307    158.3990   6.0035152674e+01   2.8473666766e+01    0.3008615    0.2322883 -67.85  0.001210257    1.410    0.291
       204 -12.2441    190.8746    155.6019   3.8494996755e+01   1.2336959655e+01    0.2905063    0.1913059 -59.53  0.001293899    1.923    0.480
       205 -14.1070     62.7108    153.4080   7.1216491448e+01   3.6383122033e+01    0.5513858    0.3445765 -68.26  0.002217428    1.600    0.375
       206 -11.4550    141.4917    155.5076   4.9796659951e+01   2.2230120899e+01    0.1534844    0.1503197  46.36 -0.0001054975    1.040    0.039
       207 -11.6496     20.5504    154.4201   8.3416533085e+01   4.0762039191e+01    0.2192183    0.1903414 -82.49  0.000608334    1.020    0.020
       208 -11.7839    237.5652    153.8943   2.9521330179e+01   4.1873128758e+00     0.254559    0.1861432  27.21  0.001058395    1.573    0.364
       209 -12.1607    212.2586    153.6124   3.3883552170e+01   8.6703206821e+00    0.2606334    0.1609433 -49.25 0.0005358152    1.667    0.400
       210 -13.0166    171.9114    151.2329   4.1616542717e+01   1.6997706246e+01    0.4745277     0.272832 -63.54  0.001752457    2.725    0.633
       211 -12.6118    167.9010    150.7304   4.2409787923e+01   1.7919027752e+01    0.2894294    0.2508131 -64.98  0.001323883    1.300    0.231
       212 -12.1522     51.0997    152.9931   7.4529464746e+01   3.7967973879e+01    0.2831532    0.2134132  13.18 0.0005505182    1.580    0.367
       213 -13.2477     55.0180    150.3190   7.2958819224e+01   3.8153120241e+01    0.3093904    0.2799462  56.06  0.001261401    1.139    0.122
       214 -13.2477     57.4313    144.0512   7.1185443981e+01   3.9409945268e+01    0.3884475    0.2486792 -38.87 0.0005810026    1.726    0.421
       215 -11.8366    249.1739    151.9495   2.7293435277e+01   2.6328232406e+00    0.1869435    0.1733668 -18.53 0.0002927672    1.110    0.099
       216 -13.3266    133.1446    151.3531   5.1027066381e+01   2.4837868876e+01    0.3759828    0.3105941 -10.26  0.001779241    1.428    0.300
       217 -11.3205    224.7143    151.6923   3.1245110593e+01   6.7765700427e+00    0.1348395    0.1011421  -8.42  0.000194074    1.569    0.362
       218 -13.5130    108.9377    149.2730   5.7108058755e+01   2.9978937320e+01    0.4604266    0.3340161 -46.22 0.0009908396    1.396    0.284
       219 -12.6972     69.4849    151.1733   6.8849939993e+01   3.6001602810e+01    0.2384591    0.1959304  62.68 0.0006278909    1.302    0.232
       220 -13.0960     95.7881    149.3564   6.0848302111e+01   3.2302541657e+01     0.307501    0.2493044 -34.04  0.001347686    1.336    0.252
       221 -12.1369     21.0267    149.3330   8.2681355783e+01   4.1965265608e+01    0.4377879    0.2480678  -6.04  0.001902058    2.756    0.637
       222 -13.3077     14.8079    141.3762   8.3501568474e+01   4.4409329222e+01    0.5685527    0.3002383  21.86  0.002126863    2.181    0.542
       223 -13.4110     13.4836    134.9879   8.3102871000e+01   4.6059218383e+01    0.5096825    0.2507975 -87.56  0.002202041    2.339    0.572
       224 -12.5595     12.1913    149.8051   8.5212329740e+01   4.2561742262e+01     0.330438    0.2058531  35.58   0.00150352    1.742    0.426
       225 -12.7014      9.2118    146.8438   8.5719375277e+01   4.3498295258e+01    0.2470898    0.2305568 -87.00 0.0009314981    1.110    0.099
       226 -11.9086    146.9801    148.7838   4.6946299784e+01   2.2625080607e+01    0.2626056    0.2228256 -45.79  0.000342701    1.194    0.162
       227 -13.3287     40.8111    148.1304   7.6799702302e+01   4.0355014334e+01    0.3154898    0.2782732  -0.35 0.0007700017    1.320    0.243
       228 -13.8448    119.0368    144.0249   5.3174147674e+01   2.9312864802e+01    0.5290504    0.4112855 -89.08  0.002276415    1.699    0.411
       229 -12.8018    122.7462    143.6451   5.2078913355e+01   2.8677062523e+01     0.292129    0.2421273 -42.20 0.0004101627    1.228    0.185
       230 -12.6598    151.4553    145.6666   4.5146086337e+01   2.2392165365e+01    0.2805695    0.2717473  28.77 0.0002798649    1.020    0.020
       231 -13.8527    102.1627    142.7391   5.7631115415e+01   3.2782672669e+01    0.6467285    0.4251079  62.94   0.00244492    2.018    0.504
       232 -13.2585     70.6332    142.9902   6.7006353690e+01   3.7870495046e+01    0.3714297     0.267273 -52.09 0.0004868137    1.335    0.251
       233 -12.5114     51.2410    142.8492   7.2851437420e+01   4.0479105923e+01    0.3247243    0.2244586  37.37 0.0009650203    1.513    0.339
       234 -11.5533    222.6511    140.8488   2.9350371779e+01   9.0984132395e+00    0.3289448    0.1952017 -64.12  0.001368763    2.699    0.629
       235 -11.3055    178.1708    142.3797   3.8266797457e+01   1.7543523761e+01    0.2093421     0.141437  55.45 0.0006656719    1.664    0.399
       236 -13.3410     95.1744    140.1366   5.9101053626e+01   3.4649581892e+01    0.4224722    0.2679406 -25.83  0.001700567    2.206    0.547
       237 -12.5145     39.9607    140.3959   7.5875235670e+01   4.2366047981e+01    0.3691879     0.222295  -8.59 0.0008766772    2.538    0.606
       238 -11.7908     35.9642    138.5219   7.6800676963e+01   4.3243206609e+01    0.1879729    0.1363515  22.19 0.0005858971    1.549    0.354
       239 -11.9124    131.9607    140.0647   4.8803486218e+01   2.7656652636e+01    0.2493937    0.1941473  -4.25 0.0006397232    1.656    0.396
       240 -12.3902     30.4842    139.1129   7.8552599773e+01   4.3631189366e+01      0.34165    0.1768653 -52.92  0.001623624    1.735    0.424
       241 -11.6435     77.3055    139.3179   6.4269703064e+01   3.7782157366e+01    0.1521419     0.112592 -24.75 0.0003130106    1.630    0.386
       242 -11.3127    109.5098    138.0032   5.4484202659e+01   3.2556490231e+01    0.2356835    0.1518088 -49.50  0.001019171    1.555    0.357
       243 -11.4451    232.9784    136.9781   2.6834458780e+01   7.9185027533e+00    0.2036885    0.1799733 -43.06  0.000374133    1.054    0.052
       244 -13.9794    117.7422    134.9087   5.1458558311e+01   3.1693716760e+01    0.7085308    0.3774368  50.51  0.002717311    2.087    0.521
       245 -12.8384     45.6256    135.9577   7.3409279465e+01   4.2845576456e+01    0.3796081    0.2621149  82.22  0.001264781    1.790    0.441
       246 -11.9227     90.0273    136.0058   5.9737184243e+01   3.6534625977e+01    0.2357713    0.1812378  70.21 0.0004549781    1.616    0.381
       247 -12.9550     84.6503    135.7520   6.1303456819e+01   3.7491371602e+01    0.4061395    0.2449373   2.51  0.001454737    3.057    0.673
       248 -13.4960    101.9133    134.1038   5.5792796407e+01   3.4894540900e+01    0.5987583    0.2624769  29.37  0.002017609    2.817    0.645
       249 -11.9654    102.1862    129.8262   5.4729929324e+01   3.5857457041e+01    0.2937965    0.1803413 -42.91 0.0005195318    1.666    0.400
       250 -10.8319    209.7019    134.3075   3.0231481947e+01   1.2751943829e+01    0.1388622    0.1094875 -73.25 0.0002971688    1.592    0.372
       251 -13.5372     57.5164    133.4708   6.9243732563e+01   4.2023928136e+01    0.3140618    0.2394219 -89.35  0.001599187    1.531    0.347
       252 -11.3337    175.2478    133.0096   3.6757538979e+01   2.0065392368e+01    0.1976009     0.126531 -42.50 0.0003992636    1.538    0.350
       253 -12.2174    128.3496    133.1821   4.8155521506e+01   2.9958178022e+01    0.2541398    0.2094098  29.85 0.0005680245    1.247    0.198
       254 -13.9256     35.5273    130.5177   7.5665706443e+01   4.5259372413e+01    0.5159197    0.4164965 -67.05  0.002790818    1.132    0.117
       255 -11.2499    230.0793    130.5181   2.5961334138e+01   9.5735158738e+00    0.1985119    0.1618199 -41.12 0.0003443935    1.094    0.086
       256 -11.0914     19.9215    131.5125   8.0689593075e+01   4.6411621754e+01    0.2612567    0.1343074   8.37  0.001202492    2.590    0.614
       257 -11.1526      2.3653    131.1507   8.5949260324e+01   4.7719959339e+01    0.1771979    0.1338082 -74.08 0.0006505029    1.116    0.104
       258 -11.0625    199.4734    130.4628   3.1274123962e+01   1.5517049598e+01    0.1432145    0.1360654 -41.85 9.531232e-05    1.010    0.009
       259 -14.0618     82.2157    128.2415   6.0419060084e+01   3.9707681104e+01    0.5232403    0.4323407  46.35  0.002702634    1.265    0.210
       260 -12.3792     75.0355    125.0323   6.1965343951e+01   4.1614783633e+01    0.2439039    0.2166483  26.54 0.0003820942    1.160    0.138
       261 -12.4353     45.9642    128.7569   7.2038899999e+01   4.4583173545e+01    0.2835549    0.1713952  58.94 0.0007724095    2.183    0.542
       262 -13.7891     64.0341    127.2093   6.5940787933e+01   4.2691441426e+01    0.4778366    0.2961063  62.73  0.002021018    2.318    0.569
       263 -11.8923     73.5571    132.3070   6.3987602703e+01   4.0072350308e+01    0.2685001    0.1439919 -62.08 0.0008822042    1.945    0.486
       264 -12.3750    121.5767    127.2465   4.8575488465e+01   3.2686169971e+01    0.3560447    0.2628157   7.96  0.001549231    1.813    0.448
       265 -11.6804    125.7192    123.6737   4.6566076851e+01   3.2639892175e+01    0.2375664     0.201723 -43.07 0.0004599652    1.192    0.161
       266 -11.7024    109.4179    126.7478   5.1891734202e+01   3.5210367535e+01    0.2166908    0.1450141 -39.48 0.0008558012    1.561    0.360
       267 -12.0688    169.3518    126.1129   3.6425951418e+01   2.2734728675e+01    0.2614651    0.2058969  33.42 0.0005224596    1.356    0.263
       268 -13.1049     26.4827    124.9901   7.7655928048e+01   4.7452035961e+01    0.3475647    0.2956062 -23.74  0.002128859    1.271    0.213
       269 -12.9486     20.9034    122.8911   7.9122391492e+01   4.8424321441e+01    0.3650234    0.2461985  -6.58  0.001029274    1.837    0.456
       270 -13.2452     64.2788    119.4902   6.4225463192e+01   4.4525714937e+01    0.4341857    0.1833669 -50.93  0.001694968    2.171    0.539
       271 -12.7440     15.5900    123.3229   8.0885278501e+01   4.8724545961e+01    0.2094741    0.2038735  38.78 0.0005404645    1.185    0.156
       272 -11.8903    108.9784    122.4956   5.0988245963e+01   3.6274919646e+01    0.2614234     0.202995  63.86  0.001215306    1.538    0.350
       273 -12.9180    104.5227    121.4791   5.2046569166e+01   3.7364944915e+01    0.3948523    0.2969734  41.84  0.001368196    1.328    0.247
       274 -12.2965    100.2023    118.7825   5.2674121953e+01   3.8799193696e+01    0.3166029    0.2366782  76.75 0.0009258945    1.894    0.472
       275 -11.6059      5.5233    122.0392   8.3886153787e+01   4.9702599153e+01    0.1934747    0.1059457 -70.35 0.0004148272    1.538    0.350
       276 -11.8509    189.0452    121.3315   3.1204169658e+01   1.9438411800e+01    0.1998364    0.1899636  60.15 0.0004537459    1.087    0.080
       277 -13.0890     57.4656    118.0173   6.6161776688e+01   4.5798228382e+01    0.3062255     0.212587 -16.10 0.0008258079    1.795    0.443
       278 -14.3727     77.8295    118.4860   5.9587644480e+01   4.2742091343e+01    0.7122172    0.4509916  57.36  0.003056219    2.093    0.522
       279 -11.8308    199.8028    121.3880   2.9172976146e+01   1.7162838186e+01    0.2039837    0.1336792  38.84 0.0009524246    1.717    0.418
       280 -12.1539     94.7482    117.6254   5.4050226513e+01   4.0067505943e+01    0.3026904    0.2594603 -70.13  0.001542278    1.310    0.236
       281 -12.6877     18.3120    114.8759   7.8719714270e+01   5.0547591376e+01    0.3518412    0.3031085 -38.76  0.002250362    1.136    0.119
       282 -12.3583     22.3375    117.7211   7.7841437365e+01   4.9554516501e+01    0.2378344    0.2069607  75.03 0.0002945085    1.283    0.221
       283 -11.5611     24.2948    115.2878   7.6786327554e+01   4.9977725068e+01    0.2410759     0.180191 -68.93 0.0001853673    1.241    0.194
       284 -13.1463     14.2534    117.6409   8.0485303606e+01   5.0181939919e+01    0.2519897    0.2099385 -29.61 0.0009076368    1.257    0.204
       285 -11.5792    224.1010    120.4631   2.4797653397e+01   1.2463276128e+01    0.1848316    0.1359163  53.31 0.0004564622    1.502    0.334
       286 -13.0138    103.8570    114.3622   5.0468527253e+01   3.9113165988e+01    0.4683284    0.3326259  34.93  0.001345691    1.414    0.293
       287 -12.0502    109.0663    111.9719   4.8311617088e+01   3.8629538699e+01    0.3295927    0.2208571  34.86 0.0008736165    1.512    0.339
       288 -12.6407    115.9932    113.0279   4.6582954307e+01   3.7001318274e+01     0.344732    0.2690094  24.62 0.0009080603    1.387    0.279
       289 -11.3501    113.2249    110.0311   4.6596751492e+01   3.8220995045e+01    0.2367934     0.208355 -12.97 0.0007321805    1.227    0.185
       290 -10.3293     29.4238    116.4580   7.5267393977e+01   4.9254150053e+01    0.1334538    0.1161637 -53.73 0.0001257001    1.012    0.012
       291 -11.5002    196.6920    115.5620   2.8418888801e+01   1.8903734116e+01    0.2565908    0.1392386  46.90 0.0008610429    1.935    0.483
       292 -13.1862     83.0946    111.4935   5.6206145332e+01   4.3514037943e+01    0.5552154    0.2548018 -49.47  0.000691282    2.114    0.527
       293 -13.4352     62.7366    110.9667   6.2825059898e+01   4.6764324178e+01    0.6446704    0.4775558  79.50  0.003095408    1.933    0.483
       294 -12.0097     63.5066    105.5316   6.1276971421e+01   4.7920589362e+01    0.2560128    0.2269981  -9.34  0.001074876    1.136    0.120
       295 -12.6417    170.4109    109.3648   3.2141073732e+01   2.5836201821e+01    0.3074475     0.256503 -69.23 0.0001607513    1.323    0.244
       296 -12.0181     90.0559    110.9609   5.3849170292e+01   4.2434673071e+01    0.2211401    0.2142513  -9.15 0.0002909615    1.005    0.005
       297 -11.9247     53.1166    110.3709   6.5975605538e+01   4.8172573865e+01    0.3262349    0.2257869  24.02  0.001222103    1.540    0.351
       298 -11.4989    161.6783    110.3045   3.4274430613e+01   2.7613169245e+01    0.1542085    0.1206324 -85.86 0.0003034476    1.636    0.389
       299 -12.3435    217.8635    109.7255   2.3476914676e+01   1.5574914494e+01    0.4316251    0.1282266  57.65  0.001342736    4.503    0.778
       300 -11.4908    157.5576    106.9627   3.4360522096e+01   2.9203004577e+01    0.3703125     0.249101  17.37  0.001490564    2.323    0.570
       301 -11.9267    121.8367    108.3329   4.3716431974e+01   3.6802925450e+01    0.2548048    0.2385283 -37.14 0.0003876963    1.086    0.079
       302 -10.9813    140.0060    107.2421   3.8631099613e+01   3.3087230923e+01     0.214135    0.1283097  46.40 0.0008922985    1.635    0.388
       303 -11.1964     92.3806    106.8227   5.2050872210e+01   4.2949615391e+01    0.2285575    0.1337498 -38.25 0.0009570654    1.803    0.445
       304 -13.3699     71.5980    119.1509   6.1756522021e+01   4.3546574552e+01    0.4077054    0.2809375  16.15  0.001920213    1.687    0.407
       305 -11.9817      2.1785    107.1533   8.2955052931e+01   5.3396949501e+01    0.2095052    0.1530576 -25.83  0.001300853    1.455    0.313
       306 -12.8680     10.7468    105.2311   7.9740295701e+01   5.3345452078e+01    0.3811283    0.2696711  -8.01   0.00154534    1.619    0.382
       307 -11.7949     13.2678    102.4037   7.8390162431e+01   5.3839159110e+01    0.4191339    0.1737385  25.46   0.00194954    2.620    0.618
       308 -11.3270    229.6176    103.1449   2.0280393333e+01   1.4371591556e+01    0.2005331    0.1732092 -89.19 0.0004045073    1.235    0.190
       309 -10.8497    105.3322    102.6718   4.6959478515e+01   4.1396495956e+01    0.1540558    0.1227742  82.12 0.0007051662    1.716    0.417
       310 -12.5478     78.8407    101.6206   5.5083251758e+01   4.6457481605e+01    0.2929767    0.2872812 -62.97 0.0006105363    1.121    0.108
       311 -12.9148     76.6494     97.0999   5.4621482709e+01   4.7815174733e+01    0.2788343    0.2387538 -14.62 0.0005899533    1.183    0.155
       312 -11.2552     25.7188     98.5137   7.3194197533e+01   5.3802295828e+01    0.2538743    0.1900765  81.03  0.001404694    1.759    0.431
       313 -13.0038    162.6246     99.2948   3.1281995060e+01   2.9532527682e+01    0.3723471    0.2379888 -59.53   0.00114176    1.887    0.470
       314 -11.5156    152.4034     99.2700   3.3558196411e+01   3.1876825273e+01    0.2849681    0.1892243  61.64 0.0006765614    1.657    0.396
       315 -11.9536     93.3860     99.2227   4.9704572327e+01   4.4430715718e+01     0.213667    0.1924561  16.72 0.0007741927    1.099    0.090
       316 -11.8846     58.7568     97.6669   6.1000539569e+01   5.0368604445e+01    0.3710649    0.2795525  52.11  0.001925515    1.626    0.385
       317 -12.6573      8.8200     97.6800   7.9168810001e+01   5.5210390487e+01    0.2805548    0.2305623 -69.89  0.001476355    1.173    0.148
       318 -12.4846     65.2097     95.4051   5.8130541811e+01   4.9961254059e+01     0.327736    0.2364614  -3.43  0.001618104    1.640    0.390
       319 -10.7902    118.0671     95.0052   4.1152447325e+01   4.0368134865e+01    0.1743052    0.1702873   2.69 0.0003689781    1.029    0.028
       320 -12.1059     31.6318     99.3785   7.1216149919e+01   5.3078963406e+01    0.5055814    0.2616906 -28.10  0.002245583    2.332    0.571
       321 -10.5804    243.4390     94.3966   1.6597877070e+01   1.3159301884e+01    0.1258962    0.1087829 -56.95 8.491665e-05    1.015    0.014
       322 -11.1824    208.6786     99.6803   2.2724848357e+01   1.9219391428e+01    0.1354837    0.1111731   8.44 0.0005954316    1.669    0.401
       323 -10.7190     47.2446     93.3535   6.4103663165e+01   5.2799823337e+01    0.1784606    0.1214957  36.22 0.0003632385    1.601    0.375
       324 -12.1800    170.9576     91.4538   2.7551465636e+01   2.9062689348e+01    0.2834568    0.2184757 -44.01 0.0006895406    1.305    0.234
       325 -11.5237     41.2856     91.8101   6.5944399095e+01   5.3823120431e+01    0.2104874    0.1749415  33.18 0.0004945291    1.337    0.252
       326 -12.3534    188.8995     90.9756   2.4051346288e+01   2.5053044016e+01     0.266328    0.2014432  50.93 0.0003727255    1.358    0.263
       327 -11.0178    139.9966     90.8292   3.4244515510e+01   3.6325928510e+01    0.2516764    0.1722421  74.60   0.00106586    1.995    0.499
       328 -11.7487     69.1843     89.8243   5.5222136621e+01   5.0575304060e+01    0.1975914    0.1578553 -14.18 0.0002705333    1.303    0.232
       329 -11.0863     28.4716     90.4722   7.0470873430e+01   5.5391985338e+01    0.1313569     0.113242 -39.18 6.668225e-05    1.003    0.003
       330 -10.6752    249.4147     89.5183   1.4885894758e+01   1.2818805168e+01    0.1258008    0.1045488 -54.45 5.953066e-05    1.015    0.014
       331 -12.2217    125.8803     87.3219   3.6858489033e+01   4.0171007455e+01    0.4776246    0.2637936 -40.55  0.001837473    1.887    0.470
       332 -11.9322      3.3830     88.0210   7.9493125580e+01   5.7699775730e+01    0.2799137    0.1569902 -67.28  0.001536867    1.584    0.369
       333 -13.0469      9.1240     86.7403   7.7082538534e+01   5.7663946409e+01    0.4023002    0.2573784  -7.70  0.001222496    1.735    0.424
       334 -12.1708    149.2966     88.0093   3.1282159253e+01   3.4710696245e+01    0.2126206     0.198975 -55.18 0.0008827198    1.102    0.092
       335 -12.6441     54.5918     85.7490   5.9405708402e+01   5.3542586449e+01    0.4743408    0.3508201   1.28  0.002461229    1.462    0.316
       336 -11.1746    133.2556     84.2370   3.4082621483e+01   3.9090749437e+01    0.1917291    0.1694729  86.03 0.0002562189    1.278    0.218
       337 -11.8433    112.5504     83.0025   3.9280719933e+01   4.3889800751e+01    0.3106443    0.2048398  50.03 0.0003414996    1.512    0.339
       338 -11.8050    111.9319     78.0456   3.7988729887e+01   4.4944872805e+01    0.4010094    0.2818487 -63.13  0.001130093    1.935    0.483
       339 -12.0033    150.0725     83.2616   2.9822718968e+01   3.5386918828e+01    0.2429885     0.205469 -23.06 0.0005375814    1.333    0.250
       340 -12.0025    182.4199     81.2056   2.2823187961e+01   2.8197741369e+01    0.2063051    0.1259113 -51.40  0.000943186    1.688    0.408
       341 -11.6010     88.9386     78.9244   4.5292468902e+01   4.9410117832e+01    0.2245345    0.2068683   6.83 0.0006560459    1.019    0.018
       342 -11.7603     51.6988     79.3173   5.8720065684e+01   5.5278233159e+01    0.4513965    0.2929047  66.47  0.001889988    3.197    0.687
       343 -11.2296     55.0334     77.9575   5.7056848317e+01   5.5115751990e+01    0.2376495    0.2100484 -15.46 0.0007582234    1.012    0.012
       344 -10.7406     11.6876     71.6628   7.2885643945e+01   6.0774235505e+01    0.2191438    0.1747433  -9.64  0.001185157    1.245    0.197
       345 -12.9190      7.1261     77.5701   7.6043811804e+01   5.9792149913e+01    0.4123992    0.2711103 -12.39 0.0003763685    1.591    0.371
       346 -11.8327      8.7163     73.6902   7.4572559964e+01   6.0530745021e+01    0.2708883    0.1271911 -49.55 0.0001603255    1.663    0.399
       347 -11.5622     73.9528     82.5259   5.1459815472e+01   5.1336819700e+01    0.2056607    0.1358103  34.12 0.0003815831    1.499    0.333
       348 -11.7791    180.2032     77.1666   2.2215439671e+01   2.9380429472e+01    0.2051704    0.1922326  40.40 0.0005189374    1.189    0.159
       349 -11.8938    161.6892     77.0021   2.5673735557e+01   3.3743136400e+01    0.2055669    0.1943091 -52.76 0.0006729195    1.096    0.087
       350 -10.2316    227.6968     76.6930   1.4945434005e+01   1.9024013658e+01    0.1180589    0.1037997  12.50 0.0004034088    1.602    0.376
       351 -12.4204     75.4079     75.2193   4.8750974337e+01   5.2543305016e+01    0.3403254     0.202839 -32.47  0.001474411    1.772    0.436
       352 -11.2646    115.7215     74.6652   3.5912427667e+01   4.4735430018e+01     0.257293    0.1827576 -33.47  0.001247928    1.504    0.335
       353 -12.1466     86.2170     73.9901   4.4672925596e+01   5.0855573069e+01    0.4275718    0.2385747 -39.46  0.001275386    1.834    0.455
       354 -11.5254    155.9887     73.9806   2.6031770580e+01   3.5593270645e+01    0.2356461    0.1752855 -74.99  0.001132689    1.653    0.395
       355 -11.2528    150.6420     73.4026   2.7003517202e+01   3.6951579235e+01    0.2674343     0.182241 -32.92  0.001273592    1.612    0.380
       356 -11.8562    106.3137     73.0830   3.8108429363e+01   4.7033225639e+01    0.2924393    0.2100509  53.07  0.001435074    1.437    0.304
       357 -11.0082    219.0396     72.3028   1.5128340151e+01   2.1497861009e+01    0.1803123    0.1580143 -80.19 0.0005613383    1.052    0.050
       358 -11.9548      3.4870     71.5104   7.6261590699e+01   6.1287116521e+01    0.2085821    0.1320674  48.21  0.000900829    2.256    0.557
       359 -13.0633    241.7353     66.6892   1.1227385197e+01   1.7718858782e+01    0.2442318    0.2151714 -67.93 0.0005439633    1.085    0.078
       360 -12.1471    198.3026     67.6567   1.6980753737e+01   2.6743328667e+01    0.3169244    0.2007366 -23.40  0.001499754    2.130    0.530
       361 -10.8288     72.4787     68.5530   4.7700557586e+01   5.4300562124e+01    0.1402577    0.1243978   2.62 3.947788e-05    1.025    0.024
       362 -11.3182    225.1906     67.1807   1.3246861158e+01   2.0981152773e+01    0.1771207    0.1657922 -69.24 0.0003928996    1.147    0.128
       363 -11.7927     60.1386     67.0540   5.1796182485e+01   5.6537951066e+01    0.2089641    0.1648108 -12.45 0.0004775034    1.230    0.187
       364 -12.2555      9.6813     66.9140   7.2618376984e+01   6.1893537568e+01    0.2568541    0.1993757 -15.91 0.0005886829    1.217    0.179
       365 -11.7092     10.3037     63.3044   7.1468060781e+01   6.2594194200e+01    0.1973903    0.1419042 -30.63 0.0005811993    1.169    0.145
       366 -11.9291     12.8596     60.7356   6.9684378608e+01   6.2941354436e+01    0.3551037    0.1490275 -54.34  0.001750528    2.006    0.502
       367 -10.2716    185.2738     65.7143   1.8528386177e+01   3.0020736937e+01    0.1376803    0.1000013 -73.65  0.000166145    1.507    0.336
       368 -11.2378    178.9491     64.2899   1.9213122549e+01   3.1712641670e+01    0.1912629    0.1685678  70.77  0.000300241    1.072    0.068
       369 -11.5225    164.9447     63.9969   2.1604158316e+01   3.5065271935e+01    0.2074129    0.1951521  80.93 0.0003520637    1.025    0.024
       370 -10.7352     92.0345     63.7653   3.9522614770e+01   5.1570444234e+01     0.181956    0.1117384  43.23 0.0002423954    1.539    0.350
       371 -11.5251    100.6090     62.1086   3.6343333996e+01   5.0110149590e+01    0.2092813    0.1783019 -57.22 0.0005796557    1.426    0.299
       372 -10.5058     60.6961     62.7530   5.0194975008e+01   5.7253030293e+01    0.1326974   0.09526338  -1.09  0.000687575    1.497    0.332
       373 -11.1721     45.2991     62.3394   5.6185880096e+01   5.9468346447e+01    0.1388263   0.08931163 -17.57 0.0005619088    1.664    0.399
       374 -11.7566    108.6047     59.6163   3.3231964029e+01   4.8815283950e+01    0.2684247    0.2478179  68.92 0.0008706711    1.209    0.173
       375 -11.8397     41.0851     59.9412   5.7176212480e+01   6.0437187626e+01    0.2897466     0.174498  19.31   0.00114277    1.676    0.403
       376 -12.2569     18.3902     59.3888   6.6863534599e+01   6.2797521609e+01    0.2588717    0.1805283 -46.08  0.001060536    1.260    0.207
       377 -13.0411    192.6872     57.7584   1.5473536315e+01   2.9494027835e+01    0.2746419    0.2357083 -69.21 0.0004593702    1.093    0.085
       378 -11.7906    159.9798     57.3155   2.0743963850e+01   3.7250987046e+01    0.2037323    0.1709778  66.14 0.0005905063    1.098    0.089
       379 -11.6310     54.9340     57.2586   5.0619347673e+01   5.9097124162e+01    0.1831835     0.166897  23.29 0.0005215434    1.221    0.181
       380 -12.6900     23.7369     55.7645   6.3419730596e+01   6.3046928897e+01    0.3399302    0.2072056 -10.37  0.001060464    1.711    0.416
       381 -11.7953     19.8438     53.1040   6.4376822937e+01   6.3892088672e+01    0.2120939    0.1695989 -53.31 0.0004200524    1.388    0.280
       382 -12.2370    115.5105     53.5568   2.9440470921e+01   4.8222123273e+01    0.2571495    0.1962185  68.39 0.0009688931    1.474    0.321
       383 -12.4029    112.5080     52.5044   2.9892190316e+01   4.9046972381e+01    0.2887101     0.207828  14.61  0.001433664    1.726    0.421
       384 -11.2868     40.5202     53.0832   5.5172257221e+01   6.1764313922e+01    0.1811851    0.1157532 -42.14 0.0003355057    1.503    0.335
       385 -11.9061    162.0260     50.8006   1.8625316868e+01   3.7692637241e+01    0.3767899    0.2000091 -16.44  0.001445306    3.343    0.701
       386 -11.9268    175.6924     50.8192   1.6349364053e+01   3.4439677354e+01    0.3015522    0.1917886  77.05 0.0009893384    1.619    0.383
       387 -12.0251    131.5664     50.3125   2.4553564424e+01   4.5005377431e+01    0.3744428    0.2232503  20.20  0.001499464    2.853    0.649
       388 -13.5682     30.5058     49.7106   5.8447908208e+01   6.3507079620e+01    0.3155207    0.2869251  39.99   0.00140636    1.497    0.332
       389 -11.4317     99.4765     49.5029   3.2525303475e+01   5.2309519447e+01    0.1390378    0.1247067  32.91 0.0001569391    1.016    0.016
       390 -11.9133     19.3856     47.3565   6.2797869151e+01   6.4999043466e+01    0.4144834    0.1183374 -43.72  0.001739648    2.818    0.645
       391 -10.8177    219.5458     47.4777   9.7319452441e+00   2.4967685803e+01      0.12653    0.1074253 -75.84 0.0001081321    1.014    0.014
       392 -11.4848     41.4503     47.0173   5.2674218408e+01   6.2707118797e+01    0.2668208    0.1642146  39.04  0.001446708    1.851    0.460
       393 -10.6971      1.9759     47.0000   7.0988260915e+01   6.6294533988e+01    0.1694301   0.06132169  14.02 0.0007970239    2.905    0.656
       394 -11.7007     95.0241     44.9996   3.2302209288e+01   5.3887358176e+01    0.1738507    0.1453607  37.58  0.001006103    1.064    0.060
       395 -11.4653    197.0173     44.0038   1.1658745887e+01   3.0407287764e+01    0.1585551    0.1372837 -84.46 0.0003434106    1.006    0.006
       396 -11.9195    143.0310     43.7180   2.0192659736e+01   4.3190366640e+01    0.2548644    0.1848369 -62.89 0.0008580603    1.634    0.388
       397 -10.7686     90.2831     43.6881   3.3280340441e+01   5.5044063769e+01     0.123328    0.1084944 -85.87 0.0004200372    1.572    0.364
       398 -11.6623    158.2167     41.5188   1.6788875221e+01   3.9844784822e+01    0.2166706    0.1876048 -44.91 0.0003110188    1.258    0.205
       399 -12.8218     35.4186     40.4174   5.2958578458e+01   6.4551288438e+01    0.3742579    0.2153388  11.91  0.001278205    1.821    0.451
       400 -13.3745     24.3172     38.9939   5.7612857454e+01   6.6008713635e+01    0.5168592     0.295513 -14.66  0.002825153    1.827    0.453
       401 -13.5588     30.7490     32.2192   5.2003545828e+01   6.6406691463e+01    0.4165993    0.2668806 -16.76  0.001706218    1.460    0.315
       402 -12.0580    124.6214     39.6007   2.2829781746e+01   4.8057583617e+01    0.2236096    0.2001318  53.90 0.0001899336    1.018    0.017
       403 -10.9754    103.3173     39.6482   2.8113090805e+01   5.2850357444e+01    0.1324155    0.1068432 -80.20 0.0007047141    1.738    0.425
       404 -13.0865      8.6753     36.4172   6.4435173718e+01   6.7798038956e+01     0.233354    0.1944762 -17.90 0.0006014599    1.130    0.115
       405 -11.8050    225.5674     36.0663   6.7297013606e+00   2.5181759726e+01    0.1955541    0.1422851 -85.43  0.001228028    1.218    0.179
       406 -10.5976    179.4151    250.5589   5.8382789140e+01  -3.0817802551e+00    0.1267061     0.104304  17.73 0.0001221749    1.018    0.018
       407 -13.2666     81.8605     28.8542   3.0514045347e+01   5.8662143761e+01    0.3824721    0.2890968  67.19   0.00165776    1.730    0.422
       408 -11.2053     52.6165     33.8410   4.3001189054e+01   6.3198806488e+01    0.1634296    0.1142993 -41.05 0.0009452079    1.683    0.406
       409 -11.5460     42.7792     33.5695   4.7055759453e+01   6.4673214455e+01    0.1860963     0.154662  31.17  0.001155166    1.363    0.266
       410 -12.4210     46.0065     31.0226   4.4644031103e+01   6.4587623467e+01     0.219294    0.1640654 -23.45  0.000765398    1.291    0.225
       411 -12.5245     45.9936     26.1516   4.2662182137e+01   6.5262121258e+01    0.2605658    0.2410578  41.04  0.001560533    1.523    0.343
       412 -11.3309    106.5201     32.0197   2.4684057037e+01   5.3095643019e+01    0.1871184    0.1328024 -28.99  0.001029219    1.589    0.371
       413 -12.7910     96.3575     30.7137   2.6921698353e+01   5.5457916813e+01    0.2867449    0.2053203  47.49 0.0005842732    1.211    0.174
       414 -12.6545     96.5034     27.5381   2.5755192701e+01   5.5794769681e+01    0.2427689    0.2174786  38.95 8.044854e-05    1.065    0.061
       415 -11.0720    175.7958     31.1581   1.1396169975e+01   3.6939065253e+01    0.1730926    0.1426457  49.50 0.0002654378    1.334    0.250
       416 -10.6280    218.0043     30.2578   6.2774432887e+00   2.7504380281e+01    0.1476521   0.09349807  75.67 0.0002849389    1.441    0.306
       417 -11.5244      2.2877     29.8638   6.5523711508e+01   6.9360812746e+01     0.176853    0.1333505   7.11 0.0006666839    1.325    0.245
       418 -10.6170     67.6641     29.3094   3.5448761948e+01   6.1291769406e+01    0.1149724    0.1031082  78.63 0.0005064642    1.679    0.405
       419 -12.7803     60.4412     27.0951   3.7226995225e+01   6.2836632007e+01    0.3687443    0.2103297 -10.91  0.001018504    2.185    0.542
       420 -12.4224      4.5983     24.0341   6.2176637057e+01   7.0168534554e+01    0.2149465    0.1533925 -26.29 0.0003719954    1.099    0.090
       421 -12.2501     88.4981     24.2350   2.6795622091e+01   5.7848367289e+01    0.2349147    0.1565935  47.47 0.0005318639    1.284    0.221
       422 -11.8334    114.6477    246.3201   7.1543849241e+01   7.5437920519e+00     0.232061    0.1096426 -46.19  0.001056713    2.603    0.616
       423 -11.1729    131.7316     17.2833   1.4520892466e+01   4.8885520555e+01    0.1778123    0.1720982  76.48 0.0004163594    1.151    0.131
       424 -11.4677     70.3614     20.7668   3.1121848386e+01   6.1812669385e+01    0.1655164    0.1108542  -9.21 0.0008282647    1.636    0.389
       425 -10.3068     31.6566     20.3174   4.6667154451e+01   6.8017522962e+01    0.1018712   0.09392618  43.24 0.0007048864    1.717    0.418
       426 -10.3531    123.5115     19.4603   1.6744808851e+01   5.0591500303e+01    0.1327676    0.1103495  54.58 0.0001512127    1.032    0.031
       427 -11.1589    132.9975     20.7870   1.5344435227e+01   4.8239588593e+01    0.1868306    0.1589214  84.76  0.001152962    1.191    0.160
       428 -11.3281     66.8310     15.6463   3.0243703943e+01   6.3022005082e+01    0.2110816   0.09004885 -24.30 0.0009011095    2.659    0.624
       429 -11.0497     31.7562     15.4342   4.4467519820e+01   6.8642169812e+01    0.1581847   0.09114767  19.65  0.000556888    1.567    0.362
       430 -10.2392    226.2989    246.3038   4.8535689380e+01  -8.9554317103e+00    0.1231279   0.07684046  -1.46 0.0001825637    1.586    0.370
       431 -11.4381     90.0040     11.5071   2.1655520389e+01   5.8809872454e+01    0.1644172    0.1064945  82.32 0.0008087594    2.410    0.585
       432 -11.8551     84.0112    250.6703   7.8593050083e+01   1.1223930371e+01    0.2849549    0.1053059  33.29  0.001202545    2.483    0.597
       433 -11.5819    168.7671    244.9683   5.9739657810e+01  -5.8403778063e-01    0.1882212    0.1796799 -86.04 0.0003714676    1.434    0.303
       434 -10.4429     80.2741    245.3930   7.8848752289e+01   1.2777577530e+01    0.1182253   0.09690347 -24.87 0.0006991234    1.733    0.423
       435 -11.4429    205.8426    244.1440   5.2083354813e+01  -5.8986443857e+00    0.1781805    0.1538154  19.14 0.0004227754    1.218    0.179
       436 -10.8159    221.2796    242.6434   4.8874634335e+01  -7.7823547575e+00    0.1011525   0.09972424  53.78 0.0004507214    1.660    0.398
