#   1 NUMBER                 Running object number                                     
#   2 MAG_AUTO               Kron-like elliptical aperture magnitude                    [mag]
#   3 X_IMAGE                Object position along x                                    [pixel]
#   4 Y_IMAGE                Object position along y                                    [pixel]
#   5 X_WORLD                Barycenter position along world x axis                     [deg]
#   6 Y_WORLD                Barycenter position along world y axis                     [deg]
#   7 A_WORLD                Profile RMS along major axis (world units)                 [deg]
#   8 B_WORLD                Profile RMS along minor axis (world units)                 [deg]
#   9 THETA_WORLD            Position angle (CCW/world-x)                               [deg]
#  10 FWHM_WORLD             FWHM assuming a gaussian core                              [deg]
#  11 ELONGATION             A_IMAGE/B_IMAGE                                           
#  12 ELLIPTICITY            1 - B_IMAGE/A_IMAGE                                       
         1 -13.9679    166.5207     34.3708   8.0575528879e+01   3.9565805074e+01    0.8561099    0.7846487 -86.51  0.002611864    1.161    0.139
         2 -13.1458    170.0325     26.6261   7.7406911503e+01   3.9612757560e+01    0.5476639    0.3934594   0.43  0.001563976    1.650    0.394
         3 -13.4156    180.9660      3.2560   6.8309864663e+01   3.9183519361e+01    0.9027653    0.4222836  68.32  0.003790815    1.948    0.487
         4 -10.5806    116.5605    231.6176   1.3530680293e+02   1.3779936740e+01    0.2611155    0.1728703 -84.73  0.001661997    1.830    0.453
         5 -18.6515     76.2544    242.0972   1.4299107412e+02   1.7849653285e+01       7.3605     3.923846  46.09   0.04864559    1.541    0.351
         6 -11.8003     94.6837    204.9076   1.3635994885e+02   2.1602014517e+01    0.2988785    0.2720174 -40.00  0.002111998    1.587    0.370
         7 -19.1926     60.9548    101.3828   1.2854737184e+02   4.8297826231e+01     17.64346    0.9884852 -58.73   0.02800484   15.830    0.937
         8 -10.9345      3.5314    211.9226   1.5278728312e+02   3.1123740206e+01    0.1071297   0.06727432 -62.77 0.0005767421    2.014    0.503
         9 -12.6512    165.5386    207.8888   1.2345543533e+02   9.4077896967e+00    0.3796586    0.2834899 -68.58 0.0006151507    1.802    0.445
        10 -11.5817      5.9432    221.5679   1.5284147185e+02   2.9222044957e+01    0.1826923   0.09599634 -64.29  0.001279319    2.256    0.557
        11 -10.8108    130.4606    205.8756   1.2973674776e+02   1.5778409601e+01    0.1845767     0.142654  63.61 0.0006770705    1.191    0.160
        12 -10.1359     29.9823    205.8660   1.4810380469e+02   2.9633576075e+01    0.1217224     0.109657 -79.67            0    1.510    0.338
        13 -13.1558     86.7713    202.2032   1.3755011069e+02   2.3252216216e+01    0.3642924    0.2758472 -61.67  0.001401827    1.506    0.336
        14 -10.9467    211.0329    202.7177   1.1436227524e+02   2.0719020773e+00    0.1769146    0.1421594  31.55 0.0004036099    1.049    0.046
        15 -13.6331     42.0004    198.3008   1.4545748980e+02   2.9736154687e+01    0.5828065    0.3318512  22.75  0.003131689    3.335    0.700
        16 -11.6535     47.1568    193.1653   1.4410052194e+02   3.0129570442e+01    0.2112669    0.1381626  83.69 0.0002788441    1.279    0.218
        17 -10.5309      5.2086    199.1226   1.5190119943e+02   3.3284911317e+01    0.1337837   0.07865079  70.09 0.0002542563    1.259    0.206
        18 -12.5854    176.9764    195.9593   1.1942875091e+02   9.2005972160e+00    0.3705394    0.2466656 -72.85  0.001784678    2.672    0.626
        19 -13.3301    180.4949    194.2494   1.1847942088e+02   8.8196340055e+00    0.5490171    0.3799745 -71.06  0.002373035    2.384    0.581
        20 -10.4969    141.1911    197.7546   1.2655085243e+02   1.5341021858e+01    0.1896738    0.1516062  66.59 0.0008450579    1.237    0.191
        21 -10.4286    159.5036    195.5034   1.2267781943e+02   1.2462082424e+01    0.1306144    0.1127789  50.19  1.83183e-05    1.036    0.035
        22 -11.3672    217.2550    218.6020   1.1593318179e+02  -1.0074828313e+00    0.1771587   0.09199458  34.61 0.0009510169    1.630    0.386
        23 -13.1564    100.7553    172.3244   1.3101908813e+02   2.6952203361e+01    0.6429372    0.3458415 -46.28  0.003090336    2.299    0.565
        24 -13.6775     96.6160    189.2218   1.3414261418e+02   2.4250777733e+01    0.9894565    0.5468576  59.01   0.00325746    1.748    0.428
        25 -10.8051    203.5922    188.1944   1.1311974152e+02   5.4465835417e+00    0.1854688    0.1305184 -34.41 0.0005037587    1.568    0.362
        26 -12.9082    207.6073    185.4109   1.1187241851e+02   5.1045977987e+00    0.3983237    0.3093045   9.86  0.001131432    1.334    0.250
        27 -12.6762    212.0471    181.5240   1.1033191704e+02   4.8384504603e+00     0.350511    0.2798576  -2.94   0.00114359    1.295    0.228
        28 -10.6035    126.1300    186.9651   1.2792731215e+02   1.9885339800e+01    0.3886903    0.2112723  69.97  0.001002704    2.866    0.651
        29 -10.8794    158.5125    186.4157   1.2138917962e+02   1.4176730399e+01    0.2494594    0.1329936 -48.14 0.0009245238    2.120    0.528
        30 -11.0613    223.9876    184.2298   1.0871713685e+02   2.2478858216e+00    0.1817084     0.147839  26.54 0.0002070793    1.066    0.062
        31 -10.2263    108.7863    182.8030   1.3084054185e+02   2.3578103547e+01    0.1803468    0.1324619  76.72 0.0005712513    1.385    0.278
        32 -12.1623    199.0200    178.5823   1.1217065379e+02   7.7544099660e+00    0.3318866    0.2948363 -51.16 0.0008339103    1.363    0.266
        33 -11.9043    179.0713    175.6709   1.1544048794e+02   1.2089506854e+01    0.2648419    0.2085588 -25.95  0.001482285    1.440    0.306
        34 -10.7304    184.8428    174.1599   1.1402992250e+02   1.1213598070e+01    0.1844444    0.1513529  17.15   0.00103918    1.284    0.221
        35 -11.4214    145.6903    169.4142   1.2104900382e+02   1.9652021322e+01    0.3868263    0.2455903 -62.60   0.00188441    1.894    0.472
        36 -11.0516    228.2256    170.8215   1.0533683825e+02   3.3304343050e+00    0.2042575    0.1518006 -78.44 0.0009532347    2.829    0.647
        37 -11.2104    112.8478    168.9467   1.2793105069e+02   2.5652034064e+01    0.2405213    0.1737217  57.73 0.0004225622    1.301    0.231
        38 -11.1864    225.4638    166.9520   1.0503443007e+02   4.4084843574e+00     0.196025    0.1276935 -31.57 0.0006644934    1.568    0.362
        39 -10.8050    139.5975    217.3114   1.2954117240e+02   1.2374192343e+01    0.2862582      0.17519 -88.35  0.001054311    2.836    0.647
        40 -11.7131    105.8531    161.3084   1.2823354854e+02   2.8390805052e+01    0.2249269    0.2031262 -76.23 0.0002945863    1.109    0.098
        41 -10.2928    198.4234    161.2127   1.0882829229e+02   1.0636502186e+01    0.1851757    0.1323094 -48.44 0.0006668972    1.627    0.386
        42 -11.2506     99.3296    180.6386   1.3247897880e+02   2.5509364886e+01    0.2150416    0.2006916  75.48 0.0006803422    1.165    0.141
        43 -10.4774     26.7275    159.6734   1.4519683181e+02   3.9080551582e+01    0.2253276    0.1995402 -22.70 0.0004037661    1.785    0.440
        44 -11.5135     27.6845    156.6831   1.4472359084e+02   3.9617363900e+01    0.2063695    0.1769944 -68.09  0.001085653    1.340    0.254
        45 -11.5910     23.5018    156.0390   1.4554383375e+02   4.0147695358e+01    0.2614382    0.2114587  55.91 0.0009183416    1.324    0.245
        46 -10.3479     30.0554    163.4942   1.4485410508e+02   3.7957251406e+01    0.1832758    0.1220399 -82.50  0.001035668    1.209    0.173
        47 -11.5044     13.9865    151.3405   1.4713501516e+02   4.1974536727e+01     0.225224    0.1779246  -2.15  0.001589372    2.151    0.535
        48 -12.4282    133.7441    144.8575   1.1897972338e+02   2.6802855180e+01     1.027751    0.2519804 -53.93  0.002673535    5.563    0.820
        49 -10.5149    174.6040    148.8838   1.1095965605e+02   1.7704733090e+01    0.2482231    0.1707709  51.79  0.000705738    1.444    0.308
        50 -12.4040    101.3088    146.6228   1.2678960971e+02   3.2261418804e+01      0.36784    0.2304861  53.17  0.001153487    1.602    0.376
        51 -11.7471    154.1488    145.4873   1.1457386858e+02   2.2603332671e+01    0.3133963    0.2289344  89.41  0.001447445    1.953    0.488
        52 -11.7875    143.8599    145.1995   1.1677855496e+02   2.4744415942e+01    0.3676366    0.1893358 -63.82  0.001346329    2.973    0.664
        53 -12.4068     29.5997    142.7966   1.4291818812e+02   4.2408293164e+01    0.3541247    0.2132056 -31.41  0.001831483    3.145    0.682
        54 -13.0516    106.3882    139.6570   1.2431796841e+02   3.2915763962e+01    0.3755644    0.2844355  57.11 0.0006617914    1.323    0.244
        55 -12.7990    116.2401    139.2631   1.2190621191e+02   3.1262241616e+01    0.4677223    0.3064681 -41.58  0.002265293    1.708    0.415
        56 -10.5696     20.7762    141.3640   1.4475605426e+02   4.3519439634e+01    0.1254327    0.1117812  23.55 0.0006668773    1.574    0.365
        57 -12.7924      5.6234    139.9782   1.4797936647e+02   4.5031580378e+01    0.2962959    0.2282788  46.05  0.001069332    1.504    0.335
        58 -12.9340    106.1313    130.8394   1.2264721083e+02   3.4886023493e+01    0.4289112    0.3529007 -80.90  0.001596279    1.241    0.194
        59 -12.3884    109.3129    126.2840   1.2091488513e+02   3.5324581693e+01     0.317958    0.2744029 -48.56 0.0006628197    1.176    0.150
        60 -11.3957    140.0972    249.9734   1.3327619294e+02   7.4984349325e+00    0.2732705    0.1815547  56.00  0.001881312    1.266    0.210
        61 -11.9136      2.2580    121.9763   1.4715404558e+02   4.9114108691e+01    0.2075933    0.1058858 -73.46 0.0004927428    1.455    0.313
        62 -12.3150      3.7890    130.6028   1.4758502110e+02   4.7158908086e+01    0.2428413    0.1418588  88.86  0.001566698    1.393    0.282
        63 -12.5754    135.3307    122.7477   1.1378363374e+02   3.1094557606e+01    0.6970146    0.1757266 -48.60  0.001969147    4.115    0.757
        64 -12.4324     20.1879    127.8911   1.4348040484e+02   4.6499849900e+01    0.3466842    0.1494624 -69.31  0.001349655    1.792    0.442
        65 -12.7398    125.4813    126.9362   1.1710286568e+02   3.2170026844e+01    0.5712041    0.3626396  87.35  0.002203532    2.846    0.649
        66 -11.9892    125.8298    121.6176   1.1580883636e+02   3.3237517810e+01    0.2931805    0.2258049  54.16  0.001485939    1.331    0.249
        67 -12.7753    119.8608    129.6400   1.1905161708e+02   3.2663251626e+01     0.424365    0.3458739  82.30   0.00147626    1.364    0.267
        68 -11.4623    160.7611    127.9253   1.0918093758e+02   2.4657651221e+01    0.2903221    0.2140411 -62.40   0.00136274    1.604    0.377
        69 -11.7583    114.0312    119.0057   1.1813038551e+02   3.6056429978e+01    0.2186726    0.2066959 -79.39 0.0003486456    1.019    0.018
        70 -12.0875    100.1459    214.0333   1.3634668145e+02   1.9165835102e+01    0.2497227    0.1727443  70.02 0.0008954954    1.325    0.245
        71 -11.1353     13.8534    248.9692   1.5282973897e+02   2.3964354663e+01    0.2234078    0.1268039  74.76   0.00181378    1.243    0.196
        72 -11.9564      2.9920    112.5118   1.4603468751e+02   5.1113805276e+01    0.2654967    0.1415222 -63.55  0.001389086    1.487    0.327
        73 -12.3117     98.7952    111.1695   1.2026390084e+02   4.0498437358e+01    0.3096074    0.1991719 -53.99  0.000961185    1.456    0.313
        74 -11.6753      9.9280    111.1171   1.4411814513e+02   5.0960434581e+01     0.274419    0.1525502  -1.76   0.00147427    3.366    0.703
        75 -10.9885    205.5791    110.1026   9.5585763632e+01   1.7739755386e+01    0.2919754    0.2157258  41.22 0.0007290986    1.371    0.271
        76 -10.4350    155.1555    104.8820   1.0463616962e+02   3.0455024869e+01    0.2185003    0.2027988 -76.25 0.0002646679    1.158    0.136
        77 -11.4462    134.4990    103.4155   1.0915242616e+02   3.5299961987e+01    0.3239244    0.1462562 -43.78  0.001211908    2.168    0.539
        78 -10.0613     98.5786     80.7749   1.1241612583e+02   4.7110006965e+01    0.1930181    0.1305728 -55.12 0.0003636781    1.504    0.335
        79 -10.2468    145.2973     78.3507   9.9348299354e+01   3.7843533411e+01    0.1591026    0.1210905   5.99  0.000517171    1.686    0.407
        80 -12.4788     97.6516    209.4982   1.3631255735e+02   2.0335535124e+01    0.2836811    0.1839617  61.07  0.000728156    1.333    0.250
        81 -10.2359     13.5086     59.8604   1.3476275831e+02   6.1874467136e+01    0.1732443   0.09019173 -62.47 0.0004226674    1.478    0.324
        82 -14.1025    155.7010     50.6829   8.8120783500e+01   4.0032153097e+01    0.9279626      0.68798 -74.63  0.001782207    1.799    0.444
        83 -13.7097    163.2306     41.8246   8.3661706601e+01   3.9413074054e+01    0.9293376    0.6875989  83.46  0.003125685    1.621    0.383
        84 -11.8621     92.6290    208.8840   1.3717250971e+02   2.1185748605e+01    0.3606102     0.238031 -49.32  0.001702769    2.030    0.507
        85 -10.9288     19.7088    238.9872   1.5155276379e+02   2.4964123437e+01    0.1280646   0.08627978  80.06 0.0009627594    1.142    0.125
        86 -10.2378    142.0071     33.0000   8.4885566571e+01   4.5973362826e+01    0.2390285   0.08176003  58.83 0.0005150201    2.876    0.652
