#   1 NUMBER                 Running object number                                     
#   2 MAG_AUTO               Kron-like elliptical aperture magnitude                    [mag]
#   3 X_IMAGE                Object position along x                                    [pixel]
#   4 Y_IMAGE                Object position along y                                    [pixel]
#   5 X_WORLD                Barycenter position along world x axis                     [deg]
#   6 Y_WORLD                Barycenter position along world y axis                     [deg]
#   7 A_WORLD                Profile RMS along major axis (world units)                 [deg]
#   8 B_WORLD                Profile RMS along minor axis (world units)                 [deg]
#   9 THETA_WORLD            Position angle (CCW/world-x)                               [deg]
#  10 FWHM_WORLD             FWHM assuming a gaussian core                              [deg]
#  11 ELONGATION             A_IMAGE/B_IMAGE                                           
#  12 ELLIPTICITY            1 - B_IMAGE/A_IMAGE                                       
         1  -9.0644      2.2240     23.0263   1.1582976899e+02   6.9497960919e+01     0.155174   0.06922895 -59.85 0.0008784704    1.676    0.404
         2  -8.8385    248.3683    250.5634   1.0070573461e+02  -4.2268339744e+00    0.2615242   0.06702425  41.33   0.00128867    2.658    0.624
         3  -8.5474    242.7371    250.4178   1.0149651473e+02  -3.4291504512e+00    0.1510554   0.08664002  23.59  0.001088148    1.383    0.277
         4  -9.1357    238.5726    244.2020   1.0127035116e+02  -2.3653019547e+00      0.30664    0.1489915  -3.30  0.001729332    3.148    0.682
         5  -8.8759    250.3801    243.7996   9.9495294335e+01  -4.0173399021e+00    0.1715333    0.1008011  21.73 0.0008203418    1.340    0.254
         6  -8.5476    247.3119    243.3350   9.9875548286e+01  -3.5486916470e+00    0.1969095   0.09361447  30.00 0.0006030895    1.567    0.362
         7 -10.3943    243.4053    243.9002   1.0052197751e+02  -3.0349225585e+00    0.3103074    0.2326268 -11.28  0.002507387    1.565    0.361
         8  -9.2867    241.1975    239.0080   1.0017039464e+02  -2.3376872750e+00    0.2733427     0.141314  14.57   0.00163284    2.153    0.535
         9  -8.7967    232.7454    250.6000   1.0297202254e+02  -2.0280220650e+00    0.2007729   0.06748933  39.92  0.001117328    2.035    0.509
        10  -9.2465    224.1334    248.0793   1.0391373939e+02  -5.8670932151e-01    0.3378462    0.1675382  18.93  0.001987207    2.436    0.590
        11  -8.8173    217.0331    250.4873   1.0527359926e+02   2.4513466778e-01    0.1642183   0.07346299  41.77 0.0008792758    1.577    0.366
        12  -9.6190    202.6318    249.9323   1.0736046794e+02   2.3999017777e+00     0.233024    0.1538184  30.77  0.001770691    1.181    0.153
        13  -8.2911    197.0681    250.5233   1.0827039657e+02   3.1641577652e+00    0.1654971   0.07396463  42.66 0.0007096478    1.572    0.364
        14  -9.1567    185.1814    250.4327   1.1006221904e+02   4.9222274702e+00    0.2714376    0.1520175  30.35    0.0018335    1.621    0.383
        15  -8.5854    187.2091    246.0696   1.0924708315e+02   5.0485129216e+00    0.1934393    0.1123636  29.63  0.001307918    1.564    0.361
        16  -9.3638    167.1735    250.1670   1.1278489196e+02   7.5918664141e+00    0.2602121    0.1077729  39.76  0.001544078    1.799    0.444
        17  -8.2345    151.1904    249.7724   1.1520052021e+02   9.9523228880e+00    0.1394706   0.09689105  33.56 0.0006347491    1.356    0.263
        18  -8.5094    143.8085    250.1648   1.1637481795e+02   1.0963684905e+01    0.1403608   0.09508649  35.86 0.0006494807    1.343    0.255
        19  -9.6252     51.1158    249.6756   1.3027717110e+02   2.2792837349e+01     0.299782    0.1242098  48.77  0.001436631    1.657    0.396
        20  -9.3663     44.4400    244.4899   1.3098092364e+02   2.4215097929e+01    0.2678214    0.1101245  46.22  0.001562432    1.747    0.427
        21  -8.9317     26.0371    249.2646   1.3381466612e+02   2.5426140601e+01     0.224677   0.07361049  52.04  0.001415448    1.960    0.490
        22 -10.7716      3.5702    214.0603   1.3572701736e+02   3.2610273117e+01     1.162101    0.2601171  68.67  0.004596162    6.369    0.843
        23 -12.0575     21.4816    242.8724   1.3420229106e+02   2.6746479623e+01    0.9182743    0.3817687  84.41  0.006570896    2.292    0.564
        24 -11.1567     28.2890    241.7052   1.3318555838e+02   2.6251218361e+01    0.5394179    0.2332592  58.78  0.004059006    1.629    0.386
        25 -10.0489     15.2112    240.9277   1.3501310443e+02   2.7607074130e+01    0.4237504    0.1379873  64.73  0.002736799    2.474    0.596
        26 -10.5467      4.0077    228.8328   1.3618332728e+02   3.0348014212e+01    0.9334894          nan  50.66  0.004112205    5.178    0.807
        27 -10.9339      3.6929    222.9285   1.3602697050e+02   3.1250315141e+01    0.7030462    0.1921465  63.49  0.004081059    2.956    0.662
        28  -9.8086      4.2399    249.0863   1.3679023563e+02   2.7465196398e+01    0.2828607    0.1089249  43.59  0.002180567    1.944    0.486
        29 -11.7809     10.0652    246.0001   1.3590357055e+02   2.7369981012e+01    0.9416302    0.3456567 -81.22  0.006848273    2.588    0.614
        30 -10.3730      5.3218    235.4117   1.3621487432e+02   2.9279971074e+01     0.385001    0.1059919  47.46  0.002594047    2.260    0.558
        31  -9.7465    211.5259    245.8585   1.0551612090e+02   1.4514060554e+00    0.3147805     0.137525  31.62  0.001596697    1.981    0.495
        32  -8.6147    191.6605    248.7020   1.0887560057e+02   4.1325651257e+00    0.2018539    0.1169794  24.96 0.0009472989    1.785    0.440
        33  -9.7984     33.8610    248.4009   1.3268098294e+02   2.4769674848e+01    0.2757919   0.09802555  51.26  0.001829363    1.852    0.460
        34  -9.6784    198.3139    245.2162   1.0744275500e+02   3.4740158412e+00    0.3285652    0.1621326  25.65  0.001900282    2.308    0.567
        35  -8.8824    201.4990    240.0234   1.0630720984e+02   3.4869985352e+00    0.2253453    0.1359429  17.03  0.001046077    1.945    0.486
        36  -9.1427    218.9127    245.2634   1.0432898268e+02   4.1273786267e-01    0.2719167    0.1415569  27.48  0.001457923    1.674    0.403
        37  -9.9165    177.8553    243.8306   1.1043176659e+02   6.6714919894e+00    0.4131117    0.1976957  31.71  0.002427258    2.057    0.514
        38  -9.5593    157.0194    245.5461   1.1386375120e+02   9.5752453596e+00    0.1663192    0.1342445  15.13 0.0008392912    1.563    0.360
        39 -10.5721      3.4032    242.6497   1.3671044105e+02   2.8424779829e+01    0.4227755    0.1617522  73.22  0.003086364    2.103    0.525
        40  -9.4396    233.5651    243.9021   1.0196757141e+02  -1.6179066741e+00    0.3128363    0.1458697  23.67  0.001844777    2.161    0.537
        41  -8.6335    205.8920    245.3657   1.0630690185e+02   2.3311925766e+00    0.1595327   0.06846283  36.68 0.0009259529    1.729    0.422
        42  -8.6296    163.6087    244.5444   1.1272967955e+02   8.7157060731e+00    0.1532234    0.1330493 -28.83  0.001299952    1.601    0.375
        43  -9.3085     65.7111    248.9925   1.2811269032e+02   2.1255512910e+01    0.2383746    0.1305165  55.44  0.001149678    1.279    0.218
        44  -7.8591    152.3081    244.3207   1.1447067717e+02   1.0401736533e+01   0.09925228   0.06864816  26.11 0.0003507571    1.641    0.391
        45  -8.9854     84.2598    244.7210   1.2506051533e+02   1.9614077213e+01    0.2179633    0.0673255  40.85  0.001180071    2.616    0.618
        46  -9.2601    192.8988    242.5623   1.0795053132e+02   4.5401935819e+00    0.2734385    0.1304743  35.66   0.00168543    1.638    0.390
        47  -9.6837    225.9074    240.8991   1.0270532154e+02  -2.4899477882e-01    0.2842998    0.1620925  22.58  0.001660067    1.595    0.373
        48  -8.0567    210.5312    241.5456   1.0511667376e+02   1.9852172661e+00    0.1862842   0.07608069  41.37 0.0007431666    1.740    0.425
        49  -8.2852    214.6271    239.6799   1.0424955422e+02   1.5388734402e+00    0.2338264    0.1007559  29.26  0.001274115    2.270    0.560
        50  -8.7860    169.9341    240.5260   1.1129099989e+02   8.2095262988e+00    0.1753654    0.1361574  11.53  0.001002746    1.601    0.375
        51  -8.6781     37.7659    240.7971   1.3177320070e+02   2.5425806370e+01    0.1873767   0.07950189  51.88  0.001119716    1.623    0.384
        52  -8.0616    143.3573    242.2994   1.1566774352e+02   1.1937655364e+01    0.1014694   0.06865729  27.49 0.0007036187    1.707    0.414
        53  -8.2134    205.9649    240.5058   1.0568153624e+02   2.7671171000e+00    0.1636612   0.07713554  41.19 0.0008085915    1.516    0.340
        54  -9.0158     73.2637    240.0779   1.2642045396e+02   2.1579739389e+01    0.2198223     0.100832  48.63  0.001516511    1.565    0.361
        55  -8.9600     53.2594    239.3223   1.2940428203e+02   2.3983224065e+01    0.2252722     0.110333  54.01  0.001427206    1.448    0.309
        56  -9.7300    248.6255    238.3868   9.8992279497e+01  -3.3625857104e+00    0.2401893    0.1299512  26.79  0.001640607    1.398    0.285
        57  -7.9412    220.6869    238.0268   1.0310785811e+02   7.7590529761e-01    0.1483357    0.1067524  27.07 0.0005656927    1.084    0.078
        58  -9.1678    184.5291    236.6569   1.0853371522e+02   6.4067382775e+00    0.2322553    0.1722704  27.37  0.001573924    1.241    0.194
        59  -8.4021    176.2847    237.3965   1.0992474622e+02   7.5868012628e+00    0.1592486    0.1268304  -4.52 0.0009190915    1.650    0.394
        60  -8.9247    149.4016    238.3872   1.1430541839e+02   1.1514731443e+01     0.219947   0.07445168  35.48 0.0009610371    3.433    0.709
        61  -9.1252    195.8172    236.4626   1.0673734639e+02   4.6982130617e+00    0.2699028    0.1427236  36.02  0.001655214    1.437    0.304
        62  -9.0130     43.9392    236.3737   1.3063968401e+02   2.5408636057e+01    0.2279413   0.09277415  51.23  0.001232493    1.721    0.419
        63  -9.3761    161.3723    235.2835   1.1205218011e+02   1.0085954739e+01    0.2353004    0.1497277  24.34  0.001542389    1.873    0.466
        64  -8.1704     82.2217    236.3571   1.2477605455e+02   2.1002324370e+01    0.1469618   0.06348826  50.01 0.0005575485    1.686    0.407
        65  -8.7595    236.8284    234.5975   1.0020072730e+02  -1.3407633235e+00    0.2338657    0.1027747  41.11  0.001405799    1.678    0.404
        66  -9.4074    231.2671    234.6166   1.0103877237e+02  -5.1462098902e-01    0.2849072    0.1210789  35.05  0.001667687    1.749    0.428
        67  -8.4141    216.9087    235.0732   1.0328630849e+02   1.6098490634e+00    0.1745476   0.09711635  24.99 0.0009141094    1.658    0.397
        68  -9.0912    206.9897    235.0410   1.0481273764e+02   3.1255272833e+00    0.2362199    0.1183252  36.94  0.001477104    1.469    0.319
        69  -8.5480    190.1423    235.1128   1.0745710442e+02   5.7053319478e+00    0.1688592    0.1154929  28.72  0.001059144    1.277    0.217
        70  -8.1844    152.8965    233.1782   1.1317819818e+02   1.1611733219e+01    0.1488032    0.1037095  33.19 0.0006456506    1.351    0.260
        71  -8.1455    176.8588    232.3988   1.0923014532e+02   8.0415865474e+00    0.1638485   0.07666909  36.38 0.0005470554    1.772    0.436
        72  -9.2197     61.1904    230.8194   1.2768124138e+02   2.4304297799e+01    0.3547963    0.1368578  48.50  0.002268995    1.868    0.465
        73  -8.5594     27.7106    232.3599   1.3285989748e+02   2.7644121493e+01     0.152376   0.06599739  62.70  0.000887114    1.755    0.430
        74  -9.1584    216.4181    229.8856   1.0265126137e+02   2.1622229801e+00    0.3328797    0.1500588  26.72  0.001763006    2.388    0.581
        75  -8.8102    195.0166    230.5611   1.0610171617e+02   5.4178940073e+00    0.2494177    0.1428014  24.94  0.001543576    1.816    0.449
        76  -8.8300    146.0106    230.9641   1.1405019291e+02   1.2914555750e+01    0.1665537    0.1147827  25.33  0.001136596    1.731    0.422
        77  -8.1961    249.8661    229.9411   9.7589781960e+01  -2.8872648183e+00    0.1737408   0.09182863  13.02  0.001064869    1.985    0.496
        78  -7.9868    245.8267    229.2642   9.8088960101e+01  -2.2382634549e+00    0.1987044    0.1057909  12.61  0.001210219    2.030    0.507
        79  -8.2250    225.2716    230.5439   1.0137837105e+02   7.4437476542e-01    0.1607962    0.0734605  34.57 0.0009404877    1.660    0.397
        80  -8.7571    207.6145    230.1111   1.0405511155e+02   3.5031289184e+00    0.2319682    0.1039568  33.11 0.0009749373    1.896    0.473
        81  -8.4739    188.2540    230.0391   1.0711042316e+02   6.5267523962e+00    0.2278309    0.1037412  28.50  0.001147552    2.632    0.620
        82  -8.3472    158.6700    229.6651   1.1184167918e+02   1.1154329641e+01    0.1072422   0.07324054  23.27 0.0007052099    1.728    0.421
        83  -8.1138     31.9936    229.4992   1.3208671417e+02   2.7638246878e+01    0.1402839   0.04051849  54.94 0.0008101951    2.511    0.602
        84  -8.9658    235.7079    227.2708   9.9317453017e+01  -5.5609082239e-01    0.2730678    0.1515708  20.75  0.001728555    1.680    0.405
        85  -8.4271    174.7118    227.6192   1.0898480103e+02   8.9083386640e+00    0.1763028    0.1098405  24.26  0.001110736    1.802    0.445
        86  -8.5699    230.0891    226.7554   1.0009902210e+02   3.4487865728e-01    0.2082998    0.1146369  11.40  0.001229108    2.184    0.542
        87  -8.2125    184.8688    226.9387   1.0725331596e+02   7.3905135203e+00    0.1683443    0.1107752  12.31  0.001067082    1.991    0.498
        88  -8.8760    212.4924    225.5174   1.0265426975e+02   3.1883130020e+00    0.2460036    0.1281596  20.33  0.001325606    2.328    0.571
        89  -8.7750    199.8192    225.3024   1.0463372467e+02   5.2051992947e+00    0.2209313    0.1295816  25.45  0.001284922    1.672    0.402
        90  -8.5619     47.4398    229.4621   1.2973117638e+02   2.6035224627e+01    0.1838276   0.04973925  48.50   0.00103535    2.492    0.599
        91  -8.9207    248.6400    223.8052   9.6855363683e+01  -2.2123919912e+00    0.2414403    0.1151633  26.62  0.001431383    1.781    0.439
        92  -8.7907    206.4584    223.1635   1.0327846394e+02   4.3725914016e+00    0.2105555    0.1366726  10.10   0.00106883    1.811    0.448
        93 -10.8010     19.1849    223.3408   1.3373611190e+02   2.9797689238e+01    0.3605128    0.1510905  37.20   0.00246675    2.334    0.572
        94  -7.7797     74.6885    222.3577   1.2493823514e+02   2.3942335141e+01    0.1081861   0.05773975  66.04 0.0006480771    1.738    0.425
        95  -9.1060    217.1812    220.4684   1.0119210108e+02   2.9399294595e+00    0.2235217    0.1413241  19.39  0.001461733    1.529    0.346
        96  -8.2136    180.9961    220.9894   1.0710410569e+02   8.6683830377e+00    0.1747773    0.1146671  23.13   0.00112332    1.635    0.388
        97  -7.9594    175.3204    221.3093   1.0808091631e+02   9.5372168648e+00    0.1116644   0.07358912  23.92 0.0006145225    1.643    0.392
        98  -8.2856     52.7726    221.4164   1.2841245459e+02   2.6649879015e+01    0.1273128   0.08149932  37.35 0.0009521318    1.707    0.414
        99  -9.1625    240.6965    218.6857   9.7274129126e+01  -5.7439385729e-01    0.2944815    0.1608536  10.09  0.001659581    2.092    0.522
       100  -8.6551    232.4508    219.3034   9.8633755776e+01   6.4822936499e-01    0.1787179    0.1016775 -16.18  0.001124135    2.071    0.517
       101  -9.6198    227.1818    217.8176   9.9228384643e+01   1.6116101736e+00     0.425937    0.2170425   2.42  0.002104306    3.259    0.693
       102  -7.9167    186.3989    219.8051   1.0605802833e+02   7.9361918739e+00    0.1369813    0.1025685  -9.69 0.0006006922    1.709    0.415
       103 -10.1611     13.5229    216.7729   1.3431705328e+02   3.1318725783e+01    0.2582807    0.1056108  61.54  0.001805634    1.832    0.454
       104  -8.5513    211.3100    216.5704   1.0155561531e+02   4.2658378154e+00    0.1817865    0.1198965   6.94  0.001166173    1.751    0.429
       105  -8.3336    194.0265    215.9866   1.0427689928e+02   7.1279007604e+00    0.1840246    0.1142402  22.58  0.001126177    1.702    0.412
       106  -8.8886    221.9783    213.5494   9.9400995957e+01   2.8500573104e+00    0.3529291    0.1530199  23.13  0.001553282    3.323    0.699
       107  -7.9066    206.6339    215.6809   1.0217828002e+02   5.1131598056e+00    0.1217748   0.07049953  23.03 0.0007038836    1.782    0.439
       108  -7.7679    180.3211    215.3463   1.0645646379e+02   9.4300458216e+00    0.1158427   0.07596344  20.93 0.0004512887    1.734    0.423
       109  -8.8039    232.8316    212.2236   9.7487848787e+01   1.2408893879e+00    0.2087529    0.1393544  -0.82  0.001398408    1.581    0.367
       110  -9.4092     13.2641    211.7739   1.3414422598e+02   3.2118375100e+01    0.1739797   0.09419881  69.85   0.00122977    1.378    0.274
       111  -8.9614    249.8983    210.6825   9.4618636601e+01  -1.2982240340e+00    0.2210464    0.1236241  23.58  0.001297032    1.496    0.331
       112  -9.7849      6.6305    205.3365   1.3491276047e+02   3.3719322463e+01    0.2428707    0.1167584  74.53  0.001530487    1.639    0.390
       113  -9.8541    216.4244    208.0861   9.9450525519e+01   4.3036971078e+00    0.2768199    0.1628607   9.93  0.001565426    2.139    0.532
       114  -9.3527    247.8831    216.0549   9.5775898338e+01  -1.4501676806e+00    0.3091901     0.170874  19.14  0.001922693    1.662    0.398
       115  -7.7943    161.3347    209.3219   1.0886250222e+02   1.3264019871e+01    0.1146823   0.07960855  21.79 0.0007050219    1.706    0.414
       116  -8.9201    247.6221    205.7751   9.4168225063e+01  -5.1078329172e-01     0.275624    0.1556411  22.29  0.001691274    1.539    0.350
       117  -9.4110    240.7668    205.8331   9.5233707073e+01   5.7136432650e-01    0.2573458    0.1608547   0.96  0.001634276    1.679    0.404
       118  -8.3877    235.4007    207.2002   9.6290773735e+01   1.3030151557e+00    0.1338413    0.1042137 -26.74 0.0006948583    1.626    0.385
       119  -8.1751    206.8277    206.7631   1.0081181385e+02   6.0321959182e+00    0.2047127    0.1047425  18.80 0.0009624796    2.870    0.652
       120  -8.5482      1.6917    206.0521   1.3571570598e+02   3.4022587463e+01    0.1965791   0.08213086 -76.67  0.001204332    2.151    0.535
       121  -8.8207    229.2650    205.2484   9.6944448245e+01   2.4849391603e+00    0.1860797    0.1346796  -8.10  0.001193404    1.468    0.319
       122  -8.8894     13.1155    204.4225   1.3384157859e+02   3.3298615772e+01    0.1947886   0.08615679  76.94  0.001312278    1.948    0.487
       123  -8.5781    235.6673    201.6772   9.5350431733e+01   1.7884856209e+00    0.2140334     0.137833  23.41  0.001239547    1.288    0.224
       124  -9.2370    250.0501    199.9561   9.2829008611e+01  -3.7031431136e-01     0.252387    0.1462291  -7.59  0.001537121    1.833    0.454
       125  -9.5393    243.8260    199.2930   9.3676986440e+01   6.9006060531e-01     0.344335    0.1719591  23.51  0.001866825    1.957    0.489
       126  -9.8003    230.2194    198.7631   9.5733235289e+01   2.9734788030e+00    0.3675259    0.1651904  19.92  0.001557781    3.399    0.706
       127 -10.1779      3.8299    197.3706   1.3502952577e+02   3.5243675518e+01    0.3633708     0.129044  80.06  0.002136661    2.660    0.624
       128 -10.5803      3.6736    189.9091   1.3473420936e+02   3.6492638416e+01    0.4068379    0.1438573  84.95  0.002357906    2.661    0.624
       129  -7.9235    202.9858    195.5236   9.9684563847e+01   7.9476681535e+00    0.1811397   0.08049531  29.66 0.0008099496    2.547    0.607
       130 -10.0490    242.8221    188.5189   9.1978520071e+01   1.8943860068e+00    0.3845769    0.1757735   2.16  0.001457046    4.502    0.778
       131  -9.2445    232.0659    191.7845   9.4258036154e+01   3.3745710679e+00    0.3275168    0.1657952  20.10  0.001630186    2.308    0.567
       132  -9.8426    246.8365    191.4045   9.1857195138e+01   9.4776262442e-01    0.3026407    0.1626825  27.35  0.001405075    1.595    0.373
       133  -9.0616    225.1718    189.9311   9.5056771551e+01   4.7447690939e+00    0.2870466    0.1564119  12.38  0.001427569    2.416    0.586
       134  -9.3184    238.1671    186.3100   9.2324908118e+01   2.9012949241e+00    0.3533034    0.1671392  -2.81  0.001475936    3.663    0.727
       135  -9.3097    249.7995    183.8960   9.0063077060e+01   1.1824469124e+00    0.2380075    0.1426831  -3.40  0.001391163    1.729    0.422
       136  -8.2952    230.0235    185.5028   9.3493093291e+01   4.3818333072e+00    0.1883448   0.09936877  41.78 0.0006012365    1.575    0.365
       137 -10.0092      6.2441    182.8993   1.3397324325e+02   3.7470895610e+01    0.2449763    0.1078418 -59.20   0.00154388    2.788    0.641
       138 -10.3166    244.0490    180.3800   9.0323514862e+01   2.5031015731e+00    0.4412633    0.1869943  27.01   0.00197316    2.627    0.619
       139  -9.9620    248.3228    175.3525   8.8721594015e+01   2.2818091914e+00    0.2804887    0.1606222 -23.90  0.001339505    1.814    0.449
       140  -8.5825    224.2896    182.3588   9.3875202630e+01   5.7245645501e+00    0.1288753   0.07968127  16.42 0.0007026357    1.687    0.407
       141  -9.5763    235.4785    179.9430   9.1611358712e+01   4.0268122859e+00     0.287441    0.1554936  -3.68  0.001434986    2.386    0.581
       142  -7.7537    211.3194    181.3212   9.5869092511e+01   8.1497197018e+00    0.1301826   0.08192359  19.56 0.0003409674    1.668    0.400
       143  -9.8190      2.0505    178.1534   1.3447415845e+02   3.8630108862e+01    0.2962015   0.09347001 -89.14  0.001576144    2.986    0.665
       144  -8.0035    219.3066    176.3406   9.3620835226e+01   7.2973230226e+00    0.1318598    0.0823622  17.69 0.0007042226    1.684    0.406
       145  -9.4123      5.9904    174.9711   1.3362147893e+02   3.8870709564e+01    0.1706577   0.07924231  65.93  0.001139367    1.773    0.436
       146  -8.1470    223.6556    171.6943   9.2030077452e+01   7.0483683855e+00    0.1349377   0.08170682  20.57 0.0003211186    1.691    0.408
       147 -11.1036    247.4717    164.3518   8.6748498771e+01   3.5716714960e+00    0.6211752    0.2879113  -9.79  0.002738648    2.869    0.651
       148 -10.3567    246.4855    156.1798   8.5277156472e+01   4.6292637693e+00    0.3568968    0.1929014  13.38  0.001698279    2.218    0.549
       149 -10.1834    250.0222    150.5034   8.3561833605e+01   4.6036583983e+00    0.3099741    0.2030548 -14.64  0.001574896    1.469    0.319
       150  -8.3134    103.9562    161.4833   1.1307622515e+02   3.0002200157e+01    0.1744769    0.1086813  44.20 2.003157e-05    1.473    0.321
       151  -8.4840    238.4873    157.0745   8.6736182931e+01   5.9990652054e+00    0.1846827    0.1181722 -20.71  0.001030017    1.582    0.368
       152  -9.5544      3.8985    155.2741   1.3292674750e+02   4.2599090013e+01    0.1833464    0.1046388  85.15  0.001315531    1.383    0.277
       153  -9.6420    216.4064    152.5364   8.9515396381e+01   1.0748472364e+01    0.2439538    0.2206144 -20.88 0.0002161215    1.266    0.210
       154 -10.5569    243.7080    148.8393   8.4210245339e+01   5.9597411638e+00    0.5075055    0.1688393 -23.68  0.001952636    3.329    0.700
       155  -8.1547    233.3093    152.3348   8.6616757386e+01   7.5179081972e+00    0.1389215   0.08639651  16.83 0.0002551531    1.676    0.403
       156  -9.0917    235.0447    144.5887   8.4714113170e+01   8.1041605520e+00    0.3198454    0.1877041   4.04  0.001527348    2.066    0.516
       157  -8.7831      8.3094    145.3303   1.3141206173e+02   4.4137351442e+01   0.09610117   0.06744914 -57.04  0.000343028    1.666    0.400
       158 -10.2651    243.9791    139.2847   8.2140545727e+01   7.0034719692e+00    0.3928218    0.1787047 -20.97  0.001760424    2.289    0.563
       159  -8.8724    250.3993    139.7732   8.1242044082e+01   5.7237124216e+00    0.1847851    0.1114276  -8.96  0.000954022    1.677    0.404
       160  -8.4896    230.3450    138.8143   8.4248811610e+01   9.7275978117e+00    0.1914439     0.116247 -12.29 0.0007983855    1.773    0.436
       161  -7.8420    224.2965    139.0458   8.5314529330e+01   1.0906755708e+01    0.2144777    0.1020015  -5.80 0.0007032831    4.176    0.761
       162 -10.0946      4.5157    137.0447   1.3162975268e+02   4.6017858379e+01    0.2703971   0.08167827 -78.46  0.001352197    2.709    0.631
       163  -8.8150    242.7663    132.0661   8.0752450663e+01   8.0854110619e+00    0.2653421     0.168416   2.24  0.001351118    1.683    0.406
       164  -9.4173    232.4461    130.1577   8.1988071656e+01   1.0380837108e+01    0.4366803    0.2295051  -7.30  0.001842627    2.511    0.602
       165  -7.9668    225.3379    132.3327   8.3658555912e+01   1.1553455476e+01    0.1484882   0.09342401  18.24 0.0007051927    1.742    0.426
       166  -9.7024    247.9720    128.1543   7.9068243386e+01   7.5210567712e+00     0.352274    0.2039377  -7.66   0.00146603    1.849    0.459
       167  -9.0015    248.7520    133.7972   8.0198918663e+01   6.7168429017e+00    0.2351424    0.1523136 -16.07  0.001192736    1.475    0.322
       168 -10.1258    238.9644    121.3863   7.8937415984e+01   1.0136387207e+01     0.568096    0.2964635 -10.36  0.002463658    2.285    0.562
       169  -8.9508    227.3111    122.6324   8.1118762252e+01   1.2393802873e+01     0.331383    0.1822152  12.17  0.001338233    2.626    0.619
       170 -10.0811    247.1710    117.5005   7.6763451096e+01   8.9341551157e+00     0.412587    0.2377225 -10.85  0.001983723    1.812    0.448
       171  -8.6893    218.3106    115.3241   8.0915211493e+01   1.5279115242e+01    0.1500069   0.09988464  17.60 0.0002331366    1.654    0.396
       172  -9.1337      5.6219    110.8014   1.2925781743e+02   5.1176643648e+01     0.160948   0.07991934 -86.90 0.0009587441    1.726    0.421
       173  -9.2614    240.7908    107.9038   7.5473878975e+01   1.1414146896e+01     0.365829    0.1791747 -13.85  0.001511708    2.348    0.574
       174  -8.2674    247.6209    101.7106   7.2952853476e+01   1.0727137823e+01    0.1491039   0.09252283  22.50 0.0007017865    1.737    0.424
       175  -9.3105    230.9966    113.1926   7.8289122304e+01   1.2829056013e+01    0.4082995    0.1833449 -17.97  0.001595116    2.607    0.616
       176  -9.3288    231.9638     79.0309   6.9537699701e+01   1.6972901903e+01    0.2186089    0.1931496  15.05 0.0004216183    1.064    0.060
       177  -8.4239    226.1441     30.8339   5.7059233779e+01   2.4017522548e+01     0.204081    0.1631084  24.34 0.0008391901    1.327    0.246
