#   1 NUMBER                 Running object number                                     
#   2 MAG_AUTO               Kron-like elliptical aperture magnitude                    [mag]
#   3 X_IMAGE                Object position along x                                    [pixel]
#   4 Y_IMAGE                Object position along y                                    [pixel]
#   5 X_WORLD                Barycenter position along world x axis                     [deg]
#   6 Y_WORLD                Barycenter position along world y axis                     [deg]
#   7 A_WORLD                Profile RMS along major axis (world units)                 [deg]
#   8 B_WORLD                Profile RMS along minor axis (world units)                 [deg]
#   9 THETA_WORLD            Position angle (CCW/world-x)                               [deg]
#  10 FWHM_WORLD             FWHM assuming a gaussian core                              [deg]
#  11 ELONGATION             A_IMAGE/B_IMAGE                                           
#  12 ELLIPTICITY            1 - B_IMAGE/A_IMAGE                                       
         1 -12.7768     37.4110     50.8936   1.0049432946e+02   6.1948954745e+01    0.7614066    0.5518531 -19.19  0.004114843    1.396    0.284
         2 -11.7441     19.9361     17.7356   9.5632719629e+01   6.9711092684e+01    0.6688715    0.5467482  76.88  0.003595958    2.733    0.634
         3 -11.3962     16.9956      3.2253   9.0129508015e+01   7.2254355480e+01     0.400373    0.2579876 -15.15  0.001885161    1.275    0.216
         4 -11.7671     11.6932      2.5467   9.2602716975e+01   7.2833473366e+01    0.3845684    0.1965888 -21.93  0.001555229    1.760    0.432
         5 -11.5403     23.3752      7.4180   8.9037701996e+01   7.1010351704e+01    0.4182746     0.312858 -10.42  0.002203225    1.095    0.087
         6 -13.0191     32.0256      2.0819   8.1994281738e+01   7.0773737387e+01    0.2792043    0.1921211  16.40 0.0005976662    1.368    0.269
         7 -10.7612     27.4883      3.4414   8.4918889275e+01   7.1129857634e+01    0.1926484    0.1650849 -11.39 0.0007028268    1.319    0.242
         8 -11.9881     60.6519     23.0712   8.0306700006e+01   6.3923680643e+01    0.6315426    0.3573253 -47.60  0.003059537    2.376    0.579
         9 -10.7377     64.5801     14.1333   7.4626136618e+01   6.4516504107e+01    0.5652508     0.262685  19.84  0.002207899    3.386    0.705
        10 -12.2162     84.7724     19.8428   7.0411679871e+01   6.0162049602e+01     0.618498    0.3919772 -33.57  0.001176829    1.611    0.379
        11 -11.4729      4.7797     18.5879   1.0349482611e+02   7.0696934676e+01    0.3862236    0.2781298  24.44  0.002349116    1.790    0.441
        12  -9.7888     34.9489     15.9531   8.7730406896e+01   6.8464949109e+01    0.4285361    0.1881156 -28.89  0.002105965    2.098    0.523
        13 -10.4555     91.9139      6.6640   6.2322506758e+01   6.0188805673e+01    0.4841074    0.3037163  46.17  0.001711403    1.458    0.314
        14 -11.7030     74.0894      7.0399   6.7863130822e+01   6.3667090864e+01     0.330202    0.2527573 -24.41 0.0003230362    1.345    0.257
        15 -12.0716     81.2435      6.2607   6.5225053292e+01   6.2385077682e+01    0.5032167    0.2953672  27.90 0.0002240193    1.625    0.385
        16 -11.1403     70.2203     15.2926   7.3156315085e+01   6.3407835354e+01    0.4640338    0.2013437 -21.48  0.001642559    2.387    0.581
        17 -11.5425     75.3734     15.7943   7.1620975907e+01   6.2426996689e+01    0.6385203    0.3719346   8.43  0.003070747    2.050    0.512
        18 -10.4273     54.9921     13.4637   7.7959033598e+01   6.6131513011e+01    0.3503773    0.1535584 -34.16  0.001690646    2.092    0.522
        19  -9.7998     59.2485     10.1771   7.4673037020e+01   6.5884193638e+01    0.3628979    0.1610038  43.87  0.001749471    2.344    0.573
        20 -10.4997    169.0931     13.4320   4.9430791537e+01   4.0971282742e+01     0.258746    0.1921032  41.35 0.0006076322    1.361    0.265
        21 -10.5863    100.1775     12.9413   6.2883824554e+01   5.7802415690e+01    0.3209711    0.2001423  -8.03  0.001116053    1.657    0.397
        22 -10.7055     26.6175     13.8867   9.0639067725e+01   6.9695769256e+01    0.1991886    0.1314733 -15.24 0.0004309948    1.317    0.240
        23 -10.5265     30.8458     13.0032   8.8206418917e+01   6.9379010478e+01    0.2084517    0.1447787 -21.68 0.0003956257    1.118    0.106
        24 -11.5109    116.9444      8.9825   5.7152472605e+01   5.4419878986e+01    0.6618766    0.2533259 -34.87  0.002624399    2.784    0.641
        25 -10.1371    157.0302     11.9925   5.0780353456e+01   4.4226633290e+01    0.2248854     0.161279 -63.67  0.000529529    1.663    0.399
        26  -9.9150    138.1448     11.9201   5.3996703530e+01   4.9017196437e+01    0.2077402    0.1885313 -78.93 0.0006375434    1.262    0.208
        27 -10.2910    133.0110     11.5339   5.4828823398e+01   5.0323654662e+01    0.2716148    0.1840226  11.15   0.00069885    1.644    0.392
        28 -10.1012     50.3682     11.3724   7.8784469943e+01   6.7096715388e+01     0.250136    0.1545577   1.45 0.0008211711    1.689    0.408
        29 -10.0452      5.5049     11.4545   1.0017949956e+02   7.1887511292e+01    0.2010058     0.119396 -31.05 0.0005725906    1.268    0.211
        30  -9.6691      6.4930      8.0138   9.8103341152e+01   7.2388575048e+01    0.1877819    0.1332853 -49.26 0.0005091791    1.523    0.343
        31 -11.2462    235.6026     10.0809   4.1083025584e+01   2.4590536736e+01    0.2885623    0.2250327   3.70  0.001005129    1.702    0.412
        32  -9.5569     39.8990     10.8646   8.3002476229e+01   6.8604037901e+01    0.1496932    0.1295676 -18.20 0.0004716992    1.304    0.233
        33 -10.9523    127.2589      8.3129   5.4725881597e+01   5.2026930883e+01    0.2402969    0.2264145 -64.34 0.0002059509    1.246    0.198
        34  -9.5098    108.0332      8.9434   5.9184174940e+01   5.6469750841e+01    0.2207008    0.1391855  23.73 0.0008284405    1.608    0.378
        35  -9.4246     43.4449      7.9553   7.9957519372e+01   6.8525756379e+01    0.1527792   0.09495694 -47.11 0.0008064382    2.421    0.587
        36 -10.4189    146.4209      6.3259   5.0522329187e+01   4.7453253609e+01      0.41642    0.1894695 -43.88  0.001685591    2.613    0.617
        37  -9.5751     59.9839      5.5169   7.2033105315e+01   6.6312215821e+01    0.2391194    0.1099966  42.28  0.001186318    2.119    0.528
        38 -11.0415    167.9324      2.3010   4.6017019797e+01   4.2297549035e+01    0.2236578    0.2119576 -35.56 0.0002999288    1.141    0.124
        39 -10.3003    126.0453      2.4467   5.2679707062e+01   5.2825908469e+01    0.3062299    0.1968377 -57.13  0.001468387    2.138    0.532
        40 -10.6253    236.2757      2.4126   3.9173452400e+01   2.5224338018e+01    0.2528975    0.1083369  68.91  0.001152399    2.203    0.546
        41 -10.1986    228.8430      5.1848   4.0448620917e+01   2.6700014082e+01    0.2012885    0.1568003 -62.95 0.0005822266    1.171    0.146
        42  -9.7751    174.1757    219.6373   1.0092484593e+02   4.8591321774e+00    0.2867266    0.1016464  39.64  0.001198865    2.430    0.588
        43 -10.7248    250.4011    245.6114   9.1669810435e+01  -1.0345366525e+01    0.3204461    0.1348648 -23.65  0.001745976    2.630    0.620
        44  -9.8526     72.6183    250.0652   1.2248890706e+02   1.5654737249e+01    0.1573607    0.1395416  37.31  0.001259254    1.579    0.366
        45 -12.1858     28.8967    248.3826   1.2924493601e+02   2.1128781387e+01    0.8251644    0.2711454  65.96  0.004276627    2.971    0.663
        46 -10.2904      5.5279    235.4530   1.3216516344e+02   2.5664920485e+01    0.2440909    0.1555435  53.36  0.001411661    1.351    0.260
        47 -12.0497     16.6478    238.4449   1.3061613824e+02   2.4067803798e+01     0.899249    0.2032481  37.22  0.004257531    4.140    0.758
        48 -12.5765     20.2382    248.5769   1.3054959551e+02   2.2011330061e+01    0.6850629    0.2024469  45.60   0.00395245    2.407    0.585
        49 -12.6983      5.9869    244.5965   1.3247147284e+02   2.4085900486e+01    0.6952738    0.3875432  48.30  0.004218369    1.539    0.350
        50  -9.0648     77.6796    218.9918   1.1900139936e+02   2.0310542689e+01    0.1693867   0.07375256 -46.50 0.0007048048    4.275    0.766
        51 -10.8279      9.5495    216.9287   1.3068571879e+02   2.8559438816e+01    0.2755467    0.1406583  61.23  0.001154768    1.505    0.335
        52  -9.6663     37.9801    217.4832   1.2595176999e+02   2.5528507462e+01    0.1503455   0.09254965  44.87 0.0006390529    1.550    0.355
        53 -10.8108     24.0629    216.8409   1.2828159084e+02   2.7143125329e+01    0.2597678   0.07643022  45.66  0.001368931    2.595    0.615
        54 -11.4275    236.1069    214.8066   8.8912121213e+01  -4.8571299535e+00    0.4357918    0.2463946  14.90  0.002164229    1.931    0.482
        55 -10.0180    194.5293    215.4805   9.6474457024e+01   1.9675333198e+00    0.2128353    0.1337759  11.87 0.0008931435    2.057    0.514
        56 -10.4388     31.2834    215.5101   1.2697256400e+02   2.6630066817e+01    0.2299016     0.165898  50.27  0.001439208    1.363    0.266
        57  -9.3173    136.9553    216.0000   1.0746719784e+02   1.1768015537e+01    0.2089064   0.06190896  41.94 0.0007931307    2.878    0.653
        58 -10.8208     21.4135    212.2748   1.2845737600e+02   2.8263750665e+01    0.3127032    0.1320044  56.37   0.00186621    1.922    0.480
        59 -10.2186    208.9865    212.0573   9.3242546589e+01  -3.0715058715e-02    0.1940526    0.1574004  21.02 0.0004533394    1.031    0.030
        60  -9.2141     76.3548    212.2977   1.1859959349e+02   2.1735553007e+01    0.1020312   0.09448001 -10.26  0.000703516    1.697    0.411
        61  -9.6474      2.2889    212.3393   1.3164239646e+02   3.0069286998e+01    0.1490254    0.1229943  66.24 0.0005282115    1.332    0.249
        62 -11.9127      4.7832    207.4200   1.3099175345e+02   3.0761617572e+01    0.5884944    0.2099465  85.01  0.003068818    2.651    0.623
        63 -10.0442     10.9696    208.3143   1.3000103503e+02   3.0025338091e+01    0.1703967    0.1189602 -69.09 0.0007057518    1.581    0.367
        64  -9.7122    124.0185    205.9726   1.0862138473e+02   1.5681999415e+01    0.1800053    0.1555284  54.65 -0.003769674    1.023    0.022
        65 -11.5137     18.9230    203.0372   1.2832561600e+02   3.0270012060e+01    0.3183106    0.2217358  84.41  0.001028589    1.088    0.081
        66  -9.2755     67.9977    203.7782   1.1934543401e+02   2.4495172530e+01    0.1472128   0.08588683  43.94 0.0004369763    1.597    0.374
        67  -9.4016    201.3262    215.7644   9.5270980481e+01   7.6540099979e-01    0.2027827    0.1240328  14.13  0.001028851    2.018    0.505
        68  -9.4708    223.5805    201.7837   8.8765418364e+01  -1.1245318872e+00     0.159187    0.1180553 -41.11 0.0006220228    1.678    0.404
        69 -10.3087    175.2872    202.6965   9.7992880707e+01   7.2902321041e+00    0.2144047    0.1819092  53.17 0.0005209587    1.232    0.188
        70  -9.2737    238.6738    201.2927   8.6008846434e+01  -3.5882723258e+00    0.1075095    0.1020184  60.19 0.0007018726    1.620    0.383
        71  -9.5690     34.7038    201.2041   1.2537055682e+02   2.9000459517e+01    0.1338677    0.1153623 -80.33 0.0005566345    1.341    0.254
        72  -9.3414    227.1730    196.8798   8.7205591707e+01  -1.0734416539e+00    0.1845066    0.1310336  10.80 0.0007727947    1.351    0.260
        73 -10.2103    215.6587    194.6284   8.8870629550e+01   1.2532229943e+00    0.2249924    0.1500007 -16.79 0.0005751393    1.617    0.381
        74  -9.3378    203.2978    195.6788   9.1371472378e+01   3.3134787538e+00    0.1200739    0.1065842  78.37 0.0007021733    1.620    0.383
        75  -9.5570    232.3257    191.2785   8.5214349710e+01  -1.1943800744e+00    0.1342616   0.08735998  12.54 0.0002550987    1.591    0.371
        76 -10.1459    186.6974    190.6588   9.3637573285e+01   7.1482796032e+00    0.1388817    0.0998317   7.63 0.0004861956    1.676    0.403
        77  -9.5739    211.1876    188.8145   8.8591290454e+01   2.9116642003e+00    0.1954048    0.1442568   7.21  0.001076454    1.398    0.285
        78  -9.3169      1.5915    188.1986   1.3052298126e+02   3.4751199864e+01    0.1419106   0.07598336 -73.67 0.0005662297    1.583    0.368
        79  -9.9521    218.0000    186.9288   8.6958742941e+01   1.9547591412e+00    0.2062079   0.07352682 -35.72 0.0007990628    2.919    0.657
        80  -9.4642     61.6416    184.8401   1.1865866226e+02   2.9156696306e+01    0.1755717   0.09969764 -83.37 0.0009436249    1.741    0.426
        81  -9.6880    166.7115    183.3447   9.6302576468e+01   1.2165623545e+01    0.1344715    0.1088043  82.77 0.0005597103    1.652    0.395
        82 -11.4070     15.9872    182.7789   1.2752749965e+02   3.4581828607e+01    0.3974256    0.1813205  81.75   0.00218187    2.047    0.512
        83  -9.8606      2.0274    180.3016   1.2998765335e+02   3.6297934643e+01    0.1490017    0.1090798  76.20 0.0005169084    1.089    0.082
        84 -10.1646    244.1591    178.5089   8.0599802490e+01  -1.4829075077e+00    0.2629857    0.1506546 -13.07 0.0008903437    1.922    0.480
        85 -10.8939    224.2531    178.4791   8.4123871014e+01   2.0664580920e+00    0.2614711    0.2215382  20.20 0.0004303998    1.069    0.064
        86  -9.6627     70.1777    177.7360   1.1605724301e+02   2.9540901914e+01    0.1502665    0.1444847 -54.21 0.0005338265    1.353    0.261
        87  -9.2171     36.4564    178.4443   1.2316359307e+02   3.3453942760e+01    0.1174258   0.09209425  84.75 0.0001909679    1.014    0.014
        88 -10.0245     46.5585    177.1734   1.2097250182e+02   3.2605620462e+01    0.2104552    0.1565134  50.26  0.001051984    1.348    0.258
        89  -9.8435    200.2082    176.5833   8.8274649013e+01   6.8863597530e+00    0.1975953    0.1197904  31.75 0.0005423911    1.626    0.385
        90 -11.1209     18.3352    173.0334   1.2635163459e+02   3.6390736899e+01    0.4048508    0.1733339  67.80  0.002001942    2.424    0.587
        91 -10.9534     12.9802    171.0134   1.2726462032e+02   3.7293480083e+01    0.3204569    0.1462793  87.40  0.001536394    1.973    0.493
        92  -9.4167     75.2095    170.7698   1.1407802408e+02   3.0355583998e+01     0.167494     0.148211 -45.62  0.001057214    1.412    0.292
        93 -10.2676     40.3865    169.7757   1.2152179055e+02   3.4885732244e+01    0.2490714    0.1517739  84.02  0.001226061    1.517    0.341
        94 -11.4035     36.6940    163.6953   1.2169558434e+02   3.6605014413e+01     0.463862    0.2472684 -69.31  0.002621656    1.588    0.370
        95 -11.8407     36.9259    157.8985   1.2103651201e+02   3.7860664659e+01    0.2227146    0.1692455 -84.34 0.0002995986    1.064    0.060
        96  -9.5721      4.6231    168.2234   1.2872037992e+02   3.8576395691e+01    0.1635537   0.07591596 -70.30 0.0009484069    1.748    0.428
        97 -11.2595     50.5841    165.2826   1.1883520786e+02   3.4718305336e+01    0.4550605    0.2313459 -49.30  0.002253315    2.386    0.581
        98 -11.2433     44.5582    162.7483   1.1987628711e+02   3.5965528863e+01    0.3612916    0.1796868 -66.35  0.001916684    1.734    0.423
        99 -10.1725     48.4854    159.4959   1.1862856548e+02   3.6244777170e+01    0.2748679    0.2163325  57.87  0.001784738    1.262    0.207
       100  -9.7009     67.1887    165.1729   1.1512699694e+02   3.2674332781e+01    0.1841889    0.1318002  73.85 0.0008444621    1.354    0.262
       101  -9.4629    200.4641    162.5564   8.5302487284e+01   9.1814135093e+00    0.1424056    0.1314915  14.05  0.000195528    1.034    0.033
       102 -10.2360    247.4736    158.4791   7.5812490325e+01   7.6756910274e-01    0.1354888    0.1170717  -5.71 5.410738e-05    1.054    0.052
       103 -11.4031     22.4796    156.3535   1.2406226199e+02   3.9604762672e+01    0.4119334    0.3149315  57.33  0.002881976    1.327    0.246
       104  -9.0168    147.6799    156.3369   9.5144041736e+01   2.1063260817e+01    0.1495633    0.1154737  84.48 0.0007049827    1.707    0.414
       105  -9.0940    235.7144    154.6616   7.6996792061e+01   3.5232702030e+00    0.1445761    0.0988149   3.63 0.0003752951    1.632    0.387
       106 -10.3894     12.1959    153.1795   1.2600741742e+02   4.1184117925e+01    0.2295467     0.168579  19.59  0.001135858    1.960    0.490
       107 -10.3724    178.0479    151.4284   8.7443583948e+01   1.5798559573e+01    0.2664834    0.2500894 -65.32 0.0009764682    1.212    0.175
       108  -9.9207     27.0258    147.4427   1.2215387078e+02   4.1168308213e+01    0.1479777    0.1164336  39.44 0.0004895915    1.509    0.337
       109 -10.3785     17.7730    146.7569   1.2419154686e+02   4.2138145472e+01    0.2433836    0.1749564 -30.66 0.0009751025    2.118    0.528
       110  -9.1081    229.6677    146.3376   7.6194706166e+01   6.0014008325e+00    0.1374847    0.1139443 -66.47 0.0007051982    1.741    0.426
       111 -10.0753    207.0893    146.1928   8.0359051048e+01   1.0638065352e+01     0.225369    0.1898713  12.97 0.0006788269    1.173    0.148
       112 -10.6976      8.4657    145.0000   1.2611693918e+02   4.3270711526e+01    0.3404164    0.1500982  19.73  0.001746844    3.446    0.710
       113 -11.2556     20.3674    141.7705   1.2309541803e+02   4.3033587519e+01    0.4713216    0.2006829  77.33  0.001345901    3.223    0.690
       114 -10.5449     15.8629    139.8066   1.2394309377e+02   4.3847043648e+01     0.212139    0.1585663 -19.61  0.001368269    2.096    0.523
       115 -10.3107      2.9719    143.9999   1.2724958142e+02   4.3893441125e+01    0.1750741    0.1085689 -54.28  0.001117007    1.725    0.420
       116  -9.5560     49.9717    141.2485   1.1592870146e+02   4.0221306833e+01    0.1958192    0.1400738 -28.60  0.001070552    2.075    0.518
       117  -9.2297    239.9928    140.7658   7.3120304048e+01   4.8413674903e+00    0.1718645    0.1154198  43.25 0.0005206408    1.561    0.359
       118 -10.7387     54.3318    134.6855   1.1387189963e+02   4.1238676111e+01     0.527812     0.248966 -87.27  0.001342191    3.438    0.709
       119 -10.9434      3.2269    136.2339   1.2652807227e+02   4.5583922742e+01    0.4339675    0.1750077 -55.93  0.002278258    2.307    0.567
       120 -11.2745      9.0410    136.8064   1.2523661597e+02   4.5043284842e+01    0.2087273    0.1410575 -76.98 0.0002756854    1.130    0.115
       121  -9.1536    143.6790    137.3080   9.1936174197e+01   2.5844561001e+01      0.15244    0.1202272  86.66 0.0007033854    1.642    0.391
       122 -10.3040     21.0133    135.8144   1.2230134594e+02   4.4323607262e+01    0.2172839    0.1405033 -74.38 0.0006598619    1.214    0.177
       123  -9.3735    137.8486    135.3912   9.2884767160e+01   2.7447916262e+01     0.218486    0.1418547  33.03 0.0009517041    1.724    0.420
       124  -9.2748    122.5454    135.5043   9.6640644844e+01   3.0442032365e+01    0.1466188    0.1416232 -74.39 6.585538e-05    1.004    0.004
       125  -9.2684    249.9904    134.2282   6.9959646562e+01   3.9045519582e+00    0.1726072    0.1143016  45.23 0.0008741434    1.638    0.390
       126 -10.1719    106.9745    133.2097   1.0005485481e+02   3.3822660499e+01    0.2509371    0.2092138 -53.12  0.001076526    1.157    0.136
       127  -9.3969     79.6588    133.2878   1.0710764203e+02   3.8222480484e+01     0.141232    0.1006556  75.59 0.0007020977    1.643    0.391
       128 -11.5454     37.6724    130.5080   1.1751003331e+02   4.4017393958e+01    0.3103921    0.2378779 -79.84 0.0001515678    1.088    0.081
       129 -11.0732     33.1851    125.8547   1.1801837783e+02   4.5528701136e+01    0.2505673    0.1792681  80.45  0.001018573    1.398    0.284
       130 -10.5589     74.1641    129.4721   1.0783646023e+02   3.9901611033e+01    0.2598107    0.2278247 -73.18 0.0007320598    1.013    0.013
       131  -9.1793    233.7025    127.6958   7.1126146625e+01   8.1777055017e+00    0.1468229    0.1061431   6.55 0.0002907283    1.585    0.369
       132 -11.5059     10.5585    122.4149   1.2338332966e+02   4.8169995666e+01    0.3718815    0.2139956  66.93  0.002120181    1.890    0.471
       133 -11.3237      2.3232    123.6760   1.2556483569e+02   4.8437821870e+01    0.4946853    0.1237361 -66.29  0.002106137    2.639    0.621
       134  -9.5776     82.0868    125.1082   1.0488596547e+02   3.9771886472e+01    0.2066799    0.1757748 -43.17 0.0003865908    1.232    0.188
       135  -9.8839    226.0060    124.2265   7.1620743374e+01   1.0362380841e+01    0.1889801    0.1213371  47.81  0.000861416    1.643    0.391
       136  -9.6726    219.7847    124.4250   7.2777713104e+01   1.1666780802e+01    0.1984275    0.1362551  35.30 0.0004560161    1.529    0.346
       137 -10.2792     20.8423    121.2406   1.2060879013e+02   4.7664727810e+01    0.1651665    0.1218115 -50.15  0.001064773    1.412    0.292
       138  -8.9892     64.6634    120.2523   1.0866402052e+02   4.3346968088e+01    0.1320528   0.09728198  73.38  0.000360231    1.566    0.362
       139  -9.7399     32.7243    119.0192   1.1716125320e+02   4.7157791931e+01    0.1798186    0.1297722 -68.59 0.0004189424    1.116    0.104
       140 -11.5872     23.5809    106.9333   1.1787052639e+02   5.0742051795e+01    0.2908148    0.2230036  69.85   0.00111775    1.437    0.304
       141 -12.6892     15.2436    109.1049   1.2050955837e+02   5.0871245671e+01    0.5066574    0.4252633  89.39 0.0007263027    1.169    0.144
       142  -9.9448    249.5315    118.5131   6.6348946981e+01   6.3977032219e+00    0.1422455    0.1244327 -19.76 2.469048e-05    1.018    0.018
       143  -9.6177    220.4466    116.9875   7.0813238859e+01   1.2780943370e+01    0.2284005    0.1380062 -34.44 0.0005128829    1.551    0.355
       144 -10.5870     51.0981    116.4682   1.1171691788e+02   4.5877927400e+01    0.3112574    0.1505618 -58.66            0    1.711    0.416
       145  -9.5838    166.2002    115.6817   8.1375940556e+01   2.5409266804e+01    0.2159208    0.1897315 -46.84  0.000435417    1.157    0.136
       146  -9.3357    214.1930    115.5947   7.1588236399e+01   1.4409209408e+01    0.2063436    0.1371626  36.96 0.0005752236    1.603    0.376
       147  -9.4150     72.2180    115.7614   1.0568071426e+02   4.3388224223e+01    0.2006471     0.120091  18.58  0.000886753    2.489    0.598
       148 -10.0145     35.1992    114.2326   1.1575346034e+02   4.8041851779e+01     0.245474    0.1435005 -65.04  0.001348375    1.375    0.273
       149 -12.0130     35.3369    108.2460   1.1473534342e+02   4.9423339561e+01    0.4450985    0.2624555  83.87  0.001309291    2.169    0.539
       150 -10.9483    249.0323    111.8863   6.4839715825e+01   7.5203171272e+00    0.2576151    0.1869645 -31.08 0.0007073274    1.224    0.183
       151  -8.8072    212.6576    112.6932   7.1129102361e+01   1.5256330797e+01     0.158282    0.1149157  12.76 0.0004655779    1.689    0.408
       152  -9.0532    223.3552    111.7345   6.8981563465e+01   1.3021196348e+01    0.1440759    0.1173346 -73.01 0.0006986615    1.628    0.386
       153 -10.3987     55.5726    109.8611   1.0921709563e+02   4.6912128035e+01    0.2489689    0.1810528  -4.76  0.001323259    2.010    0.503
       154 -12.0074     17.3278    115.8099   1.2083432080e+02   4.9182971841e+01    0.4870554     0.201331 -56.42  0.002463152    1.974    0.494
       155 -10.7579     62.5252    106.8873   1.0659608922e+02   4.6756236286e+01    0.2532854    0.2095312 -35.64 0.0006970883    1.299    0.230
       156 -10.8581      6.1680    105.8426   1.2257740880e+02   5.2215606375e+01    0.3230488    0.1802638 -62.81  0.001635427    1.368    0.269
       157 -10.6943      2.5214    105.5420   1.2353740863e+02   5.2500864767e+01    0.2304447     0.135067 -58.48 0.0005482042    1.401    0.286
       158 -12.2174      2.7808    100.4767   1.2284049404e+02   5.3627153078e+01    0.2511128    0.2037175 -79.22 0.0003954395    1.106    0.096
       159 -11.2412      1.4782     96.0134   1.2263447283e+02   5.4702995405e+01    0.4246872    0.1172439 -67.74 0.0008976083    2.438    0.590
       160  -8.9213     69.6353    106.2971   1.0439282092e+02   4.5956638339e+01    0.1398698    0.1033573  77.90 0.0007032104    1.720    0.419
       161 -10.4941    243.4242    104.7466   6.3960508957e+01   9.7965248355e+00    0.2009434    0.1286576 -20.26  0.000586244    1.581    0.367
       162  -9.8658    223.1979    103.9193   6.7018382391e+01   1.4359001492e+01     0.224332     0.191804 -46.32 0.0004435176    1.206    0.170
       163  -9.2997     93.6330    103.7197   9.6829469824e+01   4.2882966227e+01    0.1464667     0.112825 -12.91 0.0006890056    1.685    0.407
       164 -10.8763    247.6373    102.1239   6.2680522775e+01   9.3165237838e+00    0.2300354    0.2045206  77.42 0.0009160045    1.379    0.275
       165 -10.3212     36.4409    101.6082   1.1324876298e+02   5.0863285123e+01    0.3904234    0.1982704  43.36  0.001966342    2.338    0.572
       166  -9.4644    119.5206    101.4888   8.9042810545e+01   3.8571621224e+01     0.153672    0.1443287 -25.66 9.016686e-05    1.061    0.058
       167 -10.0266    146.0672     99.5024   8.1670394064e+01   3.3282272980e+01    0.3695438    0.2528458  -0.65  0.001447236    2.281    0.562
       168 -10.9410     92.8593     96.3641   9.5138755903e+01   4.4674546779e+01    0.7445979    0.1695951 -42.43  0.001842882    5.362    0.814
       169 -10.6029     95.6937     90.6040   9.2721577681e+01   4.5461057763e+01     0.481365    0.2953038   2.93   0.00161403    3.481    0.713
       170  -9.7468     72.6834    100.6671   1.0220205351e+02   4.6838461869e+01    0.1442954     0.100896 -29.43 0.0007047349    1.689    0.408
       171 -10.7530     62.1201     98.7923   1.0494180782e+02   4.8690473187e+01    0.3081235    0.2558857 -28.19 0.0008179828    1.329    0.247
       172 -10.7785    161.2739     99.1524   7.7980967758e+01   2.9831081916e+01    0.2670136    0.2058729 -13.42  0.001208423    1.502    0.334
       173  -9.0969     50.5749     99.4686   1.0858816648e+02   4.9911411870e+01    0.1341628    0.1108009 -57.63 6.510007e-05    1.026    0.026
       174 -11.5878     20.0244     96.9811   1.1733634308e+02   5.3302892733e+01    0.3814639    0.2075447 -75.76  0.002065975    1.634    0.388
       175  -9.2381     85.4516     98.4960   9.7875267827e+01   4.5414718051e+01    0.1447396    0.1301981 -49.42 3.602035e-05    1.005    0.005
       176 -10.0228     40.9283     97.1545   1.1104912318e+02   5.1463277010e+01     0.241909    0.1549029 -50.63 0.0007802746    1.345    0.257
       177 -10.2063     14.1113     96.8713   1.1907276702e+02   5.3744479730e+01    0.1845993    0.1412061 -84.54  0.000822551    1.216    0.177
       178 -10.9178     66.7305     97.8802   1.0333282480e+02   4.8299889536e+01    0.5496697    0.1767841 -49.83  0.002021717    2.635    0.621
       179  -9.6826    249.9017     95.5093   6.0730268334e+01   9.8551629393e+00    0.1885596    0.1424478  53.88 0.0003757043    1.489    0.329
       180  -9.9979     31.4708     93.3179   1.1320979751e+02   5.3226232944e+01     0.306327    0.1089285 -66.82  0.001044701    2.492    0.599
       181 -11.4192    103.9748     91.9492   9.0691801477e+01   4.3666433840e+01    0.2813906    0.2285636 -35.54 0.0003146114    1.183    0.155
       182 -11.0781     25.5523     91.6142   1.1472601973e+02   5.4108376011e+01    0.2429466    0.1982114 -52.93 0.0008721622    1.126    0.112
       183 -10.6232     22.9486     86.7633   1.1464335338e+02   5.5415227898e+01    0.2778033    0.1677428 -56.83 0.0009791858    1.284    0.221
       184 -11.5312     10.2926     90.8891   1.1929269450e+02   5.5348161028e+01    0.2282004    0.2206415  74.79 0.0005226104    1.297    0.229
       185 -12.5294     17.9960     66.0984   1.1203079109e+02   6.0370132315e+01     0.763528    0.4667603 -50.09   0.00137031    1.261    0.207
       186 -10.6451      4.5772     86.2290   1.2032236195e+02   5.6729196811e+01    0.3866624    0.1990947 -68.51  0.002234659    1.445    0.308
       187 -10.7964     14.8385     83.3419   1.1660833524e+02   5.6760989360e+01    0.4643411    0.1666729 -48.71  0.002189417    2.279    0.561
       188 -11.9110     13.7335     77.2037   1.1583402877e+02   5.8205838458e+01     0.483352    0.2048316 -43.24  0.002413924    2.175    0.540
       189 -12.0520      5.7041     75.5964   1.1821197761e+02   5.9034133716e+01    0.7237734     0.374072 -44.53  0.002921555    1.719    0.418
       190 -11.0033     21.0510     81.2346   1.1419240929e+02   5.6804986379e+01     0.339417    0.2148382 -10.76  0.001941474    2.179    0.541
       191 -12.0907     21.2514     76.9096   1.1325122841e+02   5.7758772460e+01    0.2975059    0.2357031 -47.74  0.000242085    1.129    0.114
       192 -11.0539    158.0170     90.2648   7.6160156192e+01   3.2329254314e+01    0.3043109    0.2260882 -34.05  0.001392505    1.324    0.244
       193  -9.2951     21.2790     91.3648   1.1600475081e+02   5.4493560729e+01    0.1310016   0.07085664 -46.69 0.0005447893    1.677    0.404
       194 -11.0330     46.6351     84.2688   1.0643914721e+02   5.3828299828e+01    0.6443585    0.4790896 -85.95  0.003632222    1.645    0.392
       195 -10.2543     39.4336     79.8321   1.0777316477e+02   5.5562011041e+01    0.2619438    0.1612683 -45.86  0.001443466    1.385    0.278
       196  -9.0992    139.3024     87.7054   7.9894949594e+01   3.7197203906e+01    0.1535458     0.125236 -77.65 0.0006993429    1.575    0.365
       197 -10.6224    112.8749     86.8418   8.6667906319e+01   4.3038237717e+01    0.2376366    0.2063209 -13.99 0.0007791468    1.211    0.174
       198 -10.8693     67.2348     84.9106   9.9920882437e+01   5.1177915120e+01    0.3292237    0.1956064 -36.46  0.001190538    1.726    0.421
       199 -10.7808    166.8040     84.0452   7.2349619434e+01   3.1370957830e+01    0.4451732    0.2781728  69.12   0.00175049    2.131    0.531
       200 -10.3888     87.9873     83.3963   9.2971072035e+01   4.8354991500e+01    0.2429991    0.1863453 -58.13 0.0002415383    1.350    0.259
       201 -10.4221     29.8162     82.5414   1.1157608404e+02   5.5822953601e+01    0.3601786    0.1263449 -56.21  0.001605686    2.091    0.522
       202 -10.3076    117.9397     82.8977   8.4057426482e+01   4.2822921029e+01    0.2829175    0.2117537 -37.72  0.001240171    1.273    0.214
       203  -8.7228     56.2584     83.6817   1.0314902487e+02   5.2865544162e+01    0.1270541   0.09963027 -82.88 0.0003066889    1.541    0.351
       204 -10.4009     71.1957     79.4310   9.7129835278e+01   5.1832730155e+01    0.1763836    0.1322328  49.75 0.0004187501    1.622    0.383
       205 -10.6941     92.7135     77.5593   8.9760313443e+01   4.8784909572e+01    0.2485092    0.2264733 -22.78 0.0007801284    1.049    0.046
       206 -12.0071     58.5812     75.1411   1.0009282231e+02   5.4470410188e+01    0.5610134    0.3878666  65.83  0.002293905    2.291    0.563
       207 -11.3053     62.0023     72.2957   9.8115955027e+01   5.4645186425e+01     0.426924      0.19709 -45.03 0.0009273866    1.856    0.461
       208  -9.4936    150.8314     77.2047   7.3865595223e+01   3.6511059026e+01    0.2169573    0.1815014  13.58 0.0003894102    1.323    0.244
       209  -9.7778    121.9471     76.1433   8.0832570504e+01   4.3326155530e+01    0.2301101    0.2114365 -84.14 0.0009730473    1.291    0.225
       210 -12.4271     44.6429     75.2768   1.0488058484e+02   5.6049485898e+01    0.2460406    0.2372113  55.84 0.0003519517    1.270    0.213
       211 -11.1535     37.6286     70.3567   1.0605117747e+02   5.7833771276e+01    0.5542582    0.3787782  87.43  0.001879051    2.272    0.560
       212 -10.3283     28.0155     68.0119   1.0888130064e+02   5.9199205136e+01    0.3507849    0.1229459 -52.79            0    2.077    0.519
       213 -10.6127     31.0122     65.7612   1.0723133767e+02   5.9434778476e+01    0.3776021    0.1568778 -59.17  0.001306493    2.008    0.502
       214  -9.6235     33.0056     75.7424   1.0898960505e+02   5.7071735894e+01    0.1643218    0.1421355 -47.25  0.001091762    1.094    0.086
       215 -10.6486    138.2811     74.3573   7.5998650067e+01   4.0007487314e+01    0.4800746    0.3278266 -79.15  0.001844697    2.602    0.616
       216  -9.9083    145.5121     73.9174   7.4088648278e+01   3.8387353247e+01    0.2446555    0.1515983 -34.99  0.001029783    1.581    0.368
       217 -10.7376    102.6393     73.0248   8.5318614390e+01   4.7884043456e+01    0.2682974    0.2192497  38.48 0.0005288559    1.298    0.230
       218  -9.8935    150.4931     72.4220   7.2436646768e+01   3.7461672123e+01    0.1541926    0.1508186  -0.73  5.33438e-05    1.020    0.019
       219 -10.4230    128.9040     71.7337   7.7545625341e+01   4.2640978140e+01    0.2627914    0.2103448 -41.55  0.001289085    1.239    0.193
       220 -11.4325     77.2284     71.1943   9.2689237719e+01   5.2688868891e+01     0.496088    0.3484259  68.20   0.00144444    2.364    0.577
       221 -10.8203     77.2118     63.8923   9.0330058671e+01   5.4185612929e+01    0.3891446    0.2603728 -42.55  0.001153204    1.338    0.252
       222 -10.2168    116.5116     71.1685   8.0710182597e+01   4.5449232779e+01    0.2871799    0.2216698  51.41 0.0006712752    1.414    0.293
       223  -9.4146    161.1049     69.8110   6.9226796797e+01   3.5313789779e+01    0.2110745    0.1788071  13.67 0.0003104261    1.291    0.225
       224 -12.2984     94.2922     68.3910   8.6330124879e+01   5.0372898326e+01    0.4098376    0.2605949 -35.54 0.0004488837    1.477    0.323
       225 -11.3192     50.8102     67.8263   1.0069062132e+02   5.6989004010e+01    0.4662991    0.2285396 -37.14  0.001565451    2.023    0.506
       226 -11.0776     51.4791     63.0484   9.9027807796e+01   5.7920900427e+01    0.5667753    0.2596012 -38.00  0.002529541    2.095    0.523
       227 -10.5897    140.2762     68.9993   7.3769092072e+01   4.0520976124e+01    0.2188046     0.197315 -20.34 0.0003334031    1.083    0.077
       228  -9.7897    123.0551     68.3973   7.7995167870e+01   4.4563928422e+01    0.2390985    0.1879226 -34.83 0.0005925042    1.224    0.183
       229 -10.4958    103.2012     68.1416   8.3540043372e+01   4.8739512124e+01    0.2754576    0.2535173  57.82   0.00123202    1.266    0.210
       230 -10.4499     68.7519     67.5293   9.4367111520e+01   5.4722176557e+01    0.3911908    0.1602853 -43.25  0.001553379    2.143    0.533
       231  -9.8527    146.2260     68.2477   7.2093615483e+01   3.9234868108e+01    0.2491308    0.1932466  -8.68  0.001102121    1.455    0.313
       232  -9.6055     83.9865     72.3257   9.0856230046e+01   5.1367777030e+01    0.1853097     0.173916  -8.63 0.0003017998    1.089    0.082
       233 -10.1309     99.6212     65.3675   8.3678125436e+01   4.9968178571e+01    0.2942758    0.1702683 -36.25  0.001303352    1.630    0.387
       234  -9.6829    120.2922     65.0280   7.7607344817e+01   4.5790666434e+01     0.214987    0.1901133 -25.67 0.0003572036    1.077    0.072
       235 -12.4226      4.1585     65.0923   1.1677935107e+02   6.1414188083e+01    0.3694738    0.2734999  84.40   0.00111437    1.616    0.381
       236 -10.0143    106.0192     64.3383   8.1414653941e+01   4.8910002781e+01    0.2011356    0.1895681  11.77 0.0004638215    1.077    0.072
       237  -9.5399     41.6257     64.0861   1.0290966684e+02   5.8790103912e+01     0.177018    0.1341565 -47.35 0.0004006701    1.076    0.070
       238 -10.8309     11.0598     62.5857   1.1375995655e+02   6.1574501988e+01    0.2082527    0.1415716 -57.32 0.0002904445    1.103    0.094
       239  -9.9773    201.0672     61.9851   5.9299530648e+01   2.6467127863e+01    0.2188061    0.2125188 -25.27 0.0002990315    1.029    0.028
       240  -9.5089    140.8652     62.1340   7.1351543113e+01   4.1584275272e+01    0.2261707    0.2022091 -57.12 0.0003007847    1.244    0.196
       241 -11.3567     87.0833     52.2580   8.2961408876e+01   5.4737953757e+01    0.3727354    0.3246381 -78.77  0.000554178    1.634    0.388
       242 -10.7643     83.8608     61.3720   8.7274105029e+01   5.3591177228e+01    0.4349947    0.2551039  45.79  0.002025782    1.969    0.492
       243 -10.4688     86.3864     57.7007   8.5163524761e+01   5.3857882720e+01    0.3647941    0.2362429 -33.58  0.001794064    1.424    0.298
       244 -11.6184     62.9125     60.2079   9.4028823765e+01   5.7043906421e+01    0.5414754    0.2810028  21.73  0.001499552    2.592    0.614
       245 -11.3750     29.6442     60.8162   1.0642321597e+02   6.0612021235e+01    0.5822635    0.2512929  12.79   0.00256025    3.535    0.717
       246 -12.0849    232.7698    245.7787   9.4592828026e+01  -7.8387304841e+00    0.5836255    0.3151179 -23.88  0.003566634    2.076    0.518
       247 -10.4395    100.0089     55.5486   8.0106869635e+01   5.1718425403e+01    0.3265655    0.2192305  42.77  0.001149617    1.561    0.359
       248 -11.3439     57.4236     59.2694   9.5684272830e+01   5.7965090304e+01     0.338262    0.3025208 -22.04  0.001618858    1.094    0.086
       249 -10.7218     45.3942     49.8321   9.7028589797e+01   6.1308993532e+01    0.4611579    0.1848792 -46.62  0.002079024    2.030    0.507
       250 -10.0611     47.5079     58.0576   9.8929656484e+01   5.9415088907e+01    0.2841957     0.192521 -69.13  0.001286699    1.962    0.490
       251 -10.1143     43.9515     57.0318   9.9936436939e+01   6.0020242442e+01    0.1974773    0.1582436 -38.16 0.0003441225    1.015    0.015
       252 -10.9144      5.6242     58.4432   1.1485644295e+02   6.2766996115e+01    0.2665392    0.1575705 -61.68  0.001654185    1.281    0.219
       253 -10.5608    146.9892     57.0165   6.8199310625e+01   4.0950561039e+01    0.2264855     0.219287 -21.73            0    1.047    0.045
       254 -10.3693    123.0674     56.2348   7.3807925627e+01   4.6728025349e+01    0.2578792    0.2137102 -44.00 0.0006973925    1.274    0.215
       255 -10.2898    129.6974     56.0024   7.2007764909e+01   4.5252774387e+01    0.3009228    0.2037761 -29.43   0.00047632    1.457    0.313
       256 -12.9987    128.5632     50.4834   7.0340890081e+01   4.6416384609e+01    0.4428099    0.3322516   6.94  0.002116725    1.528    0.346
       257 -10.4147     75.3776     55.9598   8.8218536591e+01   5.6031006743e+01    0.2191275    0.1886272   3.19 0.0003627303    1.172    0.147
       258 -10.2520     61.5333     54.2049   9.2484590829e+01   5.8425947789e+01    0.2302147    0.2216492   6.55  0.001016158    1.229    0.186
       259 -10.8495     12.6010     51.7265   1.1055873341e+02   6.3782660998e+01    0.2698272    0.2098266 -70.12  0.001491172    1.345    0.257
       260 -11.2046      5.4160     52.0121   1.1345972582e+02   6.4135918384e+01    0.3132336    0.2054575 -45.33 0.0009529913    1.198    0.166
       261  -9.2630    109.3117     52.3245   7.6186910229e+01   5.0388186045e+01    0.1532238     0.110122   6.86 0.0003523095    1.658    0.397
       262 -10.9328     70.0393     50.4702   8.8092391156e+01   5.7900836338e+01    0.3794844    0.3217066  70.27  0.002006095    1.777    0.437
       263 -11.0446    103.5973     48.3945   7.6387516943e+01   5.2234750745e+01    0.4947563    0.3629512 -31.61  0.002534615    1.296    0.228
       264 -10.7092     78.0071     48.3839   8.4538466760e+01   5.7005442948e+01    0.4806692    0.2635785 -17.87  0.001971078    2.530    0.605
       265 -10.6912     82.1889     46.8372   8.2533935244e+01   5.6564921491e+01    0.2232032     0.171688 -11.03 0.0005319328    1.280    0.219
       266  -9.8071    220.7216     48.9599   5.2757677268e+01   2.3452436721e+01     0.199927    0.1724478 -40.40  0.001094743    1.096    0.088
       267  -9.5424    166.7663     49.1690   6.1457390319e+01   3.7176256901e+01    0.2065388    0.1674842  33.29 0.0004100641    1.288    0.224
       268 -11.6328    152.2288     47.9235   6.3974785155e+01   4.1058426858e+01     0.780467      0.32452  49.70  0.002478916    2.293    0.564
       269 -10.5663     95.0383     48.6374   7.9072692701e+01   5.3894518468e+01    0.3408567     0.191974 -23.30   0.00147585    1.945    0.486
       270 -10.1980    120.1838     47.4318   7.1393160640e+01   4.8819918502e+01    0.2379216    0.1955077 -24.29 0.0003451514    1.180    0.152
       271 -10.9823     11.7196     44.2159   1.0886595498e+02   6.5379387024e+01    0.4512497    0.1782536 -42.77  0.001635537    1.954    0.488
       272 -10.3546      4.7807     47.0124   1.1247803152e+02   6.5206339791e+01    0.3074607    0.1309808 -40.16  0.001659381    1.951    0.488
       273 -10.1803      7.0080     41.2953   1.1001554072e+02   6.6248024787e+01    0.3131832    0.1193066 -56.14 0.0008614712    1.879    0.468
       274 -10.1202    142.8756     45.8799   6.5306292964e+01   4.3689381186e+01    0.2573908    0.2192811 -40.90  0.000495541    1.230    0.187
       275  -9.5864     86.2030     45.6195   8.0735948779e+01   5.6061365908e+01      0.19387    0.1611996 -29.38 0.0006670497    1.131    0.115
       276  -8.8671     54.3152     46.2520   9.2323633810e+01   6.0915276553e+01    0.1284625   0.08896986 -14.25 0.0002698228    1.525    0.344
       277  -9.4627     51.2460     44.9808   9.3036109596e+01   6.1545321532e+01    0.1839536    0.1768484 -20.41 0.0003131873    1.272    0.214
       278 -10.9690     52.1917     40.7630   9.1077307752e+01   6.2204400059e+01     0.382682    0.3421084  16.84  0.001465944    1.282    0.220
       279  -9.0054    233.4348     45.5270   5.0252944988e+01   2.0848571820e+01    0.1376446    0.1298276 -43.04 8.666133e-05    1.058    0.055
       280  -9.8952    185.8287     44.8403   5.6711567944e+01   3.2865946771e+01    0.2038502     0.169172 -63.00  0.001033495    1.292    0.226
       281  -9.0495    167.4558     44.4624   5.9800673463e+01   3.7673905709e+01    0.1484573    0.1454909  33.72 0.0004960788    1.002    0.002
       282 -11.0773     89.4703     39.3611   7.7210156234e+01   5.6486118061e+01    0.5415342    0.2394928 -45.22  0.002118278    2.684    0.627
       283  -9.4441    115.0214     48.4830   7.3170394300e+01   4.9798983815e+01    0.2210085    0.1433264  47.84  0.001024591    1.567    0.362
       284  -9.8500    110.5897     41.7125   7.1839332314e+01   5.1827328982e+01    0.2199651    0.1811027  79.78 0.0003409401    1.679    0.405
       285 -11.2668     68.5646     38.7992   8.4114396078e+01   6.0205306261e+01    0.6092747    0.3209081  -9.53  0.002223918    3.632    0.725
       286 -10.8502     34.3291     34.1224   9.5826808089e+01   6.5478786476e+01    0.4780312    0.1724155  37.02  0.002110244    3.484    0.713
       287 -10.5705     23.2635     41.1901   1.0308177099e+02   6.5155113071e+01    0.2399552      0.21456  19.96  0.001051585    1.417    0.294
       288 -11.0525     19.9654     38.0110   1.0343367361e+02   6.6034927508e+01    0.2863785     0.179762 -34.24  0.001318832    1.312    0.238
       289 -12.0159     27.6233     37.8616   1.0008666295e+02   6.5426109981e+01       0.3782    0.2485075 -56.35   0.00163329    1.554    0.357
       290 -12.3855     24.1240     35.2027   1.0064966188e+02   6.6234983373e+01    0.3212187    0.2071252  -6.02 0.0003301031    1.734    0.423
       291  -9.5441    172.7699     41.5742   5.7907557442e+01   3.6698790446e+01    0.1928783    0.1446812  77.98 0.0002504325    1.472    0.321
       292 -10.8778     96.7926     40.8468   7.5517692021e+01   5.4830001835e+01    0.3579815    0.2828161  31.67 0.0009215197    1.253    0.202
       293 -10.2675     96.0283     36.3123   7.3937534741e+01   5.5679193145e+01     0.324292    0.1762017 -49.83   0.00103798    2.606    0.616
       294 -11.1918     98.0392     31.6806   7.1444261562e+01   5.5945100502e+01    0.3491794    0.2325679  27.84 0.0007759217    1.533    0.348
       295 -11.0178    101.0938     28.6368   6.9300688923e+01   5.5728639280e+01    0.2596701    0.2363138 -30.46 0.0003738224    1.227    0.185
       296 -10.3558    103.5184     57.5071   7.9758241425e+01   5.0670580898e+01     0.511787    0.2402631 -27.18  0.001897862    2.527    0.604
       297 -10.1946     43.1067     37.7889   9.3567174456e+01   6.3854984165e+01    0.4014905    0.2759484 -71.08  0.001737095    2.805    0.644
       298  -9.5929    226.4502     40.4450   4.9757529970e+01   2.3195640840e+01    0.1395921    0.1296093 -57.47 0.0001587928    1.004    0.004
       299  -9.5897    215.5358     40.5052   5.1130247802e+01   2.5871889774e+01    0.1424797    0.1342366 -60.16 7.034047e-05    1.003    0.003
       300  -9.7713     80.3401     26.1537   7.4647593432e+01   6.0157890373e+01    0.4356034    0.1481598 -43.91  0.001425393    4.290    0.767
       301 -12.0747     81.8535     36.6277   7.8589463505e+01   5.8322621352e+01    0.5818269     0.536788 -28.95  0.001408362    1.230    0.187
       302 -10.0291     78.6978     31.0119   7.7301961204e+01   5.9750239454e+01    0.3043727    0.2067571   3.95  0.001242852    1.615    0.381
       303 -10.0225     61.8833     37.8091   8.6183277748e+01   6.1389528704e+01    0.1921295    0.1502505 -14.00 0.0003037787    1.141    0.124
       304  -9.1944    199.6668     37.7249   5.2485955446e+01   3.0248189081e+01    0.1481967    0.1074522  34.48 0.0005589744    1.600    0.375
       305 -10.5500    101.7893     36.8702   7.2447281384e+01   5.4421653659e+01    0.2552402    0.2031937  16.54 0.0006227622    1.232    0.188
       306 -10.4312    105.1201     34.1415   7.0399401199e+01   5.4116945121e+01    0.2778294    0.2254565 -68.57 0.0003481485    1.790    0.441
       307 -10.7739     10.2846     25.2778   1.0334116209e+02   6.9132912786e+01    0.2941225    0.1951665 -27.30 0.0005810445    1.273    0.215
       308 -11.0916     10.2155     34.7012   1.0662570634e+02   6.7358741477e+01    0.4101795    0.2152457  10.03  0.002401086    2.339    0.572
       309 -11.4363      6.9524     30.2391   1.0664223252e+02   6.8415987501e+01    0.3097361    0.1925276 -41.74  0.001178573    1.173    0.147
       310 -10.1083    167.5659     36.3999   5.7153770400e+01   3.8735091866e+01    0.3937179    0.1117545  55.77  0.001254735    3.043    0.671
       311  -9.9324    155.3929     35.9731   5.9263582889e+01   4.1923618087e+01    0.2806296    0.1868784  34.60  0.001212195    1.615    0.381
       312  -9.4429    127.4435     36.4580   6.5476955277e+01   4.8763907928e+01    0.2013669    0.1330953 -36.24 8.951965e-05    1.553    0.356
       313  -9.5379    125.6019     32.8306   6.4551187812e+01   4.9688464249e+01    0.2096636    0.1867951  17.81 0.0006027276    1.055    0.052
       314 -10.4020     56.3301     31.8745   8.5858489851e+01   6.3187899248e+01    0.4939455    0.1998137 -46.45  0.001588305    2.730    0.634
       315  -9.6329     60.2538     33.4048   8.4986091387e+01   6.2370173406e+01    0.1740312    0.1524389   3.09 0.0002378494    1.148    0.129
       316  -9.7156    206.1318     33.8391   5.0493607856e+01   2.9092926287e+01    0.1887457    0.1638996  32.80 0.0002516275    1.288    0.224
       317  -9.6445    150.8945     34.4967   5.9636564402e+01   4.3260175775e+01    0.2252485    0.1411076  57.86  0.001015619    1.541    0.351
       318  -9.8622    129.6847     32.5731   6.3492101227e+01   4.8751825103e+01    0.2419929    0.1718402  -9.24 0.0005209261    1.511    0.338
       319 -10.9342     49.2093     30.5483   8.8140984463e+01   6.4374230197e+01    0.4491871     0.228306 -26.31  0.002179677    1.975    0.494
       320 -10.5204     42.8239     31.8765   9.1332227839e+01   6.4940475716e+01    0.1919111    0.1558222  -9.09 0.0004827368    1.133    0.117
       321 -11.1194     16.7025     29.9812   1.0207641442e+02   6.7807385448e+01     0.437172     0.377112  69.75  0.003043289    1.914    0.477
       322  -9.8349     24.9115     26.7741   9.7092351117e+01   6.7708675934e+01    0.2186602    0.1424218 -45.22 0.0006572383    1.333    0.250
       323 -10.4242     21.1990     27.3279   9.9013075095e+01   6.7934596803e+01    0.4555082   0.09919312 -47.72  0.001569946    3.246    0.692
       324  -9.3480    156.3692    246.2708   1.0782889219e+02   3.9640486015e+00     0.115754   0.07887899  23.63 0.0006998267    1.669    0.401
       325 -12.2093     74.4379    238.5913   1.2129465950e+02   1.7301259438e+01    0.4845597     0.318585 -82.70  0.003369313    1.537    0.349
       326  -9.3082     63.1904    243.6279   1.2355432145e+02   1.7910221830e+01    0.1356278   0.08814434  39.33 0.0003650488    1.639    0.390
       327 -11.5590     37.9645    243.0000   1.2755800804e+02   2.1022690700e+01    0.4281518    0.1024861  42.00  0.002116872    3.115    0.679
       328 -10.4569     35.5175    239.5050   1.2774188250e+02   2.1886817067e+01    0.2189117    0.1645287 -84.23  0.001772834    1.357    0.263
       329 -10.7525    156.4872    241.0557   1.0715480230e+02   4.6742130756e+00    0.1508945    0.1195196 -49.67  0.001033576    1.593    0.372
       330 -11.3584    177.4063     30.1595   5.3509665917e+01   3.6961241740e+01    0.4179618    0.2505649 -45.10   0.00187302    1.756    0.430
       331 -10.1107    153.2866     28.8487   5.7216677739e+01   4.3357718912e+01    0.2440215    0.1810233 -50.99  0.001198409    1.524    0.344
       332 -10.2229    112.0298     25.0212   6.4855621752e+01   5.3812341107e+01    0.2147902    0.1874283  12.10 0.0004230091    1.049    0.047
       333  -9.2242    104.7488     25.3558   6.6921540596e+01   5.5375969020e+01     0.133584    0.1052234 -49.83 0.0006952491    1.603    0.376
       334 -10.5798    109.3554     28.8778   6.7115974472e+01   5.3917377627e+01     0.237557     0.221992  -3.34  0.000314869    1.097    0.088
       335 -10.4097    108.0851     24.8305   6.5807097143e+01   5.4713528236e+01    0.2982436     0.217736 -40.62  0.001166945    1.550    0.355
       336  -9.5121    115.5258    244.5215   1.1477499578e+02   1.0528898511e+01    0.1147041   0.08989995  53.35  0.000216248    1.026    0.025
       337 -10.3255    195.6911    238.3714   9.9829482879e+01  -1.2816799466e+00    0.2367474    0.1675363  26.22  0.001287737    1.213    0.176
       338 -11.0927    214.3256     27.1378   4.7619884387e+01   2.7845511443e+01     0.376049    0.2356958 -63.60 0.0005390423    1.756    0.431
       339 -11.4774     70.5113     25.7150   7.7848072129e+01   6.1947700205e+01    0.3297831    0.2717881   9.65  0.001525747    1.107    0.097
       340 -11.0650    237.4716     25.4488   4.4707479722e+01   2.2424352014e+01    0.2622403    0.2011428 -62.21 0.0005831667    1.228    0.186
       341  -9.1146    146.0323     26.0169   5.7609464593e+01   4.5535787190e+01    0.1708798    0.1587112  40.13 0.0009572997    1.013    0.013
       342 -10.3174    135.1326     22.6389   5.8573923576e+01   4.8640819761e+01    0.3308114     0.187927  46.13 0.0008958885    1.637    0.389
       343 -11.1903    129.2839     23.6434   6.0205491991e+01   4.9950400928e+01    0.5545528    0.3896165  83.73  0.002623815    1.935    0.483
       344 -11.0054    130.6786     20.4755   5.8697255830e+01   4.9971742069e+01    0.3957283     0.295646 -79.40  0.001206658    1.850    0.460
       345 -10.7460    197.2032     24.8174   4.9068408839e+01   3.2461913522e+01    0.2329033     0.221896 -34.66 0.0003341211    1.092    0.084
       346 -11.7034     29.5342    233.4761   1.2834878223e+02   2.3579390420e+01    0.3989414    0.1714824  80.06  0.002310077    2.267    0.559
       347  -9.8385    139.5693     30.2426   6.0443221868e+01   4.6640122204e+01    0.2030009     0.138667  -5.17 0.0009418167    1.665    0.399
       348  -9.9764     93.7869     23.9948   6.9472606191e+01   5.7848912838e+01    0.2554732    0.1889166 -18.80  0.001240957    1.279    0.218
       349  -9.6262     96.7257     23.7118   6.8488766301e+01   5.7282453712e+01    0.2058381    0.1635656  -4.67 0.0004404393    1.174    0.148
       350  -9.8496     54.0407     23.9105   8.3277807860e+01   6.4779660927e+01    0.1969544    0.1547698 -13.11 0.0006453383    1.037    0.035
       351 -10.6802    120.3137     21.4533   6.1393276023e+01   5.2335178088e+01    0.2573989    0.2087181  10.94 0.0002849549    1.210    0.174
       352  -9.9248     28.8233     21.2227   9.2957990701e+01   6.8287679153e+01     0.375305    0.1427742 -25.94  0.001407809    3.929    0.745
       353 -10.1464    191.1356     21.1511   4.8781868748e+01   3.4441134635e+01    0.1981385     0.158595 -67.31 0.0004206531    1.299    0.230
       354 -10.5812     65.2107     20.5272   7.7420174676e+01   6.3563011905e+01    0.2406012    0.2046414 -50.29 0.0007244874    1.670    0.401
       355 -10.3695     45.2196     20.4700   8.5337678724e+01   6.6509778883e+01    0.2619818      0.20588  45.63   0.00125961    1.840    0.457
       356  -9.8592     24.0522    232.3120   1.2915666466e+02   2.4363846689e+01    0.1838756    0.1282936  60.03 0.0007736287    1.179    0.152
       357 -10.8957     10.1942     15.5091   9.9505649077e+01   7.0871289864e+01      0.21401    0.1375423 -26.53 0.0006180126    1.240    0.194
       358 -10.0254    161.9452     20.0114   5.2691976454e+01   4.2140584286e+01    0.2118952     0.199197  47.94 0.0003103353    1.019    0.019
       359 -10.2112    159.9159    235.8719   1.0586640219e+02   4.8608095971e+00    0.1856523      0.14408  27.09 0.0007842092    1.281    0.219
       360  -9.2855     50.3195    240.3143   1.2542242185e+02   2.0043941983e+01   0.08527028   0.08230057 -73.88 0.0005123598    1.652    0.395
       361 -10.4233    109.5701    242.9143   1.1564696121e+02   1.1663474176e+01    0.2441273    0.1604753  69.32 0.0009499741    1.536    0.349
       362 -12.1290    226.1751    246.1389   9.5749718226e+01  -6.9030228098e+00     0.463477    0.3006616   3.72  0.003003431    1.607    0.378
       363 -10.0279    177.5488    234.9501   1.0256209535e+02   2.1078970224e+00    0.2300978    0.1423429  29.82 0.0009172848    1.501    0.334
       364 -11.1519    153.5426    233.8306   1.0675153434e+02   6.1975304490e+00    0.2227415    0.1925484  -9.15 0.0009818436    1.475    0.322
       365 -10.1396    217.5306     16.5020   4.4408124419e+01   2.8261451747e+01    0.3284592    0.1089642  63.64  0.001244506    2.717    0.632
       366  -9.7200    108.3107     17.5668   6.2742367252e+01   5.5517705948e+01     0.193733    0.1163002  42.97  0.000938467    1.530    0.346
       367 -10.0861    167.0603    233.7066   1.0428089667e+02   4.0021020601e+00    0.1738896    0.1330958  39.07  0.000699301    1.056    0.053
       368 -10.0044     85.8288    232.8169   1.1882927563e+02   1.6736122383e+01    0.1610395    0.1060857  64.44 0.0004548415    1.289    0.224
       369  -9.6378     50.7619     15.4192   8.0622484302e+01   6.6490515750e+01    0.2137734    0.1160137  40.56   0.00113698    2.069    0.517
       370  -9.1607     62.3233    233.6580   1.2295978331e+02   1.9712218852e+01     0.119278   0.06258224  67.17 0.0007050724    1.729    0.422
       371  -9.9407     79.9418    231.6347   1.1975562789e+02   1.7750200182e+01    0.1640686    0.1133898  55.75 0.0005136922    1.151    0.131
       372  -9.7390     12.9906    231.2973   1.3084014864e+02   2.5661985689e+01    0.1411536   0.09806162  68.07  0.001143239    1.076    0.070
       373  -9.9666    181.3508    247.3177   1.0359815061e+02  -1.2642089055e-01     0.119283   0.07762915  18.86 0.0007047571    1.737    0.424
       374  -9.1525     58.3068    230.2755   1.2338583747e+02   2.0807053376e+01   0.08758208   0.08545636  69.37 0.0002215065    1.548    0.354
       375  -9.8260     90.0279     13.0401   6.5752486605e+01   5.9919831062e+01    0.1936692    0.1628886  14.18  0.001171234    1.014    0.013
       376 -10.9705      5.3844    226.0324   1.3177886983e+02   2.7314313127e+01    0.4434722    0.1910108  87.87   0.00283372    1.916    0.478
       377 -10.1662    190.5216    227.3771   9.9101262784e+01   9.9625340577e-01    0.3284564    0.1219511 -40.26  0.001481016    3.217    0.689
       378  -9.6358    249.0261    227.4666   8.8920680057e+01  -8.2843999824e+00    0.1682323   0.07646057  22.06 0.0006079442    2.382    0.580
       379 -10.0428    153.3197    227.3364   1.0592508683e+02   7.2137714809e+00    0.1199215   0.09023798  13.46 0.0007049593    1.705    0.414
       380  -9.9390    129.8219    226.8742   1.1022254521e+02   1.1125002240e+01    0.2567984    0.1298261  59.10  0.001249368    2.251    0.556
       381  -9.8945     87.6294    227.1712   1.1797892106e+02   1.7461261707e+01    0.1446763    0.1013593 -59.76 0.0009454446    1.684    0.406
       382 -10.3432     66.6870    226.6188   1.2164780482e+02   2.0393425151e+01    0.2829441    0.1406778  52.72  0.001015875    1.630    0.386
       383 -10.8445    120.0698    226.4835   1.1198107785e+02   1.2735313687e+01    0.1815541   0.09982006  44.30 0.0004616589    1.514    0.339
       384  -9.9630     25.7512    225.7353   1.2852029457e+02   2.5348730573e+01    0.1807409    0.1484824 -47.92  0.001393926    2.055    0.513
       385  -9.2087    156.3179    224.3347   1.0495317910e+02   7.1755624779e+00    0.1215393   0.09108448  13.06 0.0007048505    1.697    0.411
       386 -10.4530    123.6094    222.1346   1.1079832939e+02   1.2907496749e+01    0.2436207    0.1853553 -41.18  0.001152294    1.731    0.422
       387 -10.3090     13.4392    221.9027   1.3030792014e+02   2.7283272331e+01     0.149705    0.1070304  68.12 0.0009400083    1.101    0.092
       388  -9.2542    165.6848    221.2979   1.0276439309e+02   6.0585732628e+00    0.1212139   0.09055614  64.51 0.0002571327    1.608    0.378
       389 -10.1856    141.5373    221.0149   1.0727366173e+02   1.0171506092e+01     0.239346    0.1552241  31.93  0.001347843    1.585    0.369
       390 -10.5654     21.9829    220.4936   1.2884015964e+02   2.6686208674e+01    0.1584971    0.1079765  83.14 0.0004929875    1.129    0.114
       391  -9.4688    250.5057    219.4441   8.7288250383e+01  -7.6214899267e+00    0.1213852   0.09094007  13.02  6.76171e-05    1.022    0.022
