#   1 NUMBER                 Running object number                                     
#   2 MAG_AUTO               Kron-like elliptical aperture magnitude                    [mag]
#   3 X_IMAGE                Object position along x                                    [pixel]
#   4 Y_IMAGE                Object position along y                                    [pixel]
#   5 X_WORLD                Barycenter position along world x axis                     [deg]
#   6 Y_WORLD                Barycenter position along world y axis                     [deg]
#   7 A_WORLD                Profile RMS along major axis (world units)                 [deg]
#   8 B_WORLD                Profile RMS along minor axis (world units)                 [deg]
#   9 THETA_WORLD            Position angle (CCW/world-x)                               [deg]
#  10 FWHM_WORLD             FWHM assuming a gaussian core                              [deg]
#  11 ELONGATION             A_IMAGE/B_IMAGE                                           
#  12 ELLIPTICITY            1 - B_IMAGE/A_IMAGE                                       
         1 -14.9776      6.2782     68.3838   9.8916839170e+01   6.3680478086e+01     1.483366    0.8122697 -77.39  0.005771114    1.630    0.386
         2 -13.3213      2.7861     10.2394   8.4243423954e+01   7.8069588059e+01    0.7722489    0.5122717 -66.21  0.003826807    1.586    0.369
         3 -13.1159      8.8306      2.9667   7.2928597224e+01   7.8981426475e+01    0.8317215    0.4789391  50.26  0.003947885    2.843    0.648
         4 -15.7487     12.6476     21.6973   8.1279966566e+01   7.4757061448e+01     2.067289     1.089069 -35.81  0.008165714    1.862    0.463
         5 -13.7733     24.9097     13.4586   6.6471557454e+01   7.4954340919e+01     0.818933    0.3801312  33.69   0.00370683    2.237    0.553
         6 -12.2555    120.9869     25.2568   3.5344423120e+01   5.1627742541e+01    0.5512928    0.4368626  -0.97  0.002817056    1.441    0.306
         7 -12.6127     86.3910     14.3998   3.8123175790e+01   6.1853045729e+01    0.8575569    0.4230362 -53.82  0.003220462    2.874    0.652
         8 -14.8465     98.8347     11.5025   3.3653935611e+01   5.8957140320e+01     1.541633    0.8490242  73.12    0.0067401    1.871    0.465
         9 -11.5911     46.8495     12.8600   5.2119965933e+01   7.1186872469e+01    0.3011642    0.2499493  52.32  0.001343335    1.309    0.236
        10 -12.4395    215.0803      9.9894   2.0147164021e+01   3.0059695028e+01     0.336881    0.2613294 -32.29   0.00119449    1.156    0.135
        11 -11.0276    188.3506      9.7315   2.1783477391e+01   3.6081145208e+01    0.2442865    0.1497049 -80.14  0.001264938    1.682    0.405
        12 -10.9010    153.1281      8.4683   2.4372844541e+01   4.4909809347e+01    0.2025197    0.1824138 -37.51 0.0008113551    1.107    0.096
        13 -10.7743     75.1672      7.5343   3.7454738166e+01   6.5395523041e+01      0.28466      0.18342 -11.49 0.0009058656    1.687    0.407
        14 -10.7395     59.0073      7.7806   4.3134476403e+01   6.9223882536e+01    0.2376363    0.1326501  33.00 0.0007221702    1.968    0.492
        15 -13.7245     40.7186      3.9137   4.8864095285e+01   7.3648629347e+01    0.8699958    0.4707851  48.61  0.004218889    1.788    0.441
        16 -12.4556    225.0839      4.1919   1.8175251442e+01   2.8484158341e+01    0.3060417    0.2254089  53.72  0.001955535    1.691    0.409
        17 -10.4808     66.8487      3.6581   3.7632034887e+01   6.7816039650e+01    0.1862958    0.1274838  75.44 0.0004143146    1.651    0.394
        18 -12.2160     70.1445     16.0946   4.4114401598e+01   6.5623772986e+01     0.425899    0.3245733 -70.90  0.002137045    1.756    0.430
        19 -11.0207     61.3609      1.4426   3.7999289693e+01   6.9343902060e+01    0.3636499    0.1269553  62.33  0.001357393    2.742    0.635
        20 -11.7894     59.1363     16.0081   4.8369127606e+01   6.8143697931e+01    0.3537565    0.3108319  79.77  0.002000215    1.387    0.279
        21 -12.7423     16.4656    196.9671   1.0560051036e+02   3.1545447872e+01    0.5511908    0.1858716 -58.85  0.002447659    3.579    0.721
        22 -11.3704     51.7121    249.7095   1.0055747833e+02   1.8704033408e+01    0.2368239   0.09839782  51.72  0.001358597    2.082    0.520
        23 -12.5977      2.9595    249.0855   1.0998677816e+02   2.3171339160e+01    0.3945964    0.2299165  60.64  0.002465751    1.377    0.274
        24 -13.5195      9.4764    245.3995   1.0866352294e+02   2.3245557733e+01    0.6867368     0.306766  50.95  0.003374282    1.598    0.374
        25 -13.4341      8.3884    158.9955   1.0594696254e+02   4.0487518953e+01    0.8650074    0.2947017  34.55  0.002651328    2.367    0.577
        26 -13.4197     30.1846    169.1600   1.0054101662e+02   3.6308593368e+01    0.8955296    0.5355081 -32.41  0.004134274    2.542    0.607
        27 -12.5461     21.9640    166.1320   1.0258241895e+02   3.7747349399e+01    0.4147008    0.2719212   4.59  0.001211243    1.982    0.496
        28 -13.6342     22.0930    181.0570   1.0343955530e+02   3.4404941679e+01    0.7177149    0.3787542 -66.19   0.00389276    2.003    0.501
        29 -15.2192      8.3167    183.2852   1.0701911040e+02   3.5064582619e+01     1.242469     1.103613  74.41  0.009056347    1.149    0.130
        30 -12.0821    200.9260    191.3856   6.3957069354e+01   8.8636140051e+00    0.3032129    0.1907401  21.82  0.001752379    1.405    0.288
        31 -11.7181    206.5957    190.6633   6.2858080589e+01   8.1963945875e+00    0.2199181    0.1830026   3.95  0.001107196    1.155    0.134
        32 -10.8641     81.0250    193.0000   8.9658162457e+01   2.5447578934e+01    0.2148475   0.06333371  30.67 0.0008023337    2.942    0.660
        33 -12.2943    217.1637    188.1469   6.0665781041e+01   7.1180150455e+00    0.2563214     0.156276  27.20  0.001615842    1.501    0.334
        34 -11.4360    122.2341    181.6807   7.8327571034e+01   2.1876322561e+01    0.2700014    0.2053526  72.44  0.001478274    1.879    0.468
        35 -13.1544     40.7153    195.1615   9.9677642452e+01   2.9652698274e+01    0.3862484    0.2383422  64.61  0.002255643    1.555    0.357
        36 -11.3882    134.8287    171.2357   7.3720832999e+01   2.1859329093e+01     0.215224    0.1444604  70.58 0.0009513948    2.811    0.644
        37 -11.6233    178.8507    168.9027   6.4007874788e+01   1.5266992812e+01    0.3426856    0.2166681 -44.17  0.001859082    1.812    0.448
        38 -12.3402    124.2118    166.8480   7.5449453231e+01   2.4372563498e+01    0.4905808    0.3581519 -73.56  0.002538262    1.946    0.486
        39 -11.7413    222.9664    166.9738   5.5934914914e+01   8.9917638755e+00    0.1640291    0.1472787 -45.56  0.001139771    1.706    0.414
        40 -11.0356    194.2732    165.2233   6.0436974295e+01   1.3431622711e+01    0.2444354     0.167451  41.76  0.001420092    1.623    0.384
        41 -12.6036     76.6858    156.5947   8.6180389869e+01   3.3749576903e+01    0.6374674      0.51132  31.43  0.002928295    1.204    0.170
        42 -13.4318     73.5017    153.3343   8.6607611982e+01   3.4936203188e+01    0.7819559     0.399764  28.67  0.003287533    1.950    0.487
        43 -12.4352    198.0259    156.6599   5.8102828654e+01   1.4094841294e+01    0.2689337     0.233326  75.46  0.001635604    1.952    0.488
        44 -12.3891    189.4698    155.8417   5.9480212818e+01   1.5578714118e+01    0.2988467    0.2459185  26.51  0.001634869    1.206    0.171
        45 -12.1961    110.6257    155.4366   7.6825403564e+01   2.8851719065e+01    0.4407403    0.2859062 -76.97  0.001975467    2.357    0.576
        46 -12.8443    189.4298    150.2162   5.8350111561e+01   1.6442443183e+01    0.4021028    0.2831568  14.27  0.002257928    1.457    0.314
        47 -11.1811    103.0911    150.0607   7.7843193594e+01   3.1215342049e+01    0.2973079    0.1906421 -32.76  0.001374147    1.938    0.484
        48 -11.2986    246.3206    149.0965   4.9100796040e+01   7.9794579815e+00     0.200007    0.1406099  15.30   0.00134193    1.390    0.280
        49 -11.9511     60.4778    147.2091   8.9553945182e+01   3.8106650887e+01    0.3977183    0.2912007  17.59  0.002088922    1.535    0.348
        50 -11.1847     38.1419    145.8270   9.6178850992e+01   4.1027437380e+01    0.2162997    0.1637354  60.26 0.0005421977    1.234    0.190
        51 -12.5949    149.4849    144.0377   6.5174884621e+01   2.4408442478e+01    0.5109514    0.3043143 -57.76    0.0022413    2.355    0.575
        52 -14.9717     15.4852    174.7401   1.0481133249e+02   3.6354384966e+01     2.025648    0.4205405  42.63  0.007953202    3.138    0.681
        53 -12.0795     40.5798    137.0640   9.4425962175e+01   4.2933862057e+01    0.3754572    0.1947747  62.99  0.001619883    2.196    0.545
        54 -11.9457     44.3418    131.8421   9.2538230951e+01   4.3828882953e+01    0.3285717    0.1424661 -79.81  0.001252916    2.671    0.626
        55 -12.4418    136.1203    132.9082   6.5869731696e+01   2.8989840321e+01    0.3074749    0.2010818  34.60 0.0004247043    1.525    0.344
        56 -12.0114     83.0000    124.9705   7.8847594457e+01   4.0207525429e+01    0.2849682    0.1966793 -74.45  0.001322216    1.688    0.407
        57 -13.8177    108.9137    124.0721   7.0964019188e+01   3.5919654565e+01    0.6032906    0.4760258  -6.24  0.002963578    1.583    0.368
        58 -13.6131    110.1190    116.9012   6.8943718045e+01   3.7277988822e+01    0.9313964    0.3686023  33.45  0.003094631    3.021    0.669
        59 -12.5684    180.6174    123.3103   5.4101693953e+01   2.2273394492e+01    0.4794226    0.2782818 -38.21  0.002313682    1.638    0.389
        60 -10.7965    135.5009    125.5195   6.4327872150e+01   3.0576624088e+01    0.1455116    0.1385752   2.90 4.632747e-05    1.006    0.006
        61 -10.3655     58.8096    124.6359   8.6625688907e+01   4.3865699043e+01    0.2023826    0.1224216  41.75 0.0005349477    1.608    0.378
        62 -12.4183     28.7274    121.6520   9.6570406037e+01   4.8034468037e+01    0.3373352    0.2596238 -63.35   0.00188238    1.265    0.210
        63 -11.3579    159.5384    120.6022   5.7666250542e+01   2.6803674588e+01    0.3706934    0.1721968 -47.72  0.001450754    2.414    0.586
        64 -12.9597     78.5189    110.1825   7.7099032671e+01   4.4511363506e+01    0.5357998     0.412187  85.42  0.002259102    1.579    0.367
        65 -12.2121     86.6961    114.8174   7.5491627949e+01   4.2015205882e+01    0.3382275    0.2765948  19.77  0.001029186    1.353    0.261
        66 -12.9215     81.9851    114.9865   7.7043735210e+01   4.2771802715e+01    0.3691957    0.3234985  62.41  0.001672769    1.184    0.155
        67 -11.8852      4.3803    119.4019   1.0493985674e+02   5.0455734457e+01    0.5249648    0.1479911  17.09  0.001931048    3.774    0.735
        68 -12.8504     48.9375     98.7753   8.5321493724e+01   5.1766531763e+01     1.110076    0.4903128  26.17  0.004305666    2.480    0.597
        69 -12.0147     48.9991     93.5355   8.4163999659e+01   5.3110357392e+01     0.397838    0.3108923  82.45  0.002024889    1.418    0.295
        70 -12.4837     42.3296     90.5795   8.6256547658e+01   5.4710756966e+01     0.361716    0.2717942 -89.18 0.0005210508    1.433    0.302
        71 -11.4499     35.3821     86.3961   8.8340018141e+01   5.6594110645e+01    0.4043933    0.2637252 -26.19   0.00127884    1.932    0.482
        72 -11.9076     19.0819     86.0299   9.5516160395e+01   5.8204186480e+01    0.3930165     0.282347 -21.34 0.0003854544    1.653    0.395
        73 -13.2081      2.3748     97.2062   1.0402524877e+02   5.6310218501e+01    0.7289969    0.3828034  87.09  0.002943113    1.770    0.435
        74 -12.6760     36.5459     92.8788   8.9152328797e+01   5.4771742355e+01    0.5453281    0.3379057  17.68    0.0017346    1.858    0.462
        75 -14.0623     18.1817    111.5143   9.9245179903e+01   5.1560551683e+01    0.8065247    0.5759462  18.18  0.003299845    1.565    0.361
        76 -14.2427     14.4098    104.1759   9.9889338424e+01   5.3758992001e+01     1.091555    0.4695498  29.21  0.004446799    2.299    0.565
        77 -14.3508     22.6847     94.6854   9.5292601842e+01   5.5626819791e+01     1.398588    0.9325175   7.60   0.00648592    1.795    0.443
        78 -13.0770     29.6842     89.2731   9.1392656234e+01   5.6424170071e+01    0.9868501    0.4993806  75.07  0.003707469    2.923    0.658
        79 -12.1209    121.4730    112.0583   6.4617987806e+01   3.6104353112e+01      0.38194    0.3055401 -86.94  0.001180889    1.677    0.404
        80 -13.7925     94.8954    110.0429   7.1779342096e+01   4.1680493850e+01    0.7516206     0.572382  48.05  0.003687317    1.337    0.252
        81 -15.0426    107.0038    103.7289   6.6495307550e+01   4.0795126031e+01     1.231042     1.068337  15.72  0.005822779    1.266    0.210
        82 -13.0031    136.7153    103.3088   5.8426680059e+01   3.4737068460e+01    0.7051358     0.353882  55.23  0.002345265    2.388    0.581
        83 -11.8017     62.0198    110.5166   8.2872429063e+01   4.6982077499e+01    0.4007094    0.2669031  67.79  0.001802806    1.850    0.459
        84 -10.9338    166.5252    101.5046   5.1413011189e+01   2.8741923774e+01    0.1444609    0.1342893 -18.11 0.0008101377    1.002    0.002
        85 -12.0551     61.1068     97.6131   8.0366643293e+01   5.0377134377e+01    0.4514863    0.3085591  57.04  0.002092876    1.662    0.398
        86 -11.5818     41.9734    106.8739   8.9563727849e+01   5.0508245905e+01    0.3186495    0.2062472  25.04 0.0009265385    1.657    0.396
        87 -12.9020    136.0535     94.9626   5.6271434458e+01   3.6502862557e+01    0.4981091    0.3604911  47.97  0.002382894    1.415    0.293
        88 -12.6266    187.3849     84.6037   4.3214883859e+01   2.7046784750e+01    0.3927526    0.2103127  39.30  0.001720697    2.226    0.551
        89 -12.6416    164.1307     71.5772   4.3473295388e+01   3.4215155722e+01    0.5194734    0.3235002 -28.09  0.002384832    1.581    0.367
        90 -13.5088    169.8786     76.8773   4.4003081119e+01   3.2067285528e+01     1.088562    0.3306578  54.37   0.00364768    3.353    0.702
        91 -11.7812    158.0155     83.5098   4.8135041311e+01   3.3670651963e+01    0.3421101    0.2769243  61.39 0.0006895913    1.352    0.260
        92 -13.2381    161.2228     80.2478   4.6563592026e+01   3.3488362948e+01    0.6562297     0.379692  32.84  0.002248591    2.260    0.557
        93 -13.4303     91.8781     58.0384   5.6503426097e+01   5.3691168885e+01    0.5939746    0.5125998 -16.55  0.002836117    1.247    0.198
        94 -13.6407     87.1962     64.9950   6.0730025291e+01   5.3309826040e+01     1.152533     0.711531  17.66  0.004254421    2.770    0.639
        95 -13.5827     54.2226     68.0047   7.4986499791e+01   5.8766568824e+01     1.761584    0.7370436  34.21   0.00663462    2.496    0.599
        96 -12.8636     65.7654     49.4238   6.2842198231e+01   6.0913730813e+01    0.7521395    0.6697901 -77.31  0.004037067    1.319    0.242
        97 -13.9909     61.4732     75.5854   7.4261667974e+01   5.5781568291e+01    0.7199637    0.5777335 -24.68  0.001279789    1.408    0.290
        98 -13.1273     71.1945     75.0021   7.0152588351e+01   5.4245738327e+01    0.6997481    0.4860453  -1.94  0.002369445    2.225    0.551
        99 -12.5300     77.1868     73.0932   6.7222102134e+01   5.3569617553e+01    0.5372903    0.4030471  -8.89  0.001695762    1.801    0.445
       100 -12.1805    216.1645     81.7987   3.8409931343e+01   2.1619154644e+01    0.2660743     0.163947  64.07  0.001394199    2.021    0.505
       101 -11.7107    114.0371     79.7874   5.7416858973e+01   4.4389173068e+01    0.4132254    0.3402851 -51.23  0.001695146    1.237    0.191
       102 -12.2605    136.2986     79.7178   5.1681059990e+01   3.9317895484e+01    0.5596167    0.2816012  48.85  0.001603188    2.021    0.505
       103 -11.5393     41.6104     76.1922   8.3143285343e+01   5.8504784376e+01     0.293395     0.194256 -64.83 0.0007470464    1.445    0.308
       104 -12.2424     28.3049    245.2339   1.0498102353e+02   2.1647277885e+01    0.3762217    0.1826897  35.51  0.002433881    1.478    0.323
       105 -10.4726     97.3176     78.7030   6.2085777052e+01   4.8261835991e+01    0.1538428    0.1233192  89.60 0.0003709029    1.611    0.379
       106 -11.3595     27.1271     75.5665   8.9808347503e+01   6.0261942844e+01    0.4897848    0.2441456  85.57  0.001781352    3.108    0.678
       107 -12.4993    198.5577     70.4370   3.7801930770e+01   2.6713485546e+01    0.5365124    0.3609923  15.04  0.002605381    2.057    0.514
       108 -11.2387    117.5463     72.4464   5.4040019691e+01   4.5029826979e+01    0.2567118    0.2535837 -20.47 0.0004834153    1.009    0.009
       109 -12.1268    135.1821     66.4278   4.7668891105e+01   4.1938294318e+01    0.5072392    0.3115835  46.52  0.001556138    1.684    0.406
       110 -12.1162     99.3078     64.1783   5.6427438465e+01   5.0818295994e+01    0.5148336    0.2653121 -53.47  0.001908745    2.350    0.574
       111 -11.7568     24.9017     59.2381   8.6939313733e+01   6.4669849389e+01    0.4641617    0.3257303 -62.94  0.001611328    1.297    0.229
       112 -10.9292     31.7595     65.0263   8.4904842281e+01   6.2498354920e+01    0.2703097    0.2150561 -75.33  0.001093436    1.270    0.213
       113 -11.7279     30.9939     61.1963   8.4213265406e+01   6.3546882088e+01    0.3547406    0.2205663  54.99  0.001626327    2.021    0.505
       114 -12.8319     79.2254     60.5900   6.1962838611e+01   5.5896198003e+01    0.5295306    0.4928254 -34.93  0.002843676    1.053    0.050
       115 -13.0078     82.4084     54.3828   5.8338964021e+01   5.6490381735e+01    0.6685116    0.4929605  34.81  0.002300378    1.438    0.305
       116 -12.7890    177.9844     58.6475   3.7391499502e+01   3.2906967760e+01    0.5095747    0.4710067 -20.57  0.001850655    1.083    0.077
       117 -11.5930    111.2294     59.1072   5.1057756813e+01   4.8997648154e+01    0.3210118     0.272996  -0.01  0.000734125    1.350    0.259
       118 -14.3122    120.5809     54.7571   4.7017790148e+01   4.7480473984e+01    0.8703098    0.5275874  44.84    0.0020718    1.719    0.418
       119 -13.4622    103.0067     50.1684   4.9931870099e+01   5.2550139472e+01     1.023967    0.5937983 -62.09  0.002352148    2.655    0.623
       120 -13.1774     97.8928     50.1461   5.1441387447e+01   5.3773911064e+01    0.5079346    0.4077646 -40.38  0.001701138    1.240    0.194
       121 -11.4787     38.9880     59.8479   7.9626701564e+01   6.2922566496e+01    0.3060449    0.2331579  86.38  0.001528904    1.660    0.397
       122 -12.8984     62.8653     57.2692   6.7304688778e+01   5.9787001772e+01    0.9116663    0.5620326 -18.17  0.003518535    2.643    0.622
       123 -11.1442     17.6990     55.4467   8.9982198984e+01   6.6269044441e+01    0.3663204    0.1713218 -71.33  0.001558098    2.076    0.518
       124 -12.9938     54.2097     81.4389   7.9011640158e+01   5.5466944610e+01    0.6533757    0.4838681 -75.98  0.003187733    1.483    0.326
       125 -11.4082     36.4046     53.6424   7.8880014752e+01   6.4756663220e+01    0.3717462    0.1429629  29.30  0.001397511    2.763    0.638
       126 -10.6881     38.1839     50.5773   7.6794407449e+01   6.5249097099e+01    0.2457565    0.1874465 -25.99 0.0005347832    1.397    0.284
       127 -11.4401    136.3797     49.5606   4.1605808086e+01   4.4358864979e+01    0.2754248    0.2560136  32.90 0.0006203924    1.136    0.120
       128 -10.5903     23.5170     49.9731   8.4967995303e+01   6.7113192290e+01    0.2050162    0.1243676 -59.96 0.0004537572    1.485    0.327
       129 -12.1903    154.1590     47.4143   3.7602641220e+01   4.0207566199e+01    0.4416253    0.3253862  75.63  0.002198506    1.467    0.318
       130 -11.7522    159.4002     43.3085   3.5414347310e+01   3.9458107164e+01    0.4517335    0.2670956  57.16  0.002074967    1.720    0.419
       131 -12.5052    204.7165     39.8929   2.8861424122e+01   2.9236442364e+01    0.6047068    0.2891222 -83.28  0.002395934    3.351    0.702
       132 -12.2914    212.8679     43.2213   2.8964976462e+01   2.7107625459e+01    0.4482682    0.2726005  50.25  0.001879951    1.933    0.483
       133 -12.7543    219.7029     41.7005   2.7950944825e+01   2.5860714136e+01    0.8055997    0.4337313 -75.88  0.003758899    2.552    0.608
       134 -12.5394      4.0202     43.2941   9.5447436600e+01   7.0229799018e+01    0.5208275    0.3838512 -32.40  0.003018041    1.338    0.253
       135 -11.8379     11.6687     43.4939   9.0406898448e+01   6.9717282063e+01    0.4441181    0.2331485  -7.99  0.001979687    2.448    0.592
       136 -11.9837    109.5341     41.8712   4.4780648056e+01   5.2305020066e+01     0.555602     0.218011  59.05   0.00119386    2.589    0.614
       137 -12.7574    132.1203     32.6322   3.6188122595e+01   4.7806092793e+01    0.5277239    0.3526435  53.68  0.001813642    1.489    0.328
       138 -13.6734    122.1471     36.7197   3.9746592629e+01   4.9847400606e+01    0.8896788    0.5342926  39.89  0.003412113    1.883    0.469
       139 -12.8252    114.1233     37.8534   4.2002831559e+01   5.1745326029e+01    0.4749273    0.3524868  63.58  0.002007084    1.357    0.263
       140 -11.0868    135.7400     39.7674   3.8189892103e+01   4.5927349349e+01    0.2692583    0.1793891  60.54 0.0007395589    1.493    0.330
       141 -12.1642     75.7532     37.0090   5.3131087706e+01   6.1174329578e+01    0.4216952     0.277213  51.50  0.001118847    1.543    0.352
       142 -11.5444     70.6127     36.1051   5.4688148303e+01   6.2460964783e+01    0.3074823    0.2793958  77.35 0.0006223627    1.275    0.216
       143 -12.5730    242.0788     36.0794   2.4835219332e+01   2.2086886755e+01    0.4125201    0.2614389  73.30  0.001949658    1.889    0.471
       144 -10.8769    105.3068     37.3347   4.3975019691e+01   5.4054857440e+01    0.1561011    0.1141799  21.79 0.0007040766    1.670    0.401
       145 -13.3771    172.0125    242.2765   7.6584240211e+01   6.1153436887e+00    0.4264672    0.2631364  29.30  0.002958871    1.302    0.232
       146 -12.7581    101.9022    238.8237   8.9664732055e+01   1.4929059852e+01    0.4837086     0.208645  34.19  0.002674222    1.730    0.422
       147 -11.6700    147.4109    239.1908   8.0745650955e+01   9.4238588769e+00    0.1221397    0.1105073 -60.23 0.0007025937    1.665    0.400
       148 -13.5241     91.9959    230.7033   9.0962195579e+01   1.7362213687e+01    0.4525305     0.222079  42.22  0.002569802    1.680    0.405
       149 -10.9393     35.1130     34.8504   7.1854487297e+01   6.9213060219e+01     0.226777    0.1976536  15.52 0.0004902259    1.178    0.151
       150 -12.1863     45.6953     33.5056   6.5068302968e+01   6.7818256176e+01    0.5580986    0.4650878  30.89  0.003115277    1.226    0.184
       151 -11.8596     40.0036     32.8157   6.7924400514e+01   6.8898139853e+01    0.3541216    0.2636769  -8.43   0.00174795    1.565    0.361
       152 -13.6331    166.3288     30.0361   3.0139613454e+01   3.9363732391e+01    0.9265708    0.5276011  75.19  0.004040417    1.856    0.461
       153 -12.6532    139.3522     21.4760   3.0775172688e+01   4.7228174302e+01     1.098095    0.4196464  81.13 0.0007916425    3.566    0.720
       154 -12.2395    152.4931     31.4915   3.2467177708e+01   4.2684407158e+01    0.3943976    0.3294701  45.95  0.001348725    1.285    0.222
       155 -12.8243    148.0069     30.0116   3.2606371826e+01   4.4010820363e+01    0.6220072    0.4611037  -0.07  0.002256335    1.626    0.385
       156 -12.9433    142.9945     30.0143   3.3372370759e+01   4.5305125533e+01    0.5823193    0.4274898  84.94  0.002841545    1.445    0.308
       157 -12.7411    189.9431     26.7925   2.6608620093e+01   3.4024763495e+01    0.5006006     0.171828 -44.67  0.001949295    2.591    0.614
       158 -12.9977     55.4802     26.9653   5.6516753237e+01   6.7205911559e+01    0.7314048    0.3607427  50.00  0.002871094    2.148    0.534
       159 -11.7449     62.8749     25.1679   5.2162024404e+01   6.5962831207e+01    0.4646659    0.2418296  31.08   0.00181923    2.517    0.603
       160 -12.4435     24.6456    216.9971   1.0460080428e+02   2.6918816027e+01    0.5665077    0.2385489  50.41  0.003143339    1.855    0.461
       161 -11.5433     31.0086     25.2615   6.9480576314e+01   7.1797189270e+01    0.3943345    0.2366526  17.53  0.001501353    2.031    0.508
       162 -11.1673     36.2873     23.5856   6.5099905709e+01   7.1312608334e+01    0.3685617    0.2116751 -49.16  0.001738411    1.810    0.447
       163 -11.1602     51.5163     20.4992   5.4670768386e+01   6.9076080873e+01     0.267778    0.1720929  49.24 0.0008190734    1.609    0.378
       164 -11.6656     46.9895     20.1626   5.6799353548e+01   7.0020847355e+01    0.4317469    0.2792872  30.19  0.002120096    1.651    0.394
       165 -10.7993    224.0033     21.2356   2.2458125139e+01   2.7130085260e+01    0.1472103    0.1011125  81.93 0.0007028297    1.619    0.382
       166 -11.3389     13.4159    222.1908   1.0721738095e+02   2.6937389064e+01    0.2679275    0.1279721  71.53  0.001445102    1.986    0.497
       167 -13.5811     26.5762    225.8662   1.0456329563e+02   2.5121233038e+01    0.6658937     0.387576 -47.40   0.00402605    2.545    0.607
       168 -13.7864     20.5319    224.1246   1.0577598615e+02   2.5975125228e+01    0.5191076    0.4411062  46.21   0.00249965    1.147    0.128
       169 -10.9152    191.6669    226.3210   7.0987673675e+01   5.6839906628e+00   0.09725504   0.08133664  38.84 0.0007049621    1.701    0.412
       170 -12.9670     63.1336    223.4581   9.6542371308e+01   2.1879320560e+01    0.7711184    0.4396213  26.92  0.004604365    1.542    0.352
       171 -13.6214     63.8166    214.3811   9.5698509122e+01   2.3435122073e+01    0.4977047    0.3468348  62.25  0.003204018    1.433    0.302
       172 -12.5421     59.2062    212.8164   9.6619336483e+01   2.4236151994e+01    0.2401862    0.1946527 -30.72 0.0009156329    1.647    0.393
       173 -10.9580    249.0246    225.5115   6.1735827991e+01  -6.0794372698e-01    0.1488728   0.07781453  24.74  0.001043468    1.624    0.384
       174 -11.4331    248.8178    215.5998   6.0270684794e+01   3.7092601881e-01    0.1315122   0.08347408  31.51 0.0009584979    1.753    0.429
       175 -11.4722    156.5991    214.7859   7.5851135465e+01   1.1614157830e+01    0.1388269     0.114619 -48.88 0.0008595595    1.634    0.388
       176 -12.6167      4.1208    211.7267   1.0890812107e+02   2.9641620181e+01    0.4232461    0.2591638 -87.70  0.002829097    1.662    0.398
       177 -11.5721     72.6651    207.6749   9.3109717705e+01   2.3659118420e+01    0.2430794    0.1938395  89.13  0.001613421    1.436    0.303
       178 -10.7159    149.1873    207.4026   7.6289338290e+01   1.3694222595e+01     0.174742   0.09562076  39.41 0.0007526205    1.695    0.410
