#   1 NUMBER                 Running object number                                     
#   2 MAG_AUTO               Kron-like elliptical aperture magnitude                    [mag]
#   3 X_IMAGE                Object position along x                                    [pixel]
#   4 Y_IMAGE                Object position along y                                    [pixel]
#   5 X_WORLD                Barycenter position along world x axis                     [deg]
#   6 Y_WORLD                Barycenter position along world y axis                     [deg]
#   7 A_WORLD                Profile RMS along major axis (world units)                 [deg]
#   8 B_WORLD                Profile RMS along minor axis (world units)                 [deg]
#   9 THETA_WORLD            Position angle (CCW/world-x)                               [deg]
#  10 FWHM_WORLD             FWHM assuming a gaussian core                              [deg]
#  11 ELONGATION             A_IMAGE/B_IMAGE                                           
#  12 ELLIPTICITY            1 - B_IMAGE/A_IMAGE                                       
         1 -13.5623    159.1125     56.1786   7.6456056075e+01   3.8213011793e+01     1.286796      1.18003  12.23  0.003080385    1.094    0.086
         2 -13.9252    171.9642     41.2930   6.9002480890e+01   3.7149470318e+01     1.322497      1.04019   3.04  0.003953321    1.392    0.282
         3 -14.1131    192.2519      8.7765   5.5063168380e+01   3.5541820666e+01     2.531501     1.004128  59.62   0.00966709    2.263    0.558
         4  -9.5453    168.0338    245.7094   1.1223291999e+02   7.3286807547e+00    0.1426727    0.1197929  54.88 0.0004541505    1.270    0.212
         5 -19.7631     57.9220    166.4571   1.2334999300e+02   3.4800490182e+01     15.25702     3.907079 -70.73   0.06148284    4.135    0.758
         6 -11.9012    194.5868    196.5681   1.0156412932e+02   8.7724933804e+00    0.9392132    0.6956656 -89.09  0.005286806    2.683    0.627
         7 -11.3551    152.7961    198.7354   1.0914758637e+02   1.5523680714e+01     0.309489     0.211852 -52.17  0.001996481    1.817    0.450
         8 -10.7435    161.1561    199.9184   1.0783363098e+02   1.3980378448e+01    0.2830359    0.1808633  59.48 0.0003407496    1.664    0.399
         9 -10.5345    159.4993    196.5138   1.0765709395e+02   1.4727297507e+01    0.2078774    0.1576985  43.44  7.46838e-05    1.072    0.067
        10 -10.9928    207.0719    195.1559   9.9240345809e+01   6.8105693099e+00    0.1915146      0.18944  16.63  0.001449669    1.356    0.263
        11 -11.8151    151.8272    191.3737   1.0831722788e+02   1.6745885483e+01    0.3730836    0.2685787  69.62  0.001879795    1.635    0.388
        12 -10.3737    155.0547    187.5298   1.0718451937e+02   1.6767633762e+01    0.2332243    0.1763125  68.17 0.0009984859    1.491    0.329
        13 -10.9334    151.1238    183.3210   1.0729554617e+02   1.8068243899e+01    0.2623797     0.196996  82.50 0.0003624123    1.743    0.426
        14  -9.1617    154.4672    239.4904   1.1368611234e+02   1.0017126535e+01    0.1067067   0.07724781  46.27 -2.476821e-05    1.010    0.010
        15  -9.9183    172.5164    188.9609   1.0424423565e+02   1.3562967572e+01    0.1538386    0.1223013 -44.06 0.0009710725    1.537    0.349
        16 -10.7772    141.0571    189.3333   1.1000200811e+02   1.8837604221e+01    0.1788941    0.1343092  48.29 0.0008601272    1.099    0.090
        17  -9.9470    166.2811    235.1174   1.1134590711e+02   8.7604524697e+00    0.1861716    0.1408529 -61.67  0.001411867    1.910    0.476
        18 -10.0727    168.9386    177.6575   1.0312741013e+02   1.5799875272e+01    0.2733477    0.1820515 -63.06  0.001388572    2.190    0.543
        19  -9.9753    165.8712    173.0552   1.0294938339e+02   1.7034385131e+01    0.2046796     0.180965  84.28 0.0007231849    1.355    0.262
        20 -11.1705    204.6326    176.2423   9.6495841977e+01   9.5400746548e+00    0.3369716    0.3140163  26.76  0.001134061    1.179    0.152
        21 -10.0558    200.9439    168.0779   9.5682788774e+01   1.1280715359e+01    0.2450818    0.1660662  35.28  0.001402172    1.282    0.220
        22 -11.2956    189.3745    155.3604   9.5399879108e+01   1.5260229247e+01     0.417068    0.3639645  37.75  0.001512194    1.044    0.042
        23 -11.2665    193.3535    165.6669   9.6600487392e+01   1.3029532926e+01    0.2927383    0.2601442  30.68 0.0008610753    1.051    0.048
        24 -10.7651    190.1914    161.1134   9.6336997791e+01   1.4270480593e+01    0.3347513    0.2424266  62.32  0.001217665    1.665    0.400
        25  -9.5545    162.6414    234.8019   1.1188828390e+02   9.3445104646e+00     0.118554   0.09986845 -75.52 0.0004205689    1.655    0.396
        26 -10.8865     25.1876    165.7253   1.2969215950e+02   3.8379783299e+01    0.1941814    0.1626305  35.34 0.0008073996    1.580    0.367
        27  -9.8272    140.5374    163.2614   1.0624697817e+02   2.3130431169e+01    0.2087163    0.1257577 -55.62 0.0006166688    1.914    0.478
        28  -9.3797    176.0272    231.1775   1.0933927996e+02   7.7234181280e+00    0.1594759    0.1290545  -6.20  0.000831012    1.638    0.389
        29  -9.7629     24.4108    230.8513   1.3323826758e+02   2.7572966537e+01     0.265032   0.07458064  56.54  0.001594014    2.458    0.593
        30 -12.3192    134.0304    146.3209   1.0471404108e+02   2.7263933589e+01     1.163609    0.2942207 -55.15  0.003222036    6.390    0.844
        31 -10.3672    165.6037    153.6857   9.9620301710e+01   2.0109225157e+01    0.3332006    0.2120704  69.59  0.001367494    2.329    0.571
        32 -10.7667     20.5561    219.3842   1.3334145198e+02   2.9676452092e+01   0.09500025   0.06577632  72.03 0.0001826666    1.074    0.069
        33  -9.8307    174.3471    148.6672   9.6958481452e+01   1.9217873161e+01    0.2710659    0.2162309  80.87 0.0008163727    1.679    0.404
        34 -11.2927    143.9876    145.3354   1.0244520167e+02   2.5615465619e+01    0.3340657    0.2367527  88.73  0.001676087    2.047    0.512
        35 -11.9922    104.0802    136.3585   1.0954027199e+02   3.4285794289e+01    0.2774195     0.241618  64.71 0.0004080167    1.064    0.060
        36 -12.4643    106.1894    131.0131   1.0813136998e+02   3.5005542103e+01     0.500778    0.3690283  70.18  0.001515364    1.448    0.310
        37 -11.4435    135.0000    122.4362   9.9860843235e+01   3.1538681459e+01    0.6703314    0.1698428 -47.94  0.002085011    4.152    0.759
        38 -10.7964    160.8004    127.7844   9.5402790641e+01   2.5421646715e+01    0.3546858    0.2834387  89.47  0.001861487    1.644    0.392
        39 -11.8143    119.1746    128.2033   1.0462726797e+02   3.3345749867e+01    0.3974558    0.2750725 -35.86  0.001266054    1.783    0.439
        40 -11.1473    176.4066    217.3776   1.0756078052e+02   9.2600125673e+00    0.2614036    0.1640816  40.69  0.001719341    1.225    0.183
        41 -10.9044    107.6560    124.1734   1.0653156183e+02   3.6134194317e+01     0.266832    0.2210373 -35.46 0.0007451124    1.443    0.307
        42 -10.2331    113.3667    118.0602   1.0397186647e+02   3.6385214157e+01    0.2459324    0.1852808  55.52 0.0003471356    1.323    0.244
        43 -10.2868    168.3899    113.3775   9.0538235777e+01   2.6328707033e+01    0.3634703    0.2662154 -82.47  0.001367262    2.113    0.527
        44 -10.6683    134.8901    112.0875   9.7607100327e+01   3.3543229027e+01    0.5515082    0.1070105 -44.70  0.001464525    5.308    0.812
        45  -9.9705    205.6224    110.1270   8.2505387118e+01   1.8619942121e+01    0.2801583    0.1994976  40.89 0.0007466133    1.339    0.253
        46 -11.6818     16.5939    217.5361   1.3387044011e+02   3.0335090353e+01    0.1152866   0.08631214  85.13 0.0005317456    1.284    0.221
        47 -10.9704    146.1550    242.8874   1.1533225448e+02   1.0831543072e+01    0.2192343    0.1336221 -33.02  0.001447909    2.857    0.650
        48  -8.6401    117.3588     78.2778   9.3314873709e+01   4.3644236464e+01    0.1438917    0.1130824   6.57 0.0007010131    1.661    0.398
        49 -10.9287     34.7635    205.9101   1.3043868764e+02   3.0412441885e+01    0.1440022    0.1054888  54.42 0.0008560608    1.247    0.198
        50 -10.8971    150.5937    246.3538   1.1498630554e+02   9.7914103291e+00    0.1948713    0.1868114 -83.31 0.0009152643    1.421    0.296
        51 -10.4238     30.0044    205.8210   1.3121332853e+02   3.0907585344e+01    0.1151393   0.09280336  67.46            0    1.235    0.190
        52 -10.4327     14.1838     59.1692   1.2076344510e+02   6.1292678776e+01    0.2886008    0.1928075 -29.28  0.001550374    1.829    0.453
        53 -12.0478    176.2595     34.0880   6.5831096474e+01   3.6981305008e+01    0.4371227    0.3686759  18.32 0.0008850053    1.235    0.190
