#   1 NUMBER                 Running object number                                     
#   2 MAG_AUTO               Kron-like elliptical aperture magnitude                    [mag]
#   3 X_IMAGE                Object position along x                                    [pixel]
#   4 Y_IMAGE                Object position along y                                    [pixel]
#   5 X_WORLD                Barycenter position along world x axis                     [deg]
#   6 Y_WORLD                Barycenter position along world y axis                     [deg]
#   7 A_WORLD                Profile RMS along major axis (world units)                 [deg]
#   8 B_WORLD                Profile RMS along minor axis (world units)                 [deg]
#   9 THETA_WORLD            Position angle (CCW/world-x)                               [deg]
#  10 FWHM_WORLD             FWHM assuming a gaussian core                              [deg]
#  11 ELONGATION             A_IMAGE/B_IMAGE                                           
#  12 ELLIPTICITY            1 - B_IMAGE/A_IMAGE                                       
         1 -12.9980    246.4881     45.2365   4.3293102788e+01   1.8807276269e+01     1.152171    0.6617073 -13.19   0.00500699    2.896    0.655
         2 -12.2990    243.4613     22.7169   3.8469770484e+01   2.2352993204e+01    0.5887616    0.4571885  56.65  0.003649449    1.524    0.344
         3  -9.4825    140.3334      9.3239   4.6989883886e+01   4.8640532924e+01    0.2608008    0.1557007  68.30 0.0006326801    1.568    0.362
         4  -9.4355     18.7132      9.0202   8.5985924156e+01   7.1647919168e+01    0.1612316    0.1139772 -22.53 0.0002943061    1.097    0.089
         5  -9.3193    133.0116      6.8227   4.7370889288e+01   5.0649745772e+01    0.2013302    0.1391988  21.89  0.001061356    1.633    0.388
         6 -10.1640    116.7470      5.4815   4.9928998933e+01   5.4636224041e+01    0.2314795      0.21202  29.50 0.0003426605    1.068    0.064
         7 -10.1108    110.8974      5.0635   5.0979985219e+01   5.6023983981e+01    0.2214937    0.1777014  19.71 0.0004299694    1.231    0.187
         8  -8.8052    153.5069      3.0492   4.2920142596e+01   4.5943936760e+01     0.182546    0.1329555 -20.58 0.0004697164    1.544    0.352
         9  -9.2549     51.0486      3.1711   6.7783842688e+01   6.8112382165e+01    0.1883233    0.1306061  11.92 0.0004767026    1.258    0.205
        10  -9.1897    121.7081      1.9296   4.7628298779e+01   5.3763634762e+01    0.1726408    0.1568417  32.14 0.0003755885    1.081    0.075
        11  -9.5923     14.9298      1.9752   8.4348909206e+01   7.3020390777e+01    0.1696688    0.1248075 -13.55 0.0003221194    1.020    0.020
        12  -9.3247    235.8486    230.2844   8.4815117720e+01  -7.6948984341e+00    0.1773782     0.139092  37.63   0.00099477    1.497    0.332
        13  -9.1617    225.5482    249.8498   8.9782394936e+01  -8.6275347722e+00    0.1819574    0.1472734  59.37  0.001182834    2.208    0.547
        14  -8.9513    229.6615    228.3448   8.5573625338e+01  -6.5558238903e+00    0.1563277    0.1433445  54.09 0.0008112657    1.709    0.415
        15  -9.3864    247.9609    226.8815   8.2146598927e+01  -8.9675404562e+00    0.2845033    0.1336357  45.24  0.001271742    2.769    0.639
        16  -8.7087    206.7862    226.5926   8.9431007062e+01  -2.8566041189e+00    0.1746786    0.1047184  44.58 0.0009370007    1.738    0.425
        17  -8.8058    228.2337    222.4036   8.4808015350e+01  -5.5621343553e+00    0.1703222    0.1050111  42.87 0.0009549496    1.773    0.436
        18  -9.4602    248.4644    218.6747   8.0620478734e+01  -8.0123053535e+00    0.2240131    0.2071522  30.96  0.001600254    1.567    0.362
        19  -8.2839    239.6645    215.3398   8.1540898394e+01  -6.3125527560e+00    0.1047686    0.1014464 -89.78  0.000705118    1.755    0.430
        20  -8.0686    233.6627    214.3445   8.2417859650e+01  -5.2858262122e+00    0.1078158    0.1023985  84.89 0.0007049048    1.773    0.436
        21  -9.2282    241.5309    209.6881   8.0190120958e+01  -5.8283990108e+00    0.2295537    0.1913063  77.15  0.001317609    2.552    0.608
        22  -8.9868     72.9845    209.9731   1.1401903045e+02   2.1494770306e+01    0.2082214    0.1250445  68.12 0.0005494337    1.670    0.401
        23  -8.8818    230.6768    208.3414   8.1860248311e+01  -3.9947223405e+00    0.1102177    0.1042827 -85.60 0.0007050761    1.727    0.421
        24  -8.5224    247.3627    207.6729   7.8812820032e+01  -6.4157449710e+00    0.1058936    0.1016923 -79.92 0.0007040155    1.795    0.443
        25  -9.1521    188.2211    204.4276   8.9183618849e+01   3.6181872441e+00    0.1860358    0.1182188  47.54 0.0009395607    1.652    0.395
        26  -9.3567    173.0495    204.0483   9.2174826622e+01   6.3361523565e+00    0.2045503    0.1636787  69.26 0.0006592858    1.666    0.400
        27  -8.7704    250.3475    201.6694   7.7184207328e+01  -6.0414658585e+00    0.1559488    0.1468062 -47.52 0.0008286983    1.649    0.394
        28  -9.0781    244.1151    201.6885   7.8254828632e+01  -5.1154340893e+00    0.2365836    0.1067845  44.74  0.001095239    2.591    0.614
        29  -9.2219    176.9878    198.1809   9.0330921794e+01   6.6725260358e+00    0.2182347    0.1546275  63.35  0.001008611    1.956    0.489
        30  -9.7614    159.2437    198.3409   9.4052886826e+01   9.8245359889e+00     0.200451    0.1165148  47.22 0.0006629339    1.676    0.403
        31  -9.1893    202.3395    197.6854   8.5172894118e+01   2.2841498979e+00     0.125137     0.109012  76.35 0.0007047504    1.700    0.412
        32  -8.3660    210.3159    195.6725   8.3256805522e+01   1.2372280768e+00    0.1215731    0.1097111  87.28 0.0003336238    1.675    0.403
        33  -8.9410    247.0843    194.0699   7.6291119089e+01  -4.4946055902e+00    0.1723937    0.1619173 -67.19  0.001125772    1.718    0.418
        34  -9.7871    146.5053    194.0459   9.6039026275e+01   1.2935306678e+01    0.2026467    0.1386775 -50.54  0.001028616    1.578    0.366
        35 -10.3980    172.9985    191.5803   8.9951570243e+01   8.5875728324e+00    0.2599704    0.2020073 -62.66  0.001374196    1.638    0.390
        36 -12.2308    155.2293    182.3963   9.2050125153e+01   1.3648186695e+01    0.8430594    0.2298848 -44.52  0.002623918    3.924    0.745
        37  -8.8671    215.1615    186.9419   8.0642067376e+01   1.8120881267e+00     0.198786    0.1556044 -62.04 0.0005960295    1.935    0.483
        38 -11.5316    161.8141    182.8488   9.0698243567e+01   1.2323338446e+01    0.4964306    0.3154929  72.42  0.001951332    2.962    0.662
        39  -9.9396    128.5148    186.9692   9.8813356389e+01   1.7586323941e+01     0.210658    0.1387953 -55.25  0.001035877    1.601    0.375
        40 -11.8229    178.2966    183.5429   8.7319694352e+01   9.0965319381e+00    0.5360402     0.347496 -77.03  0.002018214    3.571    0.720
        41 -10.6213    139.8977    186.1194   9.6119175968e+01   1.5722888248e+01    0.2264097    0.1935373  69.04  0.001196297    1.258    0.205
        42  -9.9648     77.9179    185.7796   1.1012707042e+02   2.6025941734e+01    0.2875271    0.2160864  41.76 0.0007715907    1.352    0.260
        43  -8.6750    249.5863    184.8178   7.4056005802e+01  -3.5491156182e+00    0.1761746     0.108623 -40.19 0.0009415829    1.723    0.420
        44 -11.3473    173.2470    184.1400   8.8496719858e+01   9.9295870664e+00       0.4119    0.2743717 -73.45  0.001735388    2.721    0.633
        45  -9.8782    203.8257    184.6045   8.2359033196e+01   4.2078392406e+00    0.1910349     0.126383  48.47 0.0009019639    1.685    0.406
        46  -8.4390    241.3707    181.6802   7.4836395583e+01  -1.7766644793e+00    0.1193297    0.1066557 -73.18 0.0005613492    1.797    0.444
        47  -8.5499    236.3277    181.6668   7.5716399841e+01  -9.4804472378e-01    0.1204878    0.1070518 -66.58 0.0003225786    1.717    0.418
        48  -9.8558    190.9945    179.9807   8.3996084724e+01   7.3749482689e+00     0.216512    0.1815901  84.51  0.001136478    1.741    0.426
        49 -10.9608    165.8269    180.1279   8.9308721231e+01   1.2099097469e+01    0.2823672    0.2303905 -88.82  0.001321028    1.670    0.401
        50 -11.5664    161.9703    176.3177   8.9405965260e+01   1.3587695954e+01    0.3851514    0.2759002 -56.87  0.001891917    1.594    0.373
        51  -9.7490    134.8402    179.2443   9.6038675279e+01   1.8081399562e+01    0.2752833    0.1696267 -67.46  0.001205634    2.076    0.518
        52  -8.6874    224.0830    184.5555   7.8503676362e+01   6.5871068533e-01    0.1725975    0.1194967  63.80 0.0008072446    2.550    0.608
        53 -11.0258    150.8979    177.9574   9.2173539946e+01   1.5362186736e+01    0.2926201    0.2212222 -59.23  0.001361443    1.474    0.321
        54  -9.2993    145.3060    179.6605   9.3745220968e+01   1.6060410758e+01     0.145798    0.1126017  79.65 0.0007000322    1.680    0.405
        55  -8.7565    219.5135    178.5294   7.8134418023e+01   2.4283410832e+00    0.1365272    0.1215209  -2.84 0.0001121589    1.038    0.036
        56 -11.5422    182.9164    176.5877   8.4976893679e+01   9.5245436188e+00    0.5234271    0.2302404 -50.96  0.001954234    2.824    0.646
        57 -11.2025    180.1573    169.9228   8.4191415082e+01   1.1323737626e+01    0.3597077    0.2745961 -77.13  0.001701448    1.982    0.495
        58  -9.4051    198.2857    177.1992   8.1964207545e+01   6.5134999995e+00    0.2526759     0.187511  67.59  0.001160107    2.041    0.510
        59  -8.9191    210.6477    176.3464   7.9367214441e+01   4.3844914583e+00    0.1961144    0.1704195 -76.18 0.0008400504    1.680    0.405
        60  -9.6866    124.6808    174.5141   9.7536531239e+01   2.0947893259e+01     0.258603    0.1317521 -53.61  0.001085755    2.014    0.503
        61 -11.1304    188.0461    173.0441   8.3189886783e+01   9.2066167226e+00    0.3801658    0.2623555  63.11  0.001736165    2.052    0.513
        62 -11.9832    170.2331    169.1240   8.6154014684e+01   1.3421688035e+01    0.4429201    0.3383058 -56.00  0.002224036    1.481    0.325
        63  -8.5508    237.5196    170.0071   7.3119337342e+01   6.7676615758e-01     0.182956    0.1095122 -53.39 0.0008098958    2.526    0.604
        64  -9.8783    206.0096    170.5123   7.9054061373e+01   6.2560164183e+00    0.2134117    0.1357144  41.33 0.0007266342    1.586    0.369
        65 -11.4951    150.2916    169.2409   9.0616837213e+01   1.7289150691e+01    0.4217893    0.2536439  58.15  0.001776127    2.059    0.514
        66  -9.3348    219.6140    169.2452   7.6190853091e+01   3.9620900553e+00    0.2472934    0.1734935  50.47  0.001266083    1.689    0.408
        67  -9.2370    212.0468    169.0669   7.7582438257e+01   5.3830391997e+00    0.2085499    0.1782154 -75.00 0.0009792789    1.699    0.412
        68 -10.6489    192.0119    167.4309   8.1202251508e+01   9.4885073814e+00    0.3063303    0.2228053 -36.57  0.001547956    1.362    0.266
        69  -9.2537    128.1568    167.1810   9.5366616819e+01   2.1934083581e+01    0.2102096    0.1748526  80.91  0.001085809    1.349    0.259
        70 -11.3005    197.4461    158.2409   7.8115122892e+01   1.0140157913e+01    0.5359542    0.2454669 -50.54  0.001970283    2.735    0.634
        71 -10.9690    184.8912    165.5889   8.2284639590e+01   1.1229414575e+01    0.2984465    0.1974759 -57.50  0.001341825    1.932    0.482
        72 -10.8672    173.4715    164.9741   8.4585599991e+01   1.3608658178e+01    0.2905975    0.2043679  57.44  0.001063169    1.677    0.404
        73 -10.7232    153.1056    161.1237   8.8317078785e+01   1.8454141607e+01    0.3526609    0.2130021 -32.08  0.001478076    1.991    0.498
        74 -11.2161    154.7853    156.6962   8.6992242296e+01   1.9060479686e+01    0.3901953    0.2446322 -58.89  0.001667503    1.887    0.470
        75 -11.1363    158.8455    159.7395   8.6715977126e+01   1.7600992560e+01    0.3770278    0.2599201 -53.46  0.001752842    1.555    0.357
        76 -11.8378    157.7337    153.1574   8.5545866661e+01   1.9215993776e+01    0.5995021    0.3353073 -60.79  0.002280534    2.446    0.591
        77 -10.7766    138.8671    164.5594   9.2326670679e+01   2.0493848292e+01    0.3008758    0.2030646 -70.36  0.001302928    1.912    0.477
        78  -9.7718    213.7081    164.1815   7.6225594260e+01   5.9247772469e+00    0.2362166    0.1989595  48.40 0.0009606709    1.359    0.264
        79 -10.6279    206.0057    162.8908   7.7431626298e+01   7.6166583860e+00    0.3327992    0.2461241  62.95  0.001628191    1.859    0.462
        80 -10.3643    146.5554    162.2958   9.0072630493e+01   1.9495101759e+01    0.2894155    0.1464271 -52.81  0.001143309    2.112    0.527
        81 -10.7695    163.8031    161.6744   8.6012245809e+01   1.6205312813e+01    0.2846982    0.1805218 -55.11  0.001240498    1.790    0.441
        82 -11.9059    176.9807    152.3683   8.1080535600e+01   1.5424640004e+01    0.4865488    0.2969376 -55.88  0.002043775    1.994    0.499
        83  -9.5655      2.5998    159.7763   1.2451180439e+02   4.0273265706e+01    0.1679724    0.0877229 -89.29 0.0003304515    1.571    0.364
        84  -8.5736    237.7562    159.1821   7.0789927945e+01   2.3790788851e+00    0.2028318    0.1479525 -72.86 0.0009326665    2.672    0.626
        85 -10.7957    187.8954    156.8617   7.9765686782e+01   1.2312008055e+01    0.3158935    0.1917257 -35.92  0.001407645    1.644    0.392
        86  -9.2115    216.9610    157.0125   7.4055768726e+01   6.5666699747e+00    0.2172153     0.180829 -76.05  0.001130426    1.761    0.432
        87 -10.5407    169.0197    159.5124   8.4392509212e+01   1.5600078697e+01    0.3116035    0.1899727  64.82  0.001202577    2.570    0.611
        88 -10.9798    145.1591    154.0909   8.8678922053e+01   2.1555127403e+01    0.3680028    0.2579863 -63.30  0.001670703    1.659    0.397
        89 -10.6264    204.4761    152.8951   7.5532374567e+01   9.7378122778e+00    0.4680653    0.3073074  77.11  0.001759824    3.343    0.701
        90  -8.3102    250.5114    152.4939   6.7222104833e+01   1.2326443006e+00    0.1356701    0.1145625 -18.89 0.0008105089    1.015    0.015
        91  -8.8293    221.1930    152.1685   7.2203002669e+01   6.6085584434e+00    0.1883208    0.1688341 -54.85 0.0008712733    1.329    0.248
        92  -8.8622    244.8239    150.2391   6.7664899690e+01   2.5840761731e+00    0.2133082    0.1485199 -69.91 0.0009528861    2.804    0.643
        93  -9.3309    216.0140    149.5279   7.2570376885e+01   8.0745709885e+00    0.3121623    0.1667806 -51.95  0.001251034    2.418    0.586
        94 -10.8655    191.6019    148.5881   7.7140479912e+01   1.3157253328e+01     0.437418    0.1752039 -46.90  0.001527111    2.688    0.628
        95  -9.3670    181.8331    150.0122   7.9507716390e+01   1.4894563358e+01    0.2440463    0.1746115 -66.63 0.0009173926    1.944    0.486
        96  -9.9294    132.4921    148.4837   9.0530783612e+01   2.5315331034e+01    0.2787749    0.1454452 -60.98  0.001032542    2.369    0.578
        97  -9.8552    235.7324    147.9187   6.8684982811e+01   4.6072136903e+00     0.308971    0.2480518  75.34  0.001366805    1.890    0.471
        98 -10.1419    208.0703    145.8117   7.3231672995e+01   1.0323748078e+01    0.2233012    0.2070738 -71.18   0.00123728    1.306    0.234
        99  -9.3318    200.9647    145.9459   7.4647605186e+01   1.1740602550e+01     0.227503    0.1877441 -81.19 0.0008437124    1.693    0.409
       100 -10.7753    155.8795    144.0028   8.3916419551e+01   2.1559307026e+01    0.3896549    0.2198147 -55.75  0.001537728    2.049    0.512
       101 -10.6162    182.1925    142.4035   7.7676871542e+01   1.6338797882e+01    0.3691186    0.2644441 -68.76   0.00160983    1.985    0.496
       102  -9.2976    224.3469    147.2132   7.0524607476e+01   6.8692826962e+00    0.2568209     0.196067  81.51  0.001232323    2.172    0.540
       103 -10.8849    147.6702    140.1970   8.4977281907e+01   2.4101041271e+01    0.5899963    0.1892826 -50.56  0.001744171    3.434    0.709
       104 -10.3911    198.2516    140.0037   7.3806452225e+01   1.3427657300e+01     0.359369    0.2679746  87.94  0.001587867    2.179    0.541
       105 -10.2408    199.7999    137.5932   7.2931738010e+01   1.3562651504e+01    0.3179749    0.2880191 -88.73  0.001697214    1.356    0.262
       106 -10.4119    166.7961    140.6877   8.0643762424e+01   1.9961306986e+01    0.3006054    0.2071946 -69.76  0.001243668    2.094    0.523
       107  -9.3478    161.3804    141.1297   8.1978098479e+01   2.1017706995e+01    0.2284817    0.1419211 -55.15 0.0009430335    1.809    0.447
       108  -8.7921    131.0000    141.0141   8.9256749705e+01   2.7312124689e+01    0.2577721   0.08614904 -49.04 0.0008027253    2.944    0.660
       109  -9.0198    124.3448    141.6552   9.1080728729e+01   2.8469231933e+01    0.1615685    0.1200426  83.23  0.000704536    1.795    0.443
       110 -10.3025    187.3134    139.6613   7.5953852614e+01   1.5798982905e+01    0.2820837    0.1370549 -40.47 0.0008813415    1.992    0.498
       111  -9.0432    218.9920    139.0194   6.9627642512e+01   9.3639218921e+00    0.2266152    0.1783163 -66.89 0.0007181026    1.713    0.416
       112  -9.8246    209.3411    138.8555   7.1381742501e+01   1.1346969308e+01    0.2476721    0.2102262  56.28  0.001312126    1.355    0.262
       113 -11.5106    172.6838    137.9696   7.8687742135e+01   1.9267785206e+01     0.482172    0.3564068  85.05  0.002071671    2.078    0.519
       114 -10.0558    163.2787    136.3753   8.0417015780e+01   2.1622303066e+01    0.2708762    0.1877829 -61.60 0.0008832386    1.756    0.430
       115  -9.1096    235.5088    136.3131   6.6123247502e+01   6.6085434165e+00    0.2645843    0.1796881  64.70  0.001266244    2.116    0.527
       116  -9.4898    192.9194    137.1498   7.4204832986e+01   1.5100491640e+01    0.2319057     0.211412 -68.05    0.0012267    1.261    0.207
       117  -8.9360    242.6250    135.1589   6.4691255078e+01   5.4612207002e+00    0.1894246    0.1673262 -42.83 0.0006485326    1.193    0.162
       118  -9.6173    133.8198    134.8005   8.7120735748e+01   2.8163448295e+01    0.2197006    0.1885296 -89.45   0.00108099    1.342    0.255
       119  -9.2989    225.6449    134.0813   6.7300061817e+01   8.9137189641e+00    0.2299188    0.2104028  68.87  0.001078688    1.335    0.251
       120  -9.9469    197.7904    132.2214   7.2047764252e+01   1.5013506393e+01    0.2982064    0.2447926  -0.01  0.001393525    1.366    0.268
       121 -10.2301    179.5487    132.7140   7.5928153759e+01   1.8857446828e+01    0.3120097    0.2632853 -61.58  0.001271356    1.330    0.248
       122 -10.0635    206.0871    130.6881   7.0068304322e+01   1.3540140473e+01     0.273809    0.1974093 -45.83  0.001318791    1.383    0.277
       123  -8.9532    137.2824    131.6592   8.5505885504e+01   2.8164725351e+01    0.1572896    0.1236501 -84.68 0.0003294704    1.631    0.387
       124  -9.2616    248.7083    130.2247   6.2621156707e+01   5.1482050590e+00    0.3012477    0.1989451  69.63  0.001429725    2.432    0.589
       125  -9.7812    192.5819    129.4500   7.2417853990e+01   1.6670315847e+01    0.3661485    0.2206756 -50.13  0.001067717    1.785    0.440
       126  -9.1008    221.1723    129.3991   6.6993174857e+01   1.0641715184e+01    0.1975772    0.1425588  63.93 0.0009485502    1.788    0.441
       127  -8.7939    212.3307    129.6477   6.8649391526e+01   1.2421299795e+01     0.151579    0.1156279 -68.82 0.0007046883    1.776    0.437
       128  -9.1589    186.0176    129.0160   7.3657330017e+01   1.8186367238e+01    0.2442114    0.1907775 -73.21  0.001066828    1.694    0.410
       129  -9.0861    171.9276    128.7457   7.6611808036e+01   2.1337096116e+01    0.2178208    0.2158301  -1.34  0.001168655    1.035    0.034
       130  -9.7053    165.4720    127.2109   7.7674756223e+01   2.3078903894e+01     0.402772    0.1490821 -44.87  0.001311875    2.664    0.625
       131  -9.1297    240.9964    126.8164   6.3061959286e+01   7.1627644739e+00    0.2171926    0.1640563 -77.40   0.00107758    2.029    0.507
       132 -10.5554    199.9663    126.2899   7.0181180062e+01   1.5677516356e+01    0.3486409    0.2040967 -52.43  0.001022912    1.966    0.491
       133 -10.1434    180.0018    124.5929   7.3824978927e+01   2.0397214203e+01    0.4343329    0.2480799 -51.19  0.001611444    1.917    0.478
       134  -8.9758    227.8214    125.6015   6.4947958951e+01   9.9633026442e+00    0.1881742    0.1416872  65.14  0.000943655    1.697    0.411
       135  -9.3579    214.6937    124.0998   6.6888504703e+01   1.2937997937e+01    0.4644132    0.2557406  72.05  0.001516471    4.099    0.756
       136  -9.2496    146.6027    124.8254   8.1519258474e+01   2.7716160932e+01    0.2359561    0.1454857 -55.07 0.0009557299    1.769    0.435
       137  -9.3475    188.4772    123.4686   7.1775284897e+01   1.8739385883e+01    0.2824801    0.1355576 -48.99  0.001018365    2.269    0.559
       138  -9.2452    169.9727    124.2700   7.5925593711e+01   2.2694942987e+01    0.2134034    0.2125539  -8.18 0.0006669956    1.038    0.037
       139  -9.8369      6.7718    124.5741   1.2024357522e+02   4.8181593191e+01    0.1507067    0.1067995  47.40  0.000741652    1.607    0.378
       140  -9.3634    221.0014    122.0021   6.5266841487e+01   1.1995157030e+01    0.3659028    0.1819322 -54.26   0.00133367    2.806    0.644
       141 -10.1044    202.9255    121.3268   6.8392401529e+01   1.5972791818e+01    0.2729025    0.2006328 -45.49  0.001312374    1.332    0.249
       142 -10.1854    194.1392    120.7520   6.9955738985e+01   1.8013186983e+01    0.3923951    0.1771993 -52.13  0.001317556    2.853    0.649
       143  -9.9392      2.9514    122.0500   1.2099905511e+02   4.9021056269e+01    0.1992179    0.1121641 -49.99 0.0008925152    1.732    0.423
       144  -8.6732    231.6937    120.3090   6.3057560313e+01   1.0100531500e+01     0.141472    0.1079953 -62.67 0.0007019877    1.612    0.380
       145  -8.5892    214.6712    143.3297   7.1414241917e+01   9.4523700843e+00    0.1436342    0.1158772 -70.97 0.0007051389    1.711    0.416
       146  -9.0162    248.2054    119.2151   6.0211220388e+01   7.0482687738e+00    0.1929774    0.1507027 -51.53 0.0006973357    1.347    0.258
       147  -9.3934    140.4862    118.5054   8.1421371504e+01   3.0428580709e+01    0.2899853    0.1462009 -54.77  0.001034142    2.290    0.563
       148 -10.4034     18.3622    118.7359   1.1629915581e+02   4.8751480348e+01    0.2425713    0.2014438  79.25 0.0005372787    1.230    0.187
       149  -9.9453    212.5596    116.2660   6.5365926688e+01   1.4817267852e+01    0.3030987    0.1290837 -42.57  0.001127693    2.206    0.547
       150  -8.4539    203.6578    116.2988   6.7005726771e+01   1.6753488793e+01    0.1519974    0.1186997 -73.76 0.0007035329    1.669    0.401
       151 -10.6155    186.5111    115.3409   7.0118376668e+01   2.0772366758e+01    0.3484896    0.2421584 -68.27  0.001464521    2.008    0.502
       152  -8.3839    173.6638    114.3281   7.2559291911e+01   2.3896855386e+01    0.1618041    0.1249544 -78.00 0.0007051891    1.726    0.421
       153 -10.2287    219.0871    110.9940   6.2929524791e+01   1.4357984629e+01    0.4562595    0.1754256 -44.83  0.001617349    2.564    0.610
       154  -9.0526      2.3237    112.6597   1.2011021269e+02   5.1269036879e+01    0.1241689   0.07750496  73.61 -5.708723e-05    1.725    0.420
       155  -8.7583    177.3282    110.6600   7.0810609588e+01   2.3792027502e+01    0.1625138    0.1236774 -74.80 0.0007051615    1.736    0.424
       156  -8.8521    160.6145    108.7657   7.3994591700e+01   2.8021846162e+01    0.2305481    0.1434093 -50.51 0.0007027786    1.678    0.404
       157  -9.2261    189.5104    108.4907   6.7742412171e+01   2.1414315506e+01    0.1545621    0.1468414 -39.27 0.0002562582    1.017    0.017
       158  -9.1544     56.8026    108.1771   1.0285640286e+02   4.7519514460e+01    0.1905128    0.1490196 -38.68 0.0004462866    1.299    0.230
       159 -10.0629      9.6652    108.0018   1.1737379107e+02   5.1922077441e+01    0.1807469     0.129818 -69.77 0.0005366557    1.080    0.074
       160  -9.1972    222.5698    105.2865   6.0945636351e+01   1.4612420144e+01     0.298432    0.1252022 -40.54  0.001138708    2.139    0.532
       161 -11.0767    229.1714    103.9685   5.9561395023e+01   1.3431054347e+01    0.3749651    0.2995686   8.17  0.001953228    1.541    0.351
       162  -8.9495    205.8757    105.1578   6.3786829817e+01   1.8314117034e+01    0.2353043    0.2008724 -60.54 0.0007407551    1.250    0.200
       163  -9.4773    183.0000    107.9373   6.8910227248e+01   2.3019704082e+01    0.2654081   0.08597112 -38.75 0.0008046141    2.958    0.662
       164  -8.9057    150.3259    102.6789   7.4742468799e+01   3.1640709382e+01    0.1619459    0.1264586 -80.30 0.0004401952    1.683    0.406
       165  -8.8791    160.3700    100.2216   7.1708327211e+01   2.9821134203e+01    0.2380736    0.1411905 -48.84 0.0009536259    1.739    0.425
       166  -8.1458    241.3073     97.6638   5.6225547082e+01   1.1957784103e+01    0.1455453   0.09968461 -60.07 0.0005752075    1.675    0.403
       167 -11.5325    211.8887     93.6137   5.9792051477e+01   1.9013016320e+01     0.735034    0.2701437 -49.09  0.002347548    3.249    0.692
       168  -8.9410     30.5165     97.4168   1.0909050680e+02   5.2871646627e+01    0.1312266    0.1072992 -56.74 3.388078e-05    1.035    0.034
       169 -10.3514    236.5829     89.8143   5.5031191958e+01   1.4226117207e+01    0.3756245    0.1942004 -51.22  0.001340694    2.033    0.508
       170 -10.6120    235.2246     95.2302   5.6529624341e+01   1.3623128753e+01    0.3141369    0.2245627 -47.87  0.001017793    1.309    0.236
       171 -10.9287    231.8318     91.4754   5.6121484639e+01   1.4966360594e+01    0.4096155    0.2512886 -51.32   0.00182725    1.644    0.392
       172  -8.4098    183.6440     95.3270   6.5400627122e+01   2.5279590869e+01    0.1635489    0.1205596 -73.59 0.0007045376    1.776    0.437
       173  -9.7569    241.9690     92.9943   5.5028474456e+01   1.2582944078e+01    0.2263614    0.1572244 -62.51  0.001047611    1.664    0.399
       174 -10.1788    197.2258     88.4693   6.0985530388e+01   2.3315054302e+01    0.5888818    0.1811474 -30.47   0.00159959    4.243    0.764
       175  -9.1970    171.8220     90.6237   6.6509277917e+01   2.8983796183e+01    0.2629353    0.1826634 -43.31 0.0009448976    1.400    0.286
       176 -10.6218     24.9226     90.0945   1.0952848957e+02   5.5064261668e+01    0.2742842    0.1954806 -41.64 0.0004373866    1.319    0.242
       177  -8.1125    158.0000     89.9594   6.9333708567e+01   3.2411723852e+01    0.2634138    0.0879518 -38.62 0.0007997391    2.924    0.658
       178  -8.0868     42.2949     89.7026   1.0350221657e+02   5.3565446010e+01    0.1261618   0.09993073  83.27  0.000235528    1.566    0.362
       179 -11.1260    247.5874     86.0101   5.2627438254e+01   1.2545892138e+01    0.4143941    0.2660159 -66.31   0.00200071    1.963    0.491
       180 -10.4728    225.5941     86.7534   5.5888660735e+01   1.7107288839e+01    0.3454039    0.1545916 -38.55  0.001369451    1.974    0.494
       181 -11.1776    223.8708     82.8291   5.5168061907e+01   1.8137684376e+01    0.3958145     0.297125   7.51   0.00192137    1.868    0.465
       182  -8.8841    150.6797     87.5416   7.0317421105e+01   3.4614883159e+01    0.2818173    0.1419249 -39.19  0.001065481    1.939    0.484
       183  -8.8459    163.7195     86.5527   6.7077511745e+01   3.1698529471e+01    0.2910809    0.1354355 -38.34  0.001063661    2.087    0.521
       184  -9.7658     30.4477     86.7875   1.0694365080e+02   5.5375091536e+01    0.2083963    0.1833257   5.36 0.0006072642    1.348    0.258
       185  -9.0099    239.0000     84.9367   5.3524287773e+01   1.4502667308e+01    0.2343151   0.07185443 -35.00 0.0007937372    2.882    0.653
       186  -9.7156    176.4707     96.9962   6.7312505221e+01   2.6662545252e+01    0.2411752    0.1495281 -38.95 0.0008044185    1.552    0.355
       187 -11.6281    230.2426     80.4475   5.3654545185e+01   1.7112650780e+01    0.6562193    0.1617342 -42.56  0.002031331    3.536    0.717
       188  -8.6879    170.4893     83.4761   6.4752212572e+01   3.0637527482e+01    0.1546166    0.1494999 -54.40  7.70859e-05    1.023    0.022
       189  -8.9863    159.3898     81.5999   6.6576729027e+01   3.3670017408e+01    0.3544176     0.146275 -38.07  0.001230587    2.356    0.576
       190  -8.8880     31.4949     82.3063   1.0557808253e+02   5.6317373638e+01    0.1966521    0.1205878  20.66 0.0009257583    1.963    0.491
       191  -8.6894     10.6707     82.6770   1.1302266311e+02   5.7777566187e+01    0.1325342   0.07032815 -43.10 0.0007049453    1.696    0.410
       192 -11.0225    210.5842     77.6427   5.5875401785e+01   2.2030078716e+01    0.5607411    0.2617252 -21.06  0.001851741    3.405    0.706
       193 -11.3710    243.5023     76.0403   5.0815689816e+01   1.4952125459e+01    0.4020993    0.2065654 -26.86  0.001545079    2.103    0.525
       194  -9.0377    183.4701     76.7221   6.0272894410e+01   2.8681106454e+01    0.2898558    0.1380888 -40.59  0.001110351    1.997    0.499
       195  -8.6598    166.6284     77.2081   6.3729973706e+01   3.2713904491e+01    0.2250187     0.146678 -24.89 0.0009521081    1.720    0.418
       196  -9.1312    201.2622     77.7207   5.7407542847e+01   2.4215500520e+01    0.2922007    0.1634172 -45.11 0.0009559618    1.716    0.417
       197 -10.1616    223.4799     75.9563   5.3502960020e+01   1.9341394703e+01    0.2249482    0.1312697 -35.60 0.0006502998    1.573    0.364
       198  -8.9980     38.8301     76.3879   1.0147800042e+02   5.6967288421e+01    0.1692326    0.1207751  -2.43  0.000938286    1.690    0.408
       199  -8.9786    157.5804     74.6793   6.4903710903e+01   3.5373192236e+01    0.2965252    0.1519018 -31.37  0.001126808    2.066    0.516
       200  -9.0768    206.3653     73.7721   5.5524741762e+01   2.3659048170e+01    0.2088836    0.1368758 -25.75 0.0005739389    1.643    0.391
       201  -8.6009    200.4074     83.1711   5.9010843727e+01   2.3489712205e+01    0.2225468    0.1280371 -46.57 0.0009261555    1.700    0.412
       202  -9.8820    221.6307     70.7948   5.2466477938e+01   2.0582316654e+01     0.213311    0.1165466 -43.79 0.0009440269    1.664    0.399
       203  -8.9573    163.2715     70.6022   6.2461341875e+01   3.4699800965e+01    0.2708845    0.1923649 -10.70  0.001181794    1.815    0.449
       204 -10.3224    214.3198     69.6522   5.3229658296e+01   2.2452049052e+01     0.235985     0.158731 -65.34  0.001098884    1.709    0.415
       205  -8.9635    182.0107     67.9844   5.8056432603e+01   3.0517001230e+01    0.1860726    0.1758301 -48.58 0.0008834302    1.030    0.029
       206 -10.7510    248.4822     64.5149   4.7519043527e+01   1.5646278907e+01    0.2855928     0.171723 -46.01  0.001047208    1.434    0.303
       207 -10.2977    249.3332     50.8549   4.4286263677e+01   1.7427470533e+01    0.2931069     0.184093 -31.14 0.0009452508    1.552    0.356
       208 -10.6836    250.4865     61.0199   4.6488174492e+01   1.5738321509e+01    0.3412224    0.2226908 -46.08  0.001700006    1.306    0.234
       209  -9.7871    250.4575     56.2328   4.5395657160e+01   1.6432819131e+01    0.3911192    0.1084018 -35.15  0.001249025    3.004    0.667
       210  -8.7819    170.5938     69.7757   6.0734328393e+01   3.3036949225e+01    0.2270174    0.1360806 -44.83  0.000958223    1.669    0.401
       211  -8.3722    203.3177     65.3293   5.3750957098e+01   2.5743937686e+01    0.1465616    0.1147429  19.03 0.0006115498    1.683    0.406
       212 -11.5226    197.9535     50.8452   5.0631689335e+01   2.9242459912e+01    0.9095083    0.2848813 -25.11  0.002524641    4.889    0.795
       213 -11.7451    192.7628     60.4206   5.4077272971e+01   2.9078858335e+01    0.6469834    0.3370919 -23.86  0.002556551    2.308    0.567
       214 -10.6694    192.5509     54.7500   5.2529986297e+01   2.9995546993e+01    0.4004089    0.2662341 -17.95  0.001330964    1.828    0.453
       215  -9.1937    171.0000     63.0333   5.8654379310e+01   3.4057250943e+01    0.2512788   0.08492517 -33.60 0.0008025565    2.943    0.660
       216  -8.7174    158.0000     60.9943   6.0614478375e+01   3.7615875357e+01    0.2489463   0.08555494 -33.67 0.0007989204    2.918    0.657
       217  -9.0415     21.7727     60.9433   1.0396835049e+02   6.1860769319e+01    0.1715671   0.08363312 -55.74 0.0008709504    1.636    0.389
       218  -8.6103    206.5229     58.9668   5.1569551000e+01   2.5957658662e+01    0.1970689    0.1290433  -1.46 0.0008096633    2.508    0.601
       219  -9.9543    248.3862     73.7748   4.9677747939e+01   1.4278255746e+01    0.1911956    0.1197233 -27.52 0.0007013536    1.618    0.382
       220 -10.9911    226.9804     56.2198   4.8105238152e+01   2.1574832938e+01    0.3519397    0.1967469 -33.37  0.001647624    1.695    0.410
       221 -12.2894    232.0796     49.4575   4.5839375758e+01   2.1389421129e+01    0.6726485    0.3722738 -11.68   0.00262357    3.290    0.696
       222  -8.7346     10.0337     56.2112   1.0753595547e+02   6.3670217682e+01    0.1349895   0.09493032   6.57 0.0005199248    1.678    0.404
       223  -8.2658    175.3233     55.3228   5.5566751071e+01   3.4193972687e+01    0.1525619    0.1143197  24.43 0.0007046952    1.681    0.405
       224  -9.3731    210.5194    249.9313   9.2440757616e+01  -6.5106933922e+00    0.2272342    0.1443724  -4.54  0.001107685    1.807    0.447
       225 -11.8247    246.1994     31.7938   4.0267914539e+01   2.0638278432e+01    0.4783575     0.320864 -29.50   0.00162539    1.553    0.356
       226 -10.1803    250.4442     26.2384   3.8664916117e+01   2.0426109718e+01    0.3633304    0.1687883 -26.72  0.001677123    2.419    0.587
       227  -8.6615    181.3741     46.7776   5.2033079162e+01   3.3939049300e+01    0.1974993    0.1402516 -18.04 0.0009400588    1.641    0.391
       228  -8.3378    147.4806    247.3961   1.0369162495e+02   3.4105289360e+00    0.1217956   0.09664173  42.04 0.0001798965    1.039    0.037
       229 -11.2524    237.6026     42.2204   4.3505700864e+01   2.1152210379e+01    0.2773606    0.2127089 -24.42  0.001024976    1.457    0.314
       230 -11.9367    234.8722     39.4406   4.3133631173e+01   2.2131762732e+01    0.5351449    0.2959209  49.88  0.002234715    2.186    0.543
       231  -8.4113    173.6783     38.6919   5.0888791125e+01   3.6984492560e+01    0.1470279    0.1072847  31.63 0.0007034598    1.644    0.392
       232  -9.7230    228.5860     36.2495   4.3029331819e+01   2.3972288677e+01    0.1791873    0.1265106 -21.74 0.0009487777    1.650    0.394
       233  -9.0308    168.5020     35.9964   5.0918176717e+01   3.8641911454e+01    0.1961545    0.1245614   9.38 0.0008097844    2.471    0.595
       234  -8.3516    149.4982     34.4328   5.3786359324e+01   4.3610627882e+01    0.1431877    0.1332167  48.13 9.311159e-05    1.040    0.038
       235  -9.5512    226.5377     30.4824   4.1848429836e+01   2.5179812562e+01     0.227171    0.1307619 -17.03  0.001037029    2.378    0.580
       236  -8.2100    157.2861     31.3105   5.1355046132e+01   4.2056641244e+01    0.1434305    0.1047862  30.14 0.0006989939    1.575    0.365
       237 -10.8886    238.1360     29.6000   4.0507963974e+01   2.2675298088e+01    0.3142042    0.1488774  73.41  0.001230678    2.188    0.543
       238 -10.0259     30.5063     28.0752   8.8900262686e+01   6.7432613128e+01    0.2939331    0.1791067 -11.23   0.00125076    1.734    0.423
       239  -9.4661     42.1185     27.6775   8.3457071002e+01   6.6136211314e+01    0.1702961    0.1363421  -5.13 0.0004345336    1.082    0.076
       240  -8.7725    136.6560     25.1593   5.3134434647e+01   4.7906664023e+01    0.1875832    0.1310291  -7.49 0.0004214591    1.671    0.401
       241  -9.1970    172.2333     24.0081   4.6714873565e+01   3.9165701562e+01    0.1760863    0.1163304 -27.99 0.0005175641    1.609    0.378
       242  -9.1061     84.9743     21.6842   6.4665370480e+01   5.9908327848e+01    0.1828202    0.1588226  28.65 0.0005458128    1.096    0.087
       243  -8.5911     23.4922     15.4363   8.6652722909e+01   7.0202634425e+01    0.1186922   0.08976949 -16.12 0.0001707176    1.010    0.010
       244  -8.6568      8.6926     14.7142   9.4102844787e+01   7.1649307497e+01     0.117105    0.0652312 -22.94 0.0001866431    1.568    0.362
       245  -8.6276     29.7942     12.6504   8.2162216266e+01   6.9917232487e+01    0.1385369    0.1012595  27.87  0.000219796    1.507    0.336
       246  -9.2743    249.9909    245.2341   8.4878270298e+01  -1.1380229251e+01    0.1578136    0.1144383  12.36 0.0004689257    1.045    0.043
       247  -8.5369    239.3557    245.7005   8.6749063136e+01  -1.0030618354e+01   0.09927402   0.08643359  40.83 0.0007036566    1.703    0.413
       248  -8.2731    177.5580    242.4639   9.7367563229e+01  -5.4726670374e-01    0.1231373   0.09911694  24.19 8.238205e-05    1.076    0.071
       249  -9.4862    240.4529    240.5054   8.5720928492e+01  -9.5761333333e+00    0.1786297    0.1545134  43.63  0.001268499    1.745    0.427
       250  -9.1441    208.2828    238.0272   9.1007969381e+01  -4.6541452409e+00     0.310371    0.1289037  49.05  0.001277598    3.463    0.711
       251  -9.8682    243.9991    236.6686   8.4482217933e+01  -9.6052676261e+00    0.1649918    0.1187115  20.33 0.0006238027    1.151    0.131
       252 -10.4058    203.8207    232.6902   9.0976438575e+01  -3.2500826547e+00    0.2000846    0.1746454  21.35 0.0003320123    1.145    0.126
       253  -9.0034    245.3006    230.8163   8.3274906218e+01  -9.0817711645e+00    0.2040121   0.09424141 -39.04  0.001056119    2.526    0.604
