#   1 NUMBER                 Running object number                                     
#   2 MAG_AUTO               Kron-like elliptical aperture magnitude                    [mag]
#   3 X_IMAGE                Object position along x                                    [pixel]
#   4 Y_IMAGE                Object position along y                                    [pixel]
#   5 X_WORLD                Barycenter position along world x axis                     [deg]
#   6 Y_WORLD                Barycenter position along world y axis                     [deg]
#   7 A_WORLD                Profile RMS along major axis (world units)                 [deg]
#   8 B_WORLD                Profile RMS along minor axis (world units)                 [deg]
#   9 THETA_WORLD            Position angle (CCW/world-x)                               [deg]
#  10 FWHM_WORLD             FWHM assuming a gaussian core                              [deg]
#  11 ELONGATION             A_IMAGE/B_IMAGE                                           
#  12 ELLIPTICITY            1 - B_IMAGE/A_IMAGE                                       
         1 -14.5806     68.8813    144.3356   9.9910203478e+01   3.7263044386e+01     5.022255     2.521935  67.37   0.01031554    4.139    0.758
         2 -13.0964    199.1502     42.2301   4.1739394660e+01   3.0461098263e+01     1.031321    0.8985298 -66.73  0.003202727    1.047    0.045
         3 -13.6128    208.9596     32.9385   3.8351054210e+01   2.9428096791e+01     1.134612    0.8516327 -16.49  0.001467121    1.793    0.442
         4 -12.9361    234.1774      6.6607   3.0415056250e+01   2.7028827371e+01    0.8188137     0.622076 -79.89  0.004832764    1.082    0.076
         5 -10.5158     43.2084      7.7913   6.6553154228e+01   6.8836534365e+01    0.1768286    0.1168396  11.99  0.001079713    1.368    0.269
         6  -9.5833     60.9725      7.7599   5.9412935388e+01   6.5830641392e+01       0.1641   0.08955491  45.38  0.000688548    1.616    0.381
         7  -9.2140     89.0530    210.7673   1.0471427916e+02   1.8168161742e+01    0.2102583    0.1827093 -87.33 0.0005092314    1.156    0.135
         8 -11.1224    140.1651    248.6795   9.8450123849e+01   2.9258691142e+00    0.3775702    0.2747011 -58.51  0.002270293    1.712    0.416
         9 -11.8055    114.2127    245.8442   1.0348680068e+02   7.3155889123e+00    0.7174956    0.5246567  85.11  0.004183391    1.761    0.432
        10 -12.0358    125.5889    246.4293   1.0118608346e+02   5.5110184209e+00    0.5831099    0.5174434  61.27  0.003877684    1.196    0.164
        11 -10.5721    119.9762    245.5332   1.0224662954e+02   6.5133646900e+00    0.2772158    0.1988992  56.19  0.001522617    1.414    0.293
        12  -9.7240    106.5446    250.3441   1.0558619411e+02   7.6214579736e+00     0.226166    0.1004176  36.15  0.001076459    1.909    0.476
        13 -11.5370    101.6948    243.3109   1.0581029063e+02   9.6276656908e+00    0.7661907    0.2722108 -57.02  0.002489882    3.127    0.680
        14 -10.0500     59.9041    197.3801   1.0994301718e+02   2.5291234000e+01    0.2200763     0.174748 -73.91 0.0004475939    1.212    0.175
        15 -15.5820      2.7772    201.7982   1.2309114017e+02   3.0354833974e+01     13.31251          nan -73.39   0.01006534   12.010    0.917
        16  -8.6019     23.7861    193.5431   1.1796587230e+02   3.0310391263e+01    0.1645622    0.1419123  78.89 0.0003095466    1.082    0.076
        17 -10.1454    103.5483    209.6573   1.0119894728e+02   1.6199625147e+01     0.283262    0.1635086  39.62  0.001351949    1.581    0.368
        18 -10.7593    111.0324    203.2655   9.8513830730e+01   1.6407014651e+01    0.3013622    0.2305533  73.52 0.0008569479    1.508    0.337
        19 -10.5505    147.7746    187.8993   8.7182932587e+01   1.3430013144e+01    0.5086799    0.3382899 -77.29  0.002110346    2.500    0.600
        20 -10.3615    120.0847    186.1395   9.3546097767e+01   1.8740141764e+01    0.2206057    0.1997155  -5.15 0.0003188904    1.236    0.191
        21  -9.9480    164.0011    211.7543   8.7778066635e+01   5.7925305127e+00     0.239927    0.1849719 -61.79  0.001280895    1.666    0.400
        22 -11.7991    111.0712    197.5272   9.7625216054e+01   1.7677739430e+01     1.002834    0.5961654  -1.72  0.003246952    4.502    0.778
        23  -9.0362     79.5669    182.7567   1.0321296041e+02   2.6077344977e+01    0.2786996    0.1937492  80.50  0.001351957    1.646    0.393
        24 -10.1073     99.4165    180.8821   9.7851450630e+01   2.3454786519e+01    0.2769237    0.2607026 -55.61  0.000628403    1.107    0.096
        25 -13.6984     42.6238    196.0297   1.1386442255e+02   2.7716827317e+01     2.860415      1.04135  59.40  0.009428401    3.658    0.727
        26  -8.2015     89.2867    179.6864   1.0025808664e+02   2.5354846185e+01    0.1483215    0.1068511  71.99  0.000194938    1.582    0.368
        27 -10.5033    186.8777    175.3419   7.5902991479e+01   8.8585551807e+00     0.402739    0.3130026 -44.00  0.001194975    1.309    0.236
        28 -12.9985     70.4499    153.6845   1.0109763833e+02   3.4653438924e+01    0.7367361    0.5486326 -48.17  0.001162714    1.356    0.262
        29 -10.0024     93.0730    249.0280   1.0820349071e+02   9.7912690980e+00    0.2290428    0.1400978  39.20  0.001301086    1.382    0.276
        30 -10.9771    119.6988    173.3436   9.1332199443e+01   2.1782169473e+01    0.6157832    0.2355379  30.19  0.001940574    3.328    0.699
        31  -8.2180     84.2898    173.6972   1.0061060458e+02   2.7588630630e+01     0.148219     0.106981  71.54  0.000261489    1.567    0.362
        32 -10.2949    203.9529    200.7404   7.7400997209e+01   1.2008213327e+00    0.2889421    0.1554599 -17.21   0.00117981    2.661    0.624
        33 -17.3292     14.1837    242.3791   1.2309661212e+02   2.0758311371e+01       7.8493     5.493538  88.97   0.03087695    1.252    0.201
        34 -10.4844    240.1563    169.1362   6.4432705316e+01   8.5839409170e-01    0.2072663    0.1612717 -13.03 0.0004465282    1.195    0.163
        35 -11.9940     82.0397    158.8753   9.8740866346e+01   3.1633828574e+01     1.041744    0.7032306  69.93 0.0007157019    1.835    0.455
        36  -8.3396    120.4704    165.4783   8.9620772188e+01   2.3508126354e+01    0.1531564    0.1457194  74.87 0.0002579062    1.079    0.073
        37 -10.8848    107.5055    203.9921   9.9457881912e+01   1.6815733666e+01    0.2890942    0.2445365  88.54 0.0009104824    1.276    0.216
        38  -7.9543    130.3120    159.6179   8.5885273914e+01   2.3061451423e+01    0.1623354    0.1229753  83.50 0.0007022914    1.807    0.447
        39 -10.9501    192.8823    194.6858   7.8496650475e+01   4.1104510796e+00    0.9512914     0.501693 -62.97  0.002900121    5.488    0.818
        40 -11.4907     89.0831    152.1142   9.5530433609e+01   3.2234768024e+01    0.6823923    0.4653145 -25.15  0.002960551    2.022    0.505
        41 -11.3262     53.1385    147.3933   1.0503438427e+02   3.8530206150e+01    0.7481382    0.6453949 -89.32  0.003861415    1.118    0.105
        42  -9.0949    174.7092    148.9645   7.2828278954e+01   1.6613372246e+01    0.2233494    0.1911152 -42.79 0.0006220442    1.143    0.125
        43 -10.5884    133.7829    145.0663   8.1808000736e+01   2.5809388643e+01     1.281461    0.3259649 -54.80  0.002769164    6.374    0.843
        44 -10.1938     38.8246    146.3366   1.0901198940e+02   4.0407141040e+01    0.2925379    0.2411086  70.23 0.0008188999    1.240    0.193
        45 -10.2622    102.7783    138.2254   8.8754796929e+01   3.3380369535e+01    0.5886465    0.3751488 -16.63  0.002183601    2.679    0.627
        46 -10.2194    106.0073    130.8933   8.6151620113e+01   3.4596320109e+01    0.4032233    0.3375045 -60.97  0.001498562    1.208    0.172
        47 -11.6162     90.2972    137.7467   9.2283546557e+01   3.5659061231e+01    0.3024634    0.2688796 -34.33  0.000489407    1.171    0.146
        48 -10.1705    135.7737    128.2039   7.7274837070e+01   2.9326721572e+01    0.4916364    0.2100018 -53.57  0.001618092    2.654    0.623
        49  -9.9354    111.9894    129.2486   8.4042450638e+01   3.3867860405e+01    0.3536283    0.2767237  -2.19  0.001584204    1.642    0.391
        50 -10.8102     43.2153    129.3121   1.0505666965e+02   4.4291058905e+01    0.3583876    0.2182813  49.07  0.001717978    1.877    0.467
        51  -9.2522    160.9762    128.0285   7.0989085526e+01   2.3981610399e+01    0.2613532    0.2016477 -84.84  0.001151173    1.795    0.443
        52 -10.2843     99.1131    124.9713   8.6776117225e+01   3.7306111474e+01    0.3217701    0.2619189 -15.08 0.0007754833    1.448    0.310
        53 -10.6711    118.6374    122.7871   8.0569386810e+01   3.4105968259e+01    0.6051546    0.3817908   0.97  0.002020929    3.270    0.694
        54  -9.3120     89.5218    122.7181   8.9149793529e+01   3.9539549639e+01    0.4014127    0.2310022  64.76  0.001397776    3.063    0.673
        55  -9.1670    135.0000    120.3602   7.5495052509e+01   3.1279865283e+01    0.3501436   0.08929926 -45.89 0.0009234725    3.844    0.740
        56 -11.6050     35.1238    118.6489   1.0580464618e+02   4.7814310514e+01    0.3878216    0.2731581 -39.27  0.001734587    1.439    0.305
        57  -9.3631    108.0506    118.2410   8.2462230064e+01   3.7263295357e+01    0.2476697    0.2165199 -43.88 0.0003009608    1.109    0.099
        58 -11.3786     69.6381    171.7038   1.0417396474e+02   3.0216050246e+01    0.4537613    0.2974073 -32.26  0.002070814    2.110    0.526
        59  -9.8876    231.2815    113.7661   5.4067942688e+01   1.2075313359e+01    0.2481497    0.2468832 -71.97 0.0007604954    1.147    0.128
        60  -8.8724    134.6799    113.5064   7.3787619026e+01   3.2886275315e+01    0.2932723    0.1440757 -44.68  0.001082115    1.998    0.500
        61 -11.4239     73.9576    167.0261   1.0230767671e+02   3.0777197439e+01    0.4184448    0.3451296 -70.67  0.001457871    1.150    0.131
        62  -8.6571    147.8705    174.1518   8.4500509946e+01   1.6406823769e+01    0.2043028    0.1750492  -9.89 0.0003173715    1.276    0.216
        63  -8.2475    167.3346    112.6749   6.5658737766e+01   2.5822068118e+01    0.1605435    0.1235405 -80.33 0.0007051224    1.714    0.417
        64  -9.2541    205.4503    110.1384   5.7474243901e+01   1.7950917692e+01    0.2939434    0.2124156  40.46  0.001085469    1.568    0.362
        65 -10.6085    114.9972    109.2723   7.8082824679e+01   3.7978105443e+01    0.3909205    0.2622747 -36.32  0.001470161    1.546    0.353
        66 -11.2551     45.6482    105.8895   9.9760821304e+01   4.9911254359e+01    0.4076197     0.226883  36.20  0.001629895    1.987    0.497
        67 -11.3847     30.9188    108.6020   1.0540616673e+02   5.0711161212e+01    0.3603647    0.2298725  34.85   0.00188613    1.782    0.439
        68  -8.6929     65.3122    103.6691   9.2419878241e+01   4.7977052576e+01    0.1451496    0.1146904  78.83 0.0007043678    1.674    0.403
        69  -8.3642    138.5427    105.4923   7.0620993126e+01   3.3789664236e+01    0.1563483    0.1530775 -54.51 0.0001514798    1.031    0.030
        70  -9.5338    240.7584    102.2394   5.0147753034e+01   1.2240983383e+01    0.1954333    0.1031693  42.68 0.0008897608    2.447    0.591
        71 -10.7271     33.5078     99.7161   1.0275537623e+02   5.2655382774e+01    0.3100245    0.2385593 -81.50  0.001726426    1.430    0.301
        72  -9.1424     29.2649     98.7849   1.0409318482e+02   5.3261364006e+01    0.2385762    0.1888189  13.12 0.0007012819    1.451    0.311
        73  -9.6019    126.9377     94.3213   7.0539782880e+01   3.8718958215e+01    0.3254037    0.2383684 -86.71   0.00136024    2.093    0.522
        74  -9.3137    156.1004     88.0892   6.1547168676e+01   3.3291682723e+01    0.3387788    0.2174245 -67.91  0.001190748    2.256    0.557
        75  -8.8768    115.0387     84.6801   7.1000891196e+01   4.3283316239e+01    0.2160509    0.1935642  44.20 0.0004526001    1.129    0.114
        76  -9.1261    158.4838     83.0603   5.9609140087e+01   3.3671292129e+01     0.226951    0.1487345 -38.12 0.0005132345    1.526    0.345
        77  -8.3450     70.1812     82.1304   8.4815306369e+01   5.2216882430e+01    0.1769275    0.1683474  68.31 0.0003721961    1.272    0.214
        78  -9.3329     57.3745     67.0243   8.4920815668e+01   5.7302028319e+01    0.2292462    0.1921794  28.53 0.0003466851    1.275    0.216
        79 -12.8319    188.4472     50.5635   4.5307265451e+01   3.1811829414e+01    0.9212006    0.7906619  43.27 0.0008615048    1.346    0.257
        80 -14.9245     53.6714    184.6340   1.0998223833e+02   2.9121458531e+01     10.61736     4.039744  61.35   0.03273054    4.643    0.785
        81 -11.0486    122.0015    198.3095   9.5127028882e+01   1.5681052069e+01     0.445146     0.290011 -74.37  0.002021581    2.034    0.508
        82 -14.5061     10.4228    206.4888   1.2179105960e+02   2.8638739143e+01    0.8735823    0.7218639  13.88  0.002613815    1.704    0.413
        83  -9.3847     29.4935     35.5542   8.5799780755e+01   6.6683993607e+01    0.1259676   0.09947357 -15.33 4.658431e-05    1.017    0.017
        84 -11.2667     21.7236     33.8695   8.9005394376e+01   6.7762121273e+01    0.2805304    0.2271552  16.94  0.001117217    1.352    0.261
        85  -9.1657     67.9132     52.1641   7.5628022410e+01   5.8504335690e+01    0.1936968    0.1879541  58.16 0.0007941271    1.345    0.257
        86  -8.9555    198.0243     23.6491   3.7326385479e+01   3.3051654841e+01    0.1794198    0.1507533  87.59 0.0005108326    1.067    0.063
        87  -9.1371    189.6982     15.0172   3.6110600126e+01   3.5946044664e+01    0.1740696    0.1557613 -67.47  0.001144608    1.119    0.106
        88  -8.6100    158.2793    235.3524   9.2796399156e+01   2.4393695889e+00    0.1307669   0.09482926  -4.25 0.0007011568    1.650    0.394
        89 -12.3389    135.3217    210.7457   9.4019847468e+01   1.0801726636e+01     0.822643    0.4041089  41.54  0.003590199    1.876    0.467
