#   1 NUMBER                 Running object number                                     
#   2 MAG_AUTO               Kron-like elliptical aperture magnitude                    [mag]
#   3 X_IMAGE                Object position along x                                    [pixel]
#   4 Y_IMAGE                Object position along y                                    [pixel]
#   5 X_WORLD                Barycenter position along world x axis                     [deg]
#   6 Y_WORLD                Barycenter position along world y axis                     [deg]
#   7 A_WORLD                Profile RMS along major axis (world units)                 [deg]
#   8 B_WORLD                Profile RMS along minor axis (world units)                 [deg]
#   9 THETA_WORLD            Position angle (CCW/world-x)                               [deg]
#  10 FWHM_WORLD             FWHM assuming a gaussian core                              [deg]
#  11 ELONGATION             A_IMAGE/B_IMAGE                                           
#  12 ELLIPTICITY            1 - B_IMAGE/A_IMAGE                                       
         1 -11.3320    209.9878      6.9396   5.9182660649e+01   3.1702110320e+01     1.203161    0.6947509 -81.49  0.004495553    1.700    0.412
         2 -11.4530    246.4965     44.3040   6.3446663960e+01   1.8721328251e+01    0.8166631    0.8012462  32.47  0.005517592    1.419    0.295
         3 -12.9495    242.7353    124.7846   8.1476785684e+01   6.3297409319e+00     3.614619     1.079216 -37.79   0.01195328    3.190    0.687
         4 -13.3375    234.9538     66.0456   6.9491700804e+01   1.8063337778e+01     4.953606     1.162082 -46.20   0.01242858    3.948    0.747
         5 -10.9212    237.4195     38.9581   6.3287460274e+01   2.1475625739e+01     0.936976    0.5868975 -17.51  0.002248125    2.696    0.629
         6 -12.8225    224.2669     43.1455   6.5699703205e+01   2.3917908249e+01      2.81508     1.127686 -58.06  0.003422211    3.144    0.682
         7 -14.2151    240.6256      8.7052   5.6783415877e+01   2.4538310302e+01     4.474838    0.7286225  62.25   0.01537105    4.644    0.785
         8 -11.4200    211.5480     53.2140   6.9689204193e+01   2.5498923482e+01     1.186902     1.015649  55.22   0.00684201    1.275    0.215
         9 -11.8824    145.9359     30.8862   7.4519275824e+01   4.4658584470e+01     1.046135    0.7539874  76.17  0.005534329    1.461    0.315
        10 -12.7369    135.4013     39.9647   7.9507490115e+01   4.6048865638e+01     1.466668    0.8693622  63.09  0.006889247    1.694    0.410
        11 -10.1058    187.1836     44.1937   7.1047522202e+01   3.2770424230e+01     1.257293    0.2820321 -45.43  0.003532549    5.072    0.803
        12 -12.4634    247.0721     23.3922   5.9136388092e+01   2.1376156176e+01    0.6705986    0.5711153 -37.92 0.0004968926    1.453    0.312
        13  -9.7019    125.1194     14.6657   7.3613632412e+01   5.1264537731e+01    0.2805112    0.2085242 -16.02  0.001648171    1.555    0.357
        14 -11.1245    119.3367     10.1740   7.3339550364e+01   5.2980048068e+01    0.6809919    0.3548931  46.52  0.003286681    1.606    0.377
        15  -9.4468    143.3756      7.7914   6.8054728116e+01   4.7635603665e+01    0.2839641    0.1704342  -6.37  0.001198409    2.279    0.561
        16  -7.7457    188.8127     11.2390   6.2503980645e+01   3.6316259492e+01    0.5947482    0.2510723 -31.70  0.002713665    2.623    0.619
        17  -9.8259    173.5583      4.4968   6.2708746740e+01   4.0669909230e+01     1.390613    0.4151495  68.86  0.005325001    2.793    0.642
        18  -9.7930    184.6526     10.5797   6.2850126136e+01   3.7392942750e+01    0.3791453    0.2701941 -25.02  0.002189242    1.741    0.426
        19 -10.2745    183.7675      6.0020   6.1825271749e+01   3.8058770680e+01     0.436722    0.3308526 -28.23   0.00146197    1.610    0.379
        20  -9.2750    142.5306     12.8145   6.9703359844e+01   4.7380377839e+01    0.3391961    0.1305241 -26.04  0.001436987    2.995    0.666
        21  -9.2183     69.6532    145.3426   1.2625735902e+02   3.7506313888e+01    0.4615146    0.2878232  84.13  0.002027961    2.227    0.551
        22 -10.3735    197.9246    133.3138   9.1616816827e+01   1.4398563330e+01     0.660789    0.3053995 -44.01  0.002467262    2.127    0.530
        23  -8.2476    171.2952    126.1254   9.5598782272e+01   2.2033967402e+01    0.2146116    0.2011974 -53.15 0.0003153459    1.069    0.064
        24  -9.3256    228.1554    123.9134   8.3720918944e+01   9.5294685736e+00    0.2316753    0.1915964 -69.37 0.0006027999    1.335    0.251
        25  -9.6819    186.3230    120.4979   9.0917500568e+01   1.9675756624e+01      0.33426    0.2374322 -68.05  0.001435754    1.767    0.434
        26  -8.4005     18.1005    233.0862   1.4744447225e+02   2.4026191283e+01    0.1684941    0.1214033  77.34 0.0003730322    1.007    0.007
        27 -10.2621    191.3027    114.9017   8.8499421292e+01   1.9624310904e+01    0.3509023    0.2933185  88.80  0.001712554    1.358    0.263
        28  -9.7758    167.6952    113.6702   9.3268040346e+01   2.5489065616e+01    0.4940335    0.3515439 -84.58  0.002020713    2.041    0.510
        29  -9.6056    206.2742    110.0809   8.4397923082e+01   1.7042616959e+01    0.3399451    0.2130126  66.61  0.001443459    1.878    0.467
        30 -10.7709    187.7172    103.4371   8.6344161580e+01   2.2728079281e+01    0.6413809    0.3369606 -38.73  0.002532667    1.930    0.482
        31  -9.7892    164.6083    211.4778   1.1521415648e+02   5.5394989305e+00     0.251793     0.234186  43.87 0.0003040606    1.041    0.039
        32  -8.3372    197.1525    101.8492   8.4091690828e+01   2.0762108794e+01    0.2024946    0.1835221   0.47            0    1.308    0.235
        33  -8.5319    148.2503     98.6362   9.3850894967e+01   3.3164356396e+01    0.2911248    0.2562642  -6.42 0.0006648452    1.301    0.231
        34 -10.8349    186.0426     93.8632   8.4221981924e+01   2.4953707315e+01    0.7595806    0.3359357 -43.80  0.002794962    2.253    0.556
        35  -7.9197     38.8278    211.2063   1.4196248134e+02   2.6185995560e+01    0.1528108    0.1249332 -73.40 0.0003460053    1.300    0.231
        36  -8.2764    134.4874     95.9325   9.6566453095e+01   3.6874181876e+01    0.2872914    0.2166584  66.44 0.0008865241    1.548    0.354
        37  -9.3678    192.0494     92.7591   8.2770348324e+01   2.3692652262e+01    0.4111291    0.2627696  42.37  0.001790047    1.729    0.422
        38  -9.8013    158.5102     91.3429   8.9417703681e+01   3.2152452272e+01     0.471725    0.3162619  28.47  0.001971551    1.927    0.481
        39  -9.0809    142.2001     88.1140   9.2398968996e+01   3.6648152428e+01    0.3159084     0.238951 -47.24 0.0007581079    1.375    0.273
        40  -8.6799     66.4759    144.5031   1.2696068318e+02   3.8150226086e+01      0.36251    0.2139952 -76.11  0.001168299    1.880    0.468
        41 -10.7479    181.9657     79.1865   8.1175748960e+01   2.8610487003e+01     0.779707    0.3772251 -49.34 0.0003424708    2.252    0.556
        42 -10.0137    181.6268     74.7067   8.0051633001e+01   2.9465995948e+01    0.5157413    0.3530945 -75.41 0.0003247355    1.882    0.469
        43 -10.7933    174.6950     79.7719   8.2767192995e+01   3.0310352003e+01     0.641646    0.5088222  21.78  0.002484291    1.604    0.377
        44 -10.4738    156.6959     80.8033   8.6894081415e+01   3.4552892397e+01    0.3655202    0.3036015 -31.65 0.0008260753    1.286    0.222
        45  -7.7253    144.3303     80.9249   8.9815362108e+01   3.7496681687e+01    0.1982044    0.1939744 -23.57 0.0003403096    1.059    0.056
        46  -7.3754    202.2801     79.6773   7.7613285419e+01   2.3526960733e+01    0.1528396    0.1090939 -70.84 0.0003438873    1.588    0.370
        47  -9.2565    215.5184     74.8125   7.4275384701e+01   2.1162513714e+01    0.5716403    0.3228831 -46.67  0.001688769    1.700    0.412
        48 -12.3918      8.4435    199.5006   1.4688308358e+02   3.1934569579e+01    0.8860251    0.6055902 -87.26   0.00384427    1.122    0.109
        49 -10.1287    208.9218     62.6682   7.2349599216e+01   2.4699352416e+01      0.92256    0.3949883 -63.70  0.002591461    5.096    0.804
        50  -8.7013    250.2981     70.0613   6.8438093881e+01   1.4060441410e+01    0.1962672    0.1567827 -57.43  0.001154767    1.088    0.081
        51 -10.2647    224.1591    142.9509   8.8749116839e+01   6.7991289335e+00    0.2700589    0.2580442  69.66 0.0003600157    1.144    0.126
        52  -9.8527    191.2996     67.8807   7.6505742621e+01   2.8195838708e+01     0.340229    0.3012393  38.00  0.001631142    1.286    0.222
        53  -9.9565    196.7518     64.1895   7.4641049866e+01   2.7437643291e+01    0.4212819    0.3058599  34.73  0.001161982    1.764    0.433
        54 -10.3178    146.9770     37.9062   7.6427045351e+01   4.3549918749e+01    0.5070058    0.3414477  81.03  0.001706471    1.790    0.441
        55  -7.5560    165.9848    196.9880   1.1229565774e+02   8.1198557889e+00    0.1745321    0.1581923  40.57 0.0003415295    1.023    0.023
        56 -11.4870    151.3527     45.2047   7.7720368406e+01   4.1525374455e+01     1.008125    0.6492524  67.57  0.004822227    1.568    0.362
        57  -9.4455     29.2610    193.3093   1.4224651987e+02   3.1195322458e+01    0.2007046    0.1642163  -1.41  0.001274768    2.033    0.508
        58  -9.3203    248.8618     54.5382   6.5326139424e+01   1.6733082172e+01    0.4237813    0.2154428 -62.13  0.001904987    2.096    0.523
        59 -11.3671    173.4813     64.4692   7.8842724724e+01   3.3185122873e+01    0.5059304    0.4437109  -4.76  0.002266824    1.385    0.278
        60  -9.2536    189.2942     49.6576   7.2127809433e+01   3.1479003697e+01    0.4462581    0.2180941 -42.57  0.001580548    2.078    0.519
        61 -10.2122     28.1750    187.6108   1.4193174795e+02   3.2585289461e+01    0.2589489    0.1451263  39.73  0.001467297    1.885    0.470
        62 -11.7548    166.5324     57.4319   7.8231923849e+01   3.6014109187e+01     1.560723     0.747381 -61.47  0.004922036    4.038    0.752
        63 -10.3242    206.9478     65.5465   7.3353677388e+01   2.4725191194e+01     1.536413    0.7164469 -73.13  0.003405233    8.425    0.881
        64  -8.3936    195.7237     42.4207   6.9308522383e+01   3.0896537025e+01     0.374092    0.1937288 -63.38  0.001518833    2.519    0.603
        65  -8.4121    123.5411     64.6022   9.0151025008e+01   4.5125089819e+01    0.2512964    0.2079658  41.29 0.0005767168    1.143    0.125
        66 -12.0400     41.5387    176.1188   1.3777796512e+02   3.3741575966e+01    0.7168761    0.5766636 -67.29  0.002043948    1.202    0.168
        67  -9.9509    191.4354     33.9525   6.7798446300e+01   3.3068219354e+01    0.4912852    0.2297508 -45.12  0.001476684    2.202    0.546
        68  -8.4004    201.6154     33.4909   6.6297113494e+01   3.0629420463e+01    0.2560348    0.1532672 -42.36  0.001288448    1.704    0.413
        69  -9.5522    160.9368     29.0224   7.1232830553e+01   4.1217999146e+01    0.5158461     0.152428  52.60   0.00184379    2.841    0.648
        70  -8.7870    177.8106    148.9588   9.9590550487e+01   1.5685558536e+01    0.2523083    0.2212434  45.27 0.0003223821    1.131    0.116
        71 -10.7916    129.2026     22.2070   7.5203860670e+01   4.9576234044e+01    0.6136943    0.1852615  50.32  0.002322799    2.650    0.623
        72  -9.4978    130.4646     18.4969   7.3753583777e+01   4.9664236736e+01     0.224422     0.190511 -52.23 0.0007488205    1.408    0.290
        73 -11.7760     51.5885    169.0358   1.3454250613e+02   3.4205509177e+01    0.8521304    0.7139962 -84.22  0.002696455    1.015    0.014
        74  -9.8532     22.4997    182.0563   1.4259909007e+02   3.4415627115e+01    0.1891315   0.09857192 -74.95 0.0007141433    1.577    0.366
        75  -8.8984    112.0569    155.0054   1.1692859824e+02   2.8167649526e+01    0.2167787     0.204946  88.06            0    1.012    0.012
        76  -8.0321    108.3868    247.7882   1.3210649895e+02   8.6840782813e+00    0.1515357    0.1181714 -54.76 0.0005126591    1.582    0.368
        77  -8.0324    126.3192    247.6916   1.2859077038e+02   5.7173908029e+00    0.1330656   0.08671849  65.63 0.0006741697    1.639    0.390
        78  -8.4648    113.8236    243.3138   1.3051446968e+02   8.6160569433e+00    0.2309795   0.09806927 -61.20  0.001027312    2.769    0.639
        79 -11.4626    250.5927    232.4567   1.0194357235e+02  -1.2694680488e+01    0.2130942    0.1200269 -30.63 0.0001719795    1.737    0.424
        80  -8.4632    110.1390    139.8760   1.1422630885e+02   3.2127882392e+01    0.2164016    0.1948547  84.28 0.0002852315    1.155    0.134
