#   1 NUMBER                 Running object number                                     
#   2 MAG_AUTO               Kron-like elliptical aperture magnitude                    [mag]
#   3 X_IMAGE                Object position along x                                    [pixel]
#   4 Y_IMAGE                Object position along y                                    [pixel]
#   5 X_WORLD                Barycenter position along world x axis                     [deg]
#   6 Y_WORLD                Barycenter position along world y axis                     [deg]
#   7 A_WORLD                Profile RMS along major axis (world units)                 [deg]
#   8 B_WORLD                Profile RMS along minor axis (world units)                 [deg]
#   9 THETA_WORLD            Position angle (CCW/world-x)                               [deg]
#  10 FWHM_WORLD             FWHM assuming a gaussian core                              [deg]
#  11 ELONGATION             A_IMAGE/B_IMAGE                                           
#  12 ELLIPTICITY            1 - B_IMAGE/A_IMAGE                                       
         1 -15.2413     10.6695    154.4697   1.4253172259e+02   4.0749687939e+01     9.930601      3.25274  67.04   0.04701627    3.326    0.699
         2 -13.4481    193.4569     28.8732   6.9269291517e+01   3.2948250881e+01     1.586345     1.366092   2.57   0.00676636    1.145    0.126
         3 -13.6478    208.5483      9.1813   6.1052659229e+01   3.0981622057e+01     1.524347    0.9907801  35.81  0.007273145    1.633    0.388
         4 -12.2559      2.3591      9.9399   1.2564080039e+02   7.2051262099e+01     1.285271    0.1264983 -61.38   0.00413732    5.033    0.801
         5 -10.9076     34.8533    245.0272   1.4263285905e+02   2.3608077847e+01    0.2716034    0.1942751 -55.37  0.002366055    2.251    0.556
         6 -11.1708    247.6767    248.9748   1.0955798879e+02  -4.0893913151e+00    0.3844559    0.1446007  35.31  0.002319505    1.811    0.448
         7  -9.6957     29.4680    249.5524   1.4358812505e+02   2.3498354893e+01    0.1863594    0.1153422  73.88  0.001681666    1.318    0.242
         8 -10.1533      2.8138    249.5902   1.4732305259e+02   2.5837364109e+01    0.1949257    0.1206627  37.45  0.001785958    1.689    0.408
         9 -11.3514    197.6209    244.6329   1.1676844744e+02   3.1825935265e+00    0.2886552    0.2005986 -47.48  0.002114273    2.368    0.578
        10  -9.2348     23.2900    245.8075   1.4434378852e+02   2.4581023348e+01    0.1545262   0.07518254  50.97 0.0007538903    1.382    0.277
        11 -10.2259    113.1936    250.6070   1.3093464250e+02   1.4077919003e+01    0.2155984   0.07387216  35.58  0.001126039    2.695    0.629
        12 -12.3919    140.4608    248.7880   1.2642648436e+02   1.0724314086e+01     0.506492    0.2519838  42.95  0.003404812    1.423    0.297
        13  -9.3986      5.6996    240.9525   1.4670568620e+02   2.6789190656e+01    0.1272422   0.09024899  50.44 0.0004395254    1.288    0.223
        14 -10.8471    184.0833    238.9334   1.1826770639e+02   5.6907969886e+00    0.2505113    0.1092545  44.64  0.001110216    1.833    0.454
        15 -10.3744    162.0099    249.3078   1.2301445533e+02   7.7179863720e+00    0.1559113    0.1000325  39.16 0.0006521689    1.094    0.086
        16  -8.7017     69.5223    234.4574   1.3675670801e+02   2.1482403756e+01   0.09647251   0.07189118  54.80 -2.518878e-05    1.062    0.058
        17 -10.9597    238.5473    247.9397   1.1079791303e+02  -2.7915660152e+00    0.2468256    0.2114272  79.24  0.001712253    3.300    0.697
        18  -9.8627     91.9545    222.0000   1.3212872088e+02   2.0617600961e+01    0.1746513   0.04685088  38.77 0.0008051055    2.961    0.662
        19 -10.3520    138.7980    231.3974   1.2498559150e+02   1.3059225722e+01    0.1580063   0.08024494  34.91 0.0009546973    1.676    0.403
        20 -10.9184      1.8989    216.7188   1.4659383684e+02   3.0662346431e+01     0.331981   0.08681939 -86.54  0.001829601    3.617    0.724
        21  -9.7322     28.2723    214.4935   1.4235025065e+02   2.8738486256e+01    0.2498239    0.0844003  56.33  0.001509243    2.276    0.561
        22  -8.9179    152.4968    212.9303   1.2049303783e+02   1.3459543541e+01     0.129661    0.1154771 -44.70 0.0003265993    1.447    0.309
        23 -12.7494      9.4601    206.7314   1.4508354654e+02   3.1620051378e+01    0.6006748    0.3368987  39.41  0.003444429    1.657    0.397
        24 -11.6593     63.1349    198.9714   1.3540851385e+02   2.7685528836e+01    0.2437327    0.2003388 -50.99 0.0005708633    1.680    0.405
        25 -10.7752     19.9950    199.9552   1.4306971622e+02   3.1832574031e+01    0.1704783    0.1253856  58.33  0.000373233    1.130    0.115
        26 -11.3211     16.1280    197.6090   1.4362264685e+02   3.2555966904e+01    0.1949586    0.1341795  62.53 0.0004739899    1.082    0.076
        27  -9.1013     51.5231    197.4752   1.3740804287e+02   2.9207024806e+01    0.1738306    0.0954015  63.38 0.0005253644    1.583    0.368
        28  -9.5947    191.9489    192.9766   1.1049130687e+02   9.7491916938e+00    0.2325118    0.1706181 -66.01  0.001290845    2.686    0.628
        29 -10.7846    154.4182    228.7253   1.2203501277e+02   1.1158162629e+01    0.3108127   0.07552619  37.39  0.001221909    3.653    0.726
        30 -11.8937     69.0053    190.8888   1.3366801557e+02   2.8380863291e+01    0.2095689    0.1958077  87.38 0.0004431672    1.270    0.213
        31 -10.9417     78.7885    178.0500   1.3055467456e+02   2.9457283083e+01    0.1901919    0.1740812  82.00 0.0003509273    1.154    0.133
        32 -13.2167     65.7727    176.0419   1.3298011725e+02   3.1395173549e+01    0.3941812    0.2410988 -46.30  0.001682143    2.270    0.559
        33  -8.4997    100.6701    177.3186   1.2602725451e+02   2.6676040821e+01    0.1234669    0.0793304  65.65  0.000704755    1.687    0.407
        34 -11.9228     86.4559    168.4693   1.2792301323e+02   3.0222137508e+01    0.5802696    0.5066246  47.44  0.004141904    1.140    0.123
        35  -8.6791     97.9460    172.0000   1.2593928498e+02   2.8008039861e+01    0.1929985   0.06040692  38.03 0.0007941506    2.885    0.653
        36 -10.0508     98.5765    152.6154   1.2320497641e+02   3.1547697972e+01    0.2552224    0.2410364 -20.11 0.0008132145    1.283    0.221
        37  -9.2239    101.3696    148.3667   1.2193748044e+02   3.1962287689e+01    0.1708441    0.1448164 -14.08 0.0006379209    1.559    0.359
        38 -12.1203     87.1982    151.7882   1.2565875419e+02   3.3312776861e+01    0.2418885    0.2196887 -44.28 0.0005129406    1.303    0.233
        39 -12.5949     67.2623    144.1026   1.2923464851e+02   3.7406268393e+01    0.6862298    0.4435224  73.47  0.003919215    1.663    0.398
        40 -12.7395     37.0809    233.4218   1.4180729047e+02   2.5037863940e+01    0.2232055    0.1860582  82.40 0.0007255485    1.336    0.251
        41  -8.5777    181.9540    145.2484   1.0368308876e+02   1.8285576433e+01    0.1711638    0.1076755  42.35 0.0003371696    1.450    0.310
        42 -10.6393    173.6780    222.5500   1.1798388916e+02   9.0441966460e+00    0.3329402    0.2242372  57.92  0.002145422    1.862    0.463
        43  -8.6434    192.0249    144.0317   1.0140970032e+02   1.6504867596e+01    0.1649145    0.1429477  14.71 0.0003979406    1.031    0.030
        44  -9.7720    109.9702    137.4911   1.1814604261e+02   3.2776803053e+01    0.3587476    0.2212045 -28.21  0.001444407    2.540    0.606
        45 -11.3567     56.5350    129.0885   1.2991481117e+02   4.1765987878e+01     1.087828    0.3648151 -79.85  0.003010284    7.183    0.861
        46 -10.5141     97.2816    134.6729   1.2071071215e+02   3.5308751410e+01    0.2249834    0.2023669 -27.64 0.0003237614    1.308    0.235
        47 -10.4984     82.2888    133.5768   1.2419227788e+02   3.7667678942e+01    0.2399707    0.1926504  72.89 0.0005466088    1.256    0.204
        48 -10.9847     35.0746    133.5271   1.3561502936e+02   4.2963645286e+01    0.2639734    0.1651247  56.73 0.0005955498    1.534    0.348
        49  -9.3389     92.3499    132.2918   1.2151805927e+02   3.6524234995e+01    0.1995612    0.1601333  54.98 0.0003753385    1.222    0.182
        50  -9.0279    107.0098    124.0454   1.1639273290e+02   3.5972191793e+01    0.1821819    0.1795289  42.91  0.001147871    1.049    0.047
        51 -10.1700    167.7046    112.8341   9.9355499506e+01   2.6557013392e+01    0.3049766    0.2680504 -75.20 0.0009009755    1.511    0.338
        52  -9.3710    203.2208    111.7513   9.1744387934e+01   1.9048395568e+01    0.2127046    0.1569235  15.20 0.0007956984    1.359    0.264
        53 -13.9506     42.7636    225.4986   1.4054079618e+02   2.5646630176e+01    0.6921775    0.4837019  58.24  0.003000277    1.039    0.038
        54  -8.5886     69.6450     84.3125   1.1848383121e+02   5.0068574911e+01    0.1347753    0.1002641  76.56 0.0007044515    1.734    0.423
        55 -10.8526      9.6315     63.9023   1.3450571016e+02   6.0037263699e+01    0.2097377    0.1301852  45.10  0.000989512    1.954    0.488
        56  -9.4299     33.7066     62.8718   1.2576355091e+02   5.8685140436e+01    0.1971016    0.1751717  43.67 0.0005135818    1.355    0.262
        57 -10.3323     26.4801     59.8831   1.2776354313e+02   5.9911080835e+01    0.3773024    0.1635483  38.92   0.00163722    2.785    0.641
        58 -10.7581     20.4412     57.4902   1.2951284820e+02   6.0856203470e+01    0.3392389    0.1675937  39.39  0.001550987    2.483    0.597
        59 -10.6584      2.3862     46.4221   1.3438064638e+02   6.4244583945e+01    0.2922089   0.09472902 -76.88  0.001251912    2.879    0.653
        60  -9.5940     46.9950    249.2941   1.4102416339e+02   2.1827905999e+01    0.1269273   0.08481164  53.58 0.0003867075    1.075    0.070
        61 -10.8780     98.3805    249.5800   1.3319081261e+02   1.6048342340e+01    0.2231709     0.151436  33.68  0.001765064    1.492    0.330
