#   1 NUMBER                 Running object number                                     
#   2 MAG_AUTO               Kron-like elliptical aperture magnitude                    [mag]
#   3 X_IMAGE                Object position along x                                    [pixel]
#   4 Y_IMAGE                Object position along y                                    [pixel]
#   5 X_WORLD                Barycenter position along world x axis                     [deg]
#   6 Y_WORLD                Barycenter position along world y axis                     [deg]
#   7 A_WORLD                Profile RMS along major axis (world units)                 [deg]
#   8 B_WORLD                Profile RMS along minor axis (world units)                 [deg]
#   9 THETA_WORLD            Position angle (CCW/world-x)                               [deg]
#  10 FWHM_WORLD             FWHM assuming a gaussian core                              [deg]
#  11 ELONGATION             A_IMAGE/B_IMAGE                                           
#  12 ELLIPTICITY            1 - B_IMAGE/A_IMAGE                                       
         1 -16.2452    183.8006     97.7777   6.9067851291e+01   2.4557197634e+01       3.3255     2.188472  37.62   0.01427956    1.697    0.411
         2 -15.9304    169.0471    106.8599   7.4692741531e+01   2.6343652774e+01      3.57164     2.365959 -84.94   0.01296835    2.754    0.637
         3 -19.3136    172.0915    148.2305   8.4271745436e+01   1.7226495381e+01     8.524819     6.993633  38.56   0.04322604    1.196    0.164
         4 -11.6479    248.1737     11.2943   3.7843385206e+01   2.1903097429e+01    0.4225235    0.2566117 -37.46  0.002373199    1.523    0.343
         5 -12.2900    243.8018      7.5816   3.7345417638e+01   2.3292826328e+01      0.38827    0.2329007 -45.19   0.00217904    1.454    0.312
         6 -11.4163    238.4204     13.7840   3.9178968338e+01   2.3822191824e+01    0.3558765    0.3124695  79.15  0.001033007    1.199    0.166
         7 -11.1501    165.5475      8.7363   4.5637047972e+01   4.2469029252e+01    0.3037185    0.1317326 -26.18  0.001042956    2.452    0.592
         8 -11.5858    193.9842      8.0227   4.1941645483e+01   3.5241721184e+01    0.2193749    0.1905996  88.60  0.001282131    1.020    0.020
         9 -12.1411    171.1520      6.8848   4.4317861293e+01   4.1200204258e+01    0.3804584    0.2632527  35.49  0.001130707    1.661    0.398
        10 -11.8536    159.2962      2.1363   4.4417025321e+01   4.4675432323e+01     0.406068    0.1936881  66.03  0.001109311    1.800    0.444
        11 -10.2312    210.6418      7.6746   4.0159637833e+01   3.1111651806e+01     0.136158   0.09393092  42.79 0.0006453246    1.778    0.437
        12 -11.3584    129.9825      5.8183   5.0361210089e+01   5.1753689119e+01    0.3242899    0.1729882  -1.41  0.001416838    2.473    0.596
        13 -11.5864    179.1620      6.1533   4.3102947324e+01   3.9209311531e+01    0.2096128    0.1773939  54.50  0.000665855    1.192    0.161
        14 -11.8623    221.4557      3.9483   3.8268388947e+01   2.8871119789e+01    0.3886605    0.2821842 -63.14  0.002280395    1.236    0.191
        15 -10.6790    153.4657      5.4739   4.6326813730e+01   4.5875157372e+01    0.1388184    0.1215034  58.24 0.0008086148    1.049    0.047
        16 -11.9618    203.8050      2.7107   3.9529268639e+01   3.3303342689e+01    0.4051293    0.2297993  56.88  0.002032395    1.754    0.430
        17  -9.6081      7.9175      5.0000   9.4193719144e+01   7.3336682951e+01    0.1566412   0.05739611  22.47  0.000803031    2.947    0.661
        18 -10.1330    101.4513      2.7509   5.5198977142e+01   5.8747820368e+01    0.1777169    0.1178252   5.53 0.0009444437    1.620    0.383
        19 -10.1883     26.7294      6.9972   8.4911388779e+01   7.1269823262e+01    0.1613217     0.120049 -16.25 0.0003227912    1.044    0.042
        20 -11.2580    227.4440    231.0229   8.9271978898e+01  -6.5425863980e+00    0.3782661    0.1859736 -25.41  0.001984786    2.294    0.564
        21 -12.6157    236.2169    248.4703   9.0541432740e+01  -9.8429273838e+00    0.5592677    0.3356971 -10.36  0.003507691    1.784    0.439
        22 -12.6963    245.9423    245.9857   8.8506373128e+01  -1.0927020836e+01     0.668458    0.3801408  26.23  0.003981155    1.395    0.283
        23 -11.0237    220.2823    250.2217   9.3554716797e+01  -7.7489460760e+00     0.224039    0.1282837  37.10 0.0006132681    1.439    0.305
        24 -13.7895    192.2298    248.8747   9.8335724619e+01  -3.3389990179e+00    0.3289827    0.2376506  25.93  0.001061773    1.153    0.133
        25 -11.8272    135.5361    250.5936   1.0891254279e+02   5.3712725599e+00    0.2446499   0.09431949  44.33 4.149958e-05    2.006    0.501
        26 -11.6284    233.3080    227.2109   8.7601889491e+01  -6.9628466071e+00    0.3318091    0.1955475  12.93 0.0007562201    1.766    0.434
        27 -10.1329    201.3260    233.0630   9.4321285343e+01  -2.7108398247e+00    0.2069611    0.1527208  51.32 0.0006622795    1.598    0.374
        28 -11.4887    191.1699    231.0959   9.5902553335e+01  -7.8862265386e-01    0.3790891    0.2671066  10.08  0.001065773    1.574    0.364
        29 -11.8096    210.8304    223.5183   9.1028052999e+01  -2.9589462988e+00    0.4022246    0.2192471  39.08 0.0005736102    1.589    0.371
        30 -11.3992    200.9328    225.5308   9.3195330769e+01  -1.6166556907e+00    0.5801662    0.2467879  28.79  0.001948829    2.620    0.618
        31 -10.8818    196.4778    226.5463   9.4192755577e+01  -1.0236897665e+00    0.2160742    0.1753007  26.26 0.0006942212    1.005    0.005
        32 -11.7710    174.1949    229.5144   9.8879117699e+01   2.2650397143e+00    0.4042587     0.321124  89.49  0.002306263    1.964    0.491
        33 -10.5381    174.9173    224.5226   9.7987617264e+01   2.9011306269e+00    0.2183897    0.1811436  57.51 0.0006895762    1.361    0.265
        34 -10.7186     96.6641    231.1479   1.1407115126e+02   1.4594595014e+01    0.2153084    0.1315261  52.40 0.0006717879    1.333    0.250
        35 -10.6422    127.6880    228.4419   1.0776345158e+02   1.0207103541e+01    0.3163391    0.2101137 -83.23  0.001739707    2.070    0.517
        36  -9.8469     69.2118    230.3106   1.1915639563e+02   1.8658710134e+01    0.1688501    0.1292945  43.53 0.0006211815    1.353    0.261
        37 -14.2464    243.1444    222.2875   8.5046115514e+01  -7.8344103537e+00    0.4138176    0.3154622  16.05  0.001094084    1.051    0.048
        38 -14.1464    238.6608    143.6849   7.0168014674e+01   4.2521053160e+00     1.023516    0.6926645  15.26  0.003299716    1.790    0.441
        39 -11.3778    176.2220    244.7335   1.0067689851e+02  -2.5888292660e-01    0.3890609    0.1755905  36.01  0.001342201    1.841    0.457
        40 -16.3513    216.4225    125.2319   6.9809793293e+01   1.1943091954e+01     3.296669     2.461332 -89.11   0.01506385    2.078    0.519
        41 -10.9831    122.0108    244.1745   1.1068822215e+02   8.4862307898e+00    0.3226439    0.2019609  46.33  0.001562022    1.258    0.205
        42 -15.5064    157.0761    110.5116   7.8431093709e+01   2.8416008279e+01      1.89468     1.329876  -1.33  0.007532373    2.223    0.550
        43 -16.8614    186.2841    178.1765   8.7577214305e+01   8.5839332493e+00     3.170574     2.093245 -61.09    0.0144843    2.204    0.546
        44 -15.8739    155.2847    159.4405   9.0494787054e+01   1.8454769533e+01     1.337762    0.9296655 -84.93  0.005257931    2.335    0.572
        45 -10.7363     33.8666    243.2327   1.2626729486e+02   2.0698648055e+01    0.1889612    0.1526039  59.62  0.001510061    1.285    0.222
        46 -10.3103     61.0926    216.1558   1.1947286129e+02   2.2445747497e+01    0.1674865    0.1510044  68.05 0.0004336297    1.264    0.209
        47 -11.8577    183.5608    221.2047   9.5799042886e+01   1.9319263303e+00    0.4381148    0.2660336  45.53  0.001189953    1.514    0.340
        48 -11.7247     79.2928    144.7176   1.0645462709e+02   3.5717206562e+01    0.3039585    0.2354624 -82.36 0.0006622725    1.263    0.208
        49  -9.7170     73.9655    144.3260   1.0778492573e+02   3.6592140693e+01     0.186817     0.171394  71.89 0.0004619079    1.094    0.086
        50 -10.9617     59.6263    142.6492   1.1128081883e+02   3.8936613456e+01    0.2290698    0.1953762  85.81 0.0003048147    1.079    0.073
        51  -9.9813     36.1020    194.4628   1.2257180013e+02   2.9924014299e+01    0.1742493    0.1275557  87.64  0.000289811    1.116    0.104
        52 -11.1705    245.5219    191.5310   7.8981367453e+01  -4.2069500858e+00    0.2611522     0.212758  22.20 0.0006737927    1.165    0.142
        53  -9.8811    250.5966    131.0718   6.5375096316e+01   4.0044450213e+00    0.2039611    0.1197582 -33.16  0.000713234    1.510    0.338
        54 -10.1977     53.2594    191.6610   1.1879049944e+02   2.8500807724e+01    0.2021931    0.1426266  86.92 0.0004458095    1.235    0.190
        55 -11.4280     77.4772    126.9858   1.0367528792e+02   4.0259151104e+01    0.3213989    0.3119571  73.83  0.001202169    1.108    0.098
        56 -11.4056     80.3609    123.5358   1.0216127013e+02   4.0656079263e+01    0.3358688    0.2637559 -75.77 0.0002053501    1.276    0.216
        57 -11.7385     56.6264    189.1288   1.1782438526e+02   2.8623724749e+01    0.2356436    0.1837412  68.01 0.0003412054    1.090    0.083
        58 -10.9523     63.4231    129.2967   1.0805398522e+02   4.1668853756e+01    0.3443393     0.233507  70.72  0.001129128    1.725    0.420
        59 -10.7005    244.5248    128.4434   6.5743622565e+01   5.5949350349e+00    0.4151089    0.2932789  68.29  0.001721564    2.011    0.503
        60  -9.8598     47.9303    123.2526   1.1139133323e+02   4.5012701736e+01    0.1767393    0.1573115 -69.54            0    1.068    0.064
        61 -10.5963     12.2750    122.9229   1.2126459216e+02   4.8325651092e+01    0.1760376    0.1260544 -75.21 0.0005138901    1.089    0.082
        62 -13.0527     82.1981    188.0899   1.1214705627e+02   2.5324816990e+01    0.3164766    0.2545609 -78.06 0.0005896043    1.200    0.166
        63 -10.9828     66.7429    185.1892   1.1520446484e+02   2.8154413266e+01    0.2064869      0.18194  78.60 0.0002306066    1.098    0.089
        64 -10.6200     74.2132    218.9758   1.1718858209e+02   2.0123594413e+01     0.199745    0.1453937  53.61 0.0004202716    1.162    0.140
        65  -9.8214    237.9364    114.1425   6.3465507989e+01   9.2751118537e+00    0.2063657    0.1808501 -60.38   0.00045395    1.277    0.217
        66 -10.2784     73.2361    110.6299   1.0148827681e+02   4.4821275354e+01    0.2728964    0.1849887 -57.56  0.001362917    1.334    0.250
        67 -11.2111     96.9391    109.5923   9.4192426116e+01   4.1236009093e+01    0.3383611    0.2179486 -27.78 0.0009376603    2.085    0.520
        68 -11.4011      3.4646    109.1600   1.2211639609e+02   5.2092286845e+01    0.2431124   0.08447705 -68.86  0.001145987    2.072    0.517
        69  -9.6304     84.4595    108.5150   9.7622415474e+01   4.3605229653e+01    0.1992969     0.138846  48.96 4.919764e-05    1.575    0.365
        70 -10.1124     12.9690    216.6554   1.2837788826e+02   2.7851007696e+01    0.1480739    0.1083614  69.07 0.0005233617    1.086    0.079
        71 -10.3558    241.6974    104.5393   6.0594647703e+01   1.0071634208e+01    0.2693177    0.1975607 -46.22 0.0008893696    1.312    0.238
        72 -11.2366    236.1741    102.5025   6.0951084340e+01   1.1578593628e+01    0.3972163    0.2416635 -15.44  0.001417724    2.141    0.533
        73 -10.5053    240.7592    177.7971   7.7086939545e+01  -1.4491916432e+00    0.4407322    0.3096844 -43.75  0.002424838    1.690    0.408
        74 -10.7470     66.8616    103.5041   1.0184310909e+02   4.7419171897e+01     0.286244    0.1871184 -65.43  0.000949197    1.492    0.330
        75 -10.5511     87.8989    108.8180   9.6667517893e+01   4.2971301341e+01    0.3037038    0.2200566  18.02 0.0008998169    1.770    0.435
        76 -11.3570     78.8304    100.4685   9.7380587266e+01   4.6387975593e+01    0.2630323    0.2255483 -44.73 0.0001065629    1.098    0.089
        77  -9.8644     95.0079     99.7518   9.2236516368e+01   4.3859065145e+01    0.1956253    0.1934533 -36.19 0.0002533231    1.052    0.050
        78 -10.8266     85.0998     97.3525   9.4633419005e+01   4.6109502025e+01    0.5240058    0.2201711 -50.19  0.002006441    2.177    0.541
        79 -12.6343    245.9799     96.4142   5.8029253328e+01   1.0486484569e+01    0.3080081    0.2995524  39.90 0.0005028837    1.150    0.130
        80 -11.4538    245.1479    175.2527   7.5806893709e+01  -1.8231994358e+00    0.2295769      0.18705   4.46 0.0003826257    1.081    0.075
        81 -10.3007     74.0068     93.7380   9.7200284712e+01   4.8685101897e+01    0.2179964    0.1823138 -27.64 0.0003004651    1.259    0.206
        82 -10.2000    199.6943    220.6583   9.2630249328e+01  -7.2136737875e-01    0.3410881    0.1261235  34.29  0.001399349    2.582    0.613
        83 -10.8572    228.3001     90.8510   5.9302699643e+01   1.5244131262e+01    0.4369378    0.2763884  78.06  0.001677809    2.215    0.548
        84 -10.0990     66.6329     91.3612   9.8989175900e+01   5.0294377597e+01    0.3403166    0.1090628 -50.68  0.001213115    2.660    0.624
        85 -13.2403    248.4294     88.2871   5.5757566985e+01   1.1258034548e+01    0.3246858    0.2808745 -39.85 0.0005880715    1.021    0.021
        86  -9.6347     77.1989     90.2234   9.5241835282e+01   4.9005085890e+01    0.1842135    0.1613796 -76.85 0.0003319132    1.265    0.210
        87 -10.7957     13.6614    175.4391   1.2570403602e+02   3.6268408614e+01    0.2103076    0.1595935 -80.54 0.0004613211    1.181    0.153
        88 -10.8666    220.9761     88.0936   5.9755999959e+01   1.7380008797e+01    0.4704787    0.1933576 -37.72  0.000801779    2.211    0.548
        89 -10.9593     68.8120    174.9209   1.1350441907e+02   3.0161460513e+01    0.2060191    0.1863524  85.34  0.001317053    1.114    0.102
        90 -10.5314     89.9807     86.7980   9.0193028035e+01   4.7663980871e+01    0.2986763    0.2226075 -29.37 0.0007121883    1.420    0.296
        91 -11.8721     14.5068     86.0867   1.1539686070e+02   5.6744737834e+01    0.2134703    0.1810662 -66.56 -9.685623e-05    1.083    0.077
        92 -11.0043    239.9870     86.0003   5.6378086462e+01   1.3432295869e+01    0.2399288    0.2190614  89.96 0.0003640122    1.194    0.162
        93 -11.1767    239.5935     81.5994   5.5361688414e+01   1.4215569596e+01    0.2542612    0.2259676 -48.64 0.0007362454    1.036    0.034
        94 -11.0779    162.8097     71.1885   6.5792266622e+01   3.4654332702e+01    0.3493814    0.2611572  16.63 0.0003486825    1.732    0.423
        95 -11.4550    155.4450     71.1972   6.7412257137e+01   3.6500640798e+01    0.6827298    0.4407688 -64.78  0.002713455    2.175    0.540
        96 -10.2246    156.2301     83.7627   7.1054414619e+01   3.3987201338e+01    0.4097413    0.2985872   8.86  0.001725196    1.924    0.480
        97 -12.6300    159.0135     79.3179   6.9089562952e+01   3.4136800582e+01    0.3767971    0.3265607 -41.67 0.0004243032    1.151    0.131
        98 -10.2659    227.0145     81.9210   5.7252842958e+01   1.7000476135e+01    0.2079061    0.1979913 -41.64 0.0003055299    1.042    0.041
        99 -10.0878    220.1558     81.2586   5.8130328788e+01   1.8704581635e+01    0.2901939    0.1634718 -54.75 0.0008956955    2.029    0.507
       100 -10.6883     90.1249    217.8875   1.1394977469e+02   1.8040246067e+01    0.1942127    0.1429863  67.63 0.0008063049    1.196    0.164
       101  -9.4444     44.4356    209.4138   1.2212389782e+02   2.5872528675e+01    0.1169403   0.09064126  73.38 0.0001065115    1.023    0.022
       102 -11.9050    178.0580     76.5914   6.4255767786e+01   2.9853423498e+01    0.6665358    0.3172357 -30.05  0.001887235    2.300    0.565
       103 -10.6384      3.0166    168.9091   1.2746659332e+02   3.8585000630e+01    0.1808397    0.1325579  86.56 0.0007249291    1.009    0.009
       104 -11.8046    106.9482     78.2275   8.2366101249e+01   4.6288164869e+01    0.2799158    0.2671466 -37.44  0.000267854    1.047    0.045
       105 -12.6022    111.4376     75.1648   8.0062582387e+01   4.5984978580e+01    0.3255498    0.3205208 -21.43 0.0003501367    1.053    0.050
       106 -11.1474    222.6949     77.1288   5.6679702334e+01   1.8779301084e+01    0.3390595    0.2613164 -66.84  0.001213457    1.416    0.294
       107 -10.1177    153.0602     77.7846   6.9985396171e+01   3.5891920704e+01    0.2684162    0.2237415 -35.16 0.0005549857    1.202    0.168
       108 -10.1302    125.4172     76.6315   7.6586309525e+01   4.2654999139e+01     0.256164    0.1874083  59.39  0.001170236    1.530    0.346
       109 -10.2921    137.6396     75.9130   7.3147896542e+01   3.9970383509e+01    0.3276553     0.225399  75.63  0.001346171    2.055    0.513
       110 -12.3836     57.6890    205.1145   1.1915371931e+02   2.5110208335e+01    0.3160145    0.1928989  51.88 0.0009008686    1.409    0.290
       111 -11.7436    205.1231     73.7617   5.8556806256e+01   2.3559424497e+01    0.4711033      0.32131  76.36 0.0009905121    1.719    0.418
       112 -10.4637     24.2122    166.5085   1.2272020561e+02   3.7269860361e+01     0.280937    0.1784629 -36.63  0.001538986    2.543    0.607
       113 -11.3269    103.9314     71.5830   8.1138574484e+01   4.8239870872e+01    0.2664462    0.2083056 -45.66 0.0003606021    1.277    0.217
       114 -10.6289    140.4643     70.4544   7.0707530556e+01   4.0313377877e+01    0.2932435    0.2524578 -79.57 0.0007225699    1.373    0.272
       115 -10.6005    132.1989     70.8620   7.2930951191e+01   4.2201271556e+01    0.5142699    0.2147891  56.96  0.001704435    2.860    0.650
       116 -11.4460    247.8554    166.1053   7.3454456753e+01  -9.3059870374e-01    0.1913942    0.1687972   7.13 0.0003059221    1.098    0.089
       117 -10.6505    207.8138     68.7045   5.6754797414e+01   2.3716558281e+01    0.2850373    0.2469366 -70.03 0.0008045699    1.174    0.148
       118 -12.2577    215.0428     66.6647   5.5100480140e+01   2.2270696079e+01    0.2990337    0.2708819 -21.01 0.0003733895    1.185    0.156
       119  -9.8231    191.2248     67.4342   5.9163636774e+01   2.8071326109e+01    0.2622317    0.1738683 -58.68 0.0007916915    1.716    0.417
       120 -10.0662    144.2383     67.8829   6.8966527685e+01   3.9861048735e+01    0.2243592    0.2089932 -72.46  0.000450685    1.162    0.139
       121 -10.9233    243.5380     66.1833   5.1103648593e+01   1.5707789892e+01    0.4875433    0.2575484 -70.61  0.001866907    3.064    0.674
       122 -11.1398     94.3122     65.9508   8.2263425237e+01   5.1229975190e+01    0.2458421    0.2237628  31.19 0.0002708891    1.140    0.123
       123 -11.5456     84.7711    165.3842   1.0841684871e+02   3.0022000640e+01    0.3202801     0.234584  32.85  0.001589605    1.544    0.352
       124 -10.8390    168.2738     63.6804   6.2364543418e+01   3.4546861309e+01    0.4540155    0.2533172 -30.11   0.00183701    1.888    0.470
       125 -11.2478    163.2680     61.4993   6.2710931689e+01   3.6185392795e+01    0.6124527    0.3202366 -29.16  0.001761277    2.060    0.515
       126 -12.4245    147.2843     61.8775   6.6314394706e+01   4.0153772804e+01    0.4332024    0.2642525 -42.74  0.001149829    1.681    0.405
       127  -9.0894    206.2558     62.6680   5.5363040959e+01   2.5053915741e+01    0.1530766     0.105934 -60.19 0.0002041929    1.563    0.360
       128 -10.4704    154.2647     61.0859   6.4492692745e+01   3.8538983635e+01    0.4597497    0.3265217  -6.85  0.002010525    1.834    0.455
       129 -10.2142    181.2360     61.2285   5.9149923573e+01   3.1621781737e+01     0.271431    0.2104406  80.85 0.0005204704    1.417    0.294
       130 -10.8037    177.7498     58.3634   5.8935891413e+01   3.2972037959e+01    0.3620972    0.2230722 -40.59  0.000602385    1.609    0.379
       131  -9.9592     37.3124     61.0897   1.0129237539e+02   6.0479235880e+01    0.1777626    0.1419881 -46.50 0.0004183389    1.064    0.060
       132  -9.8653    211.3442     60.6032   5.4037804588e+01   2.4112577262e+01    0.2860801    0.1448863  70.12  0.001133543    2.260    0.558
       133 -10.2516     65.7627    165.2963   1.1297334376e+02   3.2780324583e+01    0.2275855    0.1599473 -82.57 0.0006990211    1.326    0.246
       134 -10.7248    193.8904     62.1567   5.7210241517e+01   2.8242316987e+01     0.322208    0.2186305 -52.55  0.001219122    1.529    0.346
       135 -10.2405    241.0025    162.5126   7.3870634224e+01   8.2426903197e-01    0.2910227    0.1750296 -14.97  0.001381508    1.868    0.465
       136 -10.0450    210.8400     54.6561   5.2517754768e+01   2.5130776029e+01    0.2017201    0.1754954  80.94 0.0004449008    1.148    0.129
       137 -11.2566    250.0279     50.3917   4.6605091048e+01   1.6549937639e+01    0.3477205    0.1837503 -28.06  0.000423521    1.954    0.488
       138 -11.3944    200.7615     51.7938   5.3211417578e+01   2.8076812653e+01     0.428071    0.2699718  81.18  0.001896792    1.835    0.455
       139 -10.9682     12.9894    162.9555   1.2490097865e+02   3.9079587911e+01    0.1777679    0.1378299  88.25 0.0003215623    1.028    0.027
       140 -11.5619    165.5587    223.6861   9.9681953968e+01   4.6307486453e+00    0.2553236     0.206445  38.53 0.0009828974    1.035    0.034
       141  -9.5756     31.4616     52.4697   1.0107931512e+02   6.2826530148e+01    0.1261398    0.1020667 -39.41 7.131852e-05    1.015    0.014
       142  -9.9388     42.1620    161.8145   1.1814659299e+02   3.6487731974e+01    0.1904244    0.1422616  82.18 0.0004426541    1.165    0.142
       143 -10.3974    160.2553     48.7510   5.9295823125e+01   3.8956880801e+01    0.2436056    0.2155647 -64.41 0.0002781448    1.201    0.167
       144 -10.4367     18.3475     49.1301   1.0561920859e+02   6.4573629780e+01    0.1881519    0.1432675 -21.49 0.0004910266    1.289    0.224
       145 -11.2189     18.4647     42.9392   1.0371361647e+02   6.5813821413e+01     0.360788     0.172998 -56.83  0.001911152    1.796    0.443
       146  -9.5234     36.0481     49.0372   9.8068272181e+01   6.3078830725e+01    0.1502972    0.1228774 -32.28 0.0003132449    1.020    0.019
       147 -11.4962     17.5380    158.8391   1.2354284444e+02   3.9612353869e+01    0.2923265    0.1436715 -62.25  0.001295052    1.830    0.454
       148 -11.2688     12.0742    203.9017   1.2784073726e+02   3.0450981917e+01     0.249224    0.1419756  69.34  0.001631686    1.380    0.276
       149 -10.5269     68.9547    202.2805   1.1658922650e+02   2.4201180049e+01    0.3140803    0.1581791  78.98  0.001433412    2.526    0.604
       150  -9.7156    174.9772     39.9915   5.3864718396e+01   3.6389708875e+01    0.2260975    0.1694016  31.03 0.0003740039    1.569    0.363
       151  -9.5249    177.4711     37.4992   5.2696542185e+01   3.6076374548e+01    0.1467289    0.1376838 -89.19 0.0002679613    1.027    0.026
       152  -9.2411    166.9647     39.9604   5.5240659230e+01   3.8476741041e+01    0.1726602    0.1641165  69.37            0    1.006    0.006
       153  -9.8754     90.6649     39.5631   7.3732774621e+01   5.6595720408e+01    0.1719421    0.1343755  51.30 0.0005677366    1.432    0.302
       154 -10.7762     54.9937     37.5223   8.5933613646e+01   6.2957593757e+01    0.2463929    0.1564104 -25.26 0.0006346342    1.487    0.328
       155 -10.6724    218.6920    201.0644   8.5619254386e+01  -1.0960300277e+00    0.2560761     0.169089  30.72  0.001178343    1.355    0.262
       156 -10.1951    200.1857     32.4935   4.7941074953e+01   3.0870135606e+01    0.2345719    0.1922894  64.55  0.000687658    1.198    0.165
       157 -11.2107    108.2259     36.3097   6.7160082491e+01   5.3406155419e+01    0.2439366    0.2256733  16.50 0.0002675778    1.017    0.017
       158 -10.2878    141.7961     27.3970   5.5833466882e+01   4.6558332665e+01    0.2171473    0.1763814 -10.52 0.0005047938    1.348    0.258
       159  -9.6400    113.8095    217.1608   1.0911517085e+02   1.4490276224e+01    0.1512417    0.1450353  31.62 0.0003053402    1.274    0.215
       160 -10.1039    126.2540     27.3957   5.9172165921e+01   5.0402029353e+01    0.1945302    0.1344148  67.54   0.00062787    1.556    0.357
       161  -9.6527     44.7808     27.6172   8.6109141185e+01   6.5985483436e+01    0.1464123    0.1133239  32.01 0.0001500537    1.483    0.326
       162 -10.5699    209.4535     25.1025   4.4810582791e+01   2.9450620435e+01    0.2127163    0.1706803  79.66 0.0004152037    1.175    0.149
       163  -9.8930    177.6695     25.2853   4.8978801268e+01   3.7557096313e+01    0.1484495    0.1030652 -69.97 0.0003294547    1.614    0.381
       164  -9.6980    185.5474    243.0207   9.8719229094e+01  -1.5181067255e+00    0.1532792    0.1196575 -34.59 0.0005304766    1.560    0.359
       165 -10.3416    224.4679    241.4824   9.1480933544e+01  -7.3539803337e+00    0.1190157   0.09107134  19.65 7.212587e-05    1.008    0.008
       166 -10.5341    175.4818     16.9578   4.6782687834e+01   3.9063873456e+01     0.196876    0.1397932 -27.19  0.000360483    1.527    0.345
       167 -10.0874      2.8185    156.3814   1.2663859562e+02   4.1356150452e+01    0.1224964    0.1129609  -0.37 0.0002194971    1.605    0.377
       168 -10.7820    208.0868    240.9775   9.4313876044e+01  -4.8047921773e+00    0.2556626    0.1394524  33.09 0.0007738024    1.486    0.327
       169  -9.4803     50.4236     15.4695   7.8067243089e+01   6.7033840642e+01    0.1255424   0.09953339  -4.53 0.0003177474    1.024    0.023
       170 -11.7602    245.1142    238.1149   8.7377400066e+01  -9.9573840988e+00    0.2626448    0.1963535  12.17  0.000954484    1.017    0.016
       171 -12.0815    193.2940    237.7755   9.6523963536e+01  -2.0527974172e+00     0.290406    0.2169491   8.21 0.0006344135    1.402    0.287
       172 -11.7362    182.2768    237.9663   9.8595204540e+01  -2.9691674830e-01    0.4260686    0.2385325  21.78  0.002155926    2.132    0.531
       173 -10.3128     64.3861    239.2379   1.2075292871e+02   1.7674594314e+01    0.1440588   0.09112843  86.30 0.0003452049    1.511    0.338
       174 -12.0633    232.1458    236.7689   8.9386460659e+01  -7.9364041199e+00    0.4104643    0.2316813  28.59  0.001706642    1.457    0.314
       175 -11.9702    126.0152    235.6862   1.0896608422e+02   9.2485209992e+00    0.4489275    0.2691502  77.69  0.002238385    2.578    0.612
       176 -11.0626    102.4375    235.9140   1.1346842234e+02   1.2881761513e+01    0.3015099    0.1758395  72.68  0.001631533    2.032    0.508
       177 -11.0058     68.7775    236.4394   1.1974407793e+02   1.7595617855e+01    0.2013899    0.1553342  73.05 0.0003085147    1.090    0.083
       178 -10.8083    118.4838    235.2483   1.1035276387e+02   1.0517936909e+01    0.2254633    0.2115248  19.41 0.0007795651    1.359    0.264
       179  -9.9901    145.4091    234.4975   1.0510292171e+02   6.2923794900e+00    0.1725623     0.144232   3.93 7.007592e-05    1.533    0.348
       180 -11.4873    142.8749    230.5319   1.0507219153e+02   7.3541388296e+00    0.3727469    0.2755615  70.47  0.001343486    1.598    0.374
       181  -9.6652    182.3395     15.2884   4.5373639857e+01   3.7469290588e+01    0.1438254   0.09751767  42.24  0.000297797    1.640    0.390
       182 -12.1939    164.7523    231.1186   1.0092409837e+02   3.6055082784e+00    0.2917822    0.2585487 -84.73 0.0009492016    1.471    0.320
