#   1 NUMBER                 Running object number                                     
#   2 MAG_AUTO               Kron-like elliptical aperture magnitude                    [mag]
#   3 X_IMAGE                Object position along x                                    [pixel]
#   4 Y_IMAGE                Object position along y                                    [pixel]
#   5 X_WORLD                Barycenter position along world x axis                     [deg]
#   6 Y_WORLD                Barycenter position along world y axis                     [deg]
#   7 A_WORLD                Profile RMS along major axis (world units)                 [deg]
#   8 B_WORLD                Profile RMS along minor axis (world units)                 [deg]
#   9 THETA_WORLD            Position angle (CCW/world-x)                               [deg]
#  10 FWHM_WORLD             FWHM assuming a gaussian core                              [deg]
#  11 ELONGATION             A_IMAGE/B_IMAGE                                           
#  12 ELLIPTICITY            1 - B_IMAGE/A_IMAGE                                       
         1 -13.9470      7.9856     63.0952   1.0408589592e+02   6.3292364130e+01     2.131218    0.9412721 -45.03   0.01093039    1.774    0.436
         2 -13.4785    229.4343     29.2626   3.5802076489e+01   2.5268193466e+01    0.8036438    0.6735711  55.50  0.005270269    1.505    0.336
         3 -12.4290     56.5873     28.8944   7.0312529270e+01   6.4143996000e+01     1.101422    0.7197497  33.42  0.006297341    1.429    0.300
         4 -12.5137     55.0734     20.7131   6.7269642719e+01   6.5479492543e+01    0.5731166    0.5475741 -72.39  0.003914412    1.588    0.370
         5 -11.9405     42.8914     26.9070   7.5230538010e+01   6.6526901231e+01    0.5804923     0.449524 -41.23  0.003671021    1.537    0.350
         6 -12.5559     33.1434     20.7206   7.6939152296e+01   6.8739936607e+01    0.7813089    0.4777386  -2.67  0.004431654    1.756    0.431
         7 -12.4186     22.7859     13.2064   7.8555585312e+01   7.1060599640e+01     1.003147    0.6500937 -45.35  0.006173946    1.985    0.496
         8 -13.0446     14.4959     20.3175   8.6408974336e+01   7.0883020358e+01    0.8949872    0.5533397   4.29  0.005614362    1.561    0.359
         9 -12.5097      9.3128     18.5514   8.8516640218e+01   7.1623338995e+01    0.6877732    0.3415016  21.30  0.004023839    2.022    0.505
        10 -12.3181    181.9389      2.2030   3.3922071483e+01   3.8993490367e+01     0.862883    0.2119294  72.19  0.003140105    3.451    0.710
        11 -12.6835    163.2554      2.1976   3.5870361494e+01   4.3424812831e+01     1.243718    0.2602268  72.45  0.003920402    4.388    0.772
        12 -12.9593    174.6119      8.1462   3.6197528975e+01   4.0163908278e+01    0.6907066    0.5016053 -79.30  0.004116275    1.281    0.219
        13 -12.8581    162.8375     14.3155   3.9277461728e+01   4.2385521122e+01    0.9706144    0.4911836  61.93  0.004758004    1.722    0.419
        14 -11.9005     35.7938     12.8984   7.1888812303e+01   6.9426386773e+01    0.4653235    0.3201334 -11.40  0.002990903    1.306    0.234
        15 -10.8006    205.9808      2.6877   3.1931088321e+01   3.3422405575e+01    0.1829216    0.1381961 -86.65  0.001185055    1.095    0.087
        16 -10.0646     98.9718      2.0090   4.5915278354e+01   5.8573686452e+01    0.1608193    0.1283889  52.86  0.001015192    1.060    0.056
        17 -11.8898     74.6963    157.5550   1.0029137537e+02   3.3277667662e+01    0.5563501    0.5311203  54.11  0.003207177    1.111    0.100
        18 -12.3330    172.3951    249.1510   9.1942651365e+01  -1.9352919689e+00    0.7496177     0.299315  31.82  0.003369354    2.268    0.559
        19  -9.4616     25.4969    249.4828   1.2111295471e+02   1.8569344570e+01    0.2006072   0.08719447  85.86  0.001035756    2.364    0.577
        20 -12.8711     59.3937    206.4225   1.1076634019e+02   2.3557901533e+01     1.201791     1.164439 -84.57  0.007965624    1.241    0.194
        21 -14.2087      6.0517    241.5803   1.2421874513e+02   2.2143813460e+01     5.224411    0.8640432 -80.03   0.01719574    6.290    0.841
        22 -13.7769      5.6749    126.3549   1.1572924851e+02   4.8587852206e+01     2.944101    0.6946511 -74.30  0.009940761    3.701    0.730
        23 -15.1876     31.9748    187.6291   1.1522215201e+02   3.1243370608e+01     5.282004     2.119416  66.86   0.01993802    3.364    0.703
        24 -10.1945    134.0115    146.8228   8.2113330384e+01   2.5376227865e+01    0.4643043    0.2104123 -56.88  0.001587289    2.572    0.611
        25 -12.5348     67.9793    143.7968   9.9784853046e+01   3.7752181023e+01    0.7604386    0.4721103  61.79  0.002821247    1.974    0.493
        26 -10.4101     90.6222    144.3735   9.3352826784e+01   3.4087190040e+01    0.2904272    0.2657699 -35.63 0.0009360235    1.172    0.147
        27 -11.7982     78.1942    142.3887   9.6540110568e+01   3.6594697346e+01    0.3223592    0.2642173 -54.95 0.0005237446    1.165    0.141
        28 -10.5425    105.6310    131.3329   8.6217220308e+01   3.4649981754e+01    0.3740997    0.3349685 -14.48  0.001223506    1.260    0.206
        29 -11.9269     16.7733    128.9995   1.1273735599e+02   4.7145892418e+01    0.4835638     0.262622 -77.79  0.002411887    1.644    0.392
        30 -10.3767     91.3634    128.4193   8.9702627343e+01   3.7945858615e+01    0.2841471    0.2649459 -16.01  0.000628102    1.169    0.145
        31 -12.0323     55.8744    125.6338   1.0004288587e+02   4.4009748998e+01    0.4899441    0.2964904 -72.30  0.002125901    1.715    0.417
        32  -9.4200    103.3622    120.0733   8.4160688770e+01   3.7802067040e+01    0.2128685    0.1881676 -54.61  0.000385217    1.099    0.090
        33 -11.8026     50.0415    109.6570   9.8673313588e+01   4.8725764718e+01    0.6515238    0.5132178  34.85  0.003585119    1.405    0.288
        34 -12.6510     38.9866     91.4619   9.8474268562e+01   5.4355190137e+01    0.9036363    0.7207571 -55.16  0.004444379    1.117    0.105
        35 -12.8180      3.2840     85.2320   1.1061342608e+02   5.8603844620e+01     1.528679    0.3796486 -63.44  0.006071778    2.761    0.638
        36 -12.7135     14.1104     90.1819   1.0747156392e+02   5.6801594544e+01    0.9655912    0.5307189 -59.47  0.003574865    1.450    0.310
        37 -12.6987     28.1255     86.1096   1.0131786623e+02   5.6658996452e+01    0.7955474    0.6951123  70.99  0.004104268    1.410    0.291
        38 -13.3989     18.2125     75.5751   1.0277693148e+02   5.9869203456e+01     1.340146    0.7897422 -22.44  0.006128465    1.881    0.468
        39 -12.5889      3.4375     50.5646   1.0291123508e+02   6.6172920565e+01    0.8694848    0.3423908 -58.39  0.003967477    2.062    0.515
        40 -11.7084     52.9763     93.3464   9.3814607078e+01   5.2284091083e+01    0.8962796    0.2975664 -58.36  0.003109607    2.972    0.664
        41  -9.9485    240.6617    248.3278   7.9073480402e+01  -1.1147588658e+01   0.09617759   0.09021569  29.98  0.000348917    1.730    0.422
        42 -11.1701     39.1348     65.6882   9.1434887275e+01   6.0067585127e+01    0.5121458    0.3100293 -42.90  0.002636579    1.434    0.303
        43 -10.6818     41.1669     75.1968   9.3414662612e+01   5.7810317633e+01    0.3454956     0.321196 -66.55  0.001915087    1.240    0.193
        44 -11.7328     46.8553     72.9529   9.0505728989e+01   5.7624523827e+01      1.11989    0.3470491 -39.23  0.003651073    3.758    0.734
        45 -11.8577     45.9932     65.9222   8.8688415848e+01   5.9206170096e+01    0.5786723    0.3888835 -53.46  0.003100526    1.495    0.331
        46 -12.2638    213.0575     44.8557   4.0973454112e+01   2.6816309424e+01    0.3487116    0.2812944  51.17  0.002065108    1.485    0.327
        47 -11.5676     95.1256     37.6331   6.0684903840e+01   5.5637983588e+01    0.4126934    0.3262315 -79.47  0.002181224    1.871    0.466
        48 -10.9943    132.1537    247.1734   9.9798541691e+01   4.5005663874e+00    0.1918917    0.1614584  19.86  0.000649347    1.223    0.182
        49 -11.9417     11.5215     31.4007   9.2606447787e+01   6.9289640555e+01    0.5377623    0.3958772  15.00  0.002408033    1.428    0.300
        50 -13.7395     12.6738    208.3750   1.2111382878e+02   2.8439099443e+01     0.828879    0.4535358  61.82  0.001216155    1.573    0.364
        51 -10.8701    247.7048    244.7064   7.7275512768e+01  -1.1540742157e+01    0.1982512    0.1350694 -49.11  0.001186893    2.546    0.607
        52 -11.2907     56.4400    237.9669   1.1436767171e+02   1.7157397145e+01    0.4238238    0.2903035  63.99  0.001729495    1.242    0.195
        53 -11.2621     58.7933    234.4087   1.1358655272e+02   1.7577837109e+01    0.4516106    0.3056254  82.09  0.002261326    1.422    0.297
        54 -12.2569    126.5226    230.5965   9.8794897096e+01   8.4046805815e+00    0.3729909    0.2609223  56.46  0.001834306    1.486    0.327
        55 -10.7196     82.9674    229.2959   1.0801812971e+02   1.5318193524e+01    0.3057638    0.1913093 -72.58  0.001661055    1.725    0.420
        56 -14.4211     20.7328    202.3075   1.1899031525e+02   2.9002133586e+01     1.390907    0.8367936  62.78  0.004914787    1.461    0.315
        57 -11.3365     77.5756    204.0649   1.0630548953e+02   2.1577612829e+01    0.5187956    0.4321186  65.09   0.00306818    1.081    0.075
        58 -11.6158     45.8528    181.5192   1.1124270722e+02   3.1142448962e+01    0.3252908    0.2646124 -42.07 0.0006007067    1.522    0.343
        59 -11.5962     53.3796    174.9871   1.0856431000e+02   3.1822908357e+01    0.2741572    0.2455716 -47.60 0.0004557529    1.298    0.229
        60 -10.7820     65.7364    164.7169   1.0388731789e+02   3.2754988770e+01    0.2527637    0.2313866 -68.79 0.0003535188    1.097    0.088
        61  -8.9442    135.7055    164.2931   8.5441958260e+01   2.0978179347e+01    0.1512686    0.1205506  79.18 0.0003076031    1.557    0.358
        62 -12.9602     51.3390    161.2362   1.0726684174e+02   3.5515308729e+01    0.5320293    0.3126256 -39.88  0.001524108    2.180    0.541
