#   1 NUMBER                 Running object number                                     
#   2 MAG_AUTO               Kron-like elliptical aperture magnitude                    [mag]
#   3 X_IMAGE                Object position along x                                    [pixel]
#   4 Y_IMAGE                Object position along y                                    [pixel]
#   5 X_WORLD                Barycenter position along world x axis                     [deg]
#   6 Y_WORLD                Barycenter position along world y axis                     [deg]
#   7 A_WORLD                Profile RMS along major axis (world units)                 [deg]
#   8 B_WORLD                Profile RMS along minor axis (world units)                 [deg]
#   9 THETA_WORLD            Position angle (CCW/world-x)                               [deg]
#  10 FWHM_WORLD             FWHM assuming a gaussian core                              [deg]
#  11 ELONGATION             A_IMAGE/B_IMAGE                                           
#  12 ELLIPTICITY            1 - B_IMAGE/A_IMAGE                                       
         1  -8.3583    148.0019      1.7344   4.3475815635e+01   4.7602130893e+01    0.1873481    0.1588583  65.57 0.0005579491    1.031    0.030
         2  -7.6550     42.6754    249.2600   1.2329016130e+02   1.7952168910e+01    0.1150903   0.05862962  61.12 0.0002299497    1.556    0.357
         3  -8.1105    196.3028    239.9954   9.3404497873e+01  -3.1916773313e+00    0.1696637    0.1427178  19.17  0.001153068    1.066    0.062
         4  -8.2609     30.2315    238.3931   1.2479938241e+02   2.1362660822e+01    0.1583766   0.07411264  49.77 0.0009504423    1.653    0.395
         5  -8.0571     63.3386    237.3277   1.1875064981e+02   1.7568008351e+01    0.1001726   0.09259985 -21.61 0.0007051735    1.731    0.422
         6  -8.6366    240.2018    232.3607   8.4201777711e+01  -8.7058261430e+00    0.1601065   0.09649664  38.27 0.0009478903    1.670    0.401
         7  -8.8584    227.1885    232.0079   8.6445894337e+01  -6.7956154355e+00    0.2096165    0.1460744  24.80 0.0006189486    1.192    0.161
         8  -8.2378    188.8045    232.4120   9.3656909309e+01  -9.3055052501e-01    0.1891205    0.1013727  29.66 0.0008013918    1.706    0.414
         9  -7.9745    249.3284    230.3178   8.2280368060e+01  -9.7177684468e+00    0.1239872   0.07351921   5.43 0.0007046475    1.681    0.405
        10  -8.3646    154.1714    229.1107   9.9967234614e+01   5.2644031843e+00    0.2390657    0.1838455  -8.03   0.00138715    1.710    0.415
        11  -9.2335    209.0022    226.5783   8.8879447167e+01  -3.3012351282e+00    0.3207195    0.1941618  22.95  0.001494792    1.552    0.356
        12  -7.8891    128.6913    227.3699   1.0487362981e+02   9.7575963090e+00    0.1331534   0.09000725  68.17 0.0007034919    1.763    0.433
        13  -8.8595    182.2207    225.6206   9.3867501321e+01   1.1681529699e+00    0.3334892    0.1306688  40.62  0.001451063    2.203    0.546
        14  -9.6539     97.5975    224.6362   1.1086236473e+02   1.5157329164e+01    0.4758447    0.1388435  38.97  0.001851472    2.949    0.661
        15  -8.4440    219.1247    224.8065   8.6700431171e+01  -4.6272727814e+00    0.2776941    0.1323296  39.91  0.001391376    1.944    0.486
        16  -8.5412     40.7234    225.4648   1.2208130362e+02   2.2645019224e+01    0.2583687    0.1063557  33.78  0.001293585    2.590    0.614
        17  -8.3988     62.9584    224.7028   1.1777241102e+02   2.0041134884e+01    0.1680939    0.1002961  13.29 0.0007032503    4.164    0.760
        18  -7.8107    244.4631    223.5260   8.1946628410e+01  -8.2040323284e+00    0.1209102   0.09466838   6.05 9.864544e-05    1.020    0.020
        19  -9.0376    232.5926    223.0023   8.3946432614e+01  -6.4168584184e+00    0.2395651    0.1824124  14.84  0.001565575    1.073    0.068
        20  -8.3797    141.3215    223.1128   1.0171858653e+02   8.4356088728e+00    0.1719387    0.1636861  70.34   0.00104667    1.152    0.132
        21  -7.9074     14.0027    224.0000   1.2686026198e+02   2.5818746555e+01    0.1606798   0.05438286  34.51  0.000801363    2.935    0.659
        22  -8.4771    197.4908    222.1936   9.0338096625e+01  -8.1985033802e-01    0.3261367    0.1533718  24.40  0.001170578    2.611    0.617
        23  -8.6769     73.9482    221.6765   1.1532322401e+02   1.9161120999e+01    0.2294564    0.1024024  71.33 0.0009092293    3.402    0.706
        24  -8.4973     29.1069    220.6431   1.2392328797e+02   2.4909392799e+01    0.2187714    0.1438287 -78.53  0.001465962    1.418    0.295
        25  -9.1980    126.1292    219.4625   1.0435239886e+02   1.1623831160e+01    0.2865307    0.2154686  14.84  0.001583924    1.748    0.428
        26  -8.1370      9.7827    220.1730   1.2741217782e+02   2.6980523041e+01    0.2235257   0.04187018  39.44 0.0009933674    3.521    0.716
        27  -8.7140    171.0426    217.6812   9.4828700344e+01   4.3292206427e+00    0.1970802    0.1489737  34.59 0.0009886476    1.147    0.128
        28  -9.6851     54.1044    218.0552   1.1894095113e+02   2.2505644597e+01    0.2914422    0.1729625  35.83  0.001686786    1.761    0.432
        29  -9.0527    143.4715    216.8334   1.0036822175e+02   9.2000896578e+00    0.3252504    0.1993255  58.44  0.001239462    1.883    0.469
        30  -9.5910    187.1070    214.9316   9.1151682731e+01   2.0379326050e+00    0.3946386    0.3147609  63.89  0.001880881    1.716    0.417
        31  -8.1611     42.1746    215.8507   1.2110145121e+02   2.4400830569e+01    0.1485551    0.1320777 -79.60 0.0009360142    1.342    0.255
        32  -9.4285    131.0694    214.2003   1.0258719999e+02   1.1790464044e+01    0.3010905     0.187349  74.04  0.001371197    2.464    0.594
        33 -11.2219     74.9181    212.7542   1.1423315203e+02   2.0829875504e+01    0.7655986    0.2403895  48.86  0.003088984    2.833    0.647
        34  -9.7903    162.4190    213.7676   9.5963987783e+01   6.4844205332e+00    0.4946173     0.143327  42.49  0.001755516    3.039    0.671
        35 -10.6093    218.6506    211.6488   8.4491377371e+01  -2.6878359869e+00     0.652177     0.275769  38.39  0.002988284    2.170    0.539
        36  -9.1890    206.9608    212.5040   8.6854802461e+01  -9.1259493088e-01    0.3091128    0.1146676  41.34  0.001244475    2.502    0.600
        37  -9.6910    209.2030    209.2028   8.5838104631e+01  -7.8090461002e-01    0.2973213    0.2822056 -23.23  0.001183853    1.298    0.230
        38  -9.0399    195.3506    211.6524   8.8959473830e+01   1.1619764364e+00    0.2511001    0.2032194   9.82 0.0007796741    1.167    0.143
        39  -9.6919    180.1303    211.1365   9.1907579301e+01   3.8578979662e+00    0.3860676    0.2563404  35.44  0.001651887    1.333    0.250
        40  -9.8209    176.6654    211.3290   9.2643015478e+01   4.4271280381e+00    0.4129507    0.2927575  75.73  0.001965823    2.551    0.608
        41  -8.4734    150.7672    212.4171   9.8174457264e+01   8.7480196712e+00     0.191114    0.1171413  31.37  0.000943855    1.602    0.376
        42 -11.7669    126.0298    199.6073   1.0152297682e+02   1.5513181802e+01    0.5606176    0.4750726  42.32  0.003279717    1.100    0.091
        43 -10.9481    134.8238    196.2393   9.9047160073e+01   1.4655277943e+01    0.5576105    0.2050666  42.49  0.002120191    2.448    0.592
        44 -10.3675    119.9148    210.9440   1.0449950713e+02   1.4282985609e+01    0.4376329    0.3031626  31.03  0.002361408    1.511    0.338
        45 -10.7191    127.0558    207.9298   1.0253980851e+02   1.3676902017e+01    0.5628411    0.3202324  42.80  0.002694385    1.552    0.356
        46  -8.9611    241.8797    210.3460   8.0047353560e+01  -6.1018336532e+00    0.2337072     0.159347   6.52  0.001055532    1.370    0.270
        47 -10.3413     87.7182    210.3467   1.1128766006e+02   1.9480021332e+01    0.3807907    0.2070352  41.11  0.001952158    1.663    0.399
        48  -8.4101     35.6809    210.6655   1.2198056200e+02   2.6211197962e+01    0.1060458   0.08652959 -51.41 0.0005531769    1.699    0.411
        49  -8.4135    250.1652    208.0436   7.8188848025e+01  -7.0110470008e+00    0.1991564    0.1362262  -0.96 0.0007304538    1.335    0.251
        50  -9.5125    230.8185    207.1366   8.1432735729e+01  -3.9652096418e+00    0.2860395    0.1981344   4.80  0.001654481    1.411    0.291
        51  -8.2784     20.5079    215.5038   1.2520267236e+02   2.6847169527e+01    0.1151572   0.08446109  74.07 0.0002618632    1.007    0.007
        52 -10.7865    199.4080    205.2688   8.7029955330e+01   1.4890132206e+00    0.6008247    0.2738756  39.49  0.002702433    2.007    0.502
        53 -11.3841    194.8981    187.9289   8.4687479891e+01   5.1972879711e+00    0.4578243    0.4033985  58.80   0.00264365    1.389    0.280
        54 -11.1190    188.7023    204.8468   8.9083806517e+01   3.4151434522e+00    0.6125803    0.4396752   8.58  0.003276889    1.569    0.362
        55 -12.0057    186.6284    196.0956   8.7917997290e+01   5.2769455976e+00    0.7809557    0.4648691  54.97  0.003551837    2.161    0.537
        56 -10.1230    200.0282    192.2793   8.4495031341e+01   3.5217914274e+00    0.3304351    0.2583296  33.96  0.001220942    1.202    0.168
        57 -11.1465    142.0908    205.6975   9.8966314829e+01   1.1514231044e+01    0.5682615    0.4168389  18.41  0.002992338    1.636    0.389
        58 -10.2256    107.8911    204.8407   1.0626014664e+02   1.7480267874e+01     0.420211    0.2694959  30.08   0.00213725    1.736    0.424
        59 -10.2655    101.9571    205.5124   1.0763998043e+02   1.8292131581e+01    0.3339873    0.2887829 -32.22    0.0019634    1.530    0.346
        60  -9.5262     97.3294    205.8297   1.0868393829e+02   1.8952618870e+01    0.3160558    0.1793111  54.21   0.00157563    1.662    0.398
        61 -10.7188     59.1974    206.3380   1.1685958828e+02   2.4284974351e+01    0.4043898    0.2116566  33.47  0.002086423    2.066    0.516
        62  -9.9457    133.3570    205.0031   1.0074307426e+02   1.3170187637e+01    0.2984935    0.2892805  22.88  0.001504421    1.136    0.120
        63 -11.3765    169.1191    203.9712   9.2947468449e+01   7.0355061852e+00    0.5106958    0.3620969  46.07  0.002742633    1.352    0.261
        64  -8.6890     25.2796    205.0033   1.2361626960e+02   2.8514750290e+01    0.1680076    0.1254093  82.50 0.0008741483    1.061    0.057
        65 -11.9315     95.6859    189.7285   1.0690953494e+02   2.2653983613e+01    0.8295038    0.4151827  51.65  0.003715295    1.961    0.490
        66 -10.6313    104.0888    193.7862   1.0556989557e+02   2.0422025445e+01    0.4122369     0.280687  78.52  0.001619212    1.734    0.423
        67 -11.5569    116.0475    199.1638   1.0366729152e+02   1.7305645148e+01    0.6142854    0.4179542 -41.58  0.003162178    1.813    0.448
        68 -11.6683    110.3259    196.8558   1.0460712101e+02   1.8743336755e+01    0.5678539    0.4402023 -79.27  0.003183264    1.387    0.279
        69 -12.6433     88.3954    197.5434   1.0959438784e+02   2.2077750070e+01     1.190761      0.74228 -83.06  0.006059259    1.804    0.446
        70 -11.9598     74.6949    201.8182   1.1310483020e+02   2.3158239500e+01    0.8170158    0.3785851  58.67  0.003659637    2.303    0.566
        71  -9.4585     41.2144    203.1123   1.2028203635e+02   2.7169017835e+01    0.2388159    0.1386441  80.40   0.00131746    1.596    0.374
        72  -8.2821    224.0406    202.9502   8.1899870215e+01  -2.2739129992e+00    0.2115247    0.1390343   6.98   0.00105402    1.646    0.393
        73  -9.4865    213.0728    203.0997   8.3987823053e+01  -4.8767355594e-01    0.3300587    0.1657143  28.91  0.001516294    2.032    0.508
        74 -10.3971    174.9155    200.1642   9.1074114164e+01   6.6744017178e+00    0.4457788     0.169334  42.87   0.00173643    2.427    0.588
        75  -9.8080     48.8759    201.6138   1.1857110592e+02   2.6583913974e+01    0.2769098    0.1942913  51.21  0.001610356    1.291    0.225
        76 -11.9868    151.5229    198.8229   9.5813508328e+01   1.1153194872e+01    0.6612103    0.4356854  37.90   0.00336246    1.390    0.280
        77 -10.9912    221.4868    188.9759   7.9707060668e+01   3.0093774580e-01    0.8750143    0.2156975  41.65  0.002881135    3.967    0.748
        78 -10.4452    239.8945    187.8548   7.6138399393e+01  -2.5878993382e+00      0.48853     0.268619 -11.41  0.002215521    2.371    0.578
        79 -11.0111    232.6425    194.8708   7.8797009700e+01  -2.4637995559e+00    0.5112538    0.3649967   5.57  0.002936219    1.371    0.270
        80 -10.6383    218.2515    196.5577   8.1779093257e+01  -3.4193757910e-01    0.5864951    0.3379347  47.71  0.002878542    2.003    0.501
        81 -10.8645    227.9711    193.8515   7.9451849555e+01  -1.5467224790e+00    0.6073353    0.3345928 -22.28  0.002684516    1.964    0.491
        82 -10.1930    233.0758    187.7636   7.7337232896e+01  -1.4608062392e+00     0.464393    0.2492383  38.66  0.001630449    1.850    0.459
        83 -12.4295    211.6716    190.9236   8.1952773167e+01   1.6864740445e+00    0.9785888    0.5826872 -36.27  0.004932992    1.698    0.411
        84 -10.2586    207.6713    192.0390   8.2943718855e+01   2.2055815944e+00    0.3366177    0.2437277 -22.36  0.001329081    1.396    0.284
        85  -9.3417    249.4690    194.7336   7.5808879432e+01  -5.0838958155e+00    0.2867059    0.2303533 -12.72  0.001035651    1.088    0.081
        86 -11.4998    227.6015    183.4794   7.7485049861e+01   1.2591081525e-01    0.8857951    0.2927097  37.57  0.003314033    3.105    0.678
        87 -11.4375     63.2227    194.6042   1.1481043116e+02   2.6293339569e+01     0.593549    0.2710502  34.08   0.00277121    2.307    0.567
        88 -10.5407    196.4332    196.9059   8.6085492751e+01   3.3827784810e+00    0.4346229    0.3194027   2.55  0.002329985    1.509    0.337
        89  -9.8649     44.4912    195.0005   1.1889638055e+02   2.8540910575e+01    0.3266921    0.1090451 -72.52  0.001248917    2.805    0.643
        90 -10.1587     45.8050    191.1112   1.1825417834e+02   2.9243832456e+01    0.3750935    0.1587452  45.24  0.001823239    2.118    0.528
        91 -10.2933     81.5127    202.4750   1.1170428497e+02   2.2041738813e+01    0.3768969    0.2572288  45.63  0.002140441    1.339    0.253
        92 -11.2549    153.7963    186.9306   9.3237100017e+01   1.3059971992e+01     0.516378    0.3563803  -2.01  0.002286504    2.290    0.563
        93 -10.8851     56.4285    186.0585   1.1539657495e+02   2.9079030923e+01    0.4761574    0.1936069  46.60   0.00215797    2.254    0.556
        94 -10.1189    119.1377    185.8905   1.0092438272e+02   1.9584872738e+01    0.2324845    0.1867242  73.53  0.001250805    1.322    0.243
        95 -10.9953    199.5057    183.3544   8.2861758147e+01   5.1493842879e+00    0.4613032    0.3018144 -39.67  0.002290449    1.578    0.366
        96 -11.9015    196.4759    178.1447   8.2429657241e+01   6.6356958487e+00    0.6277076    0.3894032  25.40  0.002912246    1.778    0.437
        97  -9.6450    244.8001    183.3864   7.4398884547e+01  -2.7099214487e+00    0.3349165    0.2186664  25.08  0.001856587    1.523    0.343
        98 -10.0054    247.3441    180.3180   7.3349758845e+01  -2.6600007231e+00    0.4349181    0.2574656  23.84  0.002250194    1.809    0.447
        99 -10.5840     78.5165    185.2336   1.1025632477e+02   2.6265008379e+01    0.2938141    0.2598611  14.20  0.001766189    1.488    0.328
       100 -10.6365     72.9504    182.8839   1.1124489795e+02   2.7594384214e+01    0.3565072    0.2387041  88.82  0.001887327    1.535    0.349
       101  -9.8971    237.9680    182.6737   7.5453339515e+01  -1.4903841682e+00     0.348888    0.2147275  41.28  0.001785223    1.718    0.418
       102  -7.9404     19.5023    182.5441   1.2317367327e+02   3.3942495430e+01    0.1206276    0.0932088  82.78 0.0008090193    1.004    0.004
       103  -9.8769    146.8760    180.2889   9.3575072359e+01   1.5710472015e+01    0.2820228    0.2188965 -38.73  0.000862961    1.406    0.289
       104 -10.3667    221.9203    177.3303   7.7297196052e+01   2.1079134213e+00    0.3829671    0.2149157  15.32  0.001583281    2.618    0.618
       105  -9.1711     25.9266    177.7628   1.2139720107e+02   3.4394012914e+01    0.3831986    0.1385196  46.90   0.00179325    2.522    0.604
       106  -8.5650     35.4900    176.5157   1.1914823353e+02   3.3696071595e+01    0.1257794    0.1024785  86.53 8.500212e-05    1.023    0.022
       107  -7.7959     12.4958    175.4771   1.2414528432e+02   3.6154802840e+01    0.1195079   0.09227688  86.93 0.0002307752    1.024    0.023
       108  -9.5895     32.5512    184.7029   1.2054571122e+02   3.2154282127e+01    0.1831056    0.1620331  43.40  0.001121163    1.361    0.265
       109 -10.7530    142.7788    172.8523   9.3121399497e+01   1.8053963986e+01    0.5357163    0.2822574  56.49  0.002076553    2.381    0.580
       110  -9.0240     48.1821    178.5924   1.1646674536e+02   3.1790633724e+01    0.1568512    0.1252736  21.06 0.0006253426    1.665    0.399
       111 -10.4637    213.0845    176.9104   7.8889855457e+01   3.7682936272e+00     0.342993    0.1924224  50.98  0.001536518    2.151    0.535
       112 -10.7402    180.4047    170.8480   8.4289385667e+01   1.1093733547e+01    0.3404894     0.261787 -62.78  0.001685346    1.657    0.396
       113  -8.3676     20.4815    189.5142   1.2348705877e+02   3.2313386552e+01    0.1190809   0.09262694  82.96 8.393342e-05    1.030    0.029
       114  -8.0033    115.3176    172.3205   9.9549179150e+01   2.3254934278e+01     0.141978    0.1160363 -13.37 0.0003434841    1.662    0.398
       115  -8.6881    169.3162    177.6688   8.8064654952e+01   1.1933226877e+01    0.1439452    0.1164462  81.08  0.000338878    1.684    0.406
       116  -9.9090    221.4390    168.2643   7.5508842184e+01   3.7076703992e+00    0.3368997    0.1270776 -39.92  0.001290969    2.575    0.612
       117 -10.8983    150.5573    168.3678   9.0439792565e+01   1.7497488139e+01    0.4463763    0.3284332  16.68  0.002092879    1.694    0.410
       118 -10.2377    195.1284    167.3067   8.0462593129e+01   8.8715965631e+00    0.2793663    0.2149064 -42.12  0.001229105    1.345    0.256
       119  -9.8203    160.1706    164.3556   8.7414261768e+01   1.6429125912e+01    0.2147462    0.1958263 -27.27  0.001153561    1.136    0.120
       120  -9.1497    202.1825    163.2218   7.8161816941e+01   8.2440537214e+00    0.1912575    0.1773591 -76.39  0.000868335    1.361    0.265
       121  -9.9051    224.6365    162.5148   7.3696584448e+01   4.0937368665e+00    0.3636621    0.1368816  46.45  0.001372371    2.878    0.652
       122 -11.0312    198.3484    158.7267   7.7959782594e+01   9.8327662891e+00    0.4552316    0.3004526 -32.27   0.00215635    1.518    0.341
       123  -8.5480    239.9671    159.4848   7.0319252125e+01   1.8281249924e+00    0.1959885    0.1312731  39.23 0.0005694478    1.582    0.368
       124  -9.7653    129.3181    158.7051   9.3579792505e+01   2.3755128806e+01    0.3946545    0.2178816  60.55  0.001483945    2.485    0.598
       125  -9.7757    219.3236    158.0946   7.3729626784e+01   5.8492801064e+00    0.2573614    0.1901869  25.92  0.001336138    1.403    0.287
       126 -10.4320    189.3904    155.7205   7.9145967375e+01   1.2215600889e+01    0.3251605    0.2650091 -20.32  0.001669992    1.265    0.210
       127 -10.7723    207.6605    153.4630   7.4942845360e+01   8.9477223689e+00    0.3322679    0.3066216  51.21  0.001875501    1.228    0.186
       128  -9.7344    145.1544    153.9843   8.8742863551e+01   2.1684769270e+01    0.3992271    0.1798088  51.09  0.001416185    2.487    0.598
       129 -10.1987    209.9275    149.0576   7.3516949613e+01   9.2994864458e+00    0.3144088     0.204644  38.83 0.0009837188    1.580    0.367
       130  -7.9666      1.4911    153.5268   1.2496395053e+02   4.2001051634e+01    0.1194587   0.09080934 -87.57 1.343834e-05    1.012    0.012
       131  -9.5224    185.4001    152.1542   7.9193947994e+01   1.3733906583e+01    0.2557578    0.1813358  48.04  0.001205686    1.457    0.314
       132 -10.9196    165.4930    148.5131   8.2762465179e+01   1.8650231536e+01    0.5265703     0.288203  35.92  0.002100973    1.963    0.490
       133  -8.5267    241.5003    149.5417   6.7920118361e+01   3.1770496836e+00    0.2420478    0.1147961 -44.29 0.0008362021    2.175    0.540
       134  -8.8406    246.5907    147.7605   6.6687180536e+01   2.5547535088e+00    0.1898143    0.1151477 -41.44   0.00075879    1.580    0.367
       135  -7.8232    240.6632    154.2768   6.9085865326e+01   2.5518566193e+00    0.1249065    0.1087334 -69.72 0.0005370221    1.611    0.379
       136  -9.4266    249.1633    144.4528   6.5551915328e+01   2.6319733147e+00    0.2506902     0.174607 -31.62 0.0009737091    1.255    0.203
       137 -10.7796    152.6996    151.9991   8.6513417194e+01   2.0576536279e+01    0.4498307    0.3131509 -48.30  0.002074754    1.465    0.318
       138  -9.8094    142.0145    141.5188   8.6754766998e+01   2.5101498056e+01    0.3194748    0.1970054  59.32  0.001284575    1.988    0.497
       139  -9.5631    231.6469    138.6264   6.7184004621e+01   6.8572297912e+00    0.2879502    0.2089853 -20.82 0.0009671546    1.364    0.267
       140  -8.3381    129.3136    138.6644   8.9310571563e+01   2.8347718197e+01     0.159798    0.1225289  85.31 0.0007046208    1.688    0.408
       141  -8.0486    135.6409    136.3209   8.7154943606e+01   2.7595717247e+01    0.1635552    0.1236966  82.41 0.0007043949    1.768    0.434
       142  -7.9331      2.6691    136.6610   1.2328284336e+02   4.5825620932e+01    0.1235645   0.07223919 -51.96 -0.0001146591    1.740    0.425
       143  -7.7497    241.7197    138.6544   6.5491285132e+01   4.9378011488e+00    0.1415351    0.1008566  -4.83 0.0004852063    1.637    0.389
       144  -7.9541    235.9954    130.4866   6.4600905272e+01   7.4055832121e+00    0.1972535    0.1148431  24.14 0.0004999887    2.532    0.605
       145  -8.8807    186.4935    129.0182   7.3532399862e+01   1.8090753387e+01     0.244134    0.1490551 -37.76  0.001034417    1.607    0.378
       146  -8.0224     65.3005    131.9831   1.0551951680e+02   4.0865305086e+01    0.1993228    0.1704749 -68.11 0.0008325415    1.049    0.047
       147  -8.8129    201.5867    128.2291   7.0280528486e+01   1.4930598998e+01    0.2129396    0.1769729  -1.73 0.0007135328    1.342    0.255
       148 -10.4868    201.2994    124.0790   6.9328155065e+01   1.5780303514e+01    0.3995414    0.3338933  33.70  0.002051263    1.261    0.207
       149  -9.0764    181.4321    122.0657   7.2878690044e+01   2.0612524620e+01    0.3325864    0.2252364 -10.92  0.001339124    2.133    0.531
       150  -8.4057    240.5808    119.2386   6.1285129321e+01   8.4104455997e+00    0.2053193    0.1241955 -26.24 0.0009531619    1.660    0.398
       151  -9.1748    213.9467    119.2476   6.5778933182e+01   1.3922298642e+01    0.2047067    0.1934087   4.02 0.0006837152    1.089    0.082
       152  -8.4866    227.2089    116.5886   6.2834299848e+01   1.1579894000e+01    0.1957916    0.1340459  36.84 0.0005389536    1.662    0.398
       153  -8.8517    209.9881    113.7517   6.5152156032e+01   1.5789722475e+01    0.1890883     0.129366  50.63 0.0005538565    1.555    0.357
       154  -8.7634    241.8674    111.5134   5.9305417853e+01   9.4484359060e+00    0.1899553    0.1413011  52.88 0.0008151788    1.525    0.344
       155  -8.1185    122.6251    109.2182   8.3840236917e+01   3.6478712163e+01    0.2284702    0.1438295 -37.95 0.0009501822    1.649    0.394
       156  -8.8517    108.8011    109.3685   8.7776052209e+01   3.9224716419e+01    0.2181711    0.1470374  29.89 0.0009504567    1.695    0.410
       157  -9.4293    213.2140    104.7474   6.2342176916e+01   1.6701768398e+01    0.3993665      0.20762  60.29  0.001598759    2.290    0.563
       158  -8.8248    246.9771    102.0762   5.6375417737e+01   9.9811657895e+00    0.2104641     0.188053 -35.01 0.0005282586    1.032    0.031
       159  -7.6457    219.2777     86.3373   5.6724694789e+01   1.8529670402e+01    0.1427194    0.1143243   4.08 0.0003826933    1.614    0.380
       160  -8.0064    193.1853     84.1806   6.0571273726e+01   2.5043456712e+01    0.2108659    0.1763138 -72.79 0.0005124208    1.307    0.235
       161  -8.1860    168.9504     76.5243   6.3126723211e+01   3.2356679654e+01    0.2244625    0.1238813  34.10 0.0008088396    2.479    0.597
       162  -8.1500    228.9677     74.4704   5.2349564700e+01   1.8274292628e+01    0.1954191    0.1400732  65.27  0.000495868    1.506    0.336
       163  -7.3755    245.6506     65.7338   4.8128079785e+01   1.5961062924e+01    0.1255894    0.1043587  24.13 0.0006985554    1.617    0.381
       164  -7.3675    205.7196     61.6795   5.2443498279e+01   2.5722534738e+01    0.1397895    0.1145009  17.66 0.0003331502    1.584    0.369
       165  -8.3230    114.4661     11.4763   5.3028430846e+01   5.4902222408e+01    0.1347518    0.1191182  42.14 0.0001971025    1.009    0.009
