#   1 NUMBER                 Running object number                                     
#   2 MAG_AUTO               Kron-like elliptical aperture magnitude                    [mag]
#   3 X_IMAGE                Object position along x                                    [pixel]
#   4 Y_IMAGE                Object position along y                                    [pixel]
#   5 X_WORLD                Barycenter position along world x axis                     [deg]
#   6 Y_WORLD                Barycenter position along world y axis                     [deg]
#   7 A_WORLD                Profile RMS along major axis (world units)                 [deg]
#   8 B_WORLD                Profile RMS along minor axis (world units)                 [deg]
#   9 THETA_WORLD            Position angle (CCW/world-x)                               [deg]
#  10 FWHM_WORLD             FWHM assuming a gaussian core                              [deg]
#  11 ELONGATION             A_IMAGE/B_IMAGE                                           
#  12 ELLIPTICITY            1 - B_IMAGE/A_IMAGE                                       
         1 -13.3923     36.8827     48.5973   8.3431920213e+01   6.3657375325e+01     0.977851    0.6936606 -42.47  0.005208274    1.375    0.273
         2 -10.7671     14.3694     23.0380   8.4688238804e+01   7.0388523555e+01    0.4840426    0.1813177 -29.95  0.002170096    2.794    0.642
         3 -10.8698     20.0971     17.3845   7.8948290630e+01   7.0665176121e+01    0.3427819    0.2911338  17.22  0.002477092    1.392    0.282
         4 -10.6236     22.5097     13.1679   7.5598519931e+01   7.0975862951e+01    0.2264531    0.1270213 -28.33  0.001350009    1.626    0.385
         5 -11.2313    193.3558     25.9041   3.5577671941e+01   3.4226160676e+01    0.2783944    0.1549733 -54.12  0.001074755    1.728    0.421
         6 -12.4333    129.0160     18.9914   4.2794750578e+01   4.9977196152e+01    0.2624871    0.2354792  -9.43 0.0005433726    1.297    0.229
         7 -10.9295     98.5820     22.7294   5.0693430024e+01   5.6517963615e+01    0.4924607    0.2939259  44.33  0.002426364    1.469    0.319
         8 -12.4067    128.5887     11.4958   4.0491753643e+01   5.0789065511e+01    0.3837434    0.2716016 -89.39  0.002182045    1.547    0.353
         9 -11.7337      8.3316      8.9315   8.1654883431e+01   7.3061501527e+01    0.4635024    0.2770856  18.54  0.002412118    1.525    0.344
        10 -10.8889     12.0718      2.2209   7.5878695170e+01   7.3572388094e+01    0.2521999    0.1582833  -3.83 0.0009831329    1.354    0.261
        11  -9.7752     15.0006     13.7711   8.0084571214e+01   7.1723302257e+01    0.2015222    0.1470825  -5.07 0.0008254549    1.054    0.051
        12 -10.3190     15.9280      6.6531   7.5971450230e+01   7.2587958041e+01     0.494322    0.2009192 -36.84  0.002623818    2.374    0.579
        13 -11.3533     21.8200      5.4102   7.2008149402e+01   7.2044735019e+01    0.5271441    0.3165148 -38.77  0.003247561    2.019    0.505
        14 -10.9677     26.6442      2.6123   6.7951622637e+01   7.1734647381e+01    0.2710857    0.1845839  38.75  0.001271007    1.624    0.384
        15 -12.1429      4.7596     17.9182   8.8030018006e+01   7.2017682835e+01    0.4167889    0.3583275  41.98  0.001968574    1.910    0.476
        16 -10.8783      9.6463     15.8799   8.4202398658e+01   7.1927649367e+01    0.2712323     0.156762 -11.51   0.00106764    1.592    0.372
        17 -11.9407    237.9065     17.8750   2.9870917382e+01   2.5762846429e+01    0.2894387    0.1815423 -75.83   0.00038103    1.377    0.274
        18 -10.8296     33.4555     16.3842   7.1518602839e+01   6.9155280679e+01    0.4471938    0.2159205  16.30  0.001790308    2.581    0.612
        19  99.0000     43.3377      8.4708   6.3061704584e+01   6.8622989210e+01    0.9714085    0.6565898 -58.81  0.004659388    3.950    0.747
        20 -11.5339     39.8282     11.1222   6.5934254131e+01   6.8877773334e+01    0.2704035    0.2204011  43.05 0.0006505955    1.553    0.356
        21 -11.7718     40.1068     15.6424   6.8001007103e+01   6.8299437693e+01    0.6028927    0.3542394  50.77  0.003177104    2.469    0.595
        22 -10.3648     70.7819     13.6751   5.5109762466e+01   6.3206313962e+01    0.2406478    0.1951654  13.93  0.000703794    1.144    0.126
        23 -10.9577     76.6195     11.2821   5.2261304307e+01   6.2282103634e+01    0.4813972    0.2024361  54.30  0.002250291    2.106    0.525
        24 -10.3562     72.3503      5.4079   5.1037100277e+01   6.3661525030e+01    0.2770163    0.2181246 -87.50 0.0008397335    1.978    0.494
        25 -10.2475     74.4187      2.4580   4.9154296236e+01   6.3488539037e+01    0.2294144    0.2044828 -71.70 0.0009829843    1.559    0.359
        26 -10.5657     61.9402     14.6909   5.8600753234e+01   6.4769916174e+01    0.2736863     0.205431  53.18  0.001646814    1.500    0.333
        27 -10.5010    117.8821     11.5623   4.2445380879e+01   5.3263236793e+01    0.4385444    0.2244774 -14.68  0.002109723    2.542    0.607
        28 -10.1784     99.2660     13.2222   4.6989283138e+01   5.7313022528e+01    0.3543492    0.2265266  36.71  0.001970913    1.486    0.327
        29  -9.6478     84.5396     12.6823   5.0552284358e+01   6.0525949704e+01    0.2088168    0.1231622 -14.38  0.001113669    1.957    0.489
        30 -11.3351    228.2371     12.3493   2.9494190788e+01   2.8308089613e+01     0.286077    0.1177749  71.98 0.0008970076    2.248    0.555
        31 -10.5681    157.0314     11.9877   3.6389353403e+01   4.4077030585e+01    0.2069397    0.1331887 -67.98  0.001128346    1.687    0.407
        32 -11.7801    164.1511      8.0437   3.4454262042e+01   4.2790265032e+01    0.3751027    0.2879822  -7.19  0.001008756    1.771    0.435
        33 -12.8056    214.2680      5.8970   2.9226267147e+01   3.1868746526e+01    0.7596785    0.4293291 -86.13  0.004486657    1.595    0.373
        34 -11.2828    146.2056      6.8939   3.6411209508e+01   4.7076636855e+01    0.3624493    0.2747582  40.54  0.001167469    1.461    0.315
        35 -11.2831    148.6870      2.0533   3.4715570831e+01   4.6909108918e+01    0.3881997    0.2748265 -68.59  0.002012331    1.481    0.325
        36  -9.2203     55.3946      9.5073   5.8655226049e+01   6.6482450483e+01    0.1224531   0.09660449  19.72 0.0001843598    1.037    0.036
        37 -10.5469    191.5240      7.5344   3.1483321184e+01   3.6615207151e+01    0.3584257    0.2327843 -37.98  0.001621631    1.613    0.380
        38 -10.6612    187.9340      6.4573   3.1567983852e+01   3.7520125128e+01    0.2712233    0.1768339 -80.73   0.00132754    1.393    0.282
        39 -11.1142     98.0021      4.2094   4.3918248353e+01   5.8357735412e+01    0.3324729    0.2209247  23.02  0.001926324    1.653    0.395
        40 -10.8580     90.8902      6.6567   4.6505814778e+01   5.9709358472e+01    0.4645942    0.1781458  48.74   0.00192937    2.064    0.515
        41  -9.6962    156.4618      6.4247   3.4947933844e+01   4.4724137539e+01    0.1246851     0.103977  73.87  0.000126465    1.051    0.048
        42 -10.1225     81.7182      6.0023   4.8607957469e+01   6.1704248710e+01    0.1648782    0.1639522 -59.58 0.0006725538    1.275    0.216
        43 -11.9465    178.9452      4.1575   3.1886310609e+01   3.9759882159e+01    0.2306291    0.1976377  84.45 0.0003083457    1.086    0.079
        44  -9.7947    118.6373      4.0207   3.9793285392e+01   5.3722963467e+01    0.2137921    0.1516404  77.69 0.0009665872    1.363    0.266
        45 -10.7465     67.8706      3.7296   5.1678860334e+01   6.4686005602e+01    0.2247354    0.1526053  43.09 0.0009158699    1.202    0.168
        46 -10.4940    243.1230      3.1042   2.6745295794e+01   2.6378536520e+01    0.1548679    0.1323643 -76.61  0.000669437    1.234    0.190
        47 -11.3492    195.0143      2.2033   2.9968309140e+01   3.6363066012e+01    0.3343977     0.170388 -86.22  0.001770148    1.901    0.474
        48 -10.5483    126.5727      2.5442   3.7993293005e+01   5.2009785381e+01    0.2408026    0.1700998  37.43 0.0005722202    1.500    0.333
        49 -10.4707    237.0142      2.2243   2.6951249743e+01   2.7648247382e+01    0.1460709   0.07701909  80.89 0.0008872002    1.706    0.414
        50 -10.5590    230.9016      1.6836   2.7231042250e+01   2.8905971337e+01    0.1577062    0.1295851  88.89 0.0004046558    1.220    0.180
        51  -9.8857     32.8304      1.5543   6.4307862236e+01   7.0963703179e+01    0.2026059    0.1287529  41.27  0.001276883    1.598    0.374
        52  -9.1566    158.6537      1.7257   3.3426513261e+01   4.4624472672e+01    0.1243774   0.07918721  50.00 0.0002563994    1.626    0.385
        53  -9.7514    108.0634      1.4606   4.0855521943e+01   5.6324965608e+01    0.1849458     0.103168  62.58 0.0003634377    1.487    0.327
        54  -9.7498     82.0817      1.4080   4.6624183503e+01   6.1993483684e+01    0.1877626    0.0979014  54.72  0.000567167    1.567    0.362
        55  -9.1801     74.3376    171.3053   9.9451215612e+01   2.9671109404e+01    0.1494794    0.1118052 -27.63 0.0005127414    1.674    0.403
        56 -10.0719    247.3508    250.2812   7.4040744447e+01  -1.1777238824e+01     0.119456   0.06836063  -2.87  0.000701426    1.650    0.394
        57 -11.5447     89.0165    249.5076   1.0591731019e+02   9.7315768972e+00    0.3047609    0.2335671  40.33 0.0007927003    1.128    0.114
        58 -10.2394     72.5128    250.1247   1.0945219579e+02   1.1819809330e+01    0.2125244    0.1684222  12.98  0.001138996    1.606    0.377
        59 -13.0995     19.3258    237.5317   1.1935116360e+02   2.0622634469e+01     1.664109    0.4427385  57.26  0.006235642    3.960    0.747
        60 -11.7646      4.7710    236.0504   1.2210414992e+02   2.2345171720e+01    0.4406674     0.364471  49.62  0.002965758    1.262    0.207
        61 -13.4123      5.7230    245.1236   1.2236445396e+02   2.0402839566e+01    0.9801845     0.608263  34.47  0.005241306    1.651    0.394
        62 -12.5898     22.0977    249.0536   1.1948351060e+02   1.7982470641e+01    0.7449128    0.2210584  35.84  0.003480037    2.714    0.632
        63 -11.0809     17.4839    247.4810   1.2027450514e+02   1.8773295414e+01    0.2348568    0.1714363 -86.32 0.0005115218    1.288    0.224
        64  -9.5931     99.1665    164.8400   9.1449508305e+01   2.7475084029e+01    0.2033912    0.1772515 -23.89 0.0003623266    1.273    0.215
        65  -9.8230      4.6095    168.8143   1.1786461395e+02   3.7783565585e+01    0.1802909    0.1014812 -89.77  0.000416028    1.577    0.366
        66 -10.2381     10.3455    162.9049   1.1587304714e+02   3.8826577893e+01    0.2731872    0.1478449  44.74 0.0009314099    1.915    0.478
        67 -11.9602     18.9794    158.0730   1.1306577043e+02   3.9360277204e+01    0.3530175    0.2182713 -68.56 0.0003550537    1.369    0.270
        68 -12.1877     23.2943    156.9966   1.1175093627e+02   3.9266959457e+01    0.5383018    0.4441957  77.47  0.002743048    1.171    0.146
        69  -9.4954    216.3914    155.2177   6.1911582795e+01   7.9651757552e+00    0.1894747    0.1201689 -47.20  0.000332319    1.522    0.343
        70 -10.3456     11.1573    153.5230   1.1474554828e+02   4.1129584345e+01    0.2616131    0.1933939   5.17  0.001518099    1.749    0.428
        71  -9.9369    177.1879    150.7448   6.8757731958e+01   1.6118145216e+01    0.2372711     0.199991  70.38  0.001191301    1.491    0.329
        72 -10.3328    207.0379    146.6655   6.1803651875e+01   1.1269074480e+01    0.1923502    0.1836306   4.66 0.0005722105    1.118    0.106
        73 -10.5326     18.1396    146.8064   1.1203656119e+02   4.2306182770e+01    0.3133559    0.2000961 -20.55 0.0008670763    2.119    0.528
        74  -9.4457     41.1574    146.1790   1.0513400898e+02   4.0344102581e+01    0.1852822     0.152435  69.21  0.000274724    1.286    0.222
        75  -9.8123    220.4632    143.9744   5.8800332831e+01   9.3591138974e+00    0.2159005    0.1222335 -40.71 0.0006452798    1.540    0.351
        76  -9.9390     10.4558    144.4827   1.1399365663e+02   4.3472377643e+01    0.2087146    0.1249403  -7.56  0.001031885    2.374    0.579
        77 -10.5807     54.9167    138.8702   9.9700584982e+01   4.0677292040e+01    0.3206486    0.3137916 -62.88  0.001392767    1.073    0.068
        78  -9.6610     14.0197    140.0231   1.1244428074e+02   4.4352873953e+01     0.154042    0.1390805 -74.45 0.0003168463    1.080    0.074
        79  -9.5209    230.3461    139.6832   5.6228388399e+01   8.4219238237e+00    0.1349274    0.1024518 -68.44 0.0007048366    1.723    0.419
        80  -9.4679     82.0017    139.5103   9.1424380300e+01   3.6718388222e+01    0.2116747    0.1217602  56.68 0.0008063649    2.317    0.568
        81  -9.5774     17.3233    137.3273   1.1112210962e+02   4.4796499066e+01    0.1426515   0.08504548 -44.28 0.0007048914    1.692    0.409
        82 -10.4737      9.3279    136.4046   1.1341904848e+02   4.5599763111e+01    0.2998612     0.131252 -72.75  0.001351521    1.896    0.473
        83  -9.7551      2.6222    135.7855   1.1534220548e+02   4.6176529068e+01    0.1929516    0.1047077 -85.29 0.0009414493    1.696    0.410
        84  -9.6832     20.9695    135.2924   1.0974067409e+02   4.5034868927e+01    0.1877267    0.1584823 -68.72 0.0008658689    1.008    0.008
        85  -9.9395    249.2773    134.0527   5.2165273882e+01   6.2565170031e+00    0.1891241     0.143278 -38.87 0.0006548672    1.074    0.069
        86 -11.2666     54.4989    132.6181   9.8688243314e+01   4.2352206507e+01    0.3501155    0.2703379  48.08  0.001062858    1.427    0.299
        87  -9.5504    128.0122    132.0147   7.6335564055e+01   3.0241685447e+01    0.1912413    0.1796882 -42.02 0.0003554793    1.037    0.036
        88 -11.4534     36.4810    130.2746   1.0408390767e+02   4.4950488093e+01    0.5385479    0.2673888 -44.58  0.002338634    1.992    0.498
        89 -11.2901     73.8528    129.3027   9.1805558926e+01   4.0576670843e+01    0.3452986    0.3005466 -57.65  0.001022312    1.090    0.082
        90  -9.2052      9.3012    129.3167   1.1258088030e+02   4.7397131329e+01     0.138128   0.08107832 -46.60 0.0002692058    1.618    0.382
        91 -10.7822     48.4540    126.1333   9.9433347223e+01   4.4743587717e+01    0.2383211    0.2312403  77.57 0.0003849906    1.119    0.106
        92 -10.9497     24.2058    125.9989   1.0738275802e+02   4.7155507716e+01    0.2468455    0.1977507  27.56 0.0004802723    1.434    0.303
        93 -11.3318     21.4180    121.3464   1.0758415108e+02   4.8562982617e+01     0.883514    0.2283902 -42.53  0.002572927    4.721    0.788
        94 -11.0737     10.8382    122.8426   1.1126146544e+02   4.8933782742e+01    0.2905988    0.2408659  84.09  0.001139017    1.244    0.196
        95  -9.8153    220.1616    124.2192   5.4570812552e+01   1.3073897448e+01    0.1921753    0.1520783 -59.37 0.0005181272    1.321    0.243
        96 -10.5503      2.6989    122.9345   1.1387107554e+02   4.9395972428e+01    0.3381239    0.1206711 -56.97 0.0003280235    2.127    0.530
        97  -9.8743      1.4227    119.0117   1.1380247820e+02   5.0442626660e+01     0.201224     0.139946 -89.76 0.0005757121    1.400    0.286
        98 -10.5192     72.8671    117.8413   8.9547820211e+01   4.3615616383e+01    0.4417053    0.2595815 -74.65  0.001703917    2.440    0.590
        99 -11.2907     15.2243    116.9640   1.0898324996e+02   5.0122935728e+01    0.4446231    0.2334622 -50.56  0.001626322    1.626    0.385
       100 -10.9722     13.3011    126.0179   1.1089792143e+02   4.7967677310e+01    0.2791159    0.2190276  15.38 0.0003171533    1.524    0.344
       101  -9.4883    179.2995    116.3188   6.0225745340e+01   2.2834945567e+01    0.1497211    0.1191814  -2.96 0.0007021803    1.619    0.382
       102  -9.9395     85.9874    116.3352   8.4893409370e+01   4.1893805282e+01    0.2084666    0.1996092   9.70 0.0004467435    1.074    0.069
       103  -9.8825    214.0243    115.5120   5.3647567410e+01   1.5848121857e+01    0.1900913    0.1415688  51.34 0.0004257208    1.512    0.339
       104 -10.9710    249.3687    112.3227   4.7737962019e+01   9.9214143816e+00    0.2407714    0.1861954 -52.29 0.0005614921    1.153    0.133
       105 -11.7889     37.2535    110.4084   1.0020238757e+02   4.9933579262e+01    0.4588309    0.3201646  65.29  0.002270407    1.903    0.474
       106 -11.5754     15.8663    109.3632   1.0757279852e+02   5.1979829462e+01    0.3136338    0.2792786  56.51  0.001196927    1.317    0.241
       107 -10.7426      1.9233    108.0729   1.1221419893e+02   5.3121896792e+01     0.495692    0.1547488 -69.51  0.001993652    2.511    0.602
       108  -9.7284     70.4641    108.9509   8.8213059398e+01   4.6164990003e+01    0.2243307    0.1393489 -52.82 0.0003964896    1.509    0.337
       109 -11.3550     23.9529    107.0130   1.0429879856e+02   5.1966575405e+01    0.2852532    0.2317096  69.75  0.001645875    1.474    0.322
       110  -9.5632      5.7069    106.6239   1.1069919516e+02   5.3280244551e+01    0.1446085   0.07265498 -45.86 0.0007022817    1.738    0.425
       111 -10.2368     94.9714    112.5054   8.1059568091e+01   4.1246307407e+01    0.2877963    0.2211531 -66.52 0.0008921319    1.488    0.328
       112 -11.2219    120.8384    100.5259   7.0078395685e+01   3.8864115145e+01    0.6971098    0.3662733 -24.63  0.002252639    3.288    0.696
       113 -12.0261     55.0675    109.4213   9.3679761602e+01   4.8173344906e+01    0.5166065     0.260711 -48.06  0.001244067    1.778    0.437
       114 -10.9745     14.6625    103.1033   1.0695311260e+02   5.3606821805e+01    0.2437726    0.1822049 -18.92 0.0001623194    1.461    0.315
       115 -11.0555     11.5367    110.2019   1.0921327761e+02   5.2054971350e+01    0.4078543     0.219163 -51.33  0.001048832    1.545    0.353
       116 -11.5397    143.5051     98.5170   6.3592715788e+01   3.4336178826e+01    0.6717113    0.4082762  51.71  0.002869527    1.699    0.411
       117 -11.0181     62.3230     98.8933   8.8518276727e+01   4.9757463461e+01    0.3638573    0.2908247  -5.62 0.0009290181    1.361    0.265
       118 -10.5116     66.5530     98.4630   8.6889103856e+01   4.9251838076e+01     0.252083    0.2159081 -23.66 0.0006323286    1.138    0.121
       119 -12.5119    158.2115     89.5029   5.7754429724e+01   3.2765084832e+01    0.5484115    0.3431772 -39.44  0.002454503    1.586    0.369
       120 -11.6513    163.8743     88.8787   5.6389922679e+01   3.1585845762e+01    0.3064415    0.2857211  35.82 0.0007586183    1.154    0.133
       121 -12.6829    163.5705     83.4731   5.5003349645e+01   3.2643477652e+01     1.642772    0.5717734  54.97  0.005554448    2.968    0.663
       122 -11.0667     10.8375     90.9452   1.0620416308e+02   5.6785734665e+01    0.3027582    0.1846301   3.03  0.000809328    1.917    0.478
       123 -10.2576      5.2514     97.7593   1.0949274119e+02   5.5464681036e+01    0.3223618    0.1411663 -16.04  0.001367929    3.119    0.679
       124  -9.8689      1.3369     95.8210   1.1062301663e+02   5.6125614324e+01    0.2325397    0.1060626 -72.72 0.0006147473    1.942    0.485
       125 -11.5703     37.6945     94.9009   9.6689035188e+01   5.3685076740e+01    0.3406457    0.2415823  43.20 0.0009881681    1.690    0.408
       126  -9.2900    250.3120     95.7000   4.4236649776e+01   1.2487670023e+01    0.1288775   0.08463188 -63.63 0.0004879717    1.605    0.377
       127  -9.6783    113.1713     93.8542   7.0360803913e+01   4.1891438627e+01    0.2170677    0.1771806 -17.35  0.001052796    1.358    0.264
       128 -11.3385     25.6276     91.3157   1.0053468692e+02   5.5648175529e+01    0.5251912    0.3167213 -21.78  0.002270579    1.854    0.461
       129 -11.3279     21.9923     87.0823   1.0103864699e+02   5.6937156694e+01     0.347169    0.2780984 -49.73  0.001770492    1.056    0.053
       130  -9.5949    109.0000     92.9835   7.1334253673e+01   4.2935204424e+01    0.2601387   0.08615311 -44.59 0.0008102121    2.997    0.666
       131  -9.5279     31.4457     93.0177   9.8655354917e+01   5.4737139439e+01    0.2015377    0.1186135 -57.94 0.0003865752    1.487    0.328
       132 -10.0988     50.8354     99.1635   9.2776770890e+01   5.1197785912e+01    0.1993652    0.1888919 -72.51 0.0004114129    1.177    0.150
       133  -9.5134     46.5398     92.5620   9.2745796254e+01   5.3276233029e+01    0.1394607    0.1263618 -38.76 7.610228e-05    1.045    0.043
       134 -10.4596    152.2377     90.9427   5.9464907077e+01   3.3857056450e+01     0.410985    0.2181883  56.41  0.001642525    2.022    0.505
       135 -10.6907     96.3584     89.8819   7.4316241329e+01   4.6102146668e+01    0.4080888    0.2169148  31.63  0.001615854    2.106    0.525
       136 -10.0230     83.1155     88.8259   7.8375273948e+01   4.8764072250e+01    0.2090622    0.2014564 -41.53 0.0005818447    1.111    0.100
       137 -10.6861     78.4802     87.9416   7.9713452875e+01   4.9754368232e+01    0.3532411     0.258854 -58.06  0.001588903    1.531    0.347
       138 -10.7967     57.5481     90.0526   8.7917350934e+01   5.2472760540e+01    0.4264487    0.2460653  20.70  0.001571599    1.956    0.489
       139 -10.2018     65.1728     87.6545   8.4407853954e+01   5.1932513601e+01    0.2606375    0.2376577  -7.79  0.000799524    1.058    0.055
       140 -10.6686     66.6936     83.8108   8.2724565461e+01   5.2551555735e+01    0.3519026    0.2459236  26.27   0.00175726    1.480    0.324
       141 -11.4965      5.2889     84.2437   1.0712242810e+02   5.8672291593e+01    0.6567041    0.1703125 -44.55   0.00253657    2.969    0.663
       142  -9.6661    120.8353     87.1222   6.6216782838e+01   4.1642282893e+01    0.2076487    0.1801256   2.42 0.0009503333    1.279    0.218
       143 -11.0082     45.0809     85.5019   9.1474506209e+01   5.5079448519e+01    0.5791831    0.3544015  79.30  0.002010121    4.442    0.775
       144 -11.5020     30.9169     81.8789   9.6209085057e+01   5.7384413031e+01     0.401606    0.3179829  -8.62  0.001503908    1.287    0.223
       145  -9.5487    116.6823     83.7076   6.6353130787e+01   4.3214751988e+01    0.1526874     0.118249   7.78 0.0002490153    1.602    0.376
       146 -10.6451     74.2258     82.1109   7.9467244721e+01   5.1720665260e+01    0.3218161    0.1854485 -35.40   0.00133905    1.769    0.435
       147 -11.8787     21.7224     81.2903   9.9832933682e+01   5.8301589191e+01    0.6048324    0.3550712 -60.61  0.001655136    1.536    0.349
       148 -12.2655     32.1063     63.4883   9.0583359362e+01   6.1275081250e+01    0.9200787    0.7496374  79.08  0.004278541    1.966    0.491
       149 -12.3132    226.5479    245.2263   7.6931403936e+01  -8.7062141663e+00     0.694859    0.3504533  -3.56  0.003220023    2.781    0.640
       150 -12.0076     26.9559     49.9086   8.8543831836e+01   6.4488865562e+01    0.4946611    0.3683145 -55.37  0.002090004    1.547    0.353
       151 -12.0839     13.9587     76.2739   1.0190601763e+02   5.9999264479e+01    0.6078147    0.3534916 -17.76  0.002673164    1.858    0.462
       152 -12.3092      8.7620     73.7032   1.0353284009e+02   6.0897999410e+01    0.8492105     0.425971  -7.03  0.004161428    2.374    0.579
       153 -14.1211     16.7315     67.4745   9.8556897996e+01   6.1759634018e+01     0.634844    0.4643792 -21.24  0.002113048    1.272    0.214
       154 -11.2745     15.2249     59.6792   9.7133168800e+01   6.3528438652e+01    0.2971985    0.2039632 -10.19 0.0002696354    1.435    0.303
       155 -10.0502     71.0697     79.1031   7.9685362217e+01   5.2871245749e+01    0.2120906    0.2001104 -23.37 0.0005853649    1.086    0.079
       156 -10.4705     56.1508     66.8938   8.1498471934e+01   5.7643275254e+01    0.2758871    0.2381884  23.46  0.001284146    1.204    0.170
       157 -10.3736     60.7607     78.3525   8.3317449329e+01   5.4612289298e+01    0.3376638    0.2338443  -5.88   0.00150842    1.703    0.413
       158 -11.1627     61.8756     72.3827   8.1025590047e+01   5.5696066541e+01    0.5374222    0.3331057 -18.20 0.0007435646    1.995    0.499
       159 -12.1199     50.4211     68.8244   8.4445954463e+01   5.8039402949e+01    0.6584947    0.4252594 -66.50  0.001178249    2.282    0.562
       160 -11.2644     51.4533     62.8475   8.2066151976e+01   5.9100252670e+01    0.3253465    0.2224478 -31.20  0.001161489    1.359    0.264
       161  -9.1688    228.7260     78.6781   4.3331410911e+01   1.9262271662e+01    0.1188948    0.1022311  -8.33 0.0003716581    1.575    0.365
       162 -12.7970     44.7084     75.2659   8.8755738540e+01   5.7397604087e+01    0.2773552    0.2585675   1.55 0.0004929365    1.149    0.130
       163  -9.2033    121.6599     76.2824   6.2729712333e+01   4.3541948401e+01    0.1481287    0.1192526  89.78 0.0007011954    1.629    0.386
       164 -10.6784     76.8838     64.0820   7.2661617224e+01   5.4852869689e+01    0.4755748    0.2641734 -34.89  0.002154325    1.823    0.451
       165 -11.0081     76.0375     74.8428   7.6539963231e+01   5.2920998562e+01    0.3959921     0.282691  11.80  0.001938334    1.591    0.371
       166 -10.4104     74.5609     71.2214   7.5896248931e+01   5.3894747792e+01    0.3107099     0.221026 -29.84  0.001194487    1.393    0.282
       167 -11.1312     78.3534     70.0676   7.4156060296e+01   5.3460826097e+01    0.2986263    0.2315097  31.72 0.0005500824    1.271    0.213
       168  -9.9936    145.6311     74.2443   5.6251460706e+01   3.8441653083e+01    0.2577015    0.1917593 -27.35 0.0008848634    1.489    0.328
       169 -10.8388     90.8116     74.6298   7.1392588706e+01   5.0277571351e+01    0.2553623    0.1905663 -28.34 0.0005277701    1.368    0.269
       170 -10.7315    207.5948     73.3743   4.4957200395e+01   2.4471505317e+01    0.2206098    0.2089324 -62.08 0.0003028303    1.118    0.106
       171 -10.2174    101.6327     72.7717   6.7360344696e+01   4.8481014047e+01    0.4002476    0.2482323  74.24   0.00139661    3.576    0.720
       172 -11.2214     14.2786     96.3411   1.0589365604e+02   5.5278120893e+01    0.5275648    0.1880052 -62.93  0.002210334    2.221    0.550
       173  -9.7081    137.1582     71.1805   5.7293920129e+01   4.0938041662e+01     0.197276    0.1693328 -72.59 0.0003073543    1.308    0.236
       174 -10.2656    129.0664     71.2894   5.9287502813e+01   4.2775511472e+01    0.2268407    0.1940783  23.85 0.0005745956    1.262    0.208
       175  -9.9361    167.8638     69.8124   5.0489829532e+01   3.3997887274e+01    0.1972525    0.1869424  47.21 0.0002979135    1.138    0.121
       176 -10.0000    123.1163     69.0826   6.0122586806e+01   4.4506959277e+01    0.2245216    0.1967328   5.66 0.0003335151    1.254    0.202
       177 -11.3557      6.1599     42.6517   9.6492698661e+01   6.7556158561e+01    0.7221997     0.124546 -47.06  0.001442119    3.362    0.703
       178 -11.4098     10.2863     63.3111   1.0038100394e+02   6.3089919258e+01    0.4481443    0.3409631  13.35   0.00178056    1.458    0.314
       179 -11.7002     12.7951     51.6593   9.5951247985e+01   6.5343721121e+01    0.5875234     0.239613 -50.17  0.001929536    1.946    0.486
       180 -11.7441      7.3559     51.6436   9.8604985932e+01   6.5704211082e+01    0.4319327    0.2297198 -17.42  0.001932361    1.911    0.477
       181 -10.6540     11.1112     44.5491   9.4559571591e+01   6.6860174989e+01    0.3488186    0.1896451 -51.05  0.001530101    1.613    0.380
       182 -11.6915      5.2563     58.9812   1.0159520623e+02   6.4304826370e+01    0.3249436    0.2453124 -49.73  0.001268707    1.133    0.118
       183 -12.1851      6.1806     67.9166   1.0334365761e+02   6.2327741419e+01    0.2483258    0.1783029 -49.58 0.0003444202    1.116    0.104
       184 -12.6314      3.0302     62.7682   1.0355290314e+02   6.3612246577e+01    0.4621327    0.2866213 -81.24  0.001748344    2.120    0.528
       185  -9.8171     42.7793     68.3873   8.7482914131e+01   5.9086294050e+01     0.181481     0.162976 -30.70  0.001112934    1.111    0.100
       186  -9.5500     99.3213     65.3338   6.5634006165e+01   5.0308934560e+01    0.2359394    0.1411121  42.27  0.001016545    1.614    0.381
       187 -10.0136     93.4979     66.8918   6.7980334547e+01   5.1207836610e+01    0.2766111    0.2081442  10.41 0.0007576737    1.526    0.345
       188 -10.1932     96.2834     64.6468   6.6345973491e+01   5.1051003028e+01    0.2339158    0.1790115 -46.51 0.0007417506    1.428    0.300
       189  -9.4251    127.5172     66.5059   5.8205408778e+01   4.3951425929e+01    0.1450027    0.1395918  41.56 0.0008104104    1.005    0.005
       190 -10.7033    122.7142     64.0648   5.8653648982e+01   4.5452045457e+01    0.2516025    0.2254055  68.36 0.0003451202    1.180    0.152
       191 -10.8425    120.2196     60.8520   5.8272765765e+01   4.6544308784e+01    0.3236564    0.2114372  55.54  0.001485719    1.521    0.343
       192  -9.9587    153.2230     63.6182   5.1594150070e+01   3.8435559155e+01    0.2004271    0.1268467  48.17 0.0003646122    1.582    0.368
       193 -10.6609     85.7838     61.5985   6.8715688105e+01   5.3659050624e+01    0.1968485    0.1318157  50.58  0.000690809    1.645    0.392
       194  -9.4271     98.1999     60.3844   6.4312249661e+01   5.1396117981e+01    0.1848739    0.1327175  53.97  0.000114461    1.490    0.329
       195 -11.5365     59.3707     59.1110   7.7559687437e+01   5.8669335471e+01    0.3900909    0.2465658 -35.38  0.001455894    1.507    0.336
       196 -11.0446     62.4774     51.1072   7.3429865421e+01   5.9610690797e+01    0.4576468    0.2046814 -31.81  0.001158846    2.443    0.591
       197 -10.1655    147.3153     57.0992   5.0903861487e+01   4.0844027244e+01    0.2982851    0.2018885 -68.98  0.001382392    1.908    0.476
       198 -11.5220     75.2431     56.1125   7.0452458441e+01   5.6569822799e+01    0.2378207    0.2103872 -22.05 0.0002991109    1.124    0.110
       199  -9.7615     68.4408     56.4626   7.3089804088e+01   5.7692413044e+01    0.1383152     0.122098  -0.68 4.347212e-05    1.005    0.005
       200 -12.5923    105.1503     52.6890   5.9636231319e+01   5.1170405674e+01    0.3379827    0.2930145  45.47 0.0003929902    1.104    0.095
       201 -10.1049     82.1214     54.6759   6.7519900627e+01   5.5544787533e+01     0.190806    0.1589761  24.22 0.0002944978    1.119    0.106
       202 -11.8862    128.9543     49.4619   5.2521699352e+01   4.6285140041e+01    0.5106292    0.4326917  12.91  0.002183439    1.351    0.260
       203 -10.0891     55.4742     53.8158   7.7245371778e+01   6.0224691511e+01    0.3080975     0.189043  -1.95  0.001426388    2.134    0.531
       204 -10.2234    120.3733     52.4367   5.5515915138e+01   4.7824331192e+01    0.3563147     0.207836  29.00  0.001196874    2.276    0.561
       205 -10.8098     87.8399     51.2716   6.4387778963e+01   5.4988642479e+01    0.3025432    0.2265621  32.42 0.0007780332    1.259    0.205
       206 -10.8130     76.9742     51.2335   6.8059817113e+01   5.7075301111e+01    0.6704245    0.1837343  38.95  0.002150821    3.757    0.734
       207 -10.3126     78.7472     47.1170   6.5911708971e+01   5.7401557345e+01    0.2105224    0.1765883 -36.66 0.0004642529    1.308    0.235
       208  -9.4540    168.7657     51.6329   4.5435650114e+01   3.6578598213e+01    0.1918653    0.1239839  76.31 0.0005798838    1.638    0.389
       209 -10.7322     26.8148     55.9294   9.0609237045e+01   6.3328114358e+01    0.2584264    0.1723153 -32.40  0.000431084    1.280    0.219
       210  -9.6178    237.4534     50.5112   3.6413085570e+01   2.1720037792e+01    0.1240337   0.09993223 -63.22 8.458727e-05    1.005    0.005
       211 -11.3280    199.7604     49.6420   4.0433006266e+01   2.9747177024e+01    0.2870694    0.2092575  71.45 0.0003997555    1.338    0.252
       212 -10.6776     53.2747     49.8872   7.6709267536e+01   6.1246520004e+01    0.2877174     0.185491  18.84  0.001509344    1.571    0.364
       213  -9.7308    205.8445     48.8166   3.9484333430e+01   2.8521766821e+01    0.1771962    0.1306087 -71.59 0.0002245724    1.281    0.219
       214  -9.5917    120.0888     47.3774   5.3931164751e+01   4.8627931665e+01    0.1843123    0.1278911  66.08 0.0005084783    1.544    0.352
       215 -10.3132    142.8846     45.3605   4.8311156312e+01   4.3584937968e+01    0.2984029    0.2233476 -71.83 0.0005798341    1.574    0.365
       216 -10.7513    139.0376     42.9259   4.8337457057e+01   4.4823585951e+01    0.3304631    0.2309284 -22.60 0.0007792175    1.674    0.403
       217  -9.8416    112.1598     46.2454   5.5540464487e+01   5.0582276756e+01    0.2352181    0.1594895  37.42  0.001141972    1.462    0.316
       218 -10.2010    101.2169     36.4187   5.5008858406e+01   5.4328854606e+01    0.1806325    0.1775764   2.54  0.001141689    1.133    0.117
       219 -10.8828     92.0353     43.9851   6.0415716587e+01   5.5243127038e+01    0.4126562    0.2836163 -53.45  0.001829867    1.953    0.488
       220 -10.8252     95.7919     42.9001   5.8891247318e+01   5.4615257770e+01     0.285649    0.2099647  11.87 0.0007329246    1.549    0.355
       221 -10.3454     98.2253     39.5447   5.6970565013e+01   5.4562078113e+01    0.3478051    0.1976655  50.20  0.001325593    1.615    0.381
       222 -10.3298     83.1379     44.9366   6.3606895146e+01   5.6891062711e+01    0.2178823    0.1806734  38.92 0.0003620268    1.157    0.136
       223 -10.2998     51.0021     44.7694   7.5722051326e+01   6.2455989831e+01    0.1815159     0.152933  -3.41 0.0005345535    1.002    0.002
       224 -11.5232     53.1371     40.7104   7.3221359521e+01   6.2799036445e+01    0.3811489    0.2638907  26.76 0.0009066531    1.349    0.259
       225 -12.8783     57.6116     34.5738   6.8878809500e+01   6.3022842482e+01    0.3287367    0.2795583  -8.70 0.0004261321    1.109    0.099
       226 -11.2927     80.8458     35.1471   6.0625205703e+01   5.8728472731e+01    0.5196487    0.2097282 -35.99  0.002200156    2.627    0.619
       227  -9.5803     62.4905     40.6427   6.9399485752e+01   6.1305857640e+01    0.4166579    0.1852721  33.74  0.001825014    2.225    0.550
       228 -12.0784     74.5291     36.3121   6.3221357306e+01   5.9786956376e+01    0.5918065    0.3741101  -6.72  0.002940948    1.954    0.488
       229 -11.3128     69.7635     36.8772   6.5147703710e+01   6.0588811375e+01    0.6500573    0.2570592 -29.12  0.002623286    2.885    0.653
       230 -11.3912     67.5253     41.9454   6.7982426342e+01   6.0241466341e+01    0.3226822    0.2765194  32.77  0.001151251    1.187    0.158
       231 -10.4389    124.5626     42.1073   5.1160388174e+01   4.8324316560e+01    0.3128231    0.2349011 -73.64  0.001613369    1.723    0.420
       232  -9.9961    107.0899     42.8591   5.5708263200e+01   5.2182881593e+01    0.1998165    0.1799231  70.60 0.0003327855    1.228    0.185
       233 -11.0294      7.8778     33.3849   9.2419119073e+01   6.9166807659e+01    0.4190094       0.3901 -14.30  0.003133501    1.353    0.261
       234 -10.4590      1.4928     25.9161   9.3227849133e+01   7.0915669137e+01    0.2147856    0.1011118 -39.33 0.0006500146    1.644    0.392
       235 -10.9926     23.7691     41.3323   8.7042639183e+01   6.6393125641e+01    0.4765053    0.3365138  57.44  0.002501361    2.826    0.646
       236 -10.1107     18.5219     42.3104   9.0033704181e+01   6.6698491418e+01     0.341448    0.1495693 -39.51   0.00125103    1.907    0.476
       237 -11.2574      7.7777     25.0182   8.9252814494e+01   7.0625995815e+01    0.4232826    0.1548738  19.09   0.00205481    2.743    0.635
       238 -11.1155    237.9853    246.4824   7.5066620388e+01  -1.0226950849e+01    0.1999687    0.1570327  24.73 0.0009716342    1.471    0.320
       239 -11.5393     17.7964     31.3026   8.6261023038e+01   6.8714974088e+01     1.301812    0.3829439  30.23  0.005562478    3.396    0.706
       240 -11.6376     22.4027     25.6986   8.1468815110e+01   6.9167301614e+01    0.3322839    0.2086324 -21.82 0.0007665343    1.393    0.282
       241 -10.7552     24.6575     20.8720   7.8118191483e+01   6.9646130372e+01     0.247556    0.1828369 -24.76  0.001447327    1.231    0.188
       242 -12.1294    232.5978    244.9790   7.5787085901e+01  -9.3937335738e+00    0.5097115    0.1921561 -32.22  0.002440504    2.512    0.602
       243 -12.0745     37.0388    243.9609   1.1623281936e+02   1.7391504327e+01    0.6850616    0.3130089 -87.56  0.003160413    2.399    0.583
       244 -12.6232     27.7206     38.0629   8.3834642199e+01   6.6563920873e+01    0.3413348    0.2480622   9.98 0.0003836083    1.277    0.217
       245 -11.7553     24.3138     34.9988   8.4340792647e+01   6.7448236715e+01    0.2961596    0.2222373   1.53  0.000848149    1.177    0.150
       246 -10.0680    131.0185     42.0067   4.9708940715e+01   4.6833325429e+01    0.2043445    0.1928843  61.27 0.0003246097    1.027    0.026
       247  -9.6011    162.7206     40.3046   4.3337247270e+01   3.9550163462e+01    0.1767408    0.1118944 -33.95 0.0001681127    1.688    0.407
       248  -9.2430    160.3096     38.2735   4.3162915570e+01   4.0381568049e+01    0.1401526    0.1219229 -87.14 0.0001855444    1.094    0.086
       249 -10.8110    152.6151     39.0482   4.4663513899e+01   4.2108522214e+01    0.2413649    0.2174593  73.03 0.0005109663    1.015    0.015
       250 -10.8557     71.3920     41.2152   6.6267261756e+01   5.9661628042e+01    0.3739597    0.2004002 -46.25  0.001370426    2.350    0.574
       251 -11.7084     44.0395     38.4001   7.6247137555e+01   6.4495281792e+01    0.4786165    0.2982451  44.76  0.002532643    2.055    0.513
       252 -11.1291    225.1077     38.2208   3.5059559351e+01   2.5852261310e+01    0.2594238    0.1839814  89.72 0.0004597448    1.325    0.245
       253 -10.0329    116.1181     39.3552   5.2220297181e+01   5.0627566573e+01    0.1937739    0.1611303  57.00 0.0004798837    1.132    0.117
       254  -9.4835     85.9345     38.9192   6.0432930513e+01   5.7202363128e+01    0.1596933     0.133757  32.24 0.0002846985    1.069    0.065
       255 -10.0404      1.5814     37.8300   9.7362381814e+01   6.8748271252e+01    0.1897638    0.1059441 -38.29 0.0007028909    1.375    0.273
       256  -9.5741    134.5916     35.7432   4.7008839668e+01   4.6795359197e+01    0.1846887    0.1230949 -44.47 0.0009480561    1.636    0.389
       257  -9.8266    201.9169     34.2698   3.6584112358e+01   3.1307336469e+01    0.1751198    0.1452605  89.69 0.0004167269    1.084    0.077
       258 -10.3316    108.3145     34.0506   5.2311862940e+01   5.3061869262e+01    0.1810052    0.1702148   7.31 0.0004195371    1.115    0.103
       259  -9.4291     84.7351     34.6577   5.9184240972e+01   5.8018096775e+01    0.1710051     0.116812  52.20 0.0003443095    1.466    0.318
       260 -11.1661    221.7174     32.1188   3.4092698725e+01   2.7329839476e+01    0.2073265    0.1679173 -74.37 0.0002629725    1.024    0.024
       261 -10.5079    205.8531     32.6152   3.5780459824e+01   3.0650240913e+01    0.1895624    0.1629703 -42.90 0.0005981906    1.274    0.215
       262 -10.4443    177.9823     33.2900   3.9250423145e+01   3.6854436984e+01    0.1813067    0.1601123 -87.88 0.0007882802    1.011    0.011
       263 -10.3969    166.5004     32.4879   4.0636747156e+01   3.9635811979e+01    0.2056555    0.1341223 -14.04    0.0010235    2.158    0.537
       264 -10.9221    235.8592     30.7696   3.2564601894e+01   2.4625579692e+01    0.3412587    0.1843703  45.81   0.00170286    3.061    0.673
       265 -12.5248    100.9846     28.7739   5.2297663577e+01   5.5317071725e+01    0.5201766    0.3492691  46.78 0.0006138899    1.307    0.235
       266 -10.5168     48.6119     31.5679   7.1386304197e+01   6.4882088289e+01     0.245379    0.1812435  10.83 0.0005387016    1.213    0.176
       267 -10.2908     50.2361     27.6190   6.8985296660e+01   6.5191368838e+01    0.2858788    0.1719127  15.40  0.001085787    1.774    0.436
       268  -9.5570     89.2203     31.6276   5.6645821984e+01   5.7487050098e+01     0.194064    0.1069935  42.17 0.0009404238    1.624    0.384
       269  -9.6453     44.4539     31.1745   7.3054612554e+01   6.5555178202e+01    0.1778026    0.1123928 -30.68 0.0007164654    1.519    0.341
       270 -10.5383    111.1080     28.1211   4.9560071233e+01   5.3136718998e+01    0.3240899    0.2072545  34.39 0.0008095076    1.634    0.388
       271 -11.2077     60.3557     26.4892   6.4380292103e+01   6.3666771309e+01    0.3867433      0.25143  -6.76            0    1.681    0.405
       272 -10.7509     59.0152     21.7292   6.2827213984e+01   6.4494403517e+01    0.2613403    0.1922671 -14.54 0.0008414171    1.344    0.256
       273 -10.3482    250.1298    246.8055   7.2995199628e+01  -1.1623116460e+01    0.1658636    0.1045323  -6.52 0.0007689679    1.325    0.245
       274 -11.4232    128.1213     25.7665   4.5128025862e+01   4.9477043201e+01    0.3983389    0.2650245 -16.26  0.001418666    1.842    0.457
       275 -13.2366     74.2712    238.0125   1.0791373018e+02   1.4039112672e+01    0.8218023    0.6558471  89.40  0.005124529    1.286    0.223
       276 -11.0204     69.4860     26.5019   6.1005635762e+01   6.2019381821e+01    0.4405698    0.2184161  31.32  0.001997842    2.079    0.519
       277 -10.8905     68.0037     21.8061   5.9545822867e+01   6.2858801153e+01    0.4137242    0.1788216  53.18  0.001180615    2.504    0.601
       278 -10.1712    214.6065     25.8293   3.3413150989e+01   2.9590851177e+01    0.1914254    0.1482974  73.77 0.0005235288    1.282    0.220
       279  -9.9676    203.8779     25.8415   3.4455621997e+01   3.1901635818e+01    0.1803907    0.1235443 -67.68 0.0005504377    1.328    0.247
       280  -9.7818    169.1146     25.8928   3.8517843222e+01   3.9793688954e+01    0.1653092    0.1431581  51.12            0    1.268    0.212
       281  -9.4919    144.3144     26.6278   4.2456470595e+01   4.5565120484e+01    0.1398466   0.09362872 -68.71 0.0007033623    1.786    0.440
       282  -9.7198    132.4406     25.7009   4.4282180308e+01   4.8471189868e+01    0.1677969    0.1300792  -2.81 0.0009444989    1.609    0.378
       283  -8.9985     17.2841     26.3157   8.4483278648e+01   6.9588424062e+01    0.1238979   0.07269131 -17.57 0.0003545795    1.581    0.368
       284 -11.9169    165.0687     23.0726   3.8315354489e+01   4.1055806866e+01    0.2512992    0.2031062  70.88  0.001546533    1.111    0.100
       285 -10.1288    185.8404     22.9981   3.5720773062e+01   3.6258039862e+01    0.1991003     0.147457 -73.71 0.0007737112    1.252    0.202
       286 -11.2994    158.6967     22.6984   3.9099954554e+01   4.2594736274e+01    0.3376911    0.2121902  80.61  0.001784243    1.554    0.356
       287  -9.9814    106.4745     22.4681   4.8656304915e+01   5.4799350861e+01    0.2469546    0.1727134 -71.75  0.001263405    2.110    0.526
       288 -10.1556    103.3267     19.7554   4.8425933975e+01   5.5782531565e+01    0.2439665    0.1934719 -39.35 0.0009682585    1.466    0.318
       289 -11.2374    108.3056     17.4715   4.6458792878e+01   5.4895120370e+01    0.3179125    0.1943208  42.64 0.0008347993    1.502    0.334
       290 -10.2507     90.2319     20.6028   5.2107749411e+01   5.8540735496e+01    0.2771399    0.1446746  51.40  0.001377397    1.648    0.393
       291 -10.2444    109.5109    242.8958   1.0074916027e+02   8.1232212162e+00     0.247282    0.1511213  48.71 0.0006688795    1.558    0.358
       292 -10.4177     94.0042     22.4858   5.1803519385e+01   5.7535538398e+01    0.2616028    0.2163295  51.61  0.001279572    1.129    0.115
       293  -9.2125     86.2815     23.3394   5.4300412980e+01   5.9072812849e+01    0.1344812   0.08842795  22.53  0.000331293    1.626    0.385
       294  -9.3182     50.3143    240.3045   1.1323649214e+02   1.6600862662e+01    0.1101647   0.09554003 -29.55  0.000374827    1.620    0.383
       295  -9.8040    120.4563     21.0575   4.5112507335e+01   5.1759558917e+01    0.1708335    0.1310706 -22.72 0.0004764952    1.490    0.329
       296  -9.9319    195.4237    238.7302   8.1844322793e+01  -3.6955298388e+00    0.2276978    0.1388638   9.05  0.001194367    1.740    0.425
       297 -10.6654    243.9230    237.3496   7.2501921169e+01  -9.6501948039e+00    0.1955611    0.1424681 -30.38 0.0009421339    1.377    0.274
       298 -12.1020     30.5780    233.8122   1.1684118995e+02   2.0226392007e+01    0.5374591    0.2311258 -83.71  0.002577177    2.398    0.583
       299 -10.3760    159.8279    236.1509   8.8828305676e+01   1.8865176513e+00    0.1833625    0.1426486   0.14 0.0004131492    1.313    0.238
       300  -9.7593    177.3154    235.3299   8.4994209621e+01  -5.5955650686e-01    0.1363868   0.09154905  -4.18 0.0007045582    1.679    0.404
       301 -10.5957     88.8201    241.3182   1.0508934008e+02   1.1379940284e+01    0.2400708    0.1561396 -35.21  0.001231835    2.197    0.545
       302 -10.2549     24.2460    232.6156   1.1805728636e+02   2.1153707497e+01    0.2081781    0.1874213  78.33 0.0007231814    1.189    0.159
       303 -10.2129     38.2347    232.8354   1.1517908899e+02   1.9588308000e+01     0.180991    0.1375737  69.54  0.000523838    1.116    0.104
       304  -9.5271    170.0053    229.0246   8.5517372742e+01   1.6314688641e+00    0.1611721    0.1422806   0.18 0.0004756761    1.051    0.049
       305 -10.2129    172.8201     20.1216   3.6541560172e+01   3.9567970915e+01    0.1987827    0.1510889 -77.70 0.0006486851    1.245    0.197
       306  -9.6315    139.5076     19.9764   4.1272226711e+01   4.7412230002e+01    0.1737843    0.1321626 -22.02  0.001010781    1.548    0.354
       307 -11.2236      4.5612    226.6375   1.2166382057e+02   2.4350047529e+01    0.3029655    0.1767168  58.70  0.001863454    1.421    0.296
       308 -10.8077    154.4970    226.6677   8.8504934448e+01   4.4441032207e+00    0.2717191    0.1557591  54.67  0.001171336    2.537    0.606
       309 -11.1856    120.8502    226.3394   9.6031329470e+01   9.7359783200e+00    0.2216109    0.1909614 -77.39 0.0008101099    1.348    0.258
       310  -9.3627    190.4954    226.4875   8.0802174960e+01  -9.7304392921e-01    0.1343118    0.1109383   1.10 -6.639391e-05    1.043    0.042
       311  -9.2541    181.5020     19.5404   3.5368330810e+01   3.7630469562e+01     0.125172    0.1081438  84.67 0.0001692819    1.063    0.059
       312  -9.4429     54.9029     18.9794   6.3213279954e+01   6.5532508051e+01    0.1659856    0.1544717  75.67  0.001101493    1.667    0.400
       313  -9.5995    194.8565     17.1173   3.3370168565e+01   3.4880157042e+01    0.1512762    0.1347965  64.88  0.001026839    1.282    0.220
       314 -10.3140     74.9187     16.4231   5.4949463467e+01   6.2116255219e+01    0.5283728    0.1260904  50.89  0.001902212    3.410    0.707
       315 -11.0753     20.9752    222.2832   1.1805031222e+02   2.3731133716e+01    0.2181176    0.1407243  79.57 0.0009100853    1.361    0.266
       316 -10.0078     65.9699    226.4444   1.0857997974e+02   1.7603017419e+01    0.1905128    0.1659807  87.77 0.0005987772    1.122    0.109
       317 -10.1529     37.9814    217.6939   1.1402665358e+02   2.2954279363e+01    0.1801527    0.1459773  54.18 0.0007802922    1.131    0.116
       318 -11.7355      9.9744    217.2226   1.2003073630e+02   2.5911400419e+01    0.3228506    0.2247264  54.96   0.00173404    1.258    0.205
       319 -11.3799     29.6001    215.9236   1.1573558904e+02   2.4266370630e+01    0.3444548    0.2693315  18.86  0.001839682    1.619    0.382
       320 -10.4955     23.8260    216.4032   1.1703137188e+02   2.4755599138e+01    0.2117434    0.1605942   8.03  0.001275587    1.878    0.467
       321 -11.7481    237.0872    213.5594   6.9567610621e+01  -5.3030276695e+00    0.5868328    0.3016973   3.61  0.002091462    3.097    0.677
       322  -9.6626    137.1344    215.6252   9.0664335291e+01   9.3783921389e+00    0.2095314    0.1258088  23.08 0.0009497002    1.791    0.442
       323  -9.7494     31.0334     12.7114   7.0929146979e+01   6.9952587515e+01    0.1609958    0.1208319  12.88 0.0005235308    1.085    0.079
       324 -10.1609     21.4006    212.5330   1.1727875899e+02   2.5876595934e+01    0.2747764    0.1174152  56.05  0.001287271    2.218    0.549
       325  -9.7234    208.8270    211.9158   7.4551119026e+01  -1.1526873737e+00    0.2082762     0.152819  -9.77 0.0008146995    1.281    0.219
       326  -9.6741    138.4982     11.4902   3.8879797896e+01   4.8471572203e+01    0.1278969    0.1097469  77.08 -3.546707e-05    1.051    0.048
       327  -9.2588     65.6452     11.7315   5.5974705731e+01   6.4384042456e+01    0.1316095    0.0769527  27.70 0.0006992595    1.633    0.388
       328 -10.5488     10.7882    208.4158   1.1930422540e+02   2.7821828688e+01    0.2258142    0.1772238 -61.07 0.0003722497    1.424    0.298
       329  -8.8910    107.6345     10.6729   4.4193712631e+01   5.5675873441e+01    0.1404471   0.07935663  36.91 0.0007037598    1.803    0.445
       330  -9.1547     27.6703     10.3088   7.1437222369e+01   7.0699445151e+01    0.0982918   0.09274285  28.82 0.0003878213    1.663    0.399
       331 -12.1132      4.9913    208.1084   1.2053037764e+02   2.8403442550e+01    0.5533111    0.3058617  80.89  0.003106469    1.590    0.371
       332  -9.2647    188.2569    205.3321   7.7514690749e+01   3.1475968305e+00    0.1399433   0.09726949 -12.37  0.000380524    1.565    0.361
       333 -11.1722     16.7224    193.1741   1.1687450762e+02   3.0850735720e+01    0.4320919    0.2940449  64.02   0.00254006    1.346    0.257
       334 -10.6454     20.4030    199.7285   1.1653700999e+02   2.8947680081e+01    0.3619124    0.1895597 -49.12  0.001774791    2.318    0.569
       335 -10.8718    244.8844    202.6484   6.6221341896e+01  -4.5994350311e+00    0.2999338    0.1466728  42.43   0.00147794    2.662    0.624
       336 -10.3477    175.4307    202.7851   7.9786715906e+01   5.7006484677e+00    0.2398197    0.1861171  29.87 0.0004574257    1.249    0.199
       337  -9.4045      7.6456    196.3318   1.1919176349e+02   3.0898405350e+01    0.1377478   0.07251863  63.38 0.0007045196    1.785    0.440
       338  -8.8022    101.6947    192.3060   9.5539579121e+01   2.0313148433e+01    0.1497025    0.1096338  67.91 0.0003629484    1.604    0.377
       339 -10.8621     41.5116     19.4725   6.9164707224e+01   6.7608363657e+01    0.3579391    0.1946052  36.30  0.001369633    1.706    0.414
       340 -10.2514    244.7916    188.2570   6.3550482338e+01  -2.2694155322e+00     0.178614    0.1259463 -13.00 0.0005763595    1.339    0.253
       341  -9.5402    212.4789    188.5043   6.9422555752e+01   2.4279810785e+00     0.136527    0.1191636 -17.87 0.0008097657    1.051    0.049
       342 -11.5015     16.0761    183.0380   1.1620130828e+02   3.3362611300e+01    0.5173753    0.2524915  85.12  0.002394804    2.101    0.524
       343  -9.8407     58.8150    182.1727   1.0521217502e+02   2.9002278211e+01    0.1913795    0.1626836 -40.92  0.000622337    1.336    0.252
       344 -10.1604    167.9993    183.7582   7.7798789146e+01   1.0825365855e+01    0.1971584    0.1218566  35.89 0.0007686258    1.620    0.383
       345  -9.9314    244.4825    178.4644   6.1728321323e+01  -6.0120276975e-01    0.2420981    0.1005927 -31.14  0.001028705    2.341    0.573
       346 -10.7713     46.5291    177.7899   1.0789945460e+02   3.1596124305e+01    0.3262621    0.2514157 -76.43  0.001106915    1.186    0.157
       347  -9.4503     69.4634    178.4337   1.0186199392e+02   2.8540133661e+01    0.1413512    0.1347837 -72.00 0.0002951171    1.069    0.065
       348 -11.0349     34.0852    174.1708   1.1076282795e+02   3.3864882492e+01    0.2619984    0.1829684 -64.77 0.0004496099    1.306    0.235
       349 -10.7951     18.1887    173.2229   1.1479839791e+02   3.5604896184e+01    0.3575071    0.2044108  63.71  0.001663875    1.808    0.447
       350 -12.5205     37.0756    164.5721   1.0882696815e+02   3.6005315676e+01    0.9584913     0.590874 -76.56  0.004772952    1.496    0.331
       351 -12.9446     49.4395    161.7319   1.0498540544e+02   3.5376418335e+01    0.5451566    0.4191156  38.20  0.002939982    1.372    0.271
       352  -9.3583    177.2899    168.7037   7.2640613356e+01   1.2309037391e+01    0.1393341    0.1202927 -87.00  0.000211136    1.555    0.357
