#   1 NUMBER                 Running object number                                     
#   2 MAG_AUTO               Kron-like elliptical aperture magnitude                    [mag]
#   3 X_IMAGE                Object position along x                                    [pixel]
#   4 Y_IMAGE                Object position along y                                    [pixel]
#   5 X_WORLD                Barycenter position along world x axis                     [deg]
#   6 Y_WORLD                Barycenter position along world y axis                     [deg]
#   7 A_WORLD                Profile RMS along major axis (world units)                 [deg]
#   8 B_WORLD                Profile RMS along minor axis (world units)                 [deg]
#   9 THETA_WORLD            Position angle (CCW/world-x)                               [deg]
#  10 FWHM_WORLD             FWHM assuming a gaussian core                              [deg]
#  11 ELONGATION             A_IMAGE/B_IMAGE                                           
#  12 ELLIPTICITY            1 - B_IMAGE/A_IMAGE                                       
         1 -13.3222    169.0472     59.1275   2.9014908058e+02   6.1214395235e+00    0.1387406   0.08124788  71.16   0.01181365    2.681    0.627
         2 -12.0805     81.6892     46.9669   2.9109466768e+02   6.7689000991e+00    0.0602988   0.03317543  -8.78  0.004736901    3.145    0.682
         3 -10.4554    206.7668     19.1442   2.8946941633e+02   6.3657621825e+00   0.02872258   0.01553977  63.18  0.002322603    2.900    0.655
         4 -12.5223     66.0757     60.8584   2.9136015430e+02   6.6979009282e+00   0.06065571    0.0558339  87.31  0.007441564    1.148    0.129
         5 -11.0863    216.8938     30.4677   2.8941967517e+02   6.1755723076e+00    0.0596377   0.02981563  74.12   0.00357802    5.535    0.819
         6 -10.8148    157.9686     18.7493   2.9003550440e+02   6.6540971628e+00   0.03015096   0.01399031 -80.08  0.002136595    3.672    0.728
         7 -10.3447    129.3979     16.2295   2.9035349516e+02   6.8491539026e+00   0.01537747   0.01112716 -73.74 0.0006933259    1.487    0.328
         8 -11.6143    129.9790     10.9961   2.9031526046e+02   6.9064627467e+00   0.01841203   0.01235566 -65.26 0.0006846056    1.511    0.338
         9  -9.3568    190.0492     15.4630   2.8964193615e+02   6.5057069211e+00   0.01423234   0.01339883  76.15 0.0008497143    1.114    0.102
        10  -9.2021    141.5867     12.2331   2.9018731798e+02   6.8247651347e+00   0.01456073    0.0118154 -75.98 0.0007471433    1.307    0.235
        11 -10.1407    178.1226      3.0280   2.8970605185e+02   6.7191809691e+00     0.020554   0.01615822   6.75  0.002302457    1.390    0.280
        12  -8.8850    184.9369      1.9729   2.8962030663e+02   6.6917718680e+00   0.03058777  0.008163988  43.19  0.001888605    4.385    0.772
        13 -10.6079    170.2409      2.4479   2.8979440914e+02   6.7717317997e+00   0.02262115   0.01441847  17.95  0.002271216    1.695    0.410
        14  -9.4968    143.4614      2.7763   2.9010858833e+02   6.9235041790e+00   0.01646836   0.01081351 -56.09  0.001708542    1.479    0.324
        15  -8.9757     11.3136    206.7815   2.9286989770e+02   5.3177161341e+00   0.01377158  0.009575072   8.91   0.00142276    1.638    0.389
        16 -10.2668    164.0489    246.4216   2.9132879172e+02   3.9751495484e+00   0.02437275   0.01218702 -82.46  0.001841214    3.247    0.692
        17 -11.3966     75.4250    249.1199   2.9237551843e+02   4.4559708500e+00   0.04783942   0.01983317  22.51  0.003827462    2.639    0.621
        18 -11.4533    249.5225    189.6545   2.8999613607e+02   4.1389146055e+00   0.05354116   0.01676044 -63.31  0.003804028    3.236    0.691
        19  -8.6147    248.3075    161.3632   2.8984066885e+02   4.4743683793e+00  0.007228874  0.004807742 -30.94 0.0007038945    1.742    0.426
        20  -7.3810    228.5612    154.5174   2.9002905886e+02   4.6685539476e+00   0.00651251  0.006442132 -62.39 0.0001426544    1.017    0.017
        21  -8.3862    236.0030    145.9780   2.8989136216e+02   4.7244467236e+00   0.01027862  0.009548951 -29.75  0.000527513    1.089    0.081
        22  -9.5913     67.9945    143.4076   2.9183168070e+02   5.7278219767e+00   0.02399467  0.009294594 -47.97  0.001896543    2.588    0.614
        23  -7.6557    250.4145    134.4480   2.8965472636e+02   4.7744912699e+00  0.006477454  0.006396517 -73.49  8.76691e-05    1.024    0.024
        24  -8.0003    234.4532    132.4919   2.8982846829e+02   4.8899842451e+00  0.006542013  0.006435042 -41.60 5.381067e-05    1.004    0.004
        25  -7.3973    249.2858    128.3381   2.8963116803e+02   4.8519546879e+00  0.007004843  0.004847776 -31.58  0.000701642    1.632    0.387
        26  -7.9571    250.4061    117.4900   2.8955302500e+02   4.9713098499e+00  0.006601247  0.006285008 -40.06 0.0002021253    1.042    0.040
        27  -8.5969    203.5440    111.8190   2.9006384340e+02   5.3095542069e+00   0.01233279  0.009621525 -20.04 0.0006242683    1.446    0.308
        28 -10.8356    164.1804     91.7212   2.9040143988e+02   5.7714246627e+00   0.02160332   0.01146406  45.47  0.001967956    2.036    0.509
        29  -8.8311    132.2188     91.0075   2.9076950598e+02   5.9650691409e+00  0.009025594  0.005350479 -62.28 0.0004815715    1.672    0.402
        30 -12.2492    146.6786     80.3873   2.9053731330e+02   6.0045353868e+00   0.03733256   0.02418518  54.74  0.003719455    1.797    0.444
        31  -8.4388    206.9726     82.3048   2.8984675678e+02   5.6321460617e+00   0.01112517  0.009276892 -58.65 0.0005010892    1.183    0.155
        32 -10.5231    133.4325     82.0076   2.9070139045e+02   6.0625294740e+00    0.0181281   0.01130047  10.85   0.00174987    1.897    0.473
        33  -9.5021    240.0063     80.2646   2.8945027747e+02   5.4636524395e+00  0.009730918  0.008990562  23.63  0.001079516    1.089    0.082
        34 -11.2112    162.3745     79.2898   2.9034787194e+02   5.9262058777e+00   0.02077809   0.01340403  28.76  0.002136704    1.542    0.352
        35 -10.9917    139.7862     39.6119   2.9037285029e+02   6.5177009636e+00   0.04388271   0.02088606  41.90  0.003851544    2.166    0.538
        36 -10.8013    183.8111     77.0580   2.9008483143e+02   5.8276311360e+00   0.02646493   0.01470793  41.14  0.001785011    1.831    0.454
        37  -9.9082    169.2316    247.2726   2.9127363154e+02   3.9352649746e+00   0.01587714  0.009289329 -37.20  0.001488486    1.943    0.485
        38  -8.4117     37.8433     63.8059   2.9170733995e+02   6.8266557353e+00  0.009313627   0.00774929  63.43  0.000500028    1.325    0.245
        39 -10.9325    101.8346     69.8225   2.9099670327e+02   6.3870286882e+00   0.02962746   0.01282578 -47.85  0.001986283    2.314    0.568
        40 -10.7386     95.6292     52.4340   2.9096480500e+02   6.6247959636e+00   0.01862662   0.01662377  26.16  0.001652337    1.126    0.112
        41 -11.7542    111.5324    245.7180   2.9193523673e+02   4.2870320101e+00   0.04275186   0.03330091 -80.67  0.004765982    1.413    0.292
        42  -9.5724     13.2678     44.9909   2.9188168174e+02   7.1867477857e+00  0.009461189  0.009065699 -56.45  0.001172761    1.035    0.034
        43 -10.5262    124.1543     67.1481   2.9072040301e+02   6.2888048207e+00   0.01859706    0.0148213 -51.63 0.0005926889    1.232    0.188
        44 -10.3743     85.0969    241.1194   2.9221536256e+02   4.4931621144e+00   0.01415978    0.0121916 -45.84  0.001673287    1.153    0.132
        45 -11.0035    135.7539     67.1545   2.9058522275e+02   6.2214911014e+00    0.0183372   0.01642295  14.77  0.001260352    1.139    0.122
        46 -10.0179    101.8477     37.8576   2.9080479259e+02   6.7579527396e+00   0.01752502   0.01161847 -34.08   0.00177142    1.693    0.409
        47  -9.5260    189.9398     37.0232   2.8977289442e+02   6.2564069671e+00   0.01008713    0.0097816 -40.41 0.0005405681    1.020    0.020
        48  -8.8146     92.3157    241.3283   2.9213262123e+02   4.4490569439e+00  0.007083882  0.004882969 -29.03 0.0007045063    1.676    0.403
        49  -8.5909    140.0644     29.2138   2.9030713523e+02   6.6366965122e+00   0.01090634  0.009270328 -55.99 0.0005238717    1.158    0.136
        50  -9.8212    136.1564     61.1871   2.9054471695e+02   6.2884164736e+00   0.01186596   0.01132275 -12.77  0.001164638    1.061    0.058
        51  -8.6225    154.4909    249.9799   2.9146112924e+02   3.9891157896e+00  0.009472946   0.00574211  82.11 0.0008100473    2.511    0.602
        52  -8.4755     79.6619     23.2803   2.9097621728e+02   7.0554727055e+00   0.01674493  0.008497263 -46.00 0.0009039885    2.014    0.503
        53  -9.9036     43.8397    239.1700   2.9268384668e+02   4.7537825997e+00   0.01418076  0.008023735 -47.18  0.001350318    1.771    0.435
        54  -8.1246     84.9367     21.1415   2.9090180498e+02   7.0497672732e+00  0.009829843  0.008454019  62.95  0.000426629    1.261    0.207
        55  -7.4025    198.0072    245.2639   2.9092725255e+02   3.7919663923e+00  0.007547781  0.005758939  25.17 0.0008222982    1.322    0.244
        56  -9.9883    188.0995    233.3870   2.9097141538e+02   3.9873167157e+00   0.01351372    0.0089718 -88.86  0.001075945    1.939    0.484
        57  -9.9660     74.9941     17.3144   2.9099490505e+02   7.1516721779e+00   0.01143167  0.009516549 -69.77 0.0002537574    1.230    0.187
        58  -8.8839     88.6815    234.6995   2.9213541371e+02   4.5471010112e+00   0.00693476    0.0049332 -26.97 0.0004892881    1.620    0.383
        59  -8.8143    153.4755    233.5141   2.9137466637e+02   4.1863172653e+00  0.006650575  0.006345546 -30.46  0.000102986    1.049    0.046
        60  -8.6299    129.6630     47.1078   2.9053589633e+02   6.4894490987e+00    0.0121387  0.008703148  37.54  0.001305604    1.395    0.283
        61  -8.0574    180.5143    243.0056   2.9111702437e+02   3.9195139514e+00  0.009822961  0.008487917  23.04 0.0005006014    1.169    0.144
        62 -11.6207    168.1368    227.5549   2.9116861554e+02   4.1706871110e+00   0.02754837   0.02070691  45.98  0.002642145    1.384    0.278
        63  -9.3257    240.8251    225.9888   2.9031468930e+02   3.7675838120e+00   0.01529407  0.008623062 -13.80  0.001230493    2.915    0.657
