#   1 NUMBER                 Running object number                                     
#   2 MAG_AUTO               Kron-like elliptical aperture magnitude                    [mag]
#   3 X_IMAGE                Object position along x                                    [pixel]
#   4 Y_IMAGE                Object position along y                                    [pixel]
#   5 X_WORLD                Barycenter position along world x axis                     [deg]
#   6 Y_WORLD                Barycenter position along world y axis                     [deg]
#   7 A_WORLD                Profile RMS along major axis (world units)                 [deg]
#   8 B_WORLD                Profile RMS along minor axis (world units)                 [deg]
#   9 THETA_WORLD            Position angle (CCW/world-x)                               [deg]
#  10 FWHM_WORLD             FWHM assuming a gaussian core                              [deg]
#  11 ELONGATION             A_IMAGE/B_IMAGE                                           
#  12 ELLIPTICITY            1 - B_IMAGE/A_IMAGE                                       
         1 -10.9707     32.7957     63.0746   1.1156221136e+02   6.0198025452e+01     2.830122    0.8497125 -36.69  0.008494121    5.518    0.819
         2  -9.9485     10.1089     18.8642   1.0730767387e+02   7.0768775777e+01    0.9049945    0.3354824 -20.48  0.003073832    5.894    0.830
         3 -11.1702     23.8320     32.2585   1.0567602133e+02   6.7228241444e+01      1.50294    0.4579152 -41.71  0.003668789    2.656    0.623
         4 -10.7380      6.6609     29.8336   1.1304377945e+02   6.8952438296e+01    0.6351629    0.3693886 -55.35  0.002365378    1.417    0.294
         5  -9.8368     60.5909     31.8656   8.9591068609e+01   6.2868292421e+01    0.8471707    0.3941656 -31.75  0.002862392    2.063    0.515
         6  -9.6961     62.8363     20.8941   8.3853217345e+01   6.4190717660e+01    0.5467581    0.2702689 -44.59  0.001470624    2.482    0.597
         7 -10.2059     64.6210     13.4128   7.9631290003e+01   6.4895873212e+01    0.5303411    0.3226936 -15.94  0.002153841    1.603    0.376
         8 -10.1086     69.4620     40.1002   8.9603492734e+01   6.0094983675e+01     1.136046     0.386471 -38.66  0.004359163    2.728    0.633
         9 -10.4635     73.3451     16.0859   7.7765992919e+01   6.3008048465e+01     1.538773    0.3034186 -31.02  0.004749385    4.790    0.791
        10  -8.8692     46.7748     20.2161   9.0118485533e+01   6.6712338968e+01    0.5113437    0.2493423 -22.87  0.002391196    2.289    0.563
        11 -10.3106     52.5458     13.2423   8.4305216696e+01   6.6880914415e+01      1.01899      0.50477  14.10  0.004158298    3.371    0.703
        12 -10.1417     46.2983     29.7531   9.4560772955e+01   6.5236436178e+01    0.4748148    0.3680152 -38.11  0.001044067    1.249    0.199
        13  -9.3207    110.1153      5.6954   6.2696729782e+01   5.6419280184e+01    0.6390691    0.2339969 -28.04   0.00260422    2.716    0.632
        14  -9.0239    111.7815     20.8338   6.8508085295e+01   5.4472554035e+01    0.7724217    0.2502296 -17.24  0.002200755    5.164    0.806
        15  -8.6474    112.3781     15.2947   6.6119980652e+01   5.4952976133e+01    0.2818921    0.2082203 -43.52 0.0006044307    1.579    0.367
        16  -9.1338    113.8277     10.2848   6.3746357658e+01   5.5128059871e+01    0.3774364    0.2248559  28.03 0.0008196147    1.792    0.442
        17  -8.8777     95.9637     16.3684   7.0819325631e+01   5.8479023631e+01    0.4315805     0.188709 -26.11  0.001219971    2.284    0.562
        18  -8.2102     97.4927     11.5009   6.8281781467e+01   5.8682775829e+01    0.2380788    0.1776113  34.39 0.0008448452    1.210    0.174
        19  -9.1421    102.9652     21.7921   7.1190346643e+01   5.6329399098e+01    0.4437052    0.2100257 -27.77  0.000867536    2.110    0.526
        20  -8.6364    120.2338     16.1434   6.4650852268e+01   5.3027419034e+01    0.4466931    0.2399401  16.93  0.001807773    2.631    0.620
        21 -10.7044     37.3083      9.8903   8.9363753788e+01   6.9493785520e+01    0.8605565    0.2696258 -40.30  0.002785336    3.056    0.673
        22 -10.2543     27.9209     11.1794   9.4592848991e+01   7.0429745883e+01    0.7433959    0.3929781  30.99  0.004283157    2.052    0.513
        23  -9.7653     18.0460      3.8709   9.6050063267e+01   7.2563360437e+01    0.3441431    0.2854849  37.23  0.001446643    1.803    0.446
        24  -9.5564      2.2984     14.4935   1.0976129224e+02   7.2059289336e+01    0.4598156     0.216798 -64.40  0.001833777    2.901    0.655
        25 -10.5650      5.2895      4.2791   1.0353638030e+02   7.3597409797e+01    0.5088043    0.3702596  -6.55  0.002139269    1.270    0.212
        26  -9.1990     96.7084      4.7714   6.5523909627e+01   5.9515632310e+01    0.4202027    0.2555508 -39.49  0.002142331    1.950    0.487
        27  -8.5242    104.4546     14.6342   6.7802279894e+01   5.6819895086e+01    0.4877582    0.2050765 -16.24  0.001904383    2.847    0.649
        28  -8.8238    101.9277      7.9794   6.5606096475e+01   5.8062412494e+01    0.3503261    0.2327814 -30.23  0.001152663    1.601    0.375
        29  -8.3509    104.3049      2.0192   6.2470102846e+01   5.8069667518e+01    0.2882518    0.1816267  36.76 0.0009932406    1.449    0.310
        30  -9.4939     85.2632     13.0969   7.2497329784e+01   6.1068734809e+01    0.4021267    0.2608654 -50.35  0.001558191    2.247    0.555
        31  -7.6734     80.4933     12.4929   7.3708370929e+01   6.2084370009e+01    0.2505025    0.1673716 -41.83  0.001043318    1.826    0.452
        32  -9.0428    141.4398     12.8321   5.9185712958e+01   4.8187632715e+01    0.2718672    0.1985481 -27.99  0.001199651    1.449    0.310
        33  -9.5594    125.3086      5.6797   5.9518809519e+01   5.2826148397e+01    0.6611077    0.2666658  54.23  0.002787366    2.076    0.518
        34  -8.8860    125.1842     12.9642   6.2352223598e+01   5.2171692624e+01    0.2715684    0.2385907 -33.02 0.0008199178    1.243    0.196
        35  -8.2890    126.7335      9.2184   6.0600663928e+01   5.2159513861e+01    0.2864394    0.1401307  47.79 0.0004406999    1.825    0.452
        36  -8.3949    135.3908      1.8190   5.6246405902e+01   5.0684816801e+01    0.4087259    0.1448845  50.14  0.001613102    2.397    0.583
        37  -8.6859    133.5673     11.8388   6.0267568743e+01   5.0239045720e+01    0.4274123    0.1949809 -44.65  0.001716187    2.685    0.627
        38  -9.7855    131.1042      6.4629   5.8723212676e+01   5.1344809681e+01     0.472816    0.2524954  59.51  0.002182534    1.662    0.398
        39  -8.5279     85.5390      5.7283   6.9013782555e+01   6.1792547560e+01    0.3723971    0.2699575   9.17  0.002150446    1.325    0.245
        40  -8.8528     89.1120      2.9048   6.6693254675e+01   6.1317278838e+01    0.2601027    0.2475266  -0.25    0.0012211    1.197    0.165
        41  -9.0835     78.1307      4.0134   7.0426806738e+01   6.3453424412e+01    0.4365625    0.2512391  -6.56  0.001486079    1.838    0.456
        42  -7.9195    142.8195      4.8196   5.6100626090e+01   4.8582178418e+01    0.1835547    0.1536861 -64.76 0.0004560058    1.347    0.258
        43  -8.9501    115.4972      4.3308   6.0964828121e+01   5.5286098977e+01    0.2725668    0.2190862 -43.86 0.0007386279    1.457    0.314
        44  -9.6904     63.8334      2.9933   7.4707368725e+01   6.6244242737e+01    0.3626294     0.256859 -42.01   0.00173052    1.854    0.461
        45  -9.0451     19.1117      9.0325   9.8105109993e+01   7.1671526537e+01    0.3388965    0.1934373  -2.01  0.001318764    1.979    0.495
        46 -10.0644    128.3412    100.8843   9.1369308828e+01   3.7069860301e+01    0.9885954    0.4877116 -30.56  0.002646483    2.727    0.633
        47  -8.6324    222.1707    250.3634   1.0130541962e+02  -5.8133943362e+00    0.1585856   0.08475206  41.72   0.00091632    1.724    0.420
        48 -10.8840    188.8436    248.1945   1.0671504654e+02  -6.9644047795e-01    0.4402352    0.4111386 -81.57   0.00336874    1.612    0.380
        49 -10.0661    195.1678    247.4625   1.0551069751e+02  -1.5542917124e+00     0.315135    0.2873971  14.88  0.002447424    1.251    0.201
        50 -10.3817    202.0287    250.3597   1.0472514740e+02  -2.9118835301e+00    0.6883206    0.2029397  33.77  0.002875838    3.158    0.683
        51 -10.5976    123.6053     91.3275   8.9936490243e+01   4.0058711393e+01    0.9942818    0.6154065 -29.41  0.003210127    1.845    0.458
        52 -11.0995    121.0266    108.9338   9.5446018341e+01   3.6846002709e+01     1.737965    0.6924482 -44.96  0.005827061    2.451    0.592
        53 -10.3777    108.8701    113.1911   9.9800566659e+01   3.8245595498e+01     1.102995    0.4754435 -51.97  0.002514357    2.298    0.565
        54 -10.4710    108.3609     99.8362   9.6524012830e+01   4.1301344617e+01    0.9425742    0.6414482  75.16  0.002463334    2.353    0.575
        55  -9.7951     27.3440    122.9267   1.2468271040e+02   4.6989392064e+01    0.5389311    0.2674642  74.20  0.001895653    2.740    0.635
        56  -7.4958    180.1258    123.7295   8.5164017771e+01   2.1114257726e+01     0.202739    0.1697146  -0.42 0.0009156434    1.316    0.240
        57  -8.9300    241.1647    123.1892   7.3814831007e+01   8.3046848349e+00    0.2071828    0.1736005  -0.06 0.0005082631    1.176    0.149
        58  -8.2850    158.2287    122.3526   8.9640358436e+01   2.6190505304e+01    0.2667469    0.1986798  57.52  0.001021638    1.471    0.320
        59  -8.8251    152.3061    121.6662   9.0846027618e+01   2.7612608100e+01    0.2646205    0.1228777 -51.74 0.0003768131    2.497    0.600
        60  -8.9955    152.6071    115.2016   8.9142643105e+01   2.8866630673e+01    0.2857973    0.2233365 -18.41 0.0008352097    1.472    0.321
        61 -10.2424     92.0068    113.1122   1.0448953065e+02   4.1223064081e+01    0.5948101    0.4147768 -84.69  0.001663073    1.953    0.488
        62  -8.0897      1.3730    116.6680   1.3099423323e+02   5.0310279768e+01    0.2265617   0.09044198 -80.58 0.0008681267    2.103    0.524
        63 -10.2323     78.2410    113.0840   1.0844011774e+02   4.3388983805e+01    0.5616277    0.3415136 -82.38  0.001638477    2.429    0.588
        64  -7.8138     77.8450    105.4542   1.0685051850e+02   4.5218481278e+01    0.2794158     0.166672 -33.70    0.0012307    2.072    0.517
        65  -9.6515     81.5840     99.4057   1.0427627671e+02   4.6036955312e+01    0.7631592    0.3064479 -51.01  0.001262344    2.253    0.556
        66  -8.8519    244.0101    114.9994   7.1472948379e+01   9.0015259202e+00    0.1704862    0.1544796 -14.61 0.0009019426    1.033    0.032
        67  -8.0581    167.1791    114.1810   8.5548887899e+01   2.5830689832e+01    0.2153973    0.1858348 -75.17 0.0007764431    1.388    0.279
        68  -7.8890     63.6170     81.8820   1.0550927847e+02   5.2596502736e+01    0.2206165    0.1609932 -70.36 0.0005607812    1.556    0.357
        69  -9.9267     66.8308    104.0054   1.0985117089e+02   4.7117258378e+01    0.6940522    0.3998037  18.33  0.003099979    2.472    0.595
        70 -10.2977     63.0379     95.8342   1.0918010950e+02   4.9511959513e+01     0.610504    0.3682671 -82.54   0.00160492    2.532    0.605
        71  -9.0145     63.3255     87.6326   1.0709919078e+02   5.1346201292e+01    0.7443716    0.3857365 -23.11  0.002571161    4.051    0.753
        72  -8.9390     59.2024    109.4352   1.1329618176e+02   4.6832761030e+01    0.4537717    0.2347504 -72.24  0.001544182    2.186    0.543
        73  -9.7589     14.2696    111.3217   1.2683223692e+02   5.0700940507e+01    0.4372804    0.2107745  78.82  0.001823755    2.696    0.629
        74  -8.9414     14.2919    104.8662   1.2598204958e+02   5.2186691780e+01    0.2521501    0.1540319 -48.55  0.001168358    1.576    0.366
        75  -9.0667    158.7488    111.7371   8.6815819900e+01   2.8203019074e+01    0.2803685     0.246364 -48.77  0.000335313    1.164    0.141
        76  -9.3711     35.7188    111.4219   1.2063481976e+02   4.8920494598e+01    0.2662486    0.1708973  85.69  0.001159596    1.753    0.430
        77  -8.8577    149.8136    110.0047   8.8453045534e+01   3.0538406495e+01    0.3011696    0.2525272 -40.13 0.0007353444    1.180    0.153
        78  -7.7333    250.2752    108.9821   6.9139947661e+01   8.6784373739e+00      0.18147    0.1077262 -31.94 0.0008854938    1.483    0.326
        79 -10.8891     20.9679    100.9271   1.2340739331e+02   5.2616334556e+01     1.240548    0.5412382 -86.84  0.004701278    3.159    0.683
        80 -10.1768    200.6923    247.0093   1.0448761260e+02  -2.3226574079e+00    0.3376826    0.1833369  38.50  0.001106624    1.473    0.321
        81 -10.6071     25.8234     78.3829   1.1776614464e+02   5.7408828013e+01    0.7758768    0.4921194  85.60  0.003411028    2.143    0.533
        82 -10.2355    177.6263    248.9863   1.0879025973e+02   8.9416007203e-01    0.4561995     0.139552  38.77  0.002030409    2.583    0.613
        83 -10.7747    167.4403    248.2748   1.1050081164e+02   2.5296135870e+00    0.5305867    0.1911825  34.24   0.00240643    2.582    0.613
        84  -9.1094    246.2363    243.8456   9.6352388396e+01  -8.4571338464e+00    0.1878096    0.1430223  14.05 0.0004337074    1.089    0.082
        85 -10.8399     21.9871     53.6668   1.1331376146e+02   6.3106507155e+01    0.8222001    0.4727842 -86.78  0.003074385    3.398    0.706
        86 -10.0128     34.4104     90.4783   1.1730400177e+02   5.3918161925e+01    0.5349751    0.2452588 -76.33  0.001766922    2.701    0.630
        87  -9.9453     36.9409     80.9474   1.1443325806e+02   5.5860453924e+01    0.6452509    0.3399945 -12.13  0.002674266    3.543    0.718
        88 -10.2727      4.8210     41.7269   1.1742439925e+02   6.6690155406e+01    0.6809412    0.2874509 -60.70  0.002489399    1.861    0.463
        89 -10.8635     44.9588    102.6376   1.1630295955e+02   5.0057943941e+01     0.893169    0.4886098  81.11  0.003252676    3.257    0.693
        90  -9.3592     39.8552    106.7730   1.1862162048e+02   4.9610622147e+01    0.3326346     0.158417 -64.91 0.0005606624    1.779    0.438
        91  -9.6672      6.6056    104.1327   1.2814343471e+02   5.2850061384e+01    0.4154764    0.2411837  72.41  0.001506043    1.942    0.485
        92  -9.7520    149.4324    103.3213   8.6753246561e+01   3.1974321846e+01    0.5437055    0.2907313 -51.06 0.0009542333    2.090    0.521
        93  -8.5095    150.0096     96.9904   8.4864312860e+01   3.3103907260e+01    0.3179489    0.2036121  21.85  0.001021262    2.251    0.556
        94  -8.7186     92.6472    103.7467   1.0205838045e+02   4.3252977163e+01    0.4073174    0.3407209  -5.66  0.001905953    1.443    0.307
        95  -9.5045     94.3123     97.3147   9.9918416446e+01   4.4412972203e+01    0.3472458    0.2956842 -61.24 0.0006667504    1.186    0.157
        96  -8.7176     96.1140     90.8752   9.7635286513e+01   4.5516057685e+01    0.4876198    0.2996847 -12.50  0.001786635    3.142    0.682
        97  -8.3676    165.9647    104.2813   8.3206905626e+01   2.8024764487e+01    0.2822695    0.2068775 -54.65 0.0005274776    1.523    0.343
        98  -8.7648    248.7755    103.3904   6.8051361013e+01   9.8120452594e+00    0.1877859    0.1240014  39.78 0.0009547464    1.698    0.411
        99  -8.3588     73.6506    102.7259   1.0748441084e+02   4.6463920442e+01    0.2701249    0.2059738 -64.74 0.0007803652    1.271    0.213
       100  -8.5752    159.1333    101.1147   8.3882215811e+01   3.0207901792e+01    0.2579129    0.2281888  81.48 0.0004969287    1.309    0.236
       101  -7.8562    166.6502    100.0105   8.1895353646e+01   2.8682747768e+01    0.2192401    0.1986919 -26.33 0.0005319663    1.093    0.085
       102  -9.6884    239.8140     96.1595   6.7627234095e+01   1.2738151958e+01    0.2640631        0.182 -24.54  0.001344308    1.386    0.278
       103  -9.7415    222.4658     93.9210   6.9728187992e+01   1.6834765688e+01    0.2394961    0.2352167  11.23 7.930911e-05    1.076    0.071
       104  -8.5650    164.6447     94.3931   8.0779477826e+01   3.0213336921e+01    0.4092944     0.196664 -47.35 0.0009477016    2.256    0.557
       105  -9.6893    138.8972     91.6932   8.6068625805e+01   3.6663308580e+01    0.7223414    0.4019441 -43.83  0.001890004    1.780    0.438
       106 -10.0984      4.4264     89.5574   1.2689018105e+02   5.6292165837e+01    0.5900323    0.2651757  89.59  0.001962943    2.717    0.632
       107  -9.6135      6.0586     78.8241   1.2472163802e+02   5.8623721409e+01    0.5882861    0.1831749 -39.87  0.002393008    3.653    0.726
       108  -9.0679    150.2340     89.0448   8.2539793395e+01   3.4597622782e+01    0.5059988     0.254525 -26.39  0.001513272    2.604    0.616
       109  -7.4968    171.3391     95.8079   7.9722197165e+01   2.8374290191e+01    0.2203857    0.1426234 -26.44 0.0002658267    1.682    0.405
       110  -9.3549    110.7042     89.9661   9.3113965387e+01   4.2972379954e+01    0.8152575    0.3748911  30.07  0.002719051    3.283    0.695
       111  -8.2493    227.1904     89.9473   6.7986790469e+01   1.6415138676e+01    0.2427617      0.20547  30.11 0.0009367443    1.293    0.227
       112 -10.5717     48.1931     83.1150   1.1105845212e+02   5.4211388969e+01     1.139539     0.411179 -52.69  0.002185404    2.243    0.554
       113 -10.5560     55.2910     70.9732   1.0538702337e+02   5.6065915645e+01    0.6328126    0.3977297  57.93  0.001370933    2.461    0.594
       114  -8.8660     54.9623     63.3156   1.0323732047e+02   5.7734873936e+01    0.4704745    0.3257119  23.59  0.002600553    1.632    0.387
       115 -10.0944     62.4365     60.9678   9.9748203150e+01   5.7224214019e+01    0.9016963    0.3115375  34.63  0.001043831    3.209    0.688
       116  -9.9031     81.6044     72.4541   9.6767625335e+01   5.1938683127e+01     0.407207    0.3156781 -74.07 0.0009653099    1.730    0.422
       117  -9.2528     83.2979     65.0660   9.3833766662e+01   5.3157693993e+01    0.5809562    0.3609926 -10.02  0.002401562    2.563    0.610
       118 -10.1857     85.2857     86.6856   9.9783180614e+01   4.8290105394e+01    0.4580064    0.3456464 -79.99 0.0008604167    1.785    0.440
       119  -9.5595     87.2228     78.9182   9.6924482208e+01   4.9639494093e+01    0.5923464    0.3801042  20.31   0.00195626    2.027    0.507
       120 -10.0917     13.1378     45.6281   1.1483002038e+02   6.5402305080e+01    0.6685648    0.3177634 -19.10  0.002250287    2.796    0.642
       121  -8.4020    163.2448     86.8045   7.8926077842e+01   3.1955235586e+01    0.2672358    0.2169268 -36.22 0.0009567745    1.214    0.176
       122 -10.3100    104.0409     82.6810   9.2902040831e+01   4.5796810290e+01    0.5315434    0.3228124 -56.19 0.0008432006    1.878    0.468
       123  -7.4298     77.6360     88.8340   1.0278462314e+02   4.9031484758e+01    0.2037849    0.1262439 -60.64 0.0009406084    1.688    0.408
       124  -8.9265    157.6493     83.8011   7.9292949583e+01   3.3839878137e+01    0.3054338    0.2305209 -39.06 0.0006633411    1.308    0.235
       125  -9.2788    140.4657     81.9366   8.2789508685e+01   3.8211011065e+01    0.6084284    0.3134748 -34.10  0.001436532    2.003    0.501
       126  -8.7764    140.0173     75.1564   8.0815199120e+01   3.9585044375e+01    0.4809311     0.245631 -31.76  0.001507785    2.075    0.518
       127  -8.0451    170.4940     83.5012   7.6419036321e+01   3.0812707126e+01    0.1531386    0.1495652 -48.49  0.000810254    1.045    0.043
       128  -8.9503    149.8972     80.0791   7.9960681514e+01   3.6363287280e+01    0.4738341    0.2186126 -37.04  0.001523879    2.142    0.533
       129  -8.6618    119.0415     80.4667   8.7940928346e+01   4.3224699769e+01    0.3382027    0.2586375 -61.41 0.0007810378    1.549    0.354
       130  -8.5298    119.9208     76.0529   8.6323405650e+01   4.3907000393e+01    0.3306673    0.2466376  18.36 0.0008829496    1.614    0.381
       131  -9.1516     74.2741     79.0516   1.0116508284e+02   5.1695919966e+01     0.659386    0.2458834 -48.92  0.002170959    2.399    0.583
       132  -9.9936     65.8658    110.9401   1.1161742551e+02   4.5626242072e+01    0.4688617    0.3582914  60.72  0.001249615    1.487    0.328
       133  -7.8611    166.3196     78.8660   7.5943321872e+01   3.2643123781e+01    0.2138646    0.1943313 -23.93 0.0005784639    1.099    0.090
       134  -8.4282    240.3254     78.6529   6.3288919687e+01   1.5255500867e+01    0.1479361   0.09848791 -59.17  0.000480256    1.747    0.428
       135  -8.0889    184.1899     78.1274   7.2149559460e+01   2.8413366836e+01    0.2306508     0.203653   7.72   0.00058672    1.235    0.190
       136  -8.6769    249.0598     77.0141   6.1750310440e+01   1.3635329469e+01    0.2086632    0.1874468 -26.80 0.0005133711    1.065    0.061
       137  -8.9432    157.0600     76.3469   7.7198407408e+01   3.5329624568e+01     0.447006    0.2289687 -27.93  0.001679144    2.201    0.546
       138  -9.2391    138.1170     66.2438   7.8442987568e+01   4.1630619384e+01    0.3703249      0.34884 -73.93   0.00056672    1.180    0.152
       139  -9.3925    127.3959     75.3094   8.4076052394e+01   4.2422612361e+01    0.3853636    0.2944733 -74.86 0.0007754566    1.822    0.451
       140  -9.2179    129.2113     69.1580   8.1631018716e+01   4.3162388518e+01    0.6917065    0.3476897  25.42  0.002062762    4.119    0.757
       141  -8.7600    130.5585     64.7080   7.9826197624e+01   4.3654397791e+01    0.4315455    0.2540831 -30.09  0.001162784    1.760    0.432
       142  -8.9307    157.7041     91.1379   8.1411643738e+01   3.2456599565e+01    0.3298713    0.1807662 -42.06  0.001014514    1.807    0.446
       143  -9.8117     16.0834     70.3381   1.1959352627e+02   5.9916935205e+01    0.4537744    0.2049099 -62.30  0.001349562    1.724    0.420
       144  -9.5298     17.0816     61.3669   1.1723415165e+02   6.1816551504e+01    0.5034965    0.2645914 -56.83   0.00281081    1.463    0.316
       145  -9.2857    104.9156     70.6040   8.8863738415e+01   4.8065824691e+01      0.79379    0.3229847 -35.65  0.002693554    2.617    0.618
       146  -8.2811    162.5997     72.7669   7.4908942022e+01   3.4610612772e+01    0.2666017    0.1803555 -43.36 0.0007471955    1.494    0.331
       147  -9.1799    115.3529     71.8886   8.6263017723e+01   4.5680671459e+01    0.5260376    0.2619816 -34.33   0.00123223    2.075    0.518
       148  -8.5043    169.1426     70.7047   7.2927775211e+01   3.3353716051e+01    0.2735422     0.197908 -45.96 0.0006862472    1.418    0.295
       149  -9.2736    147.0357     69.2745   7.7289580691e+01   3.8985932131e+01    0.4310977    0.2724763 -57.20 0.0008446816    2.036    0.509
       150  -8.1084    156.4987     70.0169   7.5385100502e+01   3.6571904588e+01    0.2283405    0.1503387 -33.52 0.0004353674    1.513    0.339
       151  -9.8057     94.8415     68.1357   9.1127964966e+01   5.0488870896e+01    0.4651568     0.245963 -46.91 0.0008667531    1.873    0.466
       152  -9.4646     97.1598     58.6944   8.7193794589e+01   5.1849367611e+01    0.7890159    0.4723425 -18.41  0.003312937    2.210    0.547
       153  -9.6608    109.7782     63.9021   8.5208824598e+01   4.8352532963e+01    0.5537558    0.2780452 -47.19  0.002211134    2.145    0.534
       154  -9.0440    110.6641     58.2959   8.3023845098e+01   4.9181511638e+01    0.4199097    0.2896809  19.13 0.0008409256    1.785    0.440
       155  -9.3637    118.2740     54.7912   7.9673136264e+01   4.8138642993e+01    0.5012719    0.3086354 -35.92  0.001386947    1.598    0.374
       156  -9.0902    121.0735     47.0207   7.6155231441e+01   4.8771342122e+01     0.369937    0.2041311 -32.12 0.0004783845    1.806    0.446
       157  -9.0906    121.3276     66.1513   8.2731824540e+01   4.5468832944e+01    0.3437896    0.2561271 -57.71 0.0007867501    1.611    0.379
       158  -9.3827    123.1132     59.7652   8.0101267647e+01   4.6208531209e+01    0.3782876    0.2989276  -7.40  0.001009121    1.402    0.287
       159  -8.0765    170.6898     65.4082   7.1021905689e+01   3.3842139354e+01    0.2565461    0.1873483 -43.43 0.0005847315    1.382    0.276
       160  -8.6309    157.5421     63.4269   7.3103554023e+01   3.7423454702e+01    0.2906142    0.2359821 -59.28 0.0009053483    1.386    0.278
       161  -7.5273    147.7612     63.3981   7.5248902951e+01   3.9818345778e+01     0.225414    0.1358878  43.00 0.0009511675    1.695    0.410
       162 -10.3526     89.4525     38.5420   8.2081855600e+01   5.6789858628e+01    0.9242834    0.3596978  33.17  0.003122742    3.619    0.724
       163  -8.4515     89.1115     52.6645   8.7593744875e+01   5.4472813308e+01    0.4379468    0.2901023   7.49  0.001992083    2.057    0.514
       164 -10.1968     85.1309     48.0726   8.7201788058e+01   5.6018055570e+01    0.4187949     0.323121 -64.06  0.001042921    1.834    0.455
       165 -10.1163     73.0715     58.9913   9.5279465874e+01   5.6037850097e+01    0.5901886    0.2965561 -55.51  0.001299147    2.471    0.595
       166  -9.3924     75.5400     50.5548   9.1416543168e+01   5.7242244322e+01    0.5888585    0.3579085   9.33   0.00254973    2.491    0.599
       167  -9.1642     80.0541     46.5235   8.8334712051e+01   5.7195928307e+01    0.3494899    0.2005888 -38.40  0.000475034    1.635    0.388
       168  -8.1867     10.5977     61.1168   1.1970409372e+02   6.2281745169e+01    0.2507236    0.1655483 -87.82  0.001472968    1.840    0.457
       169  -8.1686    164.6239     60.2841   7.0654935362e+01   3.6173643243e+01    0.2035514    0.1454676 -21.99 0.0009336797    1.500    0.333
       170  -7.9083    152.5288     60.1003   7.3126654205e+01   3.9199889379e+01    0.2323632    0.1476638 -34.10  0.001021453    1.567    0.362
       171  -8.3335    146.7901     59.1312   7.4085635859e+01   4.0759891854e+01     0.233202    0.2029673 -59.54 0.0008150695    1.275    0.216
       172  -8.7024    147.6293     53.3232   7.1987565243e+01   4.1479808710e+01    0.5377086    0.2434531 -21.48  0.001832978    2.960    0.662
       173  -9.2710    149.9063     47.4403   6.9541700900e+01   4.1806819841e+01    0.5197264    0.2024973 -30.90  0.001210763    2.588    0.614
       174  -9.4876    152.7596     40.4415   6.6619500876e+01   4.2086855945e+01    0.4428146    0.2932557 -36.45  0.001386341    1.533    0.348
       175  -8.7263    139.4330     40.2122   6.9322855062e+01   4.5427313985e+01    0.4158599    0.2156434 -41.13  0.001117587    2.036    0.509
       176  -9.5054    138.9840     56.2525   7.4934203779e+01   4.3111466246e+01    0.6627974    0.2406516 -35.21  0.001755872    2.694    0.629
       177  -8.6653    142.0011     48.5044   7.1617414401e+01   4.3595138225e+01    0.3404764    0.2029941 -38.92 0.0005639875    1.704    0.413
       178  -8.3479    142.7767     44.4136   7.0046448028e+01   4.4009816276e+01    0.3162713    0.1324094  52.83 0.0008530718    2.243    0.554
       179 -10.2574    187.2852    234.1616   1.0502491158e+02   1.3347381956e+00    0.3935357      0.26323  36.30  0.001960887    1.209    0.173
       180 -10.1426     50.0319     53.9508   1.0211529762e+02   6.0267444682e+01    0.5959691    0.3016616 -55.32  0.002129033    2.016    0.504
       181  -9.6525     56.6223     43.0172   9.5636773362e+01   6.1511074732e+01    0.7309369    0.3988623  -3.94  0.002774017    3.695    0.729
       182  -8.2265     53.4349     39.2385   9.5449585580e+01   6.2634382476e+01    0.2586001    0.1641518 -42.40 0.0009849109    1.436    0.303
       183  -8.7254     54.9028     35.3179   9.3291161187e+01   6.3122293648e+01    0.3030873    0.1912941 -25.93  0.000990781    1.494    0.331
       184  -7.2949    104.5400    237.5327   1.2066474535e+02   1.3561250562e+01    0.1149065    0.0930061  51.75 0.0008078319    1.054    0.051
       185 -10.1573    140.0518    230.4135   1.1325645704e+02   9.3526348179e+00    0.1925326    0.1750997  46.66  0.000159394    1.113    0.102
       186  -9.3743    162.8572     53.0232   6.8724840868e+01   3.7737501871e+01    0.4742347    0.2550622 -25.93  0.001912153    2.000    0.500
       187  -8.3184    157.4841     48.5905   6.8366617944e+01   3.9745309625e+01    0.4653792    0.1284382 -34.10  0.001435295    3.377    0.704
       188  -8.9148    130.1263     47.8970   7.4185891187e+01   4.6537180708e+01    0.3021167    0.2358372 -39.09  0.000552437    1.319    0.242
       189  -8.8068    130.9648     43.2761   7.2344645999e+01   4.7033377810e+01    0.5602282    0.3124679   1.56  0.001927984    3.376    0.704
       190  -9.3748    219.3393     45.3330   5.7549310737e+01   2.4747474208e+01    0.3865559    0.2517778 -22.91  0.001016681    1.630    0.386
       191  -8.6020    111.8639     46.7665   7.8540126602e+01   5.0865701826e+01    0.3226377    0.2206781 -38.37 0.0005251209    1.477    0.323
       192  -8.8460    113.4896     41.9953   7.6317764346e+01   5.1249677261e+01    0.7019222    0.3571748 -10.09   0.00234076    3.628    0.724
       193  -9.2079    105.5163     52.1746   8.2336369391e+01   5.1325814831e+01    0.5582606    0.2562255 -35.27  0.001591593    2.133    0.531
       194  -7.4844     12.4594    220.0032   1.3579258655e+02   2.7810011292e+01    0.1432801   0.08149496 -86.37 0.0005770755    1.489    0.329
       195  -8.2674     70.8700     31.3857   8.5496291450e+01   6.1287394693e+01    0.3482486      0.15964 -39.38 0.0009821223    2.115    0.527
       196  -7.2894    141.9683    216.2269   1.1101998201e+02   1.1339522236e+01    0.1610042   0.08938215  41.63 0.0008390655    1.523    0.344
       197  -9.8559     76.2595     31.9797   8.3818667453e+01   6.0259020607e+01    0.3773883    0.3219272  69.43  0.001007106    1.706    0.414
       198  -9.7235     79.4661     24.0234   7.9276812888e+01   6.0829887804e+01    0.5398142    0.2789276  25.89  0.002005323    2.409    0.585
       199  -9.1384     84.6934     21.9221   7.6633856663e+01   6.0108453789e+01    0.2902404    0.2183053 -25.37 0.0006714698    1.298    0.230
       200 -10.0307     10.2632    207.5674   1.3555197004e+02   3.0334446434e+01    0.3912373    0.2225251  29.74  0.002575058    2.176    0.540
       201  -8.6537    249.1886    201.1893   8.8672033026e+01  -4.0980495204e+00     0.186977    0.1621133   5.07            0    1.215    0.177
       202  -9.1029    191.3739    192.9922   9.7581082774e+01   6.6313850898e+00    0.4786123     0.248068 -56.88  0.001893556    3.635    0.725
       203  -8.1708     41.8779     28.1723   9.5813677020e+01   6.6062023690e+01     0.210181    0.1352239 -26.21 0.0004152638    1.380    0.275
       204  -9.8853     37.8136     41.9864   1.0297561842e+02   6.4019497799e+01    0.3446011    0.2767936 -83.75  0.001604321    1.973    0.493
       205 -10.5709     35.9211     37.9883   1.0233889516e+02   6.4981226382e+01    0.5441504    0.2740269 -26.74 0.0003476381    2.244    0.554
       206  -9.1927    110.2870     33.3042   7.3853167321e+01   5.3220378911e+01    0.4851467    0.2071262 -37.07   0.00174858    2.371    0.578
       207  -9.7111    246.7693    182.6601   8.5579845630e+01  -1.3497796185e+00     0.370263    0.2734898 -44.11  0.002185279    1.788    0.441
       208  -9.1456    235.4190    178.2801   8.6652905925e+01   1.1269654906e+00    0.2673658    0.1986355  41.43 0.0004487853    1.443    0.307
       209  -9.0881    104.9935     41.4010   7.8467372633e+01   5.3186832193e+01    0.3570231    0.2487442 -51.28  0.001107016    1.770    0.435
       210  -8.6048    106.1678     36.3116   7.6162494688e+01   5.3696877161e+01    0.3353317    0.2237974  25.65 0.0009542476    1.641    0.391
       211  -7.1974     17.8308    178.3771   1.3233395542e+02   3.5479391700e+01    0.1255137    0.1081804  21.88 0.0003701018    1.627    0.385
       212  -8.9568    235.8947    173.2520   8.5566132932e+01   1.7596144847e+00    0.2543753    0.1888447  15.32 0.0003580371    1.262    0.208
       213  -8.1150    122.8425     40.5470   7.3340423228e+01   4.9340623031e+01    0.2951988    0.1912567  -5.05   0.00130077    1.959    0.490
       214  -7.9661    160.4509     38.5106   6.4510630895e+01   4.0403627801e+01    0.3066025    0.1449214 -27.64  0.001211436    2.188    0.543
       215  -9.3059    144.3954     36.7967   6.7073513404e+01   4.4669855098e+01    0.3738554    0.2429698 -63.80  0.001115132    2.158    0.537
       216  -7.4586    193.0300     37.7089   5.8966068040e+01   3.2218106795e+01    0.1891966    0.1755239  81.68 0.0001741853    1.055    0.052
       217  -8.8211    132.9676     35.9663   6.9254752233e+01   4.7583236930e+01    0.2504329    0.2046688 -23.82  0.000454986    1.246    0.197
       218 -10.7671    134.1053     30.9104   6.7171132105e+01   4.7969501946e+01    0.3790143    0.2762487   4.14  0.001869944    1.586    0.369
       219  -8.8628    118.9120     34.4659   7.2055514435e+01   5.1108264919e+01    0.3407167    0.1926421 -32.10 0.0008097099    1.773    0.436
       220  -9.2484    129.9367     56.5150   7.7227385605e+01   4.5201981989e+01    0.6994488    0.2494472 -37.29  0.002184988    2.728    0.633
       221  -9.4235    101.0242     32.0345   7.5931177458e+01   5.5408474068e+01    0.3453553    0.2596715 -35.13 0.0007785159    1.376    0.273
       222  -8.6318     87.5960     58.4153   9.0147088779e+01   5.3691692975e+01    0.3012977    0.2276491 -54.21 0.0008976826    1.512    0.338
       223  -7.1065    165.7585     27.6707   6.0071700026e+01   4.0409149054e+01    0.1410616    0.1061678  23.96 0.0001699738    1.536    0.349
       224  -8.9319     91.2249     26.1055   7.6396156280e+01   5.8253769170e+01    0.2985844    0.2228538 -45.10  0.001153643    1.600    0.375
       225  -8.8087     92.0823     20.8420   7.3880751221e+01   5.8759413267e+01    0.3542304    0.2202872  19.65  0.001086344    1.818    0.450
       226  -9.1617     90.4820    170.0390   1.1540354954e+02   2.8547019355e+01    0.2185241    0.1799033  46.89 0.0003210882    1.193    0.162
       227  -8.6068    236.0328    168.3019   8.4536394599e+01   2.4487840744e+00    0.2110003    0.1690052 -17.31 0.0005268624    1.143    0.125
       228  -8.8920    149.9898     25.5003   6.2079909526e+01   4.4677461472e+01    0.2210926    0.1901587 -22.10 0.0006225912    1.217    0.178
       229  -8.8580    144.1667     25.7163   6.3249868170e+01   4.6116388902e+01    0.2375782    0.1907001 -41.77 0.0007519699    1.333    0.250
       230  -8.6675    128.4861     25.8245   6.6529491911e+01   4.9959854507e+01     0.279199    0.2128636 -61.02 0.0007428661    1.657    0.397
       231  -8.4843    156.9800    168.9535   1.0015198930e+02   1.7189028256e+01      0.20476    0.1922994  38.13  0.001198174    1.019    0.018
       232  -8.1010    155.7089     23.3988   6.0352004317e+01   4.3468117948e+01    0.2115592    0.1200348  53.40 0.0009514496    1.626    0.385
       233  -9.2763    140.1247     22.6600   6.2949857284e+01   4.7476855340e+01    0.3446819    0.2387213 -26.95  0.001578238    1.500    0.334
       234  -9.6887    118.9282     21.4990   6.7048342970e+01   5.2742073578e+01    0.2841845    0.2681162  53.60 0.0005237132    1.121    0.108
       235  -7.7052    230.3395    167.6490   8.5395035090e+01   3.5481014928e+00    0.1250002    0.1085739 -71.17 0.0004648269    1.797    0.444
       236  -9.0330     40.8681     20.6427   9.2936166783e+01   6.7424877912e+01    0.2488336    0.1464561 -28.99 0.0002174364    1.478    0.323
       237  -9.0755    132.7179     17.5296   6.2544170063e+01   4.9869217231e+01    0.3717832    0.2125027  48.63  0.001741714    1.597    0.374
       238  -8.3817    128.6970     16.3332   6.2912579611e+01   5.0976841427e+01    0.2405885    0.2047551  16.08 0.0007025816    1.183    0.154
       239 -10.3619    204.0050    165.9690   8.9898936149e+01   8.6691802287e+00    0.2630602    0.2388017  11.88 0.0003438023    1.031    0.030
       240  -8.6051     89.8632    154.6860   1.1317392837e+02   3.2028999386e+01    0.2009596    0.1722317 -56.57 0.0003324203    1.200    0.167
       241  -8.0447    134.2613    149.1742   1.0137659381e+02   2.5530275262e+01    0.3485008    0.2017968 -55.19  0.001185922    1.859    0.462
       242  -7.8370    133.4916    143.9983   1.0048370475e+02   2.6776893474e+01    0.3257058    0.1447363 -49.67  0.001246611    2.299    0.565
       243  -8.8582    223.7503    148.9450   8.2585527670e+01   7.6455974275e+00    0.2302485    0.1858003  25.06 0.0004156364    1.206    0.171
       244  -8.0408    209.4469    147.4468   8.4881084185e+01   1.0691391437e+01    0.2264033    0.1946325 -81.21 0.0006292388    1.657    0.396
       245  -7.7088    151.9916    146.1856   9.6616419657e+01   2.2660778180e+01      0.19284    0.1841676  30.92 0.0002405565    1.022    0.022
       246  -9.3641     67.0684    144.5571   1.1726958271e+02   3.7599582316e+01    0.4592376    0.2772179  67.76  0.002220852    1.989    0.497
       247  -8.4920    243.2291    138.4015   7.6927998841e+01   5.5896976774e+00    0.1752298    0.1327131  57.30 0.0009498632    1.679    0.404
       248  -7.8828    250.6012    136.1917   7.5264164525e+01   4.5605964074e+00    0.1877774    0.1146177 -20.48 0.0006863335    1.586    0.370
       249  -8.6486    112.1687    133.8486   1.0363050504e+02   3.3000219377e+01    0.3834943    0.2406379  70.81  0.001559841    2.432    0.589
       250  -9.8478     66.4972    128.9774   1.1486258733e+02   4.1305658375e+01    0.6989034    0.3971479 -58.33  0.003443382    1.582    0.368
       251 -10.0385     71.2519    125.7107   1.1296337344e+02   4.1431721246e+01    0.5678241    0.3507791 -88.18  0.001344353    2.159    0.537
       252 -10.1079     58.1386    124.3657   1.1637028692e+02   4.3450143089e+01    0.8031704    0.4191778  84.42  0.002148121    3.515    0.715
       253  -9.9549    139.3876    103.5775   8.9278601648e+01   3.4143147398e+01     0.678299    0.3268638 -43.97  0.002105784    2.047    0.511
       254  -9.9181    133.7510    131.5428   9.7681647847e+01   2.9394759906e+01    0.5711978    0.4598683  48.73   0.00290978    1.250    0.200
       255 -10.3364    140.8660    117.9003   9.2654765275e+01   3.0838256403e+01    0.9413703    0.4332437 -38.94  0.001200503    2.291    0.563
       256 -10.4422    132.0290    120.0010   9.5377665228e+01   3.2226966589e+01    0.9210709    0.5973759  83.28  0.003362573    3.025    0.669
       257 -10.5996    133.5805    109.4483   9.2310183399e+01   3.4159676924e+01    0.8347143    0.4561396 -43.82  0.002260525    1.801    0.445
       258  -8.4928     83.0807    131.6653   1.1085518395e+02   3.8334380259e+01    0.5688763    0.3055165  70.47  0.002024331    3.564    0.719
       259  -9.6854     98.4441    128.5953   1.0611969548e+02   3.6590760492e+01    0.5771855    0.3570023  78.28  0.001986089    2.776    0.640
       260  -9.8160     41.7871    122.4749   1.2062865614e+02   4.5730071358e+01    0.7427395    0.3202045 -86.22  0.002106101    3.958    0.747
       261  -8.5291    244.0085    127.2915   7.4304483387e+01   7.1264269640e+00    0.2426904    0.1395063 -31.23 0.0009527899    1.566    0.362
       262  -9.8880    117.1862    125.5169   1.0049458551e+02   3.3935426904e+01    0.7589431    0.4803362 -88.85  0.002243059    3.076    0.675
