#   1 NUMBER                 Running object number                                     
#   2 MAG_AUTO               Kron-like elliptical aperture magnitude                    [mag]
#   3 X_IMAGE                Object position along x                                    [pixel]
#   4 Y_IMAGE                Object position along y                                    [pixel]
#   5 X_WORLD                Barycenter position along world x axis                     [deg]
#   6 Y_WORLD                Barycenter position along world y axis                     [deg]
#   7 A_WORLD                Profile RMS along major axis (world units)                 [deg]
#   8 B_WORLD                Profile RMS along minor axis (world units)                 [deg]
#   9 THETA_WORLD            Position angle (CCW/world-x)                               [deg]
#  10 FWHM_WORLD             FWHM assuming a gaussian core                              [deg]
#  11 ELONGATION             A_IMAGE/B_IMAGE                                           
#  12 ELLIPTICITY            1 - B_IMAGE/A_IMAGE                                       
         1 -15.4714    221.3128    103.8513   7.5361880133e+01   1.5253285656e+01     5.073386     3.329919  -9.35   0.02277163    1.911    0.477
         2 -12.1499    197.0107      7.0556   5.2596957342e+01   3.4516772403e+01    0.7903172    0.2465118  54.89  0.002877137    2.899    0.655
         3  -9.0458    186.0029    222.4908   1.0591832899e+02   3.7189801988e+00    0.1944437   0.09933321  41.46  0.001029679    1.586    0.369
         4 -11.0698    247.8912    248.9015   9.9288621418e+01  -8.7106113043e+00    0.3369857    0.1938026  34.15  0.002282255    1.363    0.266
         5  -9.3467    160.7911    220.6024   1.1030671081e+02   8.1860431668e+00    0.1844049   0.09558199  48.42 0.0009538431    1.697    0.411
         6  -9.6828    170.5077    216.0268   1.0783246778e+02   7.2302540384e+00    0.2101967    0.1454119  39.95  0.001264898    1.181    0.153
         7 -10.0074    186.2047    215.0753   1.0476272181e+02   4.7044233979e+00    0.2336736    0.1671275  46.76  0.001423473    1.309    0.236
         8 -10.3868    178.3954    211.4159   1.0565674915e+02   6.5604537730e+00    0.2413247    0.2016698  47.38  0.001292365    1.183    0.155
         9  -9.4122    162.1400    211.8648   1.0880981699e+02   9.2805677994e+00    0.1984669    0.1570561  56.63  0.001242986    1.292    0.226
        10 -10.5107    193.6348    210.8968   1.0273464443e+02   4.0221289555e+00    0.2556686    0.1611844  43.67  0.001321771    1.394    0.283
        11 -11.0203    198.5568    204.9369   1.0085287722e+02   4.0057319866e+00    0.3747392    0.2269421  48.11  0.001921455    1.627    0.386
        12 -10.5259    187.0223    203.4919   1.0277081849e+02   6.2233080179e+00    0.2194733     0.189183 -69.96  0.001376162    1.637    0.389
        13 -10.2509    167.7682    203.0303   1.0638922915e+02   9.6801561934e+00    0.2705052    0.2142603 -66.08  0.001624793    1.685    0.407
        14  -9.3765    150.4804    200.5150   1.0940496563e+02   1.3117205548e+01    0.2043306    0.1259111 -64.41  0.001033285    2.255    0.557
        15  -9.0478    139.4899    199.4971   1.1145439984e+02   1.5189185922e+01    0.2026818    0.1248757 -67.93  0.001028054    2.213    0.548
        16 -10.3100    178.4318    198.5636   1.0360365089e+02   8.4865795631e+00    0.2673973    0.2059626  80.38  0.001470368    2.002    0.500
        17  -9.3672    203.6489    198.1458   9.8756279943e+01   4.0718126036e+00     0.229428    0.1576242  44.14  0.001078955    1.367    0.269
        18  -8.9259    156.8110    196.3296   1.0749922493e+02   1.2704483379e+01    0.1745793    0.1602761  60.08  0.000999073    1.145    0.127
        19 -10.8452    186.9875    193.6879   1.0113018872e+02   7.6987271280e+00    0.3241322    0.2892704  65.67  0.001505407    1.378    0.274
        20  -9.5604    147.8510    195.1185   1.0911395510e+02   1.4494521312e+01    0.2035108    0.1690383  63.00  0.001240343    1.237    0.191
        21 -10.4134    172.8043    191.0914   1.0345709779e+02   1.0686249693e+01    0.3118664    0.1822185 -55.75  0.001505312    2.332    0.571
        22  -9.7593    179.8331    191.0922   1.0207231847e+02   9.4029539123e+00    0.1997477    0.1770182  61.50  0.001233601    1.300    0.231
        23  -9.4476    194.4306    189.2804   9.8928915973e+01   7.0178812381e+00    0.1640529    0.1281441 -48.13 0.0009460506    1.587    0.370
        24  -9.9230    167.2048    186.4906   1.0379334714e+02   1.2474088881e+01      0.22915    0.1968079 -39.90  0.001230166    1.323    0.244
        25  -9.0320    140.0276    186.0003   1.0930375008e+02   1.7494232666e+01    0.2165759    0.1538266  70.39   0.00113869    1.710    0.415
        26 -10.8784    203.6597    184.4743   9.6302872122e+01   6.0525270050e+00    0.2567916    0.2370758  83.26  0.001600098    1.493    0.330
        27  -9.6259    190.7701    185.5990   9.8971424371e+01   8.2551289434e+00    0.1899636    0.1154533  49.18 0.0009478292    1.632    0.387
        28 -10.7817    183.1892    183.9899   1.0016249788e+02   9.9178725043e+00     0.324511    0.2484807 -58.43   0.00163568    1.722    0.419
        29  -9.8218    177.4697    184.7345   1.0142875186e+02   1.0862765422e+01    0.3025709    0.1314194 -48.23  0.001262713    2.813    0.645
        30 -10.5182    176.7443    179.3899   1.0061393208e+02   1.1883162056e+01    0.2889946    0.2033821 -53.56  0.001390294    1.753    0.429
        31  -9.9356    212.1218    183.6761   9.4575790019e+01   4.6277101551e+00     0.214487    0.1845068 -35.92  0.001326855    1.364    0.267
        32 -11.4793    191.6403    179.3711   9.7657547520e+01   9.0713429780e+00    0.3389134    0.2829244  78.59  0.001910679    1.696    0.410
        33 -10.2472    183.0313    176.5783   9.8834412340e+01   1.1156152102e+01    0.2472562    0.2003618 -63.16  0.001375322    1.629    0.386
        34  -9.5915    152.4803    176.5474   1.0511428743e+02   1.6951149536e+01    0.2659032    0.1374615 -48.18   0.00120856    2.161    0.537
        35  -8.9630    146.8255    174.7923   1.0601058662e+02   1.8325793421e+01    0.1919088    0.1551247  68.16 0.0009011673    1.358    0.263
        36  -8.7844    100.6869    172.3180   1.1573237301e+02   2.6815755614e+01    0.1370231   0.09216809  71.41 0.0007036448    1.646    0.393
        37  -8.9021    134.5032    171.0269   1.0803178446e+02   2.1303857335e+01    0.2001257    0.1364962 -53.64  0.000874424    1.600    0.375
        38  -8.9104    165.2947    167.6424   1.0078732579e+02   1.6122937101e+01    0.1381597    0.1100894  83.68 0.0006140122    1.696    0.411
        39  -9.4500    138.4644    164.2897   1.0597642667e+02   2.1888586647e+01    0.3290598    0.2255202 -87.42  0.001512949    2.214    0.548
        40  -8.6328    114.3164    159.6716   1.1064898226e+02   2.7174276842e+01    0.1429019    0.1011996  74.94 0.0007045617    1.678    0.404
        41  -9.2995    158.2935    154.0601   9.9631559209e+01   2.0025254843e+01    0.2019537     0.190138 -51.62  0.001159903    1.145    0.127
        42  -8.3658    111.3178    154.6483   1.1048803426e+02   2.8744407948e+01    0.1456887    0.1021769  76.87 0.0007047268    1.740    0.425
        43  -9.7367    195.0032    222.9834   1.0436316729e+02   2.1674560525e+00    0.1805654    0.1408956  61.51  0.001132813    1.710    0.415
        44  -8.9406    116.6343    145.8105   1.0761823521e+02   2.9687866785e+01    0.1995872    0.1311596 -65.67 0.0009497968    1.692    0.409
        45  -9.1548     96.0000    110.9898   1.0575988197e+02   4.0952043151e+01    0.2410007   0.07778928 -52.84 0.0008066277    2.972    0.663
        46  -8.2947    142.6499     90.3104   8.7954538768e+01   3.6032264735e+01    0.1573019    0.1234367 -85.74 0.0007044906    1.716    0.417
        47  -9.1079    148.4866    143.0379   9.9550046462e+01   2.4153641755e+01    0.2203083    0.1453826 -47.70  0.001032309    1.594    0.373
        48  -9.7677    171.2893    145.0205   9.4913816715e+01   1.9067676439e+01    0.2041908    0.1905405 -36.78 0.0005849533    1.131    0.116
        49 -10.8287    185.3351    115.7934   8.5112967466e+01   2.1390398866e+01    0.2951309    0.2326741 -62.96  0.001422333    1.560    0.359
        50  -9.0070    164.5439    144.7254   9.6312999921e+01   2.0527881605e+01    0.1942941    0.1417317 -56.15 0.0009041881    1.586    0.369
        51  -8.6495    122.0000    127.9750   1.0266677055e+02   3.2521047369e+01     0.240774   0.08234254 -49.75 0.0008037117    2.951    0.661
