#   1 NUMBER                 Running object number                                     
#   2 MAG_AUTO               Kron-like elliptical aperture magnitude                    [mag]
#   3 X_IMAGE                Object position along x                                    [pixel]
#   4 Y_IMAGE                Object position along y                                    [pixel]
#   5 X_WORLD                Barycenter position along world x axis                     [deg]
#   6 Y_WORLD                Barycenter position along world y axis                     [deg]
#   7 A_WORLD                Profile RMS along major axis (world units)                 [deg]
#   8 B_WORLD                Profile RMS along minor axis (world units)                 [deg]
#   9 THETA_WORLD            Position angle (CCW/world-x)                               [deg]
#  10 FWHM_WORLD             FWHM assuming a gaussian core                              [deg]
#  11 ELONGATION             A_IMAGE/B_IMAGE                                           
#  12 ELLIPTICITY            1 - B_IMAGE/A_IMAGE                                       
         1  -9.4654    150.1023     11.6623   7.0130763267e+01   4.6030207403e+01    0.2011918    0.1908595   7.50  0.000350806    1.207    0.171
         2  -8.4305     59.3927     12.1748   9.2833151237e+01   6.4447824693e+01    0.1496156   0.09968282 -32.45  0.000696347    1.647    0.393
         3  -8.5771    111.4716     10.0172   7.7107271141e+01   5.4984464782e+01    0.1609289    0.1226928 -18.79 0.0003377186    1.444    0.308
         4  -8.7001    125.7464      8.7734   7.3651144539e+01   5.1959174504e+01    0.1607769    0.1439168 -85.05 0.0005862687    1.308    0.235
         5 -10.4093    165.3355      4.7257   6.5819402492e+01   4.3013544202e+01    0.7140725    0.2491566  47.49  0.002817182    2.923    0.658
         6  -8.4640     66.8256      5.6356   8.7558324165e+01   6.3929858239e+01    0.1553644    0.1028766  52.52 0.0009407501    1.758    0.431
         7 -10.1278    184.1138      2.7883   6.2900565383e+01   3.8652181008e+01    0.4218923    0.1583911  56.48   0.00183766    2.298    0.565
         8  -9.9752     11.8773      1.3396   1.0766157069e+02   7.1449737104e+01    0.1414823   0.08240348  20.57 0.0002765012    1.654    0.395
         9  -8.9731     41.0281    227.4857   1.4397619962e+02   2.2745534641e+01    0.2343627    0.1142393  32.89  0.001210839    2.709    0.631
        10  -9.1744    248.5575    249.9828   1.0787088912e+02  -1.4175910450e+01    0.2682903    0.1436037  37.39  0.001558132    1.684    0.406
        11 -10.4142    243.1451    249.0944   1.0867153122e+02  -1.3288498760e+01    0.3849047    0.2712045 -28.50   0.00254575    1.522    0.343
        12  -9.4644    249.1077    221.8122   1.0286777493e+02  -1.0618399714e+01     0.371255    0.2754256  65.84  0.002001524    2.612    0.617
        13  -8.9345    250.1389    214.1692   1.0127801784e+02  -9.7043315566e+00    0.1583769    0.1497239 -20.39 0.0005984586    1.333    0.250
        14 -10.1384     21.2062    212.5771   1.4637383360e+02   2.8059012547e+01    0.2723907    0.1481628 -62.68  0.001641157    1.886    0.470
        15  -9.9651    209.7454    212.6156   1.0848489530e+02  -2.6585112268e+00    0.2203246    0.1733754 -63.69  0.001206259    1.800    0.445
        16 -10.0089    124.0013    205.9944   1.2503181112e+02   1.4595855320e+01    0.1967611     0.173043  64.79  0.001150837    1.004    0.004
        17  -9.1823    100.5576    205.7392   1.2997901243e+02   1.8715175780e+01    0.2482613    0.1238278 -57.06  0.001139476    2.069    0.517
        18  -8.9178    202.6439    203.6964   1.0822188520e+02   1.4470948572e-01    0.1441285    0.1026782   9.70 0.0007039579    1.714    0.417
        19  -9.3123     90.5222    199.9978   1.3133189656e+02   2.1594534216e+01    0.1839851    0.1055028 -42.11   0.00080988    2.581    0.613
        20  -8.2159    139.0148    199.0311   1.2068288098e+02   1.3271163803e+01    0.1635244    0.1499013  64.34 0.0009351857    1.014    0.014
        21  -8.9892    133.0021    198.7961   1.2194972292e+02   1.4451329028e+01    0.1901988    0.1665989  57.47            0    1.041    0.039
        22  -8.2067     55.9342    215.0120   1.4011123733e+02   2.3404881607e+01    0.1443161    0.1115307  83.30            0    1.046    0.044
        23  -8.9053     42.0026    189.5160   1.4032103025e+02   3.0684455460e+01    0.1733092    0.1149552  43.71 0.0006147362    1.591    0.371
        24  -8.5899    223.1169    188.1395   1.0119843395e+02  -9.8875431402e-01    0.1646054     0.160516  88.02 0.0009964228    1.261    0.207
        25  -8.8525    101.0495    175.9743   1.2537338244e+02   2.5278866097e+01    0.2005823     0.182931 -87.54  0.001154396    1.046    0.044
        26  -8.5432     40.0095    110.7317   1.2966103760e+02   4.9079690809e+01    0.1338119    0.1144392  26.48 0.0002433464    1.398    0.285
        27  -8.7446    238.7501    102.2363   7.9544703933e+01   1.1332460495e+01    0.2234316    0.1080063  45.39  0.000897709    2.440    0.590
        28  -9.2475    210.9795     90.8509   8.1335807520e+01   1.9701463388e+01    0.3750173    0.2171639 -53.43 0.0009278346    1.812    0.448
        29  -8.3318    148.6927     89.7389   9.3699875847e+01   3.4963542142e+01    0.1503332    0.1206602  17.78 0.0002601776    1.525    0.344
        30  -8.1967    192.4489     87.6258   8.3838545136e+01   2.4762213609e+01    0.1493526    0.1426151  76.92 0.0001087552    1.042    0.040
        31  -7.9303    100.6742     87.2565   1.0571789068e+02   4.5638119043e+01     0.136979    0.1148516  80.96 0.0002386598    1.552    0.356
        32  -8.9117    160.8125     81.0587   8.8482107685e+01   3.3708210960e+01    0.2191547    0.1955627 -83.98 0.0003573871    1.195    0.163
        33  -9.6551    219.4843     76.9417   7.6545743914e+01   2.0092694447e+01    0.2240232    0.1374293 -39.62  0.001029428    1.581    0.367
        34 -12.1500    244.4739     68.9091   7.1175621922e+01   1.5661783199e+01    0.8224308    0.5268313  64.39  0.003017793    1.617    0.381
        35 -10.2860    230.3213     68.0654   7.2855698155e+01   1.9005282103e+01    0.3618405    0.2230532  76.09 0.0007622329    1.772    0.436
        36 -10.3048    232.6719     64.6961   7.1754843165e+01   1.8995543508e+01    0.2077416     0.200887 -59.00 0.0006470043    1.183    0.155
        37  -8.8972     46.7740     66.9682   1.1713975248e+02   5.7666173498e+01    0.1659349   0.08956672 -47.72 0.0004536196    1.598    0.374
        38 -10.0617     12.3103     69.5605   1.2994277216e+02   6.0139485449e+01    0.1851832       0.1071  24.50  0.001084894    2.094    0.522
        39  -9.5714     79.9885     64.9302   1.0529311420e+02   5.3519468866e+01    0.2018084    0.1782223 -19.05  0.000375958    1.025    0.024
        40  -8.4470     84.9766     62.4855   1.0291851607e+02   5.3131000888e+01    0.1886358    0.1299255  36.22 -5.210144e-05    1.477    0.323
        41  -9.4137    250.2916     61.0509   6.8733836219e+01   1.5603171032e+01    0.1931977    0.1500023 -53.23  0.000436598    1.136    0.120
        42  -9.8465     39.7206     71.1433   1.2076504933e+02   5.7593959466e+01    0.1881538    0.1647355  26.65 0.0006950509    1.351    0.260
        43 -10.1306    220.3090     59.5315   7.2225331940e+01   2.2700783214e+01    0.3185312    0.2026004 -25.33  0.001483712    1.967    0.492
        44  -9.8529    230.9846     59.5428   7.0786108239e+01   2.0185970385e+01    0.2020773    0.1305452  67.35  0.000343235    1.538    0.350
        45  -9.5659    244.8981     55.8399   6.8227614025e+01   1.7580576391e+01    0.1952345    0.1382448 -67.53 0.0004344976    1.329    0.247
        46 -10.3449    212.2788     55.5879   7.2405190630e+01   2.5234881486e+01    0.2611609    0.2261068 -68.02 0.0005408155    1.074    0.069
        47  -8.6524     84.3614     55.7650   1.0089430791e+02   5.4389644105e+01    0.1829605    0.1161945 -27.58 0.0002960491    1.579    0.367
        48  -8.0160    155.5083     55.4799   8.2225550221e+01   3.9291744743e+01    0.1457622    0.1374902  61.97 2.981125e-05    1.005    0.005
        49  -9.1138    222.7520     53.7478   7.0515247934e+01   2.2996835053e+01    0.2922225     0.127392 -53.37  0.001043893    2.469    0.595
        50  -9.4440     97.7818     53.6448   9.6070933460e+01   5.2315032284e+01    0.1887933    0.1255246  51.70 0.0008530303    1.658    0.397
        51 -10.0042     63.4490     52.1600   1.0662951237e+02   5.8256076684e+01    0.2296956     0.174059  24.83  0.001388461    1.338    0.253
        52  -9.1918     83.1484     50.7440   9.9571561265e+01   5.5417949355e+01    0.1807136    0.1729613  26.97 0.0005456019    1.217    0.178
        53  -8.5941    171.8241     49.9751   7.7464075069e+01   3.6089282912e+01    0.1878498    0.1749978  83.37            0    1.030    0.029
        54  -9.9582    213.0058     49.3053   7.0766222321e+01   2.5990062991e+01    0.1989286    0.1713353  80.98 0.0005446048    1.081    0.075
        55  -9.8197     54.4620     47.4303   1.0820792820e+02   6.0260886775e+01    0.2576495    0.1833621  39.28  0.001552964    1.661    0.398
        56  -9.1327     45.7358     47.4312   1.1141947453e+02   6.1327462525e+01    0.2005588    0.1833602 -83.47   0.00107212    1.707    0.414
        57  -9.5855     76.1781     45.9100   1.0014299428e+02   5.7340314362e+01    0.1795554    0.1646912 -21.46 0.0003028569    1.183    0.155
        58  -9.2701     96.7936     43.3941   9.2839768737e+01   5.4064319820e+01    0.1883757    0.1150931  36.04 0.0005138158    1.583    0.368
        59  -8.8544     66.3595     43.3081   1.0253514016e+02   5.9271087245e+01    0.1335832   0.08802042  -0.12   4.3394e-06    1.734    0.423
        60  -9.4348    128.6825     42.5921   8.4167427901e+01   4.7480196577e+01     0.286896    0.1176606  49.76  0.001141699    2.196    0.545
        61  -8.9134     48.7010     40.0527   1.0774191074e+02   6.2181846861e+01    0.1732909    0.1339683 -25.19 0.0004130121    1.109    0.099
        62  -9.0985    186.5356     39.4925   7.2126551972e+01   3.3885285396e+01    0.1412807     0.127142  82.35 7.015814e-05    1.003    0.003
        63  -9.4493    151.2531     39.0563   7.8176224186e+01   4.2654979105e+01    0.2663333    0.1819823  76.16  0.000915624    1.634    0.388
        64  -9.3407    223.4328     38.2393   6.6799119652e+01   2.5048341338e+01    0.1906844    0.1133314 -49.11 0.0005390791    1.590    0.371
        65  -8.5319     27.5292     37.4877   1.1510463234e+02   6.4869150659e+01    0.1168192   0.08879706 -23.45 -1.616901e-05    1.024    0.024
        66  -9.2002      8.5860     35.1432   1.2214313359e+02   6.6740003829e+01    0.1670517    0.1302038 -14.59 0.0003790475    1.189    0.159
        67  -9.1677    139.2165     34.5741   7.9246480716e+01   4.6098746089e+01    0.2085273    0.1122752  47.32 0.0009475927    1.703    0.413
        68  -8.6406    248.4734     33.5167   6.3044068580e+01   1.9954075706e+01    0.1315485    0.1056983 -72.66 0.0001943419    1.024    0.024
        69  -8.0028    173.9892     33.7473   7.2554768493e+01   3.7751052359e+01    0.1735736    0.1096538  64.10            0    1.429    0.300
        70  -8.8623    211.0241     32.7689   6.7022782626e+01   2.8746656724e+01    0.1843778    0.1033729  69.82 0.0008796995    1.644    0.392
        71  -9.1626     54.6456     31.6469   1.0240674397e+02   6.2676068052e+01    0.1896005    0.1221535  -1.65 0.0008367284    1.648    0.393
        72  -8.1373     84.6313     31.2850   9.2110407260e+01   5.7979304376e+01    0.1160811    0.1035485  88.69 0.0004212085    1.700    0.412
        73  -9.3721     69.6560     26.8224   9.5232283327e+01   6.1100649031e+01    0.1994483    0.1441358  21.16  0.000429133    1.257    0.204
        74  -9.1577     61.7733     26.5687   9.7856307477e+01   6.2354891628e+01    0.2287554    0.1040684  34.87   0.00113896    2.132    0.531
        75  -9.5518    180.8807     23.8225   6.8797926374e+01   3.7242925038e+01    0.2072317    0.1720308  53.41 0.0006217586    1.213    0.176
        76  -8.2707     89.4231     24.5055   8.8132146940e+01   5.7935348913e+01    0.1246091     0.110571  16.53 5.803947e-05    1.067    0.063
        77  -8.8416    195.3455     21.8326   6.6317796815e+01   3.3914590681e+01    0.2038772    0.1475218 -61.76 0.0005176112    1.392    0.282
        78  -8.4652    100.6035     20.7654   8.3641573474e+01   5.6177553041e+01     0.153108     0.117608 -31.93 0.0002403926    1.454    0.312
        79  -9.3276    150.9297     19.7017   7.2396952984e+01   4.5023273546e+01    0.2018661    0.1800346  12.62 0.0004301279    1.274    0.215
        80  -8.8950     79.5042     20.4823   8.9569523894e+01   6.0207343545e+01    0.1259493    0.1029384  15.61 3.714319e-05    1.033    0.032
        81  -9.2172     61.9872     19.9828   9.5150414873e+01   6.3153069899e+01    0.1813598     0.145291   8.67            0    1.026    0.025
        82  -8.7075     56.4256     19.7725   9.7051343760e+01   6.4006165895e+01    0.1674416   0.09737766 -17.32 0.0009504136    1.686    0.407
        83  -8.0430     15.2579     17.7046   1.1304616598e+02   6.8980664987e+01   0.08853664   0.07811056 -32.62            0    1.498    0.333
        84  -8.9504     36.9053     15.8702   1.0297341840e+02   6.7058521021e+01    0.1825399    0.1204822  -5.63  0.001204276    1.339    0.253
        85  -9.2241    177.1705    248.9754   1.2078302314e+02  -2.6928039829e+00    0.1939291    0.1398549  -5.96  0.001083907    1.976    0.494
        86  -8.0266     69.4405     12.4761   8.9557846334e+01   6.2810218051e+01    0.1193084   0.09775765  13.30 9.936164e-05    1.028    0.027
        87  -9.4201     16.7904    248.8102   1.4945554705e+02   2.1460031390e+01    0.2234377   0.05458049 -68.71  0.001049218    3.508    0.715
        88  -9.0761      6.6455    249.6995   1.5105788872e+02   2.2381850597e+01   0.08720551   0.07365929 -72.30 0.0007037569    1.703    0.413
        89  -9.3865    156.0032    244.5167   1.2418165396e+02   1.6652840437e+00    0.1789416     0.102468  24.48 0.0007092626    2.475    0.596
        90 -10.1231    245.2421    238.8878   1.0657663522e+02  -1.2314063905e+01    0.4049777    0.3154448  -7.51  0.002739119    1.179    0.152
        91 -10.4389      4.3827    238.1647   1.5080696162e+02   2.4749033192e+01    0.2264439    0.1456405 -55.76  0.001544075    2.326    0.570
        92  -9.0742     39.3097    232.3445   1.4465872025e+02   2.1989949904e+01    0.1010609   0.08428438 -58.82 0.0007044923    1.701    0.412
