#   1 NUMBER                 Running object number                                     
#   2 MAG_AUTO               Kron-like elliptical aperture magnitude                    [mag]
#   3 X_IMAGE                Object position along x                                    [pixel]
#   4 Y_IMAGE                Object position along y                                    [pixel]
#   5 X_WORLD                Barycenter position along world x axis                     [deg]
#   6 Y_WORLD                Barycenter position along world y axis                     [deg]
#   7 A_WORLD                Profile RMS along major axis (world units)                 [deg]
#   8 B_WORLD                Profile RMS along minor axis (world units)                 [deg]
#   9 THETA_WORLD            Position angle (CCW/world-x)                               [deg]
#  10 FWHM_WORLD             FWHM assuming a gaussian core                              [deg]
#  11 ELONGATION             A_IMAGE/B_IMAGE                                           
#  12 ELLIPTICITY            1 - B_IMAGE/A_IMAGE                                       
         1 -15.1098    152.2268     54.1932   8.4043192384e+01   4.0359583678e+01     1.229216     1.097667  -2.08   0.00385269    1.238    0.193
         2 -15.0880    160.8728     27.7800   7.4426798361e+01   4.1802573123e+01     1.030645    0.8552807  68.38  0.003390631    1.111    0.100
         3 -13.5587    189.4613     14.6036   6.6492270037e+01   3.6228666095e+01    0.5100632    0.3330418 -56.16   0.00206789    1.613    0.380
         4 -13.3607    188.4057    153.8922   1.0260046863e+02   1.2682966788e+01    0.7383927    0.5242876  36.32  0.002472718    1.479    0.324
         5 -15.4275    245.9257    231.0297   1.0685003091e+02  -1.1110467449e+01     3.082637    0.8053665 -34.91   0.01175624    4.058    0.754
         6 -20.8202     90.4827    185.0173   1.3052068114e+02   2.5064662492e+01     14.17372      6.98965 -62.74   0.06457093    1.963    0.490
         7 -11.5009    188.7542    147.1485   1.0099658586e+02   1.3976219044e+01    0.5266101    0.3189923 -82.15  0.001551447    4.537    0.780
         8 -10.8486    177.9237    156.0706   1.0532239183e+02   1.4521105273e+01    0.2237608    0.2155317  76.74 0.0003485536    1.060    0.057
         9 -13.1473    174.0640    148.5059   1.0446397780e+02   1.6950262621e+01    0.5536658    0.3607838 -55.19  0.001391668    1.672    0.402
        10 -10.5304      6.1082    216.5744   1.5013128320e+02   2.8927111326e+01    0.1655707    0.1055502  89.81  0.001058641    1.155    0.135
        11 -11.4442    187.4518    204.7728   1.1313962596e+02   3.0963702481e+00    0.2497943    0.2266632  41.50 0.0006328919    1.052    0.049
        12 -12.0904    186.4091    214.2861   1.1504176742e+02   1.6321048858e+00    0.4642757    0.3990348   0.13  0.002756648    1.287    0.223
        13 -12.0574    170.3599    136.8784   1.0257527997e+02   2.0241398813e+01    0.2731078    0.2144359  61.37 0.0006390321    1.353    0.261
        14 -11.3350    184.1450    208.7248   1.1451403712e+02   3.0252659014e+00    0.2767467     0.204455 -38.83 0.0005297286    1.491    0.329
        15 -13.6193    160.6503    128.1505   1.0266529117e+02   2.4306825468e+01    0.5199199    0.4664486 -73.64  0.001666886    1.169    0.145
        16 -11.8942    182.4601    203.2401   1.1386761811e+02   4.3290940011e+00    0.3795381    0.2329564 -42.86  0.001176047    1.775    0.437
        17 -11.0299     13.3241    126.2798   1.4049105658e+02   4.7755786685e+01    0.2132205    0.1881269  32.52  0.001492517    1.460    0.315
        18 -10.0340      1.7034    216.3056   1.5084240164e+02   2.9399566966e+01    0.1448057   0.07521359 -75.59 0.0003302066    1.573    0.364
        19 -10.0646      1.6797    213.6294   1.5068798740e+02   2.9929579640e+01    0.1554463    0.0829237 -68.50  0.000667571    1.738    0.425
        20 -10.3465     10.6218    214.7425   1.4925906508e+02   2.8848725572e+01    0.1504678   0.07775272 -89.99 0.0009291533    1.530    0.346
        21 -13.9208     11.4366    206.0460   1.4853447659e+02   3.0524436945e+01    0.5112703    0.3837151  31.99   0.00270618    1.888    0.470
        22 -12.3910    141.1671    120.7967   1.0547788781e+02   3.0245885091e+01    0.5458338    0.2890532  65.23  0.001643479    3.145    0.682
        23 -11.1838     16.0646    249.3127   1.5045481856e+02   2.1703583505e+01    0.1716855    0.1044429  83.67 0.0001852451    1.215    0.177
        24 -12.0628     40.9978    114.9599   1.3134525552e+02   4.7907668676e+01    0.1922194    0.1601283 -61.13 0.0003178546    1.017    0.017
        25 -12.1342    205.1530    199.7894   1.0869619669e+02   5.9915720069e-01    0.3793974    0.2253098  40.28  0.001338316    1.574    0.365
        26 -11.4699    231.3212    113.7706   8.5030474168e+01   1.0913472019e+01    0.2649092    0.2581432 -55.44 0.0007816156    1.049    0.047
        27 -11.7446    167.8222    112.8677   9.7172747288e+01   2.5873423600e+01      0.40106    0.3081149 -81.91  0.001336202    1.655    0.396
        28 -11.2575     11.0027    229.1508   1.5009112487e+02   2.5991326637e+01    0.1715461    0.1109373  87.56 0.0002570486    1.146    0.127
        29 -11.2377    205.6142    110.3102   8.8752498724e+01   1.7422670104e+01    0.2770478    0.2659589  25.54 0.0006160008    1.128    0.114
        30 -10.2681    174.6023    222.2490   1.1871844785e+02   2.4517456271e+00     0.163825    0.1281424 -30.57 0.0003732804    1.515    0.340
        31 -11.8714     47.1813     99.7236   1.2651265568e+02   5.0683122328e+01    0.2182658    0.1970766 -27.41 0.0006702173    1.183    0.155
        32 -12.6417    202.9630    173.0740   1.0377725000e+02   5.8470263347e+00    0.6750558    0.3598117 -63.81  0.002159409    4.178    0.761
        33 -11.2372    166.9995    176.4074   1.1198954717e+02   1.2625085717e+01    0.2544116    0.2036598 -68.86 9.787034e-05    1.434    0.303
        34 -10.8185     14.8933    221.7580   1.4899659234e+02   2.7025643945e+01    0.2121021     0.115139 -88.42  0.001247973    1.447    0.309
        35 -14.8931    142.4238     67.8858   9.0397037915e+01   4.0477384800e+01     1.200384    0.9346288  53.60 0.0009296286    1.265    0.209
        36 -11.2760    207.8065    217.4411   1.1143494739e+02  -2.7998919497e+00    0.2745905    0.1847398 -39.91 0.0007792566    1.636    0.389
        37 -14.0940    155.7477     45.8872   8.0805350232e+01   4.0720584753e+01    0.5955152    0.5498862  -3.11 0.0007660897    1.187    0.158
        38 -11.6833     13.3809     59.9200   1.2836577677e+02   6.1825612324e+01    0.1861458     0.166952 -48.41 0.0004481265    1.217    0.178
        39 -10.8063    207.8115    213.0277   1.1064105373e+02  -2.0962987998e+00    0.2236821    0.1817542 -27.63 0.0007389818    1.304    0.233
