#   1 NUMBER                 Running object number                                     
#   2 MAG_AUTO               Kron-like elliptical aperture magnitude                    [mag]
#   3 X_IMAGE                Object position along x                                    [pixel]
#   4 Y_IMAGE                Object position along y                                    [pixel]
#   5 X_WORLD                Barycenter position along world x axis                     [deg]
#   6 Y_WORLD                Barycenter position along world y axis                     [deg]
#   7 A_WORLD                Profile RMS along major axis (world units)                 [deg]
#   8 B_WORLD                Profile RMS along minor axis (world units)                 [deg]
#   9 THETA_WORLD            Position angle (CCW/world-x)                               [deg]
#  10 FWHM_WORLD             FWHM assuming a gaussian core                              [deg]
#  11 ELONGATION             A_IMAGE/B_IMAGE                                           
#  12 ELLIPTICITY            1 - B_IMAGE/A_IMAGE                                       
         1 -13.9832    204.3981    114.7590   6.4540890341e+01   1.7282093021e+01     3.746295     2.637644  -0.56   0.01648793    2.020    0.505
         2 -12.1228    213.9786     20.4033   3.9240412491e+01   2.9648066405e+01     1.111383    0.5771312 -28.26  0.003081675    2.070    0.517
         3 -15.0332    176.2375     73.2326   5.8869730306e+01   3.1345194710e+01     8.969541     4.563982 -63.72  0.009396266    3.889    0.743
         4 -11.8452    207.5105     14.2520   3.8377974404e+01   3.1847503987e+01    0.5012658    0.3976035  -7.09 0.0006717747    1.672    0.402
         5 -12.8012    248.8435      4.9637   3.2931058601e+01   2.3669009637e+01    0.8505019    0.5717139  -7.87  0.004821446    2.459    0.593
         6 -14.9364    219.2847     76.4945   5.2488889461e+01   2.0627511567e+01     9.876065     2.749146 -49.63   0.02577746    5.366    0.814
         7 -13.7172    240.9314     72.4581   4.8584046718e+01   1.6545968671e+01     2.288368    0.8699954 -50.60  0.008630271    2.835    0.647
         8 -13.1149    248.2210     60.2701   4.4944680936e+01   1.6832291715e+01     1.573319    0.4949644 -39.73  0.004664459    2.556    0.609
         9 -13.5870    197.4482     75.1329   5.5573554286e+01   2.5908859371e+01     3.795171     1.153399 -42.37   0.01011668    3.084    0.676
        10 -15.4624    241.6605     41.8820   4.1493472169e+01   2.0764207196e+01     4.450635     2.225861  57.06   0.02183131    2.190    0.543
        11 -11.2414    145.0141     28.7867   5.1225632219e+01   4.5580687030e+01    0.4972364    0.2639737 -44.40  0.001855197    2.098    0.523
        12  -9.3809    224.1309     18.3351   3.7779098025e+01   2.7554490892e+01    0.3828478    0.2796856 -26.06  0.002257226    1.565    0.361
        13  -9.8088    171.8633     16.6765   4.3150796684e+01   4.0248658070e+01    0.3338681    0.1914303 -20.88  0.001445183    2.045    0.511
        14 -11.7390    119.5055      9.6243   4.9546404593e+01   5.3741040088e+01    0.6693834    0.3819172  40.89  0.002788394    1.649    0.394
        15 -10.0240    118.8698      2.9034   4.7177567430e+01   5.4462139016e+01    0.3221906    0.2021199  45.67 0.0009694268    1.400    0.286
        16  -9.8336     92.3992     11.6808   5.6820220643e+01   5.9634493479e+01    0.2562812    0.2116275  47.19  0.001016502    1.160    0.138
        17  -7.8517    223.9013      8.2583   3.5480441084e+01   2.8713252848e+01    0.2791939     0.136957 -28.55  0.001390557    2.183    0.542
        18 -10.5866    142.4976      6.8226   4.4408511138e+01   4.8457244668e+01    0.3483131    0.2241179  35.41   0.00129587    1.675    0.403
        19 -10.1294    128.9279      6.1652   4.6482146088e+01   5.1805251997e+01    0.1982575    0.1727931 -85.11 0.0005431722    1.268    0.211
        20  -9.9177    235.7169      3.5716   3.3539964743e+01   2.6597604567e+01    0.3521133    0.2330386  59.53  0.002131015    1.689    0.408
        21  -8.7519     79.4669      3.6932   5.7003821655e+01   6.3050786692e+01    0.2114733    0.1139025 -25.45 0.0008102893    1.946    0.486
        22  -8.7892    172.0806      2.8455   3.9161634591e+01   4.1527882285e+01    0.2081154    0.1515933 -71.14 0.0006808787    1.396    0.284
        23  -9.6539    137.4581      1.4733   4.3428389922e+01   5.0131576926e+01    0.2770205    0.1142778  66.92 0.0008196582    2.111    0.526
        24  -8.8064    193.1102    180.9367   8.1769573392e+01   7.0892974693e+00    0.1907825    0.1871846  39.91            0    1.210    0.173
        25 -11.0511     23.5851    162.7982   1.1921429815e+02   3.7914390012e+01    0.2720442    0.1738576  86.62  0.001565763    1.397    0.284
        26  -9.9446    242.2580    164.6022   6.9087319445e+01   1.1849348073e+00    0.2299755    0.1646012  24.90  0.001177556    1.459    0.314
        27  -8.3709    209.1277    165.3795   7.5322497326e+01   6.9378796651e+00    0.2014071    0.1326964  53.77 0.0009418369    1.897    0.473
        28 -11.5689     66.8824    145.0491   1.0568417817e+02   3.7419031048e+01     1.662186     0.912347  32.37  0.007656942    1.996    0.499
        29 -12.3564     36.5980    159.0902   1.1563650547e+02   3.7541927610e+01    0.6167136    0.4509853 -84.65  0.001313228    1.185    0.156
        30 -13.0947     46.0978    154.3363   1.1263219193e+02   3.7677716525e+01     1.007571    0.8840361 -13.27  0.004945538    1.500    0.333
        31  -9.8719    244.5249    244.0102   8.3490748526e+01  -1.0338807959e+01     0.179726    0.1228522  20.84 0.0004757422    1.199    0.166
        32  -8.5495    135.9841    242.3250   1.0368355383e+02   5.9629672809e+00    0.2154026   0.07133182  51.60 0.0007051152    4.371    0.771
        33  -8.2002    215.5110    233.5063   8.6951901044e+01  -4.9934198657e+00    0.1243212   0.09876233  12.30 0.0002253447    1.002    0.002
        34  -8.0347    217.6671    148.2794   6.9950238041e+01   8.3924226412e+00    0.1344618    0.1153675 -77.39 0.0003681132    1.608    0.378
        35 -10.6723    148.0335    144.4993   8.4056341459e+01   2.3373495753e+01    0.5766956    0.3833231 -82.46  0.002046525    2.746    0.636
        36  -8.8343    222.6180    145.3174   6.8378164860e+01   7.9713696459e+00    0.2186681     0.173489  57.47 0.0004581681    1.557    0.358
        37  -8.3875    199.3176    144.6998   7.2687195808e+01   1.2689000692e+01    0.2276223    0.1924777  64.02 0.0005875316    1.442    0.307
        38  -8.5530    192.4575    144.4307   7.4022839350e+01   1.4145005028e+01    0.2308049    0.2159836  -3.06 8.245702e-05    1.030    0.029
        39  -9.4357    195.6943    142.9886   7.3025244098e+01   1.3758670943e+01    0.2617409    0.2171601  53.69 0.0004401284    1.348    0.258
        40  -8.7433    214.3823    216.0246   8.4179995831e+01  -2.3289623922e+00    0.1965088    0.1746751  52.20  0.001248973    1.571    0.363
        41  -8.8036    158.6714    142.3295   8.1006677932e+01   2.1641345705e+01    0.1575131    0.1254306  89.85 0.0006473066    1.710    0.415
        42 -10.0198     37.7157    214.2958   1.2052508932e+02   2.4983220458e+01    0.2054783    0.1502227  -0.16  0.001185366    2.571    0.611
        43  -9.3185    211.4073    136.3352   6.8399957522e+01   1.1802559401e+01     0.280961    0.1346399 -33.86  0.001021322    2.042    0.510
        44  -8.8362    202.1737    210.6617   8.5575762974e+01   4.4598016292e-01    0.1956327    0.1719643 -34.23  0.000582359    1.315    0.239
        45 -10.9805    225.1719    129.5402   6.4334701523e+01   1.0268689521e+01    0.4741117    0.3290657 -63.53  0.002212221    2.010    0.502
        46 -10.4196    160.5298    128.2269   7.7175308370e+01   2.4270993092e+01    0.4075002    0.3165735 -38.29    0.0013332    1.270    0.212
        47  -7.7679     93.5468    130.4797   9.5365146378e+01   3.7003910255e+01    0.1492479     0.140704 -60.05 0.0001616246    1.009    0.009
        48 -10.5348    138.5157    127.8497   8.2484932091e+01   2.9069663387e+01    0.6535265    0.4301415  56.40   0.00277812    1.750    0.429
        49 -13.6048    229.5024     63.5415   4.7921550549e+01   2.0356460183e+01     1.308028    0.8697562  46.12  0.006701446    1.793    0.442
        50 -10.4033    168.6246    115.1465   7.1982673204e+01   2.5209515160e+01    0.3896192    0.2977726 -40.24  0.001835777    1.274    0.215
        51 -10.6299    134.8391    109.5973   7.8727803613e+01   3.3912663027e+01     1.270055    0.1976977 -44.91  0.002686541    6.311    0.842
        52  -9.4537    135.1895     98.3363   7.5510856569e+01   3.6255561057e+01    0.3139625    0.2737109  79.42 0.0002294511    1.348    0.258
        53 -13.5131    236.0028     81.5294   5.1347728314e+01   1.6173722072e+01     1.507504    0.8017039 -60.76  0.001921823    2.486    0.598
        54  -9.0562    120.8960    112.3004   8.3213420780e+01   3.6233101056e+01    0.3511065    0.2484587 -79.01   0.00121454    2.102    0.524
        55 -11.3274    122.9374    103.9824   8.0401184872e+01   3.7674885165e+01    0.9237034    0.5019139 -65.46  0.002997044    3.306    0.698
        56 -10.6821    120.9915     99.0046   7.9547800288e+01   3.9171088971e+01     1.011993    0.6306464  83.22  0.003069282    4.310    0.768
        57 -10.1830    234.0172    209.3277   7.9343876918e+01  -4.3550487265e+00     0.210688    0.1770548 -11.51 0.0001897582    1.147    0.128
        58  -8.9715    142.1351    105.8720   7.5828896125e+01   3.3118325898e+01    0.2393111    0.2215287  87.15  0.000968963    1.200    0.166
        59  -9.6687    149.3080    102.3478   7.3068009586e+01   3.2243928498e+01    0.3678854    0.2735874  38.48  0.001018001    1.401    0.286
        60  -9.1140    203.5995    205.9368   8.4444747441e+01   9.6629896361e-01    0.2166946     0.159378  20.91 0.0004225915    1.248    0.199
        61  -8.2637    144.6160    102.2653   7.4205441587e+01   3.3324188982e+01     0.159624    0.1257768  85.51 0.0006984301    1.691    0.409
        62  -7.9543     87.0197    101.2274   9.0322429298e+01   4.5092227642e+01     0.168341    0.1247693  34.10            0    1.442    0.307
        63 -10.1556     29.4041    100.8197   1.0924770216e+02   5.2395318992e+01    0.2795798    0.1930325  -7.76            0    1.858    0.462
        64 -10.4796    160.2567     97.2401   6.9053364477e+01   3.0750096303e+01    0.5679822    0.3651642  33.61   0.00237143    1.822    0.451
        65 -11.7315    232.2207     38.6810   4.1722314624e+01   2.3244026817e+01    0.2856036    0.2268647 -38.43 0.0002704325    1.241    0.194
        66  -9.1146      4.6624     95.3114   1.1654205648e+02   5.5374317512e+01     0.119926   0.08328078  71.79 0.0003776508    1.688    0.408
        67  -9.9549    143.0820     92.6639   7.1858403412e+01   3.5646976346e+01      0.33085    0.3153006 -61.00 0.0005197711    1.093    0.085
        68  -7.9641    138.3472    108.2757   7.7456068707e+01   3.3437909328e+01    0.1597533    0.1247891   6.85 0.0002327783    1.631    0.387
        69 -11.4036    158.5616     87.7857   6.6757376722e+01   3.2987503765e+01    0.3627498    0.2860734 -24.78  0.001372465    1.353    0.261
        70  -8.6770    124.3008     89.3213   7.5806563505e+01   4.0522070811e+01    0.1578808    0.1220817  -0.82 0.0003782595    1.627    0.385
        71 -10.2205    103.6614     81.5212   7.9424503869e+01   4.6411295827e+01    0.2689475    0.2441932 -13.52 0.0003188022    1.083    0.077
        72  -9.4501      5.9886     83.0000   1.1414025800e+02   5.8159352790e+01    0.1654707   0.07070511  14.12 0.0008006649    2.930    0.659
        73  -9.8264    116.1691     79.7570   7.5164899816e+01   4.4208625695e+01    0.2969429    0.2492958 -78.12 0.0008090688    1.528    0.345
        74  -9.8204    140.2192     77.8786   6.8154089246e+01   3.9190051981e+01    0.2889414    0.2173448 -12.21 0.0007726589    1.609    0.379
        75  -9.6301    192.1724    153.5616   7.6156932404e+01   1.2428258420e+01    0.4906682     0.233647 -46.93   0.00191019    2.222    0.550
        76 -10.2679    125.1045     71.7888   7.0141506469e+01   4.3790111907e+01    0.2994589    0.2043374  -5.61  0.001250256    2.075    0.518
        77  -8.1479     72.7774     58.0950   8.1954156944e+01   5.6626086588e+01    0.1782459    0.1069114 -42.79 0.0005469215    1.591    0.371
        78 -10.5669    124.8237     54.9218   6.4611573126e+01   4.6784315560e+01    0.4534273    0.2785199 -29.71  0.001447977    1.694    0.410
        79  -8.4039    168.9754    202.0029   9.0808098245e+01   7.5825163393e+00    0.2080655    0.1675423  72.15 0.0006579674    1.708    0.415
        80 -10.0086      6.4091     54.8101   1.0817856305e+02   6.4371185969e+01    0.1854328    0.0777968 -51.93 0.0009556217    1.705    0.414
        81  -8.9383    103.5026     45.3030   6.7055036985e+01   5.3025705032e+01    0.2593696    0.1336095 -37.54  0.000914763    1.978    0.494
        82 -10.8958    122.8775     37.6217   5.9040779435e+01   4.9801067720e+01    0.4406928      0.24751 -48.17  0.001867883    2.204    0.546
        83  -9.3657    198.8544     35.6483   4.4832667727e+01   3.1395067881e+01    0.3098413    0.2051746 -25.48  0.001080586    1.681    0.405
        84  -8.7919    204.0049    201.0349   8.3462311923e+01   1.6949501226e+00    0.2020614    0.1766847   6.85            0    1.025    0.024
        85  -9.3756    162.8662     33.1506   4.9426233105e+01   4.0612412418e+01    0.1935616    0.1571577  40.46 0.0003964034    1.293    0.226
        86 -10.7137    118.1975     30.8878   5.7733272754e+01   5.1762822422e+01    0.3652492    0.1839423 -30.61  0.001613522    2.062    0.515
        87 -10.0112    191.8844    192.6604   8.4314590398e+01   5.2103349607e+00    0.6430599     0.356705 -64.46  0.002069868    5.130    0.805
        88  -9.8134    161.9997     27.8896   4.7959596180e+01   4.1464452410e+01    0.3748409    0.2702226  25.16  0.001129543    1.719    0.418
        89 -11.2843     18.6622    158.6800   1.2000603818e+02   3.9317284990e+01    0.3746872    0.1899627 -54.89  0.001952939    1.956    0.489
        90 -10.2782    179.1828     23.7463   4.4183977258e+01   3.7662375816e+01    0.4455971    0.3669768  85.64   0.00229535    1.145    0.127
        91  -8.7244    221.7429     24.2335   3.9389202108e+01   2.7410422423e+01    0.3160829    0.1823904 -13.53  0.001457061    2.649    0.622
        92  -9.9638    171.7459    196.3208   8.9204099298e+01   8.1369170940e+00    0.2345085    0.2197287   6.81 0.0003851799    1.051    0.049
        93  -7.7036    223.4954     13.5685   3.6732133810e+01   2.8232221835e+01    0.1542626    0.1228683 -19.26 0.0003462553    1.562    0.360
        94  -8.2153    171.4863     23.5198   4.5196772900e+01   3.9599953035e+01    0.1374604     0.124816  86.56 0.0008100187    1.030    0.029
        95  -8.6827    159.5457     21.8218   4.6487684347e+01   4.2764398604e+01     0.189842    0.1375216 -24.80  0.001004503    1.523    0.343
        96  -8.1393    124.0045    194.9265   9.9534449544e+01   1.6849697033e+01    0.1577729    0.1490788 -75.11 0.0003158118    1.115    0.103
        97  -9.2985    189.3266     16.1825   4.0824315685e+01   3.6001221400e+01    0.2200665    0.1823273  41.46 0.0005445356    1.394    0.282
        98  -8.0621    177.2373     14.3250   4.1777572469e+01   3.9162243522e+01    0.1251195   0.09783391  33.06 0.0003785751    1.522    0.343
        99  -8.6428    165.1035     14.1384   4.3332931029e+01   4.2186167933e+01    0.2072892    0.1663108  40.69 0.0005499013    1.336    0.251
       100 -10.1759    209.0842    187.0299   7.9779394796e+01   3.1617395523e+00    0.3547874    0.2928072 -88.66   0.00170901    2.092    0.522
       101  -8.8615     56.2182    187.5489   1.1414112053e+02   2.8633222680e+01    0.1779324    0.1586236 -65.11 0.0005101673    1.253    0.202
       102  -9.6017    219.0489    183.3653   7.7132808692e+01   2.0557657379e+00    0.3771314    0.2657559  73.50  0.001622919    3.263    0.694
       103 -12.7768      4.7011    175.5713   1.2454877435e+02   3.6571788664e+01    0.8782183    0.4547744 -78.91  0.004576806    1.545    0.353
       104  -9.2992    159.4508    158.0220   8.4345574580e+01   1.8122051972e+01    0.3099344    0.2542187 -77.39  0.001050647    1.551    0.355
       105 -10.3667    236.5584    174.8134   7.2189674408e+01   4.9519409983e-01    0.4070202    0.2883786  66.89  0.001929955    2.703    0.630
       106  -9.7040    155.4211    153.3958   8.4279151602e+01   1.9923342794e+01    0.3513056    0.2620813 -85.36 0.0008765635    2.000    0.500
       107  -9.8559    133.9087    147.1108   8.8147042470e+01   2.5628475551e+01    0.7514412    0.2466166 -53.10  0.002264876    3.403    0.706
       108 -10.7332    230.8869    167.8384   7.1759883337e+01   2.5938607042e+00    0.4700572    0.2419336 -43.98  0.002126965    2.039    0.510
       109 -10.8710    228.0252    174.4097   7.3642359391e+01   1.9991676194e+00    0.5025383    0.3364304 -22.84  0.002650462    1.423    0.297
       110  -8.6230    200.4867    174.0178   7.8855882442e+01   6.9861164731e+00    0.2208547    0.1344404 -36.01  0.001036639    1.614    0.380
       111  -9.9644    205.1067    154.2311   7.3686189130e+01   9.7411907997e+00    0.4503305    0.3386093 -68.42  0.001640132    1.977    0.494
       112  -7.8887     57.4998    171.9769   1.1201804178e+02   3.2092293384e+01    0.1770416     0.118319 -68.82 -0.0001283727    1.368    0.269
