#   1 NUMBER                 Running object number                                     
#   2 MAG_AUTO               Kron-like elliptical aperture magnitude                    [mag]
#   3 X_IMAGE                Object position along x                                    [pixel]
#   4 Y_IMAGE                Object position along y                                    [pixel]
#   5 X_WORLD                Barycenter position along world x axis                     [deg]
#   6 Y_WORLD                Barycenter position along world y axis                     [deg]
#   7 A_WORLD                Profile RMS along major axis (world units)                 [deg]
#   8 B_WORLD                Profile RMS along minor axis (world units)                 [deg]
#   9 THETA_WORLD            Position angle (CCW/world-x)                               [deg]
#  10 FWHM_WORLD             FWHM assuming a gaussian core                              [deg]
#  11 ELONGATION             A_IMAGE/B_IMAGE                                           
#  12 ELLIPTICITY            1 - B_IMAGE/A_IMAGE                                       
         1 -10.5895      2.1610     58.6265   1.1041012019e+02   6.3748785953e+01    0.3569234   0.02399496 -61.58  0.001136217    4.669    0.786
         2 -13.7353    223.6511     27.7248   3.8408621344e+01   2.6231616664e+01     1.161716    0.8157753  43.41  0.006471409    1.842    0.457
         3 -12.6222    248.5307      4.4344   3.1369986950e+01   2.3472230839e+01    0.5458028    0.3298441 -49.43  0.003396875    1.398    0.285
         4 -10.5603      2.1894      4.8005   9.2903473531e+01   7.3860605029e+01    0.4903625   0.02246159 -47.47  0.001493562    6.878    0.855
         5 -13.1101     82.7991    223.8229   1.1099851500e+02   1.7329170734e+01     1.658938    0.2069801  46.40  0.004118994    7.223    0.862
         6 -14.2899    113.3645    248.4013   1.0735148034e+02   8.2735708196e+00     3.033386     0.642904  34.72  0.009284407    4.955    0.798
         7 -14.1792     85.3617    247.4446   1.1280076765e+02   1.2485653832e+01     2.558471    0.8293033  28.69    0.0080643    5.686    0.824
         8 -15.3753     35.1043    193.1615   1.1840111495e+02   2.9875736332e+01     9.990231     3.640238  80.97   0.03096711    5.562    0.820
         9 -14.7484     27.0434    204.0491   1.2098694593e+02   2.8336666452e+01     2.414403     1.205526  76.55   0.01017907    1.979    0.495
        10 -11.0621     83.1741    230.3967   1.1159745717e+02   1.5979839792e+01    0.2740433    0.1874426  52.00  0.001319645    1.227    0.185
        11 -13.7703    129.5966    230.5564   1.0184837823e+02   8.9078168877e+00     1.614103    0.3997271  42.07  0.005613862    3.310    0.698
        12  -8.7251    110.6908    203.6673   1.0232518820e+02   1.7224876943e+01    0.1331119    0.1080313 -10.79 0.0004645645    1.671    0.402
        13  -9.3289    192.6907    194.3365   8.2384669103e+01   4.6301744082e+00     0.129911    0.1139664  78.91 0.0007043389    1.680    0.405
        14 -11.2763     50.4636    183.2478   1.1392034920e+02   3.0400166608e+01    0.3369323    0.2564555 -38.47  0.001635239    1.728    0.421
        15 -11.3607     57.3454    176.6531   1.1150110361e+02   3.1102199530e+01    0.2854882    0.2527928 -43.68 0.0003894286    1.349    0.259
        16  -9.0653    231.5018    170.5526   6.9985609067e+01   1.8897605164e+00    0.1377109    0.1175265  -6.85 0.0001253992    1.015    0.014
        17 -10.6278     68.8963    166.3502   1.0721189129e+02   3.2054526583e+01    0.2388172    0.2236181 -77.12   0.00035292    1.083    0.077
        18 -12.8769     54.8231    163.0747   1.1043004649e+02   3.4651814457e+01    0.5075524     0.297767 -42.63  0.001412475    2.089    0.521
        19 -11.8807     76.7345    158.5089   1.0394032684e+02   3.2855236242e+01    0.7378134    0.5447641  72.34  0.001632039    1.491    0.330
        20 -11.4505     34.9625    158.8089   1.1505832168e+02   3.7869727545e+01    0.5414221    0.2305306  64.79  0.002063807    3.381    0.704
        21 -12.4840     67.9102    143.9558   1.0398063795e+02   3.7664083050e+01    0.7598531    0.4955997  62.60  0.002761522    1.809    0.447
        22 -12.5138     56.6500    129.2029   1.0472903563e+02   4.2763984037e+01     1.796931    0.5683241 -72.22  0.004389275    6.459    0.845
        23  -9.2183     96.1570    141.8313   9.5516674372e+01   3.3887542074e+01    0.2410188    0.1826136 -20.01 0.0004206489    1.707    0.414
        24 -11.6125     80.5631    143.3880   1.0026278560e+02   3.5996527119e+01    0.3223539    0.2610337 -54.91  0.000696988    1.193    0.162
        25 -10.7619     44.0492    143.2985   1.1065336248e+02   4.0709887338e+01    0.3373699    0.1732553 -87.62  0.001417115    2.432    0.589
        26 -15.4178      3.7458    243.8788   1.2753249475e+02   2.2701264566e+01     8.983384     1.950684 -79.45   0.03911282    4.188    0.761
        27 -12.4283     99.7858    228.3230   1.0789489921e+02   1.3964278220e+01     0.704556    0.1902092  46.29  0.002537328    3.296    0.697
        28 -10.3313    106.4319    131.8891   9.0450401494e+01   3.4481095450e+01     0.359593    0.3224445 -29.80   0.00125325    1.167    0.143
        29 -10.1670     92.7194    129.2656   9.3863225076e+01   3.7523548532e+01    0.2606497    0.2386637 -29.25 0.0003361934    1.140    0.122
        30  -9.3157    104.1998    120.7870   8.8502432324e+01   3.7535660364e+01    0.2159457    0.2075969  89.56 0.0004652949    1.098    0.090
        31 -12.0516     25.8069    112.1067   1.1148807928e+02   5.0047995206e+01    0.5604816    0.2311331  42.26  0.002446135    2.842    0.648
        32  -9.7498     92.9989    145.0383   9.7047796631e+01   3.3632923402e+01    0.2659802    0.2179775 -64.31 0.0009648698    1.207    0.172
        33 -10.3021     52.5798     89.7686   9.7794943217e+01   5.2776586990e+01    0.2410185    0.1954361  18.24 0.0007392852    1.343    0.256
        34 -13.1200     18.8895    211.6884   1.2314918829e+02   2.7539307811e+01    0.6127572    0.4922703 -53.96  0.000775577    1.636    0.389
        35 -10.1374     13.1978     60.1798   1.0603460846e+02   6.2856848182e+01    0.1541621    0.1391911 -75.35 0.0005728987    1.324    0.244
        36 -12.6812    108.8020    229.0186   1.0606586737e+02   1.2461853769e+01    0.6068215     0.311803  32.29  0.002931919    1.895    0.472
        37 -12.5443    208.6727     39.4109   4.2877586906e+01   2.8239934469e+01    0.6528305    0.4697594 -41.60    0.0035951    1.356    0.262
        38 -10.0974     94.8518    222.0857   1.0823135624e+02   1.5923217543e+01    0.2054484    0.1535638  62.40 0.0005669048    1.259    0.206
        39 -13.8454     10.7721    206.7868   1.2445695789e+02   2.9326005935e+01     1.059599    0.8307118  64.28   0.00431072    1.121    0.108
