#   1 NUMBER                 Running object number                                     
#   2 MAG_AUTO               Kron-like elliptical aperture magnitude                    [mag]
#   3 X_IMAGE                Object position along x                                    [pixel]
#   4 Y_IMAGE                Object position along y                                    [pixel]
#   5 X_WORLD                Barycenter position along world x axis                     [deg]
#   6 Y_WORLD                Barycenter position along world y axis                     [deg]
#   7 A_WORLD                Profile RMS along major axis (world units)                 [deg]
#   8 B_WORLD                Profile RMS along minor axis (world units)                 [deg]
#   9 THETA_WORLD            Position angle (CCW/world-x)                               [deg]
#  10 FWHM_WORLD             FWHM assuming a gaussian core                              [deg]
#  11 ELONGATION             A_IMAGE/B_IMAGE                                           
#  12 ELLIPTICITY            1 - B_IMAGE/A_IMAGE                                       
         1 -15.1518    174.5097     18.7637   6.9079576448e+01   3.9355885831e+01      2.56613     2.015512 -18.06  0.009400507    1.546    0.353
         2 -17.0167    159.2701    119.2335   9.9937822722e+01   2.6421529198e+01     6.061603     4.290942  77.90   0.02542538    1.929    0.482
         3 -18.4016    212.8863     99.0587   8.3805699186e+01   1.7712054887e+01     4.101992     3.240586 -27.33   0.02049924    1.384    0.278
         4 -16.4681    240.2149     62.2404   7.0901682952e+01   1.7569883589e+01     5.917198     2.694127 -63.14   0.02156306    3.191    0.687
         5 -16.4525    245.1761     83.8196   7.5134306100e+01   1.2999298367e+01     5.508564    0.8064863 -37.54   0.01355281    6.001    0.833
         6 -17.0899    210.1286     66.7171   7.6218556487e+01   2.3963666232e+01     2.954489     2.595254 -53.33   0.01646099    1.111    0.100
         7 -16.5696    185.7116     78.5896   8.3528211108e+01   2.7989411455e+01     2.679957     2.071881 -34.48   0.01320626    1.356    0.263
         8 -12.3902    225.3603     22.9062   6.3727573146e+01   2.6506941243e+01    0.6409138    0.3529024  79.07  0.001575506    1.723    0.420
         9 -15.3174    189.2838     15.1426   6.6083625901e+01   3.6113803460e+01     6.291307     2.755253  33.88   0.01934626    5.672    0.824
        10 -10.4793    247.8208     15.6995   6.0017653165e+01   2.2264028856e+01    0.3548539    0.1269892 -43.68  0.001611309    2.398    0.583
        11 -12.0800    201.9333     16.6113   6.4886987999e+01   3.2861107553e+01    0.8575642     0.370373  67.66  0.003822484    2.017    0.504
        12 -10.8124     90.7031     16.6907   8.5722082105e+01   5.8516517633e+01    0.4020676    0.2595452  58.45  0.002224036    1.782    0.439
        13 -10.5651    232.6292     13.8758   6.1008587801e+01   2.5900304186e+01    0.1914129    0.1661032  77.69 0.0003880342    1.204    0.169
        14 -11.4791    237.9095      9.7018   5.9643364775e+01   2.5180954436e+01    0.3864042    0.2167841  60.18  0.001697634    1.820    0.450
        15 -12.9462    223.4667      8.2897   6.0661188135e+01   2.8653086004e+01    0.3756205    0.2238262 -52.72  0.001153114    1.589    0.371
        16 -10.4306     12.4555      9.5261   1.1192910934e+02   7.0201753631e+01    0.1781899    0.1275682 -16.17  0.000290523    1.008    0.008
        17 -10.7294    184.1315      8.1970   6.4953289112e+01   3.8095804626e+01    0.2095443    0.1800376  75.85 0.0004338014    1.033    0.032
        18 -10.0386     19.8867      9.1526   1.0838525768e+02   6.9596949404e+01    0.1481479    0.1193838 -13.17 0.0003666121    1.221    0.181
        19 -10.2266    142.8088      7.9706   7.1014437382e+01   4.8092778441e+01    0.3829266     0.116013  51.12  0.001489898    2.649    0.622
        20 -10.1982    209.7816      6.1683   6.1537056573e+01   3.2105877830e+01    0.1815604    0.1448721 -79.29 0.0003865364    1.103    0.093
        21  -9.6792    103.3164      6.6871   7.8672917643e+01   5.6977947939e+01    0.1140033   0.09717284 -73.99 0.0005259225    1.642    0.391
        22  -9.4541     66.4942      6.5419   8.9011059590e+01   6.3840090583e+01    0.1186899   0.09405724  15.38  0.000129429    1.005    0.005
        23 -12.8974    166.2937      2.5352   6.5789295762e+01   4.2964439770e+01    0.3192198     0.235365  62.69 0.0006674353    1.153    0.133
        24 -10.3351     37.1245      5.1702   9.9217802119e+01   6.8208596236e+01    0.1375628    0.1179249  -9.19 0.0004492613    1.352    0.260
        25 -10.1165    151.0661      3.5320   6.8308747076e+01   4.6530771022e+01    0.1830916    0.1714293  57.45 0.0005628128    1.107    0.097
        26 -10.5667    141.4184      3.0532   6.9733174070e+01   4.8846900239e+01    0.2993837    0.1505847  57.55 0.0009598992    1.616    0.381
        27 -10.3767    209.0365      1.8517   6.0618200362e+01   3.2725965571e+01    0.2293947    0.1457173  55.72  0.001280865    1.609    0.378
        28 -16.7647    148.7612     90.6980   9.4807587913e+01   3.4711712818e+01     6.906913     4.149007 -10.10   0.02255044    3.600    0.722
        29  -9.3599    222.9538      1.0000   5.9117036166e+01   2.9551666575e+01    0.1935073     0.061081  72.62  0.000387322    2.745    0.636
        30  -9.4416      6.5348    230.5365   1.5049472786e+02   2.6021999448e+01    0.1098094   0.07339852  77.50 0.0001625732    1.040    0.039
        31 -12.4184    242.2904    247.0009   1.0925469018e+02  -1.2799693391e+01    0.4172306    0.2417006  30.60   0.00248246    1.457    0.314
        32 -12.4204    230.1949    249.9347   1.1188793543e+02  -1.1342756928e+01    0.5706253    0.2308044  37.71  0.002156927    2.086    0.521
        33 -10.8370    222.1743    249.9754   1.1333899734e+02  -1.0104882479e+01    0.1725413    0.1497802  38.17 0.0006473507    1.294    0.227
        34 -10.9520    205.1537    249.5412   1.1638262468e+02  -7.3161695170e+00    0.1952259    0.1714364 -12.93 0.0005542299    1.262    0.208
        35 -10.5630    192.0131    250.5781   1.1897637815e+02  -5.2850078289e+00    0.1858241    0.1013455  40.73 0.0003094307    1.509    0.337
        36 -11.5624    165.1774    248.9627   1.2377254503e+02  -4.8207519254e-01    0.3329882    0.2154629  63.54  0.001055146    1.889    0.471
        37 -10.4853    125.3909    249.4117   1.3129372495e+02   6.2061185985e+00     0.204962    0.1887547  80.86  0.001083141    1.205    0.170
        38  -9.7992    198.4205    228.7045   1.1428608676e+02  -3.1192015193e+00    0.2186432    0.1278449 -46.20 0.0007671799    2.030    0.507
        39  -9.2839     81.6835    229.7266   1.3727730763e+02   1.6814923185e+01    0.1031766   0.09968173  14.81 0.0001954445    1.563    0.360
        40 -12.6375    205.0217    225.6268   1.1249397415e+02  -3.7999472312e+00    0.2921694    0.2394359  41.21 0.0004274569    1.175    0.149
        41 -11.2773    150.6266    226.2188   1.2330903397e+02   5.9158541382e+00    0.4195673    0.2709557  19.36  0.001705335    2.363    0.577
        42 -10.5238    127.5211    226.7090   1.2799533656e+02   9.9369178621e+00     0.255809    0.1602465  46.24  0.001360505    1.383    0.277
        43 -10.2514     49.3796    226.1100   1.4289551977e+02   2.2021931594e+01    0.1711506    0.1395587  62.10 0.0004883789    1.231    0.188
        44 -10.1568    221.0302    225.2665   1.0939693434e+02  -6.5005535087e+00     0.181197    0.1394937  29.06 0.0002957059    1.133    0.117
        45  -9.6076     39.8266    224.6386   1.4448206190e+02   2.3505347851e+01     0.158823   0.08198188  54.32 0.0003391226    1.642    0.391
        46 -11.5681    179.6141    222.9242   1.1700047927e+02   1.2016610000e+00    0.5284457    0.1693696  39.86  0.001527868    2.853    0.649
        47 -11.2862     88.7839    220.0535   1.3484123964e+02   1.7669710952e+01    0.2888418    0.2251298 -64.77  0.001788304    1.397    0.284
        48 -10.2760    234.6967    220.5035   1.0601542074e+02  -8.0794272827e+00    0.2671006    0.1882224  16.51  0.001554029    1.363    0.266
        49 -10.9672    124.3646    215.6086   1.2708307747e+02   1.2645800484e+01    0.3122899    0.2604815  12.48  0.001292231    1.683    0.406
        50 -10.7725      2.4282    214.7054   1.5024627976e+02   2.9505986543e+01      0.21388    0.1883816 -39.53  0.001685617    1.966    0.491
        51 -11.2243    202.5027    211.7451   1.1052979933e+02  -1.1184920595e+00    0.3265657    0.2865937   7.78  0.001130766    1.118    0.105
        52  -9.9592    221.0597    210.7140   1.0675834261e+02  -4.2877301098e+00    0.1828475    0.1514622  23.63 0.0003560073    1.080    0.074
        53  -9.7449    232.4549    210.0575   1.0450156765e+02  -6.1578223777e+00    0.1827508    0.1218731 -30.95 0.0003689284    1.513    0.339
        54 -10.3342    214.3210    210.3328   1.0797446363e+02  -3.0304195882e+00    0.1395605   0.09756237   6.58 0.0007049525    1.700    0.412
        55 -10.3953    165.3243    209.6222   1.1766014631e+02   6.2424013785e+00    0.2632438    0.2271564  29.67 0.0006828977    1.166    0.142
        56 -11.3489     60.1587    215.2021   1.3988627549e+02   2.2830954657e+01    0.3972504    0.2486131  48.10  0.002361376    1.493    0.330
        57 -10.4008    157.1015    209.0000   1.1926073302e+02   7.9210062516e+00    0.3060528    0.1725731  40.25 0.0008631739    1.641    0.391
        58 -10.1172    153.6560    207.3202   1.1969966831e+02   8.8977485577e+00     0.229293    0.1916469  64.58  0.001253363    1.200    0.167
        59  -9.1992     42.2598    208.6934   1.4268153324e+02   2.6483899809e+01    0.1219602   0.07204173  75.00 0.0001487019    1.522    0.343
        60  -9.8904    238.6808    207.6657   1.0290758861e+02  -6.8468597781e+00    0.2027273    0.1159428  34.50 0.0006741329    1.658    0.397
        61  -9.9666    236.6878    205.6427   1.0288773062e+02  -6.2037015919e+00    0.2109495    0.1536704 -32.97 0.0009662277    1.388    0.280
        62  -9.8863    147.5265    206.6980   1.2088370016e+02   1.0178519938e+01    0.2472838    0.1541679  60.38  0.001154207    1.761    0.432
        63 -12.5863    191.1785    201.4700   1.1089864046e+02   2.7832031119e+00    0.5899068    0.3914241  55.83 0.0009209341    1.695    0.410
        64 -11.7358    181.1975    201.7033   1.1298127114e+02   4.6657436097e+00    0.6356888    0.2392382  39.59  0.001480484    2.558    0.609
        65  -9.5248    127.5097    206.5126   1.2508014378e+02   1.3920394707e+01    0.1405125     0.122269  65.14 0.0002273619    1.027    0.027
        66 -10.1365     90.0157    206.0172   1.3288070337e+02   2.0402559743e+01    0.1601612    0.1344554  73.87 0.0003838414    1.008    0.008
        67  -9.6554    210.4531    204.4543   1.0762571290e+02  -1.3631602495e+00     0.135952    0.1221608  18.81 5.845591e-05    1.004    0.004
        68  -9.7500    114.4848    204.0301   1.2746799924e+02   1.6753438953e+01    0.1852311    0.1319933 -63.70 0.0003663177    1.456    0.313
        69 -11.2875     68.4303    201.6051   1.3679184181e+02   2.4579383667e+01    0.3282038    0.1907343  76.06  0.000809259    1.831    0.454
        70  -9.5455    206.3851    202.2279   1.0800196462e+02  -2.3271076687e-01    0.1722618     0.130366 -49.81 0.0003569583    1.542    0.351
        71 -10.1923    157.0308    201.5923   1.1801351890e+02   9.3710058308e+00    0.2673458    0.2025043 -81.79  0.001352664    1.693    0.409
        72 -10.7362    224.6020    201.0217   1.0425339849e+02  -3.3684028960e+00    0.2292697    0.1749479  24.91 0.0003728585    1.239    0.193
        73 -11.9880    128.0399    200.2263   1.2398633332e+02   1.5124811174e+01    0.2494556    0.2186388  53.11  0.000293327    1.079    0.073
        74  -9.9594     46.4765    201.5070   1.4119013699e+02   2.7498204067e+01    0.1242867   0.09687205  82.88 0.0001040781    1.004    0.004
        75 -10.9184     37.0316    199.3238   1.4282937118e+02   2.9092102986e+01    0.2072449    0.1377168 -89.07 0.0003597256    1.234    0.190
        76 -11.1294    214.8114    196.8798   1.0532808561e+02  -8.9394428650e-01      0.32726    0.2962416  46.82   0.00122163    1.213    0.175
        77  -9.8635    134.9885    198.2911   1.2217364089e+02   1.4240767671e+01    0.1979788    0.1724487  54.49 0.0003559561    1.054    0.051
        78 -11.4705    215.3021    186.8567   1.0325019766e+02   7.4347310312e-01    0.5842991    0.4296639 -14.26  0.002122415    1.537    0.349
        79 -12.5281    200.5916    192.7802   1.0733824673e+02   2.5276149150e+00    0.4573867    0.3457273 -24.87  0.002406546    1.441    0.306
        80 -11.7860    207.9387    191.5673   1.0563472848e+02   1.3255480018e+00    0.3487101    0.2876924 -19.22 0.0003758614    1.257    0.204
        81 -11.0580    149.2134    195.7342   1.1866348979e+02   1.2056220869e+01    0.2907407    0.2523124 -45.95 0.0008810615    1.270    0.213
        82 -10.1153    109.5980    199.4534   1.2783834767e+02   1.8574344408e+01    0.2982875    0.1272471  41.13  0.001227528    2.249    0.555
        83 -11.5063    155.3267    194.5044   1.1712712825e+02   1.1115490924e+01    0.4262436    0.2960404  45.00  0.001361226    1.333    0.250
        84 -10.8893    144.0000    194.9346   1.1965310023e+02   1.3226485738e+01    0.3388163    0.2270493 -72.00  0.001076685    1.870    0.465
        85 -10.4799    140.6868    192.3116   1.1992042602e+02   1.4409351568e+01    0.2669825    0.2078086 -89.68 0.0007748594    1.493    0.330
        86 -10.0879    249.2762    194.9196   9.8542968120e+01  -6.6818887037e+00    0.1790219    0.1467675 -13.76 0.0005270299    1.101    0.092
        87 -10.4712    165.6823    194.9501   1.1499082000e+02   8.9903893755e+00    0.2708652    0.2246244  77.67  0.001439639    1.400    0.286
        88 -11.0604    107.1116    190.8626   1.2708542536e+02   2.0872906264e+01    0.4389014    0.2098769 -55.21  0.001906413    2.124    0.529
        89 -11.0741    185.8625    192.8916   1.1036524315e+02   5.3943753755e+00    0.4791705    0.1955886  51.46  0.001720062    2.778    0.640
        90 -11.6376    129.9785    192.1096   1.2223785136e+02   1.6482263000e+01    0.2415467    0.2051761 -81.12 0.0002728075    1.208    0.172
        91 -11.3754    128.4657    188.1019   1.2189413862e+02   1.7627999886e+01    0.4422285    0.3012352  10.94  0.001833039    2.749    0.636
        92  -9.6282    113.6798    193.3048   1.2601763762e+02   1.9190681367e+01    0.1465786    0.1003217  73.69 0.0002375069    1.633    0.388
        93 -10.7320     47.9933    192.5112   1.3996937205e+02   2.9269024107e+01    0.2495133    0.2032143  41.15  0.001093952    1.467    0.319
        94 -10.8886     10.2848    192.4478   1.4735603088e+02   3.3337074464e+01    0.2098691    0.1496356  88.31 0.0004133676    1.031    0.030
        95 -12.9670    231.4251    188.7796   1.0056551868e+02  -2.5920707701e+00    0.6174478    0.3644089  33.19  0.001947478    1.713    0.416
        96 -11.1091    117.9083    190.1600   1.2458412404e+02   1.9121814122e+01    0.4972915    0.2528696 -68.59  0.001492338    2.470    0.595
        97 -11.1393     89.3781    190.3861   1.3091657799e+02   2.3916789867e+01    0.2964065    0.2453884 -61.03  0.001743489    1.286    0.222
        98 -11.6497    143.0222    188.2157   1.1868408335e+02   1.4820426772e+01    0.4327551    0.3654611 -80.46  0.002339599    1.274    0.215
        99 -10.7375    245.7474    186.7860   9.7555502510e+01  -4.8098764982e+00    0.3067891    0.2535166  68.25  0.001307681    1.774    0.436
       100 -10.3119     31.0316    187.5186   1.4290910457e+02   3.2322013652e+01    0.1810922    0.1286122 -83.26 0.0003133857    1.129    0.114
       101 -15.8178    189.1409    173.7114   1.0584379858e+02   8.4222408709e+00     3.656813     2.363095 -26.63    0.0162065    1.897    0.473
       102 -16.0294    170.4315    158.3633   1.0660893926e+02   1.5530905235e+01     4.052476     2.684808  30.70   0.01251973    1.756    0.431
       103 -12.3301    128.7135    180.5821   1.2052479227e+02   1.9225987698e+01    0.4139255    0.3516391  19.22  0.001623792    1.465    0.317
       104 -11.4482    123.8630    177.4247   1.2106904852e+02   2.0843827724e+01     0.483034    0.2945528 -87.42  0.001899604    2.618    0.618
       105 -11.5841     33.2752    177.5451   1.4145228021e+02   3.4289001231e+01      0.34586    0.1704443 -70.39 0.0008836728    1.680    0.405
       106 -10.4015     38.4570    179.0054   1.4051196057e+02   3.3394005378e+01    0.1795905    0.1520209  69.34  0.000679887    1.181    0.153
       107  -9.9551    114.4449    177.7613   1.2329525214e+02   2.2504337549e+01    0.2718559    0.1391581 -61.44  0.001133625    2.054    0.513
       108 -10.0045     79.6052    178.2152   1.3135419833e+02   2.8184807791e+01    0.1803745    0.1165235 -56.63  0.000267088    1.542    0.351
       109  -9.9771    236.0342    177.0242   9.7321241368e+01  -1.4655509506e+00    0.1657433    0.1434284  27.41 0.0006459408    1.147    0.128
       110 -10.9885    233.1224    172.4246   9.6898762415e+01  -1.3366976313e-01    0.3659311    0.3293709  76.95   0.00195355    1.439    0.305
       111 -11.0209    247.5545    173.6155   9.4552371252e+01  -2.9895435333e+00    0.2174318    0.1939737  -6.33 0.0002689304    1.021    0.020
       112  -9.1001     88.3010    173.6281   1.2866722065e+02   2.7899255050e+01    0.1494403   0.09858499  79.47 0.0005539311    1.748    0.428
       113  -9.2799     56.5381    172.4449   1.3577838354e+02   3.2721243083e+01    0.1312877    0.1086151 -89.53 0.0001083493    1.014    0.014
       114 -11.0575     81.8418    168.4177   1.2936062569e+02   3.0114683078e+01     0.255603     0.176876 -67.34  0.000749242    1.340    0.254
       115 -10.6320    113.8758    168.6110   1.2180866723e+02   2.4693226658e+01    0.3296583    0.1969662 -51.00 0.0006525813    1.700    0.412
       116 -11.1309     69.1808    167.1679   1.3214424420e+02   3.2255550436e+01    0.2345094    0.2029388  20.56  0.000897182    1.529    0.346
       117 -11.1877     72.4995    163.9632   1.3088057406e+02   3.2536115247e+01    0.2184905    0.1557416 -52.20 0.0004275751    1.453    0.312
       118  -9.6341    103.6613    249.3231   1.3527740246e+02   9.7467185349e+00    0.1310636    0.0767244  67.61 0.0007050874    1.720    0.418
       119 -15.0048    234.6669    161.9193   9.4389299000e+01   1.4072256810e+00     3.130545     1.321185  39.46   0.01224218    2.590    0.614
       120  -9.2191    223.2984    183.3381   1.0099696922e+02  -1.6466824921e-01    0.1440359    0.1041336   1.25 0.0002983034    1.659    0.397
       121 -11.5408    128.7800    163.9369   1.1739011188e+02   2.2946715593e+01    0.3676329    0.2729785  78.87 0.0003560524    1.605    0.377
       122 -10.3926     55.9019    164.7978   1.3490412532e+02   3.4570360574e+01    0.2447875     0.160987  62.34  0.001333995    1.565    0.361
       123 -12.4271    138.6088    159.6018   1.1418808789e+02   2.1969150367e+01    0.7237546    0.4383977  34.28  0.002238232    1.869    0.465
       124 -12.9575    127.2708    155.7002   1.1609891194e+02   2.5124582456e+01     0.813428    0.5250904  69.21  0.001186071    2.035    0.509
       125 -10.8311    115.5342    162.2679   1.2023338456e+02   2.5850858095e+01    0.3828399    0.2132238  72.16  0.001327134    3.210    0.688
       126 -10.4533    121.2314    161.8254   1.1877853992e+02   2.4884037303e+01    0.2277416    0.1975061  84.12 0.0009501014    1.160    0.138
       127  -9.6963    108.3208    162.6512   1.2204424861e+02   2.7074311014e+01    0.1557832    0.1089705  80.41 0.0007048825    1.740    0.425
       128 -10.8325     69.1807    161.5444   1.3130158262e+02   3.3571289538e+01    0.2684468   0.09677044 -65.53  0.001007026    2.697    0.629
       129 -10.1012     42.1618    158.5885   1.3727330640e+02   3.7637032374e+01    0.2637372    0.1300602 -55.24  0.001309231    1.894    0.472
       130 -12.1796    120.0121    153.4738   1.1741439873e+02   2.7045608362e+01    0.4455866    0.3502187  43.04  0.001179335    1.300    0.231
       131 -11.1801    120.7161    149.1456   1.1634845125e+02   2.7914225575e+01    0.2690034    0.2176591  38.17 0.0002769293    1.310    0.237
       132  -9.0855     31.6436    158.2791   1.3966173918e+02   3.8820153795e+01    0.1271589   0.07961258  71.19 0.0005132334    1.658    0.397
       133 -11.1750     77.9146    155.2700   1.2817165549e+02   3.3794942332e+01    0.2610617    0.2031525 -70.38 0.0005551011    1.166    0.142
       134 -10.2466     16.2285    155.5913   1.4283913073e+02   4.0864388614e+01    0.2227284     0.161123 -44.34   0.00143945    1.694    0.410
       135 -10.1955    250.0832    153.1600   8.9807109832e+01  -6.8589539584e-03    0.2062365    0.1656321 -71.82  0.001100451    1.704    0.413
       136 -10.3249     70.0267    152.7892   1.2971005155e+02   3.5515737304e+01    0.2068863       0.1677  81.60 0.0006087096    1.213    0.175
       137  -9.8877      8.0583    152.8677   1.4437192618e+02   4.2140700312e+01    0.1647977    0.1210209  86.34            0    1.164    0.141
       138 -10.8992     34.3620    150.5941   1.3807380705e+02   4.0310102883e+01    0.2804417    0.1685299 -56.04  0.001519773    1.535    0.349
       139  -9.9268     81.3781    149.2898   1.2626954311e+02   3.4690583064e+01    0.1948715    0.1245761 -69.93 0.0004747666    1.538    0.350
       140 -11.0702     12.4047    148.5780   1.4295220663e+02   4.2754441638e+01    0.3451874    0.2112698  84.14  0.002001694    1.550    0.355
       141 -10.8030    128.4444    149.4704   1.1451146827e+02   2.6323631419e+01    0.3160235     0.204394  54.58  0.000805417    1.623    0.384
       142 -10.8066     69.4986    247.3515   1.4116570135e+02   1.5219362476e+01     0.200822    0.1744254 -89.49 0.0008565763    1.314    0.239
       143  -9.8363     77.5604    146.2328   1.2669158265e+02   3.5986870426e+01    0.1998571    0.1183628 -51.04 0.0009052781    1.628    0.386
       144 -10.8787    115.6941    142.9161   1.1629050776e+02   3.0323379956e+01    0.2678035     0.217277  44.33 0.0002227326    1.266    0.210
       145 -11.1860    112.8111    139.9267   1.1638285871e+02   3.1563782203e+01    0.2969356    0.2304066  41.47 0.0005664268    1.343    0.255
       146 -10.0527     85.9314    142.6478   1.2387596890e+02   3.5560644881e+01    0.1912212    0.1759509  72.79 0.0004764545    1.100    0.091
       147 -12.4795    214.7684    243.4834   1.1364516153e+02  -8.0556019435e+00    0.5461434     0.343836  62.04 0.0003657845    2.853    0.650
       148 -13.3090    122.0686    136.4142   1.1324335354e+02   3.0598330696e+01    0.7373642    0.5930501  22.42 0.0009430165    1.505    0.335
       149 -12.6312    126.5637    128.6520   1.1029910711e+02   3.1475718454e+01     0.529756    0.3763239 -84.62  0.001046552    1.966    0.491
       150 -12.5616    120.9835    126.6716   1.1126735014e+02   3.3049308303e+01    0.3696359    0.3425912 -38.30  0.001616289    1.116    0.104
       151 -16.4295    231.8863    102.6632   8.1474010245e+01   1.2700278164e+01      1.37687     1.017081 -55.77  0.005399839    1.343    0.255
       152 -10.5337     32.6391    134.7631   1.3632864720e+02   4.4130053866e+01    0.3744648    0.1431329 -51.94  0.001679335    2.344    0.573
       153 -10.9212    109.1474    132.8620   1.1578301742e+02   3.3892166652e+01    0.2261544    0.2001702 -85.94 0.0004729434    1.165    0.142
       154  -9.7798      1.5153    132.9497   1.4379088616e+02   4.7024739319e+01    0.1796853   0.08644522 -70.83   0.00068623    1.544    0.353
       155  -9.8958     47.5584    124.5898   1.3075638321e+02   4.4951325274e+01     0.243311    0.1355837 -49.26 0.0007475256    1.649    0.394
       156 -10.2858     39.0672    127.4974   1.3353856619e+02   4.5174920485e+01    0.2265611    0.1671495  30.79 0.0008956859    1.631    0.387
       157 -10.6817     41.6951    130.9588   1.3340116128e+02   4.4104416620e+01    0.1902318    0.1764266  83.24 0.0003634763    1.159    0.138
       158 -10.8724     43.0236    127.5053   1.3248294384e+02   4.4765057252e+01    0.2520689    0.1895339 -50.81  0.000340816    1.255    0.203
       159 -10.0857     24.2060    130.8963   1.3792896784e+02   4.5779694921e+01    0.1849868    0.1518519  59.57 0.0005719356    1.364    0.267
       160 -10.0553     70.9866    130.4789   1.2548016255e+02   4.0653567136e+01    0.1842055    0.1235786  -3.72  0.000809297    2.623    0.619
       161 -11.2404    105.0055    126.3055   1.1539836242e+02   3.6171955024e+01    0.2909985    0.2510077 -20.06 0.0001746186    1.363    0.266
       162 -12.1846    102.7168    123.6753   1.1540841071e+02   3.7191820708e+01    0.6963097     0.197632 -45.38  0.002072147    3.648    0.726
       163  -9.7113     20.4876    128.4667   1.3854283629e+02   4.6642172750e+01    0.1225628   0.09680303 -71.38 9.698578e-05    1.002    0.002
       164 -11.4411    151.4208    184.0987   1.1607343161e+02   1.4033639436e+01    0.3057795    0.2297211  60.89 0.0001634234    1.378    0.274
       165 -12.4935    117.3109    114.0586   1.0914533267e+02   3.6623467667e+01    0.5959696    0.2780552  35.88   0.00218797    2.494    0.599
       166 -10.8125     92.0564    184.4873   1.2946912285e+02   2.4813683867e+01    0.2694237    0.1797026 -49.85  0.001372083    1.673    0.402
       167 -12.3184    124.1957    116.4765   1.0793363918e+02   3.4699851481e+01    0.3340563    0.2633034  38.92 0.0008526103    1.323    0.244
       168 -13.3392    114.0689    118.6140   1.1114651091e+02   3.6235147715e+01    0.6806797    0.4543633 -54.59  0.002892862    1.486    0.327
       169 -11.8280    111.3080    123.4286   1.1304419082e+02   3.5667208694e+01    0.4443033    0.3100433 -20.08  0.001479867    2.083    0.520
       170 -10.7870    108.5064    122.4429   1.1356015682e+02   3.6418360816e+01     0.269532    0.2517606 -45.34 5.462702e-05    1.067    0.063
       171 -10.3457     12.3124    124.0754   1.4004595784e+02   4.8257298020e+01    0.1773373    0.1528653 -45.35 0.0007736689    1.301    0.231
       172  -9.4414     64.0203    122.0545   1.2573470754e+02   4.3562224594e+01    0.1609241    0.1429357 -62.34 0.0003258201    1.012    0.011
       173 -12.4881    100.1955    115.7846   1.1423360494e+02   3.9447768264e+01    0.5133985    0.4232148 -42.93  0.002710735    1.183    0.154
       174  -9.6119     77.6713    119.2968   1.2133626035e+02   4.2304082447e+01    0.1402033    0.1066939  79.92 0.0004981016    1.634    0.388
       175 -10.0877     30.1927    118.6014   1.3448976779e+02   4.8054724566e+01    0.1533961    0.1194431  -4.59 0.0009543496    1.716    0.417
       176 -11.4718     90.9792    116.0936   1.1687404596e+02   4.0956522765e+01    0.3970745    0.3118652 -10.63   0.00159541    1.662    0.398
       177 -10.8987     70.4839    116.4176   1.2274582890e+02   4.3997701395e+01    0.3269833    0.2196614 -73.20  0.001625215    1.655    0.396
       178 -11.6713     56.9211    116.4626   1.2661706415e+02   4.5746447494e+01    0.3153764    0.1799664 -61.27    0.0015673    1.553    0.356
       179 -10.7649     54.5005    110.5030   1.2610175079e+02   4.7396636196e+01    0.2532156    0.1710672  76.96  0.001259156    2.121    0.529
       180 -11.5493     11.6861    114.2465   1.3885467109e+02   5.0489083806e+01    0.3097931    0.1461091 -60.47  0.001084739    1.586    0.370
       181  -9.6724     44.2129    113.0153   1.2957320724e+02   4.7968069441e+01    0.1787233   0.08933734 -60.53 0.0005170836    1.676    0.403
       182  -9.8726     75.8190    185.6509   1.3323704537e+02   2.7052906753e+01    0.1906309    0.1080121  51.14 0.0008815476    1.699    0.411
       183 -11.7242    223.2478    245.0054   1.1233941389e+02  -9.6236662713e+00    0.2573229    0.2138794  22.99 0.0009627935    1.061    0.058
       184 -10.0330     70.0410    110.7528   1.2163009424e+02   4.5354723623e+01    0.1854316    0.1701106 -50.87 0.0003220538    1.034    0.033
       185 -12.3383    113.1098    108.8500   1.0894904069e+02   3.8600502974e+01    0.4404018    0.3214733  -7.33   0.00118396    2.000    0.500
       186 -12.1738    100.5910    105.4273   1.1154162650e+02   4.1695501301e+01    0.5044102    0.4060896 -35.78  0.002524922    1.246    0.198
       187 -16.0671    231.4310    135.3775   8.9111311383e+01   6.8525705043e+00     2.906152     1.987662  28.02   0.01263326    1.825    0.452
       188 -12.5478    226.4003    238.6466   1.1070856859e+02  -9.2738804682e+00    0.4117644    0.3048749   0.96 0.0008080429    1.359    0.264
       189  -9.6802     86.0247    102.6568   1.1502801412e+02   4.4784527895e+01    0.1826127    0.1823817 -62.74 0.0005342207    1.084    0.077
       190 -11.7077    115.0059     98.7059   1.0573568201e+02   4.0418398033e+01    0.3483963    0.2687131  35.87  0.001285715    1.357    0.263
       191 -11.9705    122.1623     98.6180   1.0377195990e+02   3.8984241846e+01    0.4408031    0.3010095  18.07  0.001249003    2.061    0.515
       192 -12.3661    119.1022     96.1716   1.0392135942e+02   4.0124428099e+01     0.423618    0.3183083 -64.45 0.0002579376    1.571    0.363
       193 -10.7468     29.2509    106.3254   1.3265095690e+02   5.0898402114e+01    0.2375882    0.1938808  84.05  0.001277892    1.379    0.275
       194  -9.2309     71.2861     98.6939   1.1842759119e+02   4.7875788969e+01    0.1305172    0.1059469  89.64 0.0003361819    1.566    0.362
       195  -9.8375     63.3127     97.6533   1.2059956587e+02   4.9180537786e+01    0.1329259     0.103442  86.92 0.0007046524    1.714    0.416
       196 -10.1265     15.9932     95.6896   1.3465918538e+02   5.4257368948e+01    0.1584598    0.1330497 -55.06 0.0004523527    1.079    0.074
       197 -11.0380    192.4975    246.9752   1.1834041547e+02  -4.8484637132e+00     0.258357     0.156577  51.70  0.001395532    1.722    0.419
       198 -12.5413    117.9338     85.3115   1.0115233929e+02   4.2565962757e+01    0.5230219    0.3994069 -57.19 0.0005790115    1.463    0.316
       199  -9.8433     66.2866    105.6933   1.2158718015e+02   4.7006634936e+01    0.1305963     0.103479  87.51  0.000248446    1.568    0.362
       200 -10.2375     39.9977     88.1796   1.2567085682e+02   5.3878704683e+01    0.3188971    0.1369723 -56.78  0.001494818    1.954    0.488
       201 -10.0392      3.4024     88.7560   1.3725575892e+02   5.6513255338e+01    0.1677958   0.07611105 -57.02 0.0007703365    1.580    0.367
       202 -16.6089    225.7841    122.5947   8.7169970902e+01   1.0422698821e+01     3.785566     1.304347  48.71   0.01299338    3.029    0.670
       203 -10.5143     49.8620     84.8944   1.2171121321e+02   5.3540575194e+01    0.1904536     0.179413  -7.20 0.0003674663    1.163    0.140
       204 -10.2851    101.7179     83.2941   1.0513693676e+02   4.6142379202e+01    0.1965784     0.163296  -2.07  0.001036759    1.336    0.252
       205 -10.0497     58.9553     82.7515   1.1821686496e+02   5.2912380597e+01    0.1797971    0.1612761 -28.02 0.0004237892    1.059    0.056
       206 -16.3716    180.1269     93.5944   8.8638936228e+01   2.6628127252e+01     2.329287     1.679396  35.59   0.01057766    1.598    0.374
       207  -9.5686    173.6749    247.2922   1.2193095992e+02  -1.6843693675e+00    0.1237962   0.08973783  63.05 0.0007017039    1.617    0.382
       208 -10.0823    113.3487     77.3081   1.0004369886e+02   4.5046038184e+01    0.2634858    0.1320177  44.73  0.001080386    2.010    0.503
       209 -11.1035    115.4854     74.1129   9.8482257368e+01   4.5206912159e+01    0.3184952     0.247829 -58.28  0.001306514    1.512    0.338
       210  -9.8837     76.1539     77.1431   1.1112477055e+02   5.1677001467e+01    0.1932055    0.1651329 -21.62 0.0002910336    1.106    0.096
       211  -9.4634     25.3040     77.3365   1.2799150510e+02   5.7446309892e+01    0.1281218   0.07173511 -36.38 0.0004141909    1.668    0.401
       212 -12.2269    131.0889     73.0623   9.4030430579e+01   4.2054383285e+01    0.4475802      0.37313 -16.52  0.001244907    1.302    0.232
       213 -10.3077     20.8205    184.7653   1.4469658085e+02   3.3976418727e+01    0.2675033   0.05219889 -66.24  0.001018528    3.591    0.721
       214 -11.7783    102.5972     57.9695   9.7004313132e+01   5.0609085440e+01     0.500861    0.1930314 -40.53  0.001936086    2.608    0.617
       215 -10.9277     99.6518     64.7431   1.0006439393e+02   5.0012649952e+01    0.3844632    0.2345798 -26.57  0.001794273    1.792    0.442
       216 -16.3163    233.5748     77.4359   7.5300706095e+01   1.6656935186e+01      1.39769     1.258863  77.53  0.008134721    1.129    0.114
       217 -15.9018    186.0359    107.0435   9.0931536429e+01   2.2602103358e+01     1.503895     1.136989  46.03  0.005866756    1.355    0.262
       218 -12.3352    129.1369     66.1976   9.2427867464e+01   4.3691018376e+01    0.6718509    0.2810898  46.28  0.002265575    2.313    0.568
       219 -10.6492    135.5108     66.9166   9.1057332837e+01   4.2134013551e+01    0.2146489     0.145787 -35.69 0.0003655148    1.514    0.339
       220 -10.2340     60.6368     63.0117   1.1200086904e+02   5.6578147652e+01    0.1806991     0.142756 -35.31  0.001100283    1.119    0.106
       221 -11.9602     10.3074     65.7404   1.3047364445e+02   6.0823410594e+01    0.4303868    0.2113009 -44.08  0.002336538    1.579    0.367
       222 -10.6766    126.3182     61.9576   9.1824195788e+01   4.5028209475e+01    0.2449452    0.1949182  60.27  0.001033703    1.351    0.260
       223  -9.7374    121.9200     63.6874   9.3509778084e+01   4.5696095097e+01    0.1923212    0.1836768  28.08 0.0005976683    1.030    0.029
       224 -10.3174    108.8207     59.9474   9.5875211775e+01   4.9052133051e+01    0.2074468    0.1756102   5.69 0.0002641158    1.209    0.173
       225 -10.3877     54.6892     60.3394   1.1323089730e+02   5.7829392629e+01    0.1806054    0.1571222  85.40  0.001114335    1.765    0.434
       226 -10.9672     48.4707     58.4923   1.1485656471e+02   5.8908226597e+01    0.2920277     0.185293 -27.31  0.001209704    1.500    0.333
       227 -10.1025     32.1404     59.1659   1.2095362044e+02   6.0455255196e+01    0.1486522    0.1360469 -56.09 0.0005047874    1.316    0.240
       228 -12.2987    140.1810     51.1113   8.5067779442e+01   4.3578835217e+01    0.5416661    0.3785456 -60.97  0.002569275    1.861    0.463
       229 -11.1226     89.6765     57.6884   1.0077930364e+02   5.3046522963e+01    0.2952044    0.2353291  25.90  0.001226042    1.235    0.190
       230 -11.3156     92.4739     55.0872   9.9054096530e+01   5.2981164846e+01    0.4907025    0.2050743 -34.50  0.002002518    2.437    0.590
       231 -10.7088     22.6990     57.3853   1.2391978152e+02   6.1583294232e+01    0.2393957    0.1392008 -66.63  0.001142399    2.161    0.537
       232 -10.7364    127.4971     55.9908   8.9637274250e+01   4.5731234496e+01    0.2866213    0.2123821  11.43 0.0009582809    1.648    0.393
       233 -11.5242    130.5672     53.7165   8.8154523600e+01   4.5396678137e+01    0.4138017     0.263498 -19.42  0.001649939    1.883    0.469
       234 -11.7851    132.3162     48.7953   8.6165190528e+01   4.5737887662e+01    0.3557346    0.2912441  20.35  0.001927834    1.302    0.232
       235  -9.9123     36.5158     64.5175   1.2088200470e+02   5.9028726395e+01    0.1232527   0.09912577 -35.05 6.376729e-05    1.011    0.011
       236 -10.7785    123.3359     53.5804   8.9915796620e+01   4.7025222997e+01    0.3571681    0.2079504  27.56  0.001112215    2.207    0.547
       237 -10.3295    110.4428     53.9069   9.3444833422e+01   4.9704675903e+01    0.2073749    0.1873426  48.48 0.0003720714    1.171    0.146
       238 -11.0868     37.2660     52.1274   1.1697103332e+02   6.1261903318e+01    0.3175772    0.2360864 -39.45  0.002091374    1.151    0.131
       239  -9.5201     65.6902     52.6985   1.0693852497e+02   5.7720033802e+01    0.1309792   0.08971858  -8.61 0.0002975255    1.604    0.377
       240  -9.7273    132.3472     57.6701   8.8968901649e+01   4.4376528455e+01    0.2062281    0.1505543  69.00 0.0008809334    1.621    0.383
       241 -10.3810    106.0725     51.2800   9.3787429506e+01   5.0999060521e+01    0.1929022    0.1735051  24.32  0.000582199    1.046    0.044
       242 -11.0353    101.2010     69.4529   1.0109918745e+02   4.8877672407e+01    0.2573282    0.2145598 -37.69 0.0004557373    1.185    0.156
       243  -9.7242     29.4879     49.5082   1.1909147117e+02   6.2464585631e+01    0.1197982    0.0919309 -29.53 2.700182e-05    1.036    0.035
       244 -12.2601    116.3866     44.4793   8.8709338591e+01   4.9879691918e+01    0.5438873    0.4284094 -14.78  0.002859798    1.337    0.252
       245 -12.0146    124.1183     44.4313   8.6735539649e+01   4.8206841153e+01     0.535753    0.3492053  68.89   0.00251416    1.953    0.488
       246 -11.0083     19.7956     45.8677   1.2172397502e+02   6.3913257729e+01    0.1752979     0.119218 -30.09 0.0005146504    1.195    0.163
       247 -11.3210    140.8521     44.5537   8.2868283434e+01   4.4366341245e+01    0.4188355    0.2130468  63.61  0.001726191    2.157    0.536
       248 -10.3404     85.2091     45.1307   9.7880970120e+01   5.5847176954e+01    0.2082225    0.1654337   2.96 0.0007217989    1.221    0.181
       249 -11.1091     64.5648     43.3043   1.0408008589e+02   5.9419973876e+01    0.4233495    0.2166437 -44.32  0.002111284    2.048    0.512
       250 -10.2941     32.6345     42.7223   1.1571674008e+02   6.3354233295e+01    0.1597003   0.09755649 -49.99 0.0009473736    1.643    0.391
       251  -9.5944      6.5282     40.7512   1.2547562926e+02   6.5714721877e+01    0.1469458   0.09236772 -61.43 0.0009461684    1.727    0.421
       252 -10.9764    134.3250     38.7087   8.2466197952e+01   4.6679907147e+01    0.3940693    0.2480613   1.07  0.001748117    2.330    0.571
       253 -11.4720     96.3736     37.4562   9.1774630606e+01   5.4914453916e+01    0.2549636    0.2163092  25.91 0.0004028064    1.072    0.067
       254 -10.7427    119.4629     37.0059   8.5413631662e+01   5.0239204433e+01     0.195297    0.1333938 -28.08 0.0005568488    1.546    0.353
       255  -9.5251    105.8298     37.3460   8.9075334294e+01   5.3064172773e+01    0.1800626    0.1111997  39.54 0.0001264454    1.511    0.338
       256 -10.9964     70.3067     33.5578   9.8532921918e+01   6.0004038850e+01    0.3247098     0.182137  15.25  0.001561944    2.289    0.563
       257 -10.3073     55.7918     34.5934   1.0403738116e+02   6.1975142979e+01     0.163257    0.1099141  41.69 0.0009628733    1.779    0.438
       258 -10.7222    132.8609     31.2958   8.0394706065e+01   4.7955442994e+01    0.3243798    0.1904282 -23.76  0.001368859    1.913    0.477
       259 -10.8409    126.7191     30.9741   8.1664264939e+01   4.9392231125e+01     0.181245     0.170449   3.65 0.0003577894    1.109    0.098
       260 -11.1362    114.4124     30.1654   8.4332549344e+01   5.2192233827e+01    0.3971144    0.1569562  57.83  0.001558451    2.682    0.627
       261  -9.5342     92.2259     30.6199   9.0507504511e+01   5.6604477242e+01    0.1792809    0.1068497  36.57 0.0004373468    1.561    0.359
       262 -10.9643     68.7793     29.0221   9.7327113527e+01   6.0864449217e+01    0.2147855    0.1529158 -35.01 0.0008022191    1.483    0.326
       263 -11.3166     65.0963     24.8668   9.6975228940e+01   6.1980536727e+01    0.3449928     0.207921 -40.98  0.001310433    1.937    0.484
       264  -9.2516    141.2855     29.7002   7.8102783685e+01   4.6183696779e+01    0.1314562    0.1045496 -74.09 0.0003015985    1.553    0.356
       265  -9.6112     79.6165     29.7059   9.4019281651e+01   5.8993013178e+01    0.1358818   0.08560036  14.76 0.0007017451    1.761    0.432
       266 -10.2407     99.8188     25.0751   8.6327357196e+01   5.5810148649e+01    0.3085666    0.1748043  13.67  0.001397709    2.441    0.590
       267 -10.3248    132.4276    246.5347   1.2962870516e+02   5.5204838095e+00    0.2616156    0.1389768  52.21 0.0007321545    1.622    0.384
       268 -10.1180    148.9884    245.0153   1.2629711277e+02   2.9452377510e+00    0.1553051     0.132038  51.18  0.000645815    1.035    0.034
       269 -11.0605    129.7909     24.8323   7.8948866424e+01   4.9413241507e+01    0.2386274    0.2086844  41.90  0.000820435    1.023    0.023
       270  -9.7610    250.6917     23.8451   6.1432280693e+01   2.0623798348e+01    0.1713497   0.09446325 -47.76 0.0003192656    1.607    0.378
       271 -10.9756    125.0160     21.1139   7.8753800891e+01   5.0900603301e+01    0.4050403    0.2570418   9.66  0.001222731    2.041    0.510
       272 -10.5481    201.2713     21.4988   6.6167154594e+01   3.2460817449e+01    0.2150324    0.1918101  73.15 0.0003142389    1.116    0.104
       273  -9.8634     43.2321     22.3955   1.0407800589e+02   6.5319628960e+01     0.143924    0.1019271  34.92 0.0006083287    1.625    0.384
       274  -9.4657      2.4753     19.5751   1.2040575623e+02   6.9456896261e+01    0.1063726   0.07485644 -27.02 0.0001181874    1.020    0.019
       275 -12.2619    235.2377    241.1241   1.0952549109e+02  -1.0990600177e+01    0.2953176    0.2743299   8.61  0.001147484    1.286    0.223
       276 -11.0136    235.2952    235.4996   1.0855668626e+02  -1.0258390938e+01    0.2916291    0.2079041  30.89 0.0009900252    1.219    0.180
       277 -10.6636    211.6977     16.9242   6.3838782896e+01   3.0466241838e+01    0.2531772    0.1851534  67.67 0.0004140994    1.259    0.205
       278  -9.9804    112.4780     17.5726   8.0401670242e+01   5.4018046655e+01     0.220239    0.1219279  -6.34  0.001028772    2.362    0.577
       279  -9.8762    142.4943    242.9864   1.2726384481e+02   4.4076995214e+00    0.1674277    0.1065129 -89.65 0.0008099738    2.494    0.599
       280  -9.8229     14.4735     18.5127   1.1462148634e+02   6.8769855418e+01    0.1082205    0.0805207 -21.10 5.599616e-06    1.040    0.038
       281 -11.1377     66.3236    242.2569   1.4127653766e+02   1.6614113737e+01    0.2404365    0.1842851  51.97 0.0002442879    1.295    0.228
       282 -11.7606    245.4904    239.4882   1.0742103840e+02  -1.2337624084e+01    0.3205509    0.1991345  47.29  0.001836509    1.945    0.486
       283  -9.9359     99.8896     14.3519   8.2359753715e+01   5.6956683506e+01    0.1830261    0.1556537  67.23 0.0005627287    1.422    0.297
       284 -10.4997     14.0487    241.5979   1.4993288969e+02   2.3159095054e+01    0.2185925    0.1068895  81.48 0.0008873302    1.669    0.401
       285  -9.8711     44.9543     10.5212   9.8452697596e+01   6.6600731776e+01     0.162018   0.09677417  29.78 0.0005182148    1.555    0.357
       286  -9.7602     56.9395    241.3558   1.4283700031e+02   1.8062718157e+01     0.155711    0.1174779  66.03 0.0003508542    1.088    0.081
       287 -10.8787    126.8718    238.1989   1.2963569163e+02   7.9272074596e+00    0.2462611    0.1940101  42.35 0.0004868702    1.222    0.182
       288  -9.8035    112.5219    239.4901   1.3253299527e+02   1.0094125280e+01    0.1279721    0.1037261  61.48 0.0005236662    1.003    0.003
       289 -10.2979     59.5071    236.4870   1.4197749283e+02   1.8649652043e+01    0.1196267   0.09065406  72.99 0.0001999822    1.009    0.009
       290  -9.8071    119.5167    234.9788   1.3064666685e+02   9.7611435618e+00    0.1601253     0.109614 -32.17 0.0008098522    2.498    0.600
       291 -10.9740    216.8016    233.6291   1.1163239456e+02  -7.0075435892e+00    0.2190178    0.2018374   7.08 0.0006954671    1.159    0.137
       292 -10.8471    198.7149    233.0405   1.1495078116e+02  -3.8395491525e+00    0.1758278    0.1575245  12.53 0.0005044425    1.103    0.093
       293  -9.8502     31.9937    233.4553   1.4649876423e+02   2.2701419564e+01    0.1593867   0.09453545  46.82  0.001032981    1.606    0.377
       294 -10.0588    249.3200    232.0196   1.0544813101e+02  -1.1952526497e+01    0.2248797    0.1518259  58.56  0.001182457    2.689    0.628
       295 -11.2948    176.1337    231.7848   1.1911647214e+02   3.5026191064e-01    0.3720699    0.1893387  42.37  0.001313088    1.683    0.406
       296 -10.4689    110.8330    183.9292   1.2515428501e+02   2.1763202926e+01    0.2072077    0.2001742 -30.86  0.001222007    1.278    0.218
       297  -9.6251    122.5998    230.7732   1.2950935957e+02   1.0021102113e+01    0.1607524    0.1182968 -81.94 0.0002752522    1.517    0.341
       298 -10.2201    113.7026    230.8706   1.3126141858e+02   1.1507770321e+01    0.2210309    0.1582103  40.21 0.0005985697    1.396    0.283
       299 -10.9822     69.6832    230.3705   1.3957990020e+02   1.8435929295e+01     0.313257    0.1619145  52.14 0.0009230515    1.634    0.388
