#   1 NUMBER                 Running object number                                     
#   2 MAG_AUTO               Kron-like elliptical aperture magnitude                    [mag]
#   3 X_IMAGE                Object position along x                                    [pixel]
#   4 Y_IMAGE                Object position along y                                    [pixel]
#   5 X_WORLD                Barycenter position along world x axis                     [deg]
#   6 Y_WORLD                Barycenter position along world y axis                     [deg]
#   7 A_WORLD                Profile RMS along major axis (world units)                 [deg]
#   8 B_WORLD                Profile RMS along minor axis (world units)                 [deg]
#   9 THETA_WORLD            Position angle (CCW/world-x)                               [deg]
#  10 FWHM_WORLD             FWHM assuming a gaussian core                              [deg]
#  11 ELONGATION             A_IMAGE/B_IMAGE                                           
#  12 ELLIPTICITY            1 - B_IMAGE/A_IMAGE                                       
         1  -9.8361     29.6277     17.4324   8.2027654942e+01   6.9578347681e+01     0.424701    0.1886862 -25.50   0.00167569    2.438    0.590
         2 -10.0660     30.2832     23.5756   8.4463724036e+01   6.8567023566e+01     0.496752    0.2096286 -33.53  0.002140139    2.195    0.545
         3 -11.0335     57.6410     13.4021   6.7297869413e+01   6.6097683347e+01    0.5493651    0.3080057  19.22  0.001924499    1.951    0.488
         4 -11.7690    111.6026     19.4876   5.3072495193e+01   5.4467823102e+01    0.5402515    0.3722156  38.20  0.002922881    1.361    0.265
         5 -12.1080    122.1669     11.2869   4.7781177569e+01   5.2803264575e+01    0.6764283    0.3036166  58.12  0.002331451    1.845    0.458
         6 -11.2100    149.9061     18.4206   4.5115809978e+01   4.5328141301e+01    0.3407067    0.3006476  32.59 0.0004900449    1.247    0.198
         7 -10.5617    154.8514     16.2414   4.3666774236e+01   4.4325664621e+01    0.5709988    0.3160924 -12.44  0.002608182    2.501    0.600
         8  -9.6122    156.4492     10.5019   4.1713875150e+01   4.4497540768e+01    0.2492192    0.2182047  42.08 0.0008589234    1.238    0.192
         9  -9.6615    158.7447      7.2185   4.0428399112e+01   4.4238090495e+01    0.2547055    0.1798016  56.11 0.0004744501    1.305    0.234
        10 -10.5128     86.9354     16.5057   5.8500366731e+01   6.0208810293e+01    0.5834509    0.3032595 -45.15  0.002654368    2.701    0.630
        11  -9.6363     85.5171      9.1557   5.5812627561e+01   6.1249644436e+01    0.2350478    0.1788023  38.03 0.0009030467    1.108    0.097
        12 -11.2708    127.1706      4.9507   4.4626942828e+01   5.2165751774e+01    0.3779211    0.2498583  50.12  0.000949705    1.322    0.243
        13 -10.7523    101.7721     16.3962   5.4328911576e+01   5.7022596835e+01    0.4311996    0.3204492  27.57  0.001138345    1.311    0.237
        14 -10.1019     22.9563     16.0532   8.4882692591e+01   7.0516094026e+01    0.3234414     0.305828  84.02  0.001498916    1.954    0.488
        15  -9.0722     23.5166      2.7261   7.7928376601e+01   7.2303682175e+01    0.2705112    0.1167534  26.49  0.001432905    2.231    0.552
        16 -11.0795      4.7254      3.3278   8.9332113529e+01   7.4063290941e+01    0.6173841    0.3421644   3.41  0.002720637    1.718    0.418
        17 -10.3856     17.7063      3.9785   8.1853243170e+01   7.2785754676e+01    0.3232961    0.2836183  26.20  0.002263898    1.642    0.391
        18  -9.8311     19.1915     10.8400   8.4471082722e+01   7.1673081340e+01    0.2481735    0.1628949  -3.10 0.0008336824    1.340    0.254
        19 -11.1543     14.7416      7.6430   8.5434604520e+01   7.2570776894e+01    0.4576372    0.2987753  36.62  0.002348345    2.076    0.518
        20 -10.4501     10.8076     15.0577   9.1182768562e+01   7.1786822637e+01    0.3427519    0.2743154  -6.06  0.002060299    1.164    0.141
        21 -10.6121    186.0121     13.5093   3.8775289484e+01   3.6919272019e+01    0.2780346     0.269101 -80.75 0.0009816649    1.182    0.154
        22 -11.3728    181.4494     13.3613   3.9266084057e+01   3.8046606842e+01    0.7844672    0.3416255  47.14  0.003295076    2.705    0.630
        23  -9.8780    216.4500      7.4930   3.4338607935e+01   3.0383462564e+01     0.269269    0.2029117 -47.95 0.0009663888    1.287    0.223
        24 -10.6475    210.7580     10.3997   3.5497418511e+01   3.1377225465e+01    0.4192024    0.2876904 -76.23  0.002107034    1.310    0.236
        25 -10.3440    212.6865      5.1977   3.4137058028e+01   3.1478836225e+01    0.3448282    0.2248205 -35.20  0.001525698    1.619    0.382
        26 -10.7956     47.3629      9.4237   6.9677057905e+01   6.8230531795e+01    0.4173723    0.2449238  -1.88  0.001797133    1.895    0.472
        27  -9.7128    236.6727      9.4473   3.3166235366e+01   2.5715277223e+01    0.3033856    0.1903017  32.64  0.001514362    3.161    0.684
        28  -9.1843     93.2776     10.2218   5.4091443477e+01   5.9499469829e+01    0.2106619    0.1589298  86.84 0.0003972186    1.874    0.466
        29  -8.6275    250.4804      9.4789   3.2198001154e+01   2.2829520363e+01     0.118853   0.09218233 -68.99 0.0002282298    1.008    0.008
        30 -10.0642     25.2717      7.5722   7.9508964131e+01   7.1469117635e+01    0.2574332    0.1641284 -27.06 0.0007137964    1.385    0.278
        31  -9.3016    102.4855      7.5640   5.0694634388e+01   5.7708814311e+01     0.317402    0.1520189  30.77  0.001389068    2.447    0.591
        32  -9.6840     78.8483      6.7006   5.6734822735e+01   6.2849553570e+01    0.3250501    0.2558168   5.75  0.002057221    1.243    0.196
        33  -9.2149    102.0619      1.5078   4.8417712711e+01   5.8310918579e+01    0.2244354      0.16779  73.10 0.0006211186    1.419    0.295
        34 -10.3709    107.1762      4.8286   4.8560932520e+01   5.6878705895e+01    0.4716367    0.2641567 -48.35  0.002284767    2.424    0.588
        35 -10.6303     90.1280      3.1234   5.1983536929e+01   6.0811103853e+01    0.3066981    0.2703944 -70.68  0.001190242    1.510    0.338
        36 -10.5120     84.9084      1.3973   5.2649790562e+01   6.2063761798e+01    0.3740858    0.1779562  66.13 0.0005322024    2.482    0.597
        37  -9.1371     65.0776      5.3605   6.0672050684e+01   6.5643696389e+01     0.175351    0.1354187  32.46  0.000514889    1.096    0.088
        38 -10.3451     38.7331      4.9787   7.1353555284e+01   7.0039325482e+01    0.3030157    0.1535585  35.37 0.0009899454    1.799    0.444
        39  -9.3798     41.3933      1.3759   6.8227202387e+01   7.0047186089e+01     0.294932    0.1035319  43.64  0.001361509    2.726    0.633
        40  -9.0349    199.7238      3.3820   3.4850396737e+01   3.4666255321e+01    0.2681445     0.117722 -44.59  0.001293278    2.143    0.533
        41  -8.3401    185.3258      3.0172   3.6151115113e+01   3.8128060156e+01    0.1864059    0.1003536  12.07  0.000705092    4.389    0.772
        42  -8.7464    241.5130      2.0289   3.1314151749e+01   2.5490923577e+01    0.1653492    0.1039685 -39.12  0.001019759    1.554    0.357
        43  -8.7834     69.3773      2.2183   5.7711737810e+01   6.5125499168e+01    0.1706812    0.1251208  31.94 0.0004344729    1.121    0.108
        44  -9.8362     54.8264      1.9226   6.2820875451e+01   6.7811367575e+01    0.2507603     0.156728  49.12 0.0009433217    1.657    0.396
        45  -8.7161     34.3986      1.8795   7.1811618990e+01   7.1008330557e+01    0.1517023   0.09049217 -11.12 0.0003296938    1.601    0.376
        46  -8.6950     30.1899      2.2041   7.4103854855e+01   7.1538453849e+01    0.1433787    0.1257269  -5.98  0.001059774    1.362    0.266
        47  -8.5082    228.5429      1.4835   3.2092293783e+01   2.8319043178e+01    0.1215466   0.09608737 -75.07 0.0001546663    1.004    0.004
        48  -8.2846    195.5207      1.5158   3.4786933979e+01   3.5837157891e+01    0.1276048    0.1049007 -85.73 1.895213e-05    1.008    0.008
        49  -9.4994     64.4759      1.2811   5.8932798273e+01   6.6137945191e+01    0.2072671    0.0948166  50.50 0.0006362405    1.967    0.492
        50  -9.3952     45.6793    112.9567   1.0424397838e+02   4.8194840565e+01    0.2214496    0.1863699  -7.91  0.001277432    1.383    0.277
        51 -10.0147     50.0519    111.4288   1.0250486209e+02   4.8079849425e+01     0.263008    0.1890233 -72.79 0.0006365104    1.395    0.283
        52  -8.6385    108.7047    111.6667   8.3933828563e+01   3.8825470546e+01    0.2227181    0.1414417  46.98 0.0003862133    1.639    0.390
        53  -9.2739     65.7196    109.0967   9.6821497343e+01   4.6664631624e+01    0.3916176    0.1542586  48.64  0.001306964    3.588    0.721
        54 -10.7030     20.7426    109.6778   1.1185072930e+02   5.1272031131e+01    0.3477402    0.2535246  55.86  0.001141455    1.591    0.371
        55  -8.9432    128.7143    109.1982   7.7605199206e+01   3.5261988512e+01    0.3140779    0.2085067  18.04  0.001231219    2.188    0.543
        56  -8.7157    100.4495    109.0562   8.5730845629e+01   4.1008098012e+01    0.2326892    0.1467103 -48.32  0.001009766    1.542    0.352
        57 -10.3369      6.9111    108.4175   1.1612733634e+02   5.2485165622e+01    0.3186576    0.2635647 -85.15   0.00139959    1.147    0.128
        58  -9.4428      8.1671    103.1850   1.1501030112e+02   5.3655749156e+01    0.1956333    0.1390707 -54.03 0.0009789316    1.204    0.169
        59  -9.0589     11.5091    102.4717   1.1380062144e+02   5.3626087505e+01    0.2791865     0.133715 -52.63  0.001419278    1.714    0.417
        60  -8.4038     42.5829    108.4615   1.0440515557e+02   4.9622235744e+01    0.1371751    0.1181242 -55.57 0.0001375088    1.026    0.026
        61  -9.2009     34.8075    107.8360   1.0689196570e+02   5.0541333924e+01    0.3213004   0.06173545 -58.74   0.00103824    3.487    0.713
        62  -9.9155     61.6211    120.4535   1.0057204159e+02   4.4435950110e+01    0.2720343    0.2334619 -16.32 0.0001021401    1.336    0.252
        63 -10.8810     61.4429    104.6707   9.7239172719e+01   4.8310185212e+01    0.8047059    0.1569302 -51.91  0.002338667    3.986    0.749
        64 -10.6812     80.0346    103.6989   9.0808882699e+01   4.5814904991e+01    0.3732896    0.3338429 -30.23  0.001852795    1.111    0.100
        65  -8.3891     65.0061    104.0094   9.5882936588e+01   4.7986509834e+01    0.1718784    0.1515345 -50.77   -0.0106749    1.045    0.043
        66  -9.2984     17.1339    103.9283   1.1214649384e+02   5.2912482192e+01    0.2368853     0.131973 -34.24   0.00120637    1.995    0.499
        67  -9.5198    108.4280    103.1412   8.1752318499e+01   4.0824941454e+01    0.3390383    0.2142967  33.88 0.0006637808    1.689    0.408
        68 -10.0797     45.2333    101.8705   1.0216703716e+02   5.0934132814e+01    0.2718288    0.2156584  51.03 0.0005060422    1.464    0.317
        69  -9.7276     53.2961    100.3810   9.9046850157e+01   5.0368059052e+01    0.2786815    0.1916077 -38.72 0.0006055614    1.430    0.301
        70 -10.0817     53.4554     97.4901   9.8325452124e+01   5.1035347023e+01    0.2650974    0.2460643 -64.01  0.000717183    1.100    0.091
        71  -9.0175    102.1826     98.3764   8.2333046928e+01   4.3115200382e+01    0.2119567    0.1412745  51.13 0.0003863835    1.655    0.396
        72 -10.0481     69.1900     96.5512   9.2622769126e+01   4.9151902551e+01    0.3379332    0.2332603 -55.41  0.001025455    1.386    0.279
        73 -10.2901     16.4545     95.5124   1.1100371477e+02   5.4957103025e+01    0.2945561    0.2174937  58.69  0.001350306    1.651    0.394
        74  -8.8500    103.3458     95.6754   8.1217488956e+01   4.3488460335e+01    0.1559802    0.1231616  84.00 0.0003342695    1.742    0.426
        75  -9.9861     78.7824     94.7579   8.8885780166e+01   4.8090116674e+01    0.4521475    0.2885148  12.75  0.001948351    2.142    0.533
        76 -10.0738     35.1767     95.0844   1.0428122534e+02   5.3565224761e+01    0.2454786    0.1642126 -30.86  0.001307389    1.587    0.370
        77  -8.9480    132.0454     93.7064   7.2410512946e+01   3.7841703195e+01    0.2225635    0.1969698  44.64 0.0004630546    1.123    0.110
        78  -9.9196    116.5077     93.5517   7.6682529894e+01   4.1269135436e+01    0.2792222    0.2510898 -88.77 0.0006508524    1.290    0.225
        79  -8.4509      1.0000     94.0500   1.1612768106e+02   5.6173643043e+01    0.2032369   0.05642776 -71.14 0.0007921169    2.871    0.652
        80  -8.7534    109.1584     92.8273   7.8637491469e+01   4.2948896209e+01    0.2075953    0.1772818 -14.28 0.0003949968    1.276    0.216
        81 -10.4726     87.5019     90.1437   8.4690482923e+01   4.7655594091e+01     0.592566    0.3675542 -69.77  0.001732573    2.504    0.601
        82  -9.3101    125.8457     91.5229   7.3458564940e+01   3.9675170905e+01    0.2359872    0.1521693  46.02  0.001016428    1.544    0.352
        83  -8.8229     94.0598     90.7566   8.2729451756e+01   4.6336480370e+01    0.2078055    0.1932598  31.25 0.0005323268    1.098    0.089
        84  -8.9447     52.1011     90.7528   9.7191369752e+01   5.2776630252e+01    0.3169373    0.1452272 -54.06  0.001191084    1.917    0.478
        85  -9.9857     35.3017     89.7423   1.0309369984e+02   5.4808244954e+01    0.3234508    0.1843841   9.18  0.001567104    2.222    0.550
        86  -9.8438    139.7171     88.8710   6.9021242458e+01   3.7065837861e+01    0.2661446    0.1898826 -38.28  0.000794949    1.425    0.298
        87 -11.2273    120.5720     87.4056   7.3718573932e+01   4.1679169933e+01    0.5925272    0.5166422 -26.75  0.001239634    1.179    0.152
        88  -9.2481    126.9176     87.2034   7.1897257800e+01   4.0318757366e+01    0.2550066    0.2070341 -53.42 0.0008192025    1.310    0.236
        89  -9.4384    109.4517     88.2966   7.7222346191e+01   4.3852122370e+01    0.2815149    0.1470109 -40.04 0.0009817147    1.941    0.485
        90  -9.6867     56.9954     88.9906   9.4975564876e+01   5.2574024086e+01    0.1662484    0.1555705 -19.23 0.0006076238    1.073    0.068
        91  -9.7867     47.9278     89.0524   9.8293982226e+01   5.3658649055e+01    0.2064883    0.1760976 -36.34 0.0003330371    1.080    0.074
        92 -10.8489    131.5471     86.6850   7.0499405543e+01   3.9378056786e+01    0.2830046    0.2711061 -17.09 0.0003200373    1.060    0.057
        93  -9.6709    102.4304     86.2257   7.8748895927e+01   4.5705858434e+01    0.2105223    0.1439636 -54.91 0.0009445284    1.615    0.381
        94 -10.3005     29.9824     85.2369   1.0408179220e+02   5.6330277402e+01     0.550048    0.2778675   9.60  0.002551369    2.570    0.611
        95  -9.4447     81.9694     84.9172   8.5032197653e+01   4.9757221592e+01     0.233241    0.2058202  27.30 0.0003392659    1.162    0.139
        96  -9.7442     80.0372     80.9826   8.4527058829e+01   5.0931453684e+01    0.2301584    0.2037638 -52.17  0.001268258    1.184    0.155
        97 -10.4179     76.0642     83.3068   8.6598888342e+01   5.1084437631e+01    0.3003428    0.2716687  31.76 0.0003971877    1.166    0.142
        98 -10.2779     71.6525     83.1223   8.8100102014e+01   5.1820138717e+01    0.3022337    0.2584135 -77.91  0.001637945    1.451    0.311
        99  -9.9029     39.3580     84.7378   1.0043504562e+02   5.5570870684e+01    0.3505947    0.1624651 -37.66  0.001418908    2.258    0.557
       100  -9.4273    139.4240     83.6467   6.7567548042e+01   3.8155004583e+01    0.2921674    0.1477781 -43.74 0.0006415065    2.014    0.503
       101  -8.8000     15.6742     86.6722   1.0971118538e+02   5.7073141133e+01    0.1753187    0.1027369 -72.45 0.0004540939    1.606    0.378
       102 -10.6407    113.1397     81.5379   7.4087118784e+01   4.4468849111e+01    0.3911472    0.2560838 -31.42  0.001354915    1.649    0.394
       103  -8.6785     45.9632     83.9362   9.7751907135e+01   5.5052734018e+01    0.1665924    0.1400532 -44.80 0.0004149583    1.045    0.043
       104 -10.2424     54.9160     80.5780   9.3498941485e+01   5.4738173768e+01    0.3307174      0.27382  -7.98  0.001574105    1.255    0.203
       105  -9.5350     49.2482     76.8431   9.4622818147e+01   5.6260461480e+01    0.3477173    0.1899872 -36.31  0.001289177    1.820    0.450
       106 -10.2301     55.8755     74.3163   9.1354818375e+01   5.5982206221e+01    0.5005136    0.3523632 -11.22  0.002467823    1.638    0.389
       107  -8.9520    176.3322     81.3287   5.8678785233e+01   2.9721747427e+01    0.1547903      0.11976  17.64 -0.0004278454    1.717    0.418
       108  -9.6008    108.5052     80.9567   7.5286879883e+01   4.5560098842e+01    0.2627626    0.2074705  26.14 0.0007854829    1.339    0.253
       109 -11.0260    104.3987     78.6341   7.5817247417e+01   4.6872261534e+01    0.3973464     0.326599 -46.62 0.0009906343    1.253    0.202
       110 -10.4848    108.1763     75.2093   7.3587598366e+01   4.6768291096e+01    0.5453848    0.3108677 -16.64  0.001901836    3.130    0.681
       111 -12.0272     94.3256     59.5978   7.2733825168e+01   5.2511011807e+01     1.171942    0.7441682 -11.06  0.005040063    2.218    0.549
       112 -10.7761     98.7113     75.9792   7.6761806037e+01   4.8544568402e+01     0.413126    0.3526382 -82.50  0.001105808    1.534    0.348
       113 -12.2981     98.2205     69.0580   7.4681043495e+01   4.9991841179e+01    0.5840325    0.4371427  20.01  0.002288535    1.474    0.322
       114  -9.9168    154.5100     79.5456   6.2770506150e+01   3.5331671885e+01    0.3522024    0.2119321  50.10 0.0007753162    1.628    0.386
       115  -8.5595     22.1995     80.4466   1.0600479313e+02   5.8049641829e+01    0.1517186     0.118468  35.13 0.0005815246    1.530    0.346
       116  -9.7226      7.1603     80.0538   1.1167920410e+02   5.9087751555e+01    0.2154129    0.1568967 -48.55 0.0008076103    1.137    0.121
       117 -11.3527     76.0470     75.1462   8.4141665481e+01   5.2825545349e+01    0.6884565    0.3268471  29.34  0.002047631    2.417    0.586
       118  -8.2558     29.0237     77.6807   1.0272708288e+02   5.8132429234e+01    0.1976646   0.09029655 -12.16  0.000701686    4.120    0.757
       119  -9.9422      5.0096     74.9860   1.1157685646e+02   6.0338964362e+01    0.3094005    0.1609735 -60.30  0.001711422    1.481    0.325
       120  -9.3478      2.3346     73.2515   1.1230150059e+02   6.0852308231e+01    0.1818831    0.1365336 -43.77 0.0004991436    1.146    0.127
       121  -9.4367    130.6115     75.1774   6.7271357256e+01   4.1809538561e+01    0.2045459    0.1462165 -25.82 0.0003875655    1.564    0.360
       122  -9.8523     45.4692     72.5619   9.4901176741e+01   5.7633346086e+01    0.3463544    0.2031855 -48.34  0.001758456    1.491    0.329
       123 -10.6477    152.4772     73.3512   6.1418257940e+01   3.6936080609e+01    0.3786258    0.2608031 -45.18  0.001744829    1.491    0.329
       124  -8.8405     30.7764     72.7873   1.0083234169e+02   5.9069536657e+01    0.1617757    0.1463574 -86.98 0.0005269762    1.349    0.259
       125  -8.7849     65.6389     80.9006   8.9622140386e+01   5.3206419307e+01     0.193853    0.1675669 -44.91 0.0004527507    1.107    0.096
       126  -8.6859     38.7204     71.5948   9.7322598600e+01   5.8571961299e+01    0.2091653    0.1285622 -26.70 0.0006890297    1.722    0.419
       127 -11.4430    136.7623     69.5789   6.3975816034e+01   4.1382075454e+01    0.5150098    0.3234119  45.21 0.0003337442    1.560    0.359
       128 -10.5770    142.7333     68.9524   6.2340052079e+01   4.0064368801e+01    0.3699252    0.2808763  31.41  0.001244363    1.462    0.316
       129 -10.1393     64.1748     70.5635   8.7059915567e+01   5.5623328851e+01    0.3950783    0.2433291  36.26  0.001130325    1.714    0.417
       130 -10.2258     59.9873     65.9753   8.7207307613e+01   5.7167536614e+01    0.4105458    0.2577147 -20.67  0.001880855    1.873    0.466
       131  -9.4354     17.6595     70.3682   1.0556699349e+02   6.0628826147e+01    0.2956846    0.1503315 -48.17   0.00104766    1.564    0.360
       132  -8.3137     36.4134     77.4855   9.9783651703e+01   5.7503197728e+01       0.1322    0.1122246 -43.62 0.0001245146    1.020    0.020
       133  -8.4713    179.2402     69.4119   5.4873604036e+01   3.1053498890e+01    0.2019114    0.1404673  72.72 0.0006134264    1.554    0.356
       134  -9.8542    119.6769     68.8807   6.8231933444e+01   4.5459510399e+01     0.360844    0.2180457  42.78  0.001579431    1.623    0.384
       135  -8.1820     34.2777     69.6468   9.8592129846e+01   5.9433698040e+01    0.1212173    0.1003375  85.57 0.0007009096    1.648    0.393
       136  -8.5914    194.5510     67.5393   5.1741122799e+01   2.7647910417e+01    0.1412135    0.1369808 -81.12 0.0001902643    1.069    0.064
       137  -8.6576    159.0000     66.9631   5.8129028209e+01   3.6436497441e+01    0.2452991   0.08587849 -35.63 0.0008022349    2.941    0.660
       138 -10.8016    152.9995     65.4265   5.8949611094e+01   3.8167544895e+01    0.5493839    0.2304714 -39.50  0.002031049    2.401    0.584
       139  -9.9199     70.7879     66.4028   8.3252294836e+01   5.5456626678e+01    0.3359936    0.2381282  -6.45  0.001216964    1.674    0.403
       140  -9.8969     70.9493     62.0067   8.1722025084e+01   5.6291401864e+01    0.3570476    0.1808062  50.28 0.0008577442    2.727    0.633
       141  -8.7539    108.4655     62.5415   6.9358490574e+01   4.9060227164e+01    0.2055911    0.1408724 -48.76 0.0001707943    1.633    0.387
       142  -9.5709    111.0976     65.8806   6.9697146776e+01   4.7895650361e+01    0.2140753      0.21167   1.37 0.0002691753    1.072    0.067
       143  -8.1466    111.7155     62.7121   6.8464709696e+01   4.8325263310e+01    0.2730654    0.2093567  10.69  0.000709967    1.542    0.351
       144  -8.7283     49.2505     65.5667   9.1325158476e+01   5.8668938789e+01    0.1718515    0.1231257   6.64 0.0006417478    1.517    0.341
       145 -10.4786     43.6096     63.3171   9.2933150414e+01   5.9800888772e+01    0.3364647    0.2725624 -51.96  0.001137367    1.255    0.203
       146  -9.9649     32.4947     64.1468   9.7811622944e+01   6.0779518946e+01    0.3085381    0.2154365 -33.79 0.0009754362    1.265    0.210
       147 -10.8628      3.4738     60.0182   1.0917665765e+02   6.3688157760e+01    0.4937176    0.2163761 -60.81  0.001644382    1.783    0.439
       148 -11.4468      7.9260     56.5955   1.0644210659e+02   6.4188042945e+01    0.2208175    0.1650379 -42.39 0.0002036458    1.057    0.054
       149  -9.1318    127.0014     64.2946   6.4783770624e+01   4.4597785897e+01    0.2169621    0.1913024  49.97  0.000637962    1.102    0.093
       150  -8.7468    187.0050     63.5732   5.1936550643e+01   3.0099653571e+01    0.2122877    0.1387964  64.81  0.000825244    1.526    0.345
       151  -8.9420     17.0089     63.1528   1.0411337008e+02   6.2241234620e+01    0.1736753    0.1426494  74.07 0.0008648129    1.675    0.403
       152  -9.1136    172.5922     62.2349   5.4101241467e+01   3.3849705356e+01    0.1981892    0.1451418 -22.42 0.0006574004    1.600    0.375
       153  -8.1752    218.7077     61.6757   4.6739435436e+01   2.2917196523e+01    0.1288884    0.1089892  17.71 0.0006878088    1.615    0.381
       154  -8.6665    141.6404     61.6907   6.0354880433e+01   4.1557685008e+01    0.1580769    0.1134873  24.21 0.0007041428    1.738    0.425
       155  -9.6501    121.6732     59.9718   6.4780759218e+01   4.6563859730e+01    0.3735024    0.2388853  25.08  0.001500614    2.013    0.503
       156 -10.8499     58.6008     58.1001   8.5143206012e+01   5.8925029742e+01     0.592961    0.3996329   3.14  0.003028916    1.739    0.425
       157 -10.0658    153.7545     46.2430   5.2991400046e+01   4.0941151703e+01    0.4791886    0.2149442  44.72  0.001507324    2.394    0.582
       158 -11.6484    150.4374     57.2698   5.7035255688e+01   4.0117156557e+01    0.5601698    0.3801219  89.40  0.002439309    2.035    0.509
       159  -9.7058    149.7733     50.3714   5.5057128409e+01   4.1331806330e+01    0.2918763    0.1971086 -51.41   0.00114743    1.641    0.391
       160  -9.6502     34.6918     57.8375   9.5014458609e+01   6.1876945100e+01    0.2015096    0.1715055 -39.83 0.0003674865    1.107    0.097
       161  -9.9145    212.5991     49.4040   4.4575169851e+01   2.6109396211e+01    0.3642365    0.2280234  72.07  0.001746963    1.601    0.376
       162  -9.9952    200.2987     55.8369   4.7843143408e+01   2.8074504918e+01    0.3436717    0.2420475  -0.35  0.001171342    2.302    0.566
       163 -10.1470    205.9167     52.6758   4.6257325504e+01   2.7204642102e+01    0.4769166    0.4336652  76.53  0.002862302    1.113    0.102
       164  -9.2759    201.5372     49.4986   4.6058097204e+01   2.8699001390e+01    0.2943399    0.1981462 -77.07  0.001454429    1.647    0.393
       165  -9.4932    159.9924     56.9563   5.4982956426e+01   3.7800937382e+01    0.2913656     0.245017   9.23  0.000900992    1.457    0.314
       166 -10.1540    162.4876     52.2435   5.3112530168e+01   3.7894638010e+01    0.4488141    0.2530735 -40.46  0.001988412    1.810    0.447
       167 -10.3795     97.0138     80.9501   7.8856665512e+01   4.7866302163e+01    0.2636726    0.2379303 -26.31   0.00142489    1.080    0.074
       168  -8.2490     50.5879     59.7738   8.8939248246e+01   5.9678950886e+01    0.1680531     0.121702 -54.47 0.0004194167    1.493    0.330
       169  -8.8675    222.5646     55.8631   4.4869896033e+01   2.2907702692e+01    0.2459335    0.1574419  52.64  0.001257668    1.740    0.425
       170  -9.4143    111.9815     55.6608   6.6000513873e+01   4.9467229427e+01    0.3507817    0.2391525  73.33  0.001084352    2.137    0.532
       171  -9.0949    105.8286     56.1154   6.7946080164e+01   5.0733731325e+01    0.2122571    0.1958618  54.48  0.001190341    1.165    0.141
       172  -9.5462     26.3195     56.4288   9.8245482641e+01   6.2940865018e+01    0.2471786    0.1153976  24.87  0.001185582    2.319    0.569
       173  -9.1390    125.9955     55.2456   6.2087951226e+01   4.6336198916e+01    0.2053791    0.1856891  47.07 0.0002934607    1.053    0.050
       174 -10.5298     81.1355     53.4786   7.5022105842e+01   5.6104551933e+01    0.5640411    0.3262358 -26.44  0.002570726    1.916    0.478
       175  -9.6619     85.2397     47.0133   7.1217379175e+01   5.6425235766e+01    0.3840837    0.2510503  -5.49  0.001792424    1.982    0.495
       176 -10.2490    136.1232     52.1925   5.8623228349e+01   4.4400994219e+01    0.4161066    0.2566642 -14.80  0.001761444    2.219    0.549
       177 -10.4254    173.9898     52.0852   5.0993646101e+01   3.5054926244e+01    0.3877858    0.2082091 -33.33  0.001683261    1.950    0.487
       178  -9.0467     43.7262     52.4505   8.9365312295e+01   6.1958696764e+01    0.2515858    0.2241105  84.14  0.001301612    1.683    0.406
       179  -9.1196     42.6803     46.0023   8.7550246250e+01   6.3298660065e+01    0.3745132    0.1170807 -49.49  0.001423629    3.179    0.685
       180  -9.7864     49.0225     49.4928   8.6064960292e+01   6.1859958397e+01    0.2382418    0.1686047 -18.65 0.0004402989    1.370    0.270
       181 -10.0712     45.9988     47.2453   8.6550724378e+01   6.2661818279e+01    0.2529965     0.220577  17.84 0.0002046136    1.227    0.185
       182  -9.6118     29.0999     52.6526   9.5862552014e+01   6.3459002669e+01    0.2206905    0.1467889 -39.36 0.0003578582    1.253    0.202
       183  -9.9818     26.0931     48.1483   9.5794438299e+01   6.4620606885e+01    0.3562091     0.198018  23.87  0.001959245    1.932    0.482
       184 -10.4564    114.2197     50.5569   6.3614581894e+01   4.9785971020e+01     0.649373    0.3075952  56.71  0.002013135    2.256    0.557
       185  -9.7149    126.5243     50.4172   6.0348111727e+01   4.6965368624e+01    0.2883589      0.23497  17.23 0.0001493526    1.367    0.268
       186 -10.5376    106.1145     50.2660   6.5810260103e+01   5.1626398890e+01    0.3554499    0.3001662  70.38  0.001175322    1.420    0.296
       187 -10.0506     92.3253     51.1069   7.0369059883e+01   5.4368212734e+01    0.3439026    0.1874925  50.24  0.001293921    1.930    0.482
       188  -8.5536     73.3934     49.8232   7.6478339521e+01   5.8111416585e+01    0.1874774    0.1204467 -26.17 0.0004667014    1.594    0.373
       189 -10.4897     55.8922     42.0651   8.0396428878e+01   6.2232128475e+01     0.427276    0.2822145  -3.97  0.001237523    1.718    0.418
       190  -9.2438     55.4714     50.0030   8.3554603050e+01   6.0891369575e+01    0.2370959    0.1562669 -26.47 0.0009394044    1.468    0.319
       191 -10.2213     59.4263     47.2377   8.0921416662e+01   6.0812287990e+01     0.385281     0.253786 -22.38  0.002034741    1.535    0.349
       192 -10.8846      5.7688     48.2908   1.0531333434e+02   6.6019832495e+01    0.2939381    0.1534627 -34.32 0.0002132645    1.641    0.391
       193  -8.9237     10.9167     47.8875   1.0279118934e+02   6.5807887136e+01    0.1601039    0.1410337  67.64 0.0003733175    1.621    0.383
       194  -9.0810    121.9336     48.9075   6.0998910840e+01   4.8270768386e+01    0.2196274    0.1754722 -72.52 0.0007233475    1.622    0.384
       195  -9.1584    233.4403     48.4665   4.1911648734e+01   2.1556990225e+01    0.1335427    0.1095159 -64.83 2.113442e-05    1.053    0.050
       196  -9.4810     17.1767     50.8318   1.0072702619e+02   6.4798137178e+01    0.3454995    0.1453745   1.80  0.001476259    3.409    0.707
       197  -8.2169     89.2912     48.2888   7.0332097049e+01   5.5431464620e+01    0.1405905    0.1026718   9.69 0.0002995142    1.543    0.352
       198  -9.5241     34.5130     46.7434   9.1469538794e+01   6.4078621258e+01    0.2851066    0.2182284 -70.68  0.001648952    1.926    0.481
       199 -10.5472     33.5204     34.9909   8.7600285777e+01   6.6319658118e+01    0.3473204    0.2071985 -29.03 0.0004312874    1.502    0.334
       200  -8.8039     36.2135     42.4089   8.9149278979e+01   6.4702947962e+01    0.2573994    0.1196499  19.75  0.001013064    2.428    0.588
       201  -9.8736     36.0886     38.8559   8.7882025714e+01   6.5356655610e+01    0.2827516    0.1886226 -37.15  0.001449098    1.317    0.240
       202  -9.0896    106.8189    247.4883   1.0770252798e+02   9.0573361106e+00     0.210797    0.1387193 -35.49  0.001149942    2.336    0.572
       203 -12.2527     75.8684    219.0400   1.1113704289e+02   1.9071412354e+01    0.9221539    0.6387288  56.16  0.005390542    1.257    0.204
       204 -10.5190    142.3230     45.6827   5.5151167604e+01   4.3849757128e+01    0.3961194    0.2866815 -89.89  0.001889216    1.746    0.427
       205 -10.3504    143.5399     42.5152   5.3886052397e+01   4.3993835517e+01    0.3439715    0.2517097  55.06 0.0009851037    1.260    0.206
       206 -11.0492    166.3781     43.3571   4.9812347874e+01   3.8192730802e+01    0.6270656    0.2938001  65.57  0.002551266    2.100    0.524
       207 -10.8815    108.8114     43.4612   6.2607571026e+01   5.2071097898e+01    0.2923375    0.2572734  44.92 0.0003023859    1.088    0.081
       208  -9.3165     69.2911     44.3047   7.5932412476e+01   5.9743758409e+01    0.3412175    0.1917105 -10.85  0.001394064    2.785    0.641
       209  -8.5383      1.2183     44.9738   1.0658805976e+02   6.6914479773e+01    0.1431164   0.07751499 -58.46 0.0008274129    1.524    0.344
       210  -9.1470     20.0808     43.7823   9.7198842979e+01   6.5973692501e+01     0.169943    0.1619041 -20.51  0.001227939    1.283    0.221
       211  -8.4298     81.3025     43.3203   7.1174365009e+01   5.7762504347e+01    0.1418086   0.09964604   6.82 0.0007027037    1.628    0.386
       212  -8.4925     10.6283     43.2201   1.0156995944e+02   6.6753985211e+01    0.1674248   0.08186026 -46.07 0.0009165739    1.568    0.362
       213  -8.4019    100.4823     42.4722   6.4653563380e+01   5.4033148139e+01    0.1385957    0.1302428  29.43 0.0001126873    1.071    0.067
       214  -9.7777    151.3217     41.2899   5.1943909325e+01   4.2232895632e+01    0.3543872    0.2098006 -78.47  0.001186196    2.770    0.639
       215  -8.6511     77.0422     40.9558   7.1765654208e+01   5.8922017057e+01    0.1627887    0.1399682 -13.78 0.0003146889    1.111    0.100
       216 -10.0640     63.1362     40.9418   7.7014215311e+01   6.1308584401e+01    0.3171272    0.1763834  38.29  0.001309336    1.795    0.443
       217  -9.5568     28.1027     41.0661   9.2450440051e+01   6.5785733240e+01    0.1917456    0.1531888  -7.92  0.001260436    1.141    0.124
       218 -10.2102    112.3080     38.8611   5.9997998234e+01   5.1939012685e+01    0.3205011    0.2740529 -56.96  0.001477624    1.402    0.287
       219  -9.7510     48.6578     37.4502   8.1659472169e+01   6.4034767933e+01    0.3325944    0.2412686 -62.53  0.001774963    2.275    0.560
       220  -9.0913      2.9753     39.3408   1.0418076099e+02   6.7946493694e+01     0.231607    0.1020918  12.44  0.001235867    2.507    0.601
       221  -9.3621    226.3206     38.3491   4.0388493909e+01   2.4493338861e+01    0.3128501    0.1204141  74.95  0.001238201    2.975    0.664
       222  -9.2000    182.0070     38.1204   4.5847639023e+01   3.5006256771e+01    0.2059793    0.1848969 -82.22 0.0003999185    1.038    0.036
       223  -9.4458    162.1523     37.4442   4.8809152262e+01   4.0038884185e+01    0.3157263    0.1725723 -43.76  0.001420808    1.915    0.478
       224  -8.8875    132.8796     38.3070   5.4802729194e+01   4.7170736149e+01    0.2884353    0.1723886  61.65  0.001330356    1.612    0.380
       225 -10.0230    127.5806     36.4542   5.5373869367e+01   4.8691925402e+01    0.3457943    0.2502709  55.65 0.0009239949    1.268    0.211
       226 -10.0054     81.3080     26.3268   6.4380637034e+01   6.0189856440e+01    0.3107301    0.3082347 -18.09  0.001174887    1.283    0.220
       227 -10.4397     82.9896     35.9694   6.7726163480e+01   5.8550373961e+01    0.3692572    0.3030085  10.43  0.002161175    1.152    0.132
       228  -9.0177    195.0084     37.4960   4.3873147155e+01   3.1906592662e+01    0.1899294    0.1068958 -80.82 0.0006608252    2.273    0.560
       229 -10.1543     69.0159     36.1827   7.2827028242e+01   6.1082336465e+01    0.3941775    0.3099993  59.04  0.002214872    1.770    0.435
       230  -9.4735     62.5573     36.3444   7.5404018979e+01   6.2137596618e+01    0.2430318    0.1499533  30.77 0.0006943925    1.560    0.359
       231  -9.1057    215.6817     35.0066   4.0761266134e+01   2.7340634765e+01    0.1823342    0.1543702 -65.68 0.0004118182    1.052    0.050
       232  -8.6550    191.4627     34.5083   4.3567757795e+01   3.3152723600e+01    0.2142528    0.1566606  46.49  0.000943007    1.547    0.354
       233  -8.8739    194.0000     33.0010   4.2847010514e+01   3.2727407600e+01    0.1792129    0.1616071  41.96   0.00107439    1.318    0.241
       234  -8.7034    106.7497     35.0399   6.0104730222e+01   5.3708088319e+01    0.1856203    0.1679537  24.16 0.0001861689    1.040    0.039
       235 -11.6063    238.1314     32.4875   3.7926366495e+01   2.2669209469e+01    0.6291343    0.3897511 -78.66  0.003483598    1.613    0.380
       236 -10.1858    237.4640     26.4500   3.6689378769e+01   2.3566423721e+01    0.2525221    0.2099609 -77.56 0.0005517237    1.059    0.055
       237 -10.8874    239.6718     22.8872   3.5743966478e+01   2.3527332830e+01    0.3870932    0.2414553 -72.89 0.0009713481    1.483    0.326
       238  -8.5927    184.6471     34.0391   4.4368643035e+01   3.4880689398e+01    0.2089354    0.1178948   2.37 0.0007045703    4.425    0.774
       239 -11.3931     78.9088     31.3751   6.7274587454e+01   5.9982599547e+01    0.3993422    0.3369683 -28.48 0.0005241183    1.273    0.214
       240  -8.3104    137.3092     32.7343   5.2011483813e+01   4.6807441475e+01    0.1364458    0.1061007 -80.25 0.0002428553    1.536    0.349
       241  -9.8193    119.6534     26.7687   5.3828491710e+01   5.1776521305e+01    0.5418769    0.2508217  41.85  0.002276088    2.156    0.536
       242  -9.6334    114.4988     32.1913   5.7023423139e+01   5.2319173592e+01    0.2628118    0.1812379  47.47 0.0004541381    1.304    0.233
       243 -10.1620    110.2109     29.3311   5.7070511399e+01   5.3658716710e+01    0.3787581    0.2911655  43.24  0.001703341    1.167    0.143
       244  -8.1349     37.4554     32.4269   8.4711575460e+01   6.6305096463e+01    0.1253327    0.1004758 -11.75 7.835325e-05    1.022    0.021
       245  -8.7006    143.7612     31.3665   5.0284313453e+01   4.5386985763e+01    0.1984412    0.1144125  52.42 0.0002718074    1.569    0.362
       246 -10.0676     55.4829     26.4546   7.4122862018e+01   6.4744511887e+01    0.3682661    0.1995552  -9.26  0.001642493    2.624    0.619
       247 -10.1366     42.9805     29.3319   8.0854092329e+01   6.6113793603e+01    0.2706087    0.1643425 -37.31 0.0001249181    1.563    0.360
       248 -11.1279     48.3698     28.3303   7.7998882909e+01   6.5530043799e+01    0.4510267    0.2599599  38.08  0.001162107    1.809    0.447
       249  -8.8311    151.3012     30.3610   4.8569929720e+01   4.3636519252e+01    0.1453761    0.1010449  31.41 0.0004830051    1.721    0.419
       250  -9.1183    124.8127     30.1928   5.3850041784e+01   5.0144364465e+01    0.1992087    0.1832751  74.72  0.000526231    1.141    0.123
       251  -9.5155     65.0327     29.9816   7.1788868064e+01   6.2680888625e+01    0.2201889     0.172816 -36.12   0.00131558    1.415    0.293
       252 -10.5012     67.2210     27.1619   6.9748438044e+01   6.2698784863e+01    0.3902806    0.1900687  27.52  0.001723675    2.355    0.575
       253  -9.0079     21.4385     30.1137   9.1658981331e+01   6.8372967694e+01    0.2566841    0.1373772 -40.61  0.000916817    1.557    0.358
       254  -9.3074     21.5010     26.4785   9.0181385722e+01   6.8990635595e+01     0.302293    0.1543472 -30.75   0.00116749    1.730    0.422
       255  -9.5605    215.9368     28.2243   3.9140443484e+01   2.8135740546e+01    0.2437561    0.1949252 -21.89 0.0007715548    1.558    0.358
       256 -10.5493    182.2715     27.1866   4.2853241510e+01   3.6306416408e+01    0.5667281    0.2911589  46.73  0.001544448    2.213    0.548
       257 -10.0909     15.6201     28.2506   9.3955742107e+01   6.9191647374e+01    0.3769924    0.1772743 -23.96  0.001911572    2.225    0.551
       258 -10.1136    206.7750     26.0169   3.9591334711e+01   3.0534843334e+01    0.2629195    0.2320548 -21.12  0.001522955    1.406    0.289
       259  -8.9617    197.8303     29.9495   4.1591928114e+01   3.2183302441e+01    0.1887668     0.174779  47.56 0.0005814887    1.281    0.219
       260  -8.9062    218.2478     21.5952   3.7375745181e+01   2.8403821438e+01     0.169327    0.1075688  64.77 0.0004170753    1.550    0.355
       261 -10.3890    227.2173     23.1398   3.6884340457e+01   2.6204052930e+01    0.3846177     0.266014  88.20  0.002283445    1.330    0.248
       262  -9.4514    222.3695     20.6935   3.6783219003e+01   2.7576682981e+01    0.2495673    0.1951721  81.34 0.0008673051    1.190    0.160
       263  -8.8951     98.5848     23.7394   5.8058872581e+01   5.6919268168e+01    0.1703749    0.1245798 -37.35 0.0005162128    1.555    0.357
       264 -10.4037     50.5180     22.2721   7.4381235375e+01   6.6097514180e+01    0.2694564    0.2465954 -64.10  0.001002617    1.766    0.434
       265  -9.4121     54.6505     18.6708   7.0977177217e+01   6.5939107163e+01    0.2321739    0.1526082   5.67 0.0007534303    1.561    0.359
       266 -11.3233     69.1474    217.2881   1.1240820600e+02   2.0366882098e+01    0.4950169    0.3617808  89.27  0.001132847    1.340    0.254
       267 -10.1757    164.4584     22.0219   4.3923710267e+01   4.1318201985e+01    0.3664024    0.2167023  51.24  0.001080351    1.639    0.390
       268  -9.4898      8.6287     22.9141   9.5665993700e+01   7.0642273375e+01     0.256094    0.1509578  11.80  0.001611852    1.719    0.418
       269  -9.8232      1.9704     21.5909   9.8884802679e+01   7.1295215056e+01    0.2140922    0.1928253  27.21  0.001143066    1.559    0.359
       270  -9.8454    141.8472     21.0753   4.7339535391e+01   4.7041468868e+01     0.290802    0.2492838 -64.38  0.001426423    1.279    0.218
       271  -8.8766     91.2949    214.5964   1.0725673390e+02   1.7759159675e+01    0.2606499    0.1071546  41.10  0.000904516    2.090    0.521
       272  -8.3416    132.4624    210.5193   9.7470235131e+01   1.1957597344e+01    0.1382249    0.1238249  40.49 7.261572e-05    1.013    0.013
       273  -9.5083    205.9675     21.0759   3.8485403887e+01   3.1307208899e+01     0.191521    0.1627426 -82.75 0.0003062513    1.009    0.009
       274  -9.5872      1.3712    185.1719   1.2444558372e+02   3.4837098679e+01    0.3309329   0.08838275 -77.07  0.001380045    3.023    0.669
       275 -10.3965    249.2060    183.3888   6.8782454575e+01  -3.0572472268e+00    0.2523266    0.1657976 -35.44  0.001440431    1.414    0.293
       276  -9.7617      7.0925    168.7025   1.2205851834e+02   3.8127539326e+01    0.2106782    0.1357276  84.87 0.0006271076    1.303    0.233
       277 -10.7554      6.9282    163.6737   1.2171300607e+02   3.9310143128e+01    0.2150874    0.2086858  -8.92 0.0006933195    1.385    0.278
       278  -9.6159     26.1036    157.9972   1.1643692042e+02   3.9043694561e+01    0.1887643     0.160073 -87.06 0.0004646775    1.023    0.023
       279 -10.1988      8.8917    155.8595   1.2059530789e+02   4.0998782978e+01    0.2033043    0.1619794  52.70 0.0003661324    1.311    0.237
       280  -9.1174     69.1362     19.3300   6.5621463806e+01   6.3368170359e+01    0.2086689    0.1544645  -8.92 0.0006529709    1.322    0.243
       281  -9.9350     25.2517    152.5399   1.1607702116e+02   4.0443038700e+01     0.321866    0.1646189  71.14 0.0009792851    2.285    0.562
       282  -9.5190    119.0775     18.8999   5.1143986776e+01   5.2784331332e+01    0.2120088    0.1790203  48.41 0.0007358285    1.040    0.039
       283 -11.0040      2.9114    152.8037   1.2182982440e+02   4.2151300371e+01    0.3779334    0.2335689 -50.47  0.001489288    1.744    0.427
       284  -9.6268    235.9810     16.9377   3.4789897653e+01   2.5018419837e+01    0.1906959    0.1525126 -71.77 0.0005311518    1.008    0.008
       285 -10.2567     20.5208    152.5731   1.1732062311e+02   4.0850644990e+01    0.2871857    0.1068575 -73.11  0.001238994    2.267    0.559
       286  -8.3226     25.2835    148.3702   1.1560733133e+02   4.1454522236e+01    0.1339924   0.08318695 -48.87 0.0007016602    1.701    0.412
       287  -8.5025     32.3980    147.4707   1.1357087241e+02   4.1013872391e+01    0.1320948    0.1105155 -81.83 9.316936e-05    1.022    0.022
       288 -10.1762     11.6943    145.0820   1.1888807069e+02   4.3360271082e+01    0.2221914    0.1807805  57.79  0.000291282    1.281    0.219
       289 -10.4429     21.6494    141.8997   1.1586169599e+02   4.3346070062e+01    0.3859704    0.1960716  60.13  0.001519036    2.275    0.560
       290 -10.6542     16.4612    141.4586   1.1723483230e+02   4.3872011998e+01    0.3178806    0.1657856  54.23  0.001290707    2.089    0.521
       291 -10.5563      3.5283    141.7369   1.2072932052e+02   4.4729167709e+01    0.3022759     0.264791  72.33  0.002129559    1.181    0.153
       292  -9.3628     77.7711     16.3816   6.1331036699e+01   6.2073572549e+01    0.2138637    0.1698782  50.94 0.0008362704    1.325    0.245
       293  -8.6489     78.2171     12.9441   5.9685737146e+01   6.2357301038e+01    0.1575369    0.1316623  25.74 0.0003756643    1.003    0.003
       294  -9.8685     39.1513     16.0768   7.6679942718e+01   6.8576449772e+01    0.2639834    0.1528959  27.27 0.0008685901    1.612    0.379
       295 -12.8706    226.9965    135.9067   6.2735861461e+01   8.6289549443e+00     1.336524    0.6162305  51.73  0.005537084    2.531    0.605
       296 -10.1663     16.1782    132.3934   1.1629740064e+02   4.6094316580e+01    0.3030947    0.1484589  72.28  0.001337227    2.622    0.619
       297  -9.1046    144.1183     14.2000   4.4749866820e+01   4.7189201533e+01    0.2029157    0.1605019  46.92 0.0005577467    1.227    0.185
       298  -8.5267     40.2925    130.3549   1.0893593805e+02   4.4462747019e+01    0.1423296   0.09043431 -42.38 0.0007029871    1.685    0.406
       299 -10.5145     29.3832    138.1482   1.1323788177e+02   4.3590631927e+01     0.292843    0.2561808 -30.64   0.00107459    1.358    0.263
       300  -8.6377     80.2875    129.3600   9.6624352286e+01   3.9555807824e+01    0.1904993    0.1355684  44.72 0.0003830356    1.468    0.319
       301  -9.9188    179.1945     22.9036   4.2105886958e+01   3.7563010110e+01      0.28984    0.2156992  66.01  0.000731019    1.227    0.185
       302  -9.2955     36.3338    141.9761   1.1176917924e+02   4.1981763934e+01    0.2313867    0.1738459 -34.69 0.0009318662    1.595    0.373
       303 -12.4706    230.8996    124.9305   5.9640091807e+01   9.8052314867e+00    0.5309668    0.4459411  67.38  0.002398123    1.433    0.302
       304 -11.1928    229.3065    118.5198   5.8460180483e+01   1.1237019220e+01    0.3420795    0.2744937  14.36  0.001766597    1.529    0.346
       305  -9.7143     29.5995     30.2512   8.7613599079e+01   6.7552311603e+01    0.3086251    0.1822798 -37.85  0.001675706    1.472    0.320
       306 -10.3138     28.6089    124.8582   1.1164580922e+02   4.6932485144e+01    0.4542823    0.2171112 -50.66   0.00148844    1.923    0.480
       307  -9.4512      4.6071    126.7464   1.1897504335e+02   4.8240496020e+01    0.2436201   0.09010413 -69.30  0.001115786    2.056    0.514
       308 -10.2548      8.4339    122.7041   1.1741842914e+02   4.8972864533e+01     0.409082    0.1341863 -51.86   0.00174411    2.646    0.622
       309 -10.1483     48.4930    125.5115   1.0563574821e+02   4.4781872981e+01    0.3325438    0.2456902  -6.49  0.001350446    1.787    0.440
       310  -9.3522     23.4705    125.0911   1.1323433934e+02   4.7308207814e+01    0.1983132    0.1579017  83.62 0.0004516744    1.246    0.197
       311 -10.0181     14.2869    122.6847   1.1567716353e+02   4.8587619059e+01    0.3233095    0.1359736 -45.38  0.001454832    2.455    0.593
       312  -9.3585     93.9872    122.7664   9.1048423666e+01   3.8915109289e+01    0.2488947    0.2067817 -54.37   0.00045106    1.165    0.141
       313  -9.6243    250.0000    121.9886   5.6037971471e+01   6.7193835592e+00    0.2309525   0.06676156 -37.72 0.0008069194    2.974    0.664
       314  -8.8768     73.6253    121.9913   9.7116895038e+01   4.2383717291e+01    0.2043598    0.1754452 -64.23 0.0005820774    1.112    0.100
       315 -11.7101    223.6321    113.2028   5.8172965913e+01   1.3316062459e+01    0.7001921    0.3765212  46.61  0.003134666    2.044    0.511
       316 -11.3784    219.5889    115.7929   5.9446800625e+01   1.3690841296e+01    0.4402002    0.2564064 -47.80  0.001999301    1.683    0.406
       317  -9.8855     57.6829    117.8709   1.0130982518e+02   4.5579215199e+01    0.2448565    0.2153268 -48.52 0.0006911554    1.085    0.079
       318  -9.2626     69.8691    118.3842   9.7527226976e+01   4.3816489652e+01    0.2500024    0.1942612 -70.64 0.0007305949    1.309    0.236
       319  -9.2360     98.3853    117.1960   8.8401833969e+01   3.9471425626e+01    0.2366217    0.2084209  14.99 0.0005598429    1.244    0.196
       320 -10.1768     25.6448    116.3258   1.1129664148e+02   4.9274204783e+01    0.3255427    0.1926255  40.60  0.001712862    1.901    0.474
       321  -9.8610     39.6741    115.4606   1.0666086863e+02   4.8208125761e+01    0.3285828    0.2042602  63.39  0.001573956    2.085    0.520
       322 -10.5165     11.3062    114.8818   1.1559005124e+02   5.0671125040e+01    0.2550097    0.1758496 -57.22 0.0006488591    1.242    0.195
       323  -9.2461      1.7685    116.0103   1.1863949294e+02   5.0965033353e+01    0.2293298     0.138189 -67.10 0.0003730692    1.302    0.232
       324 -10.0828      2.1570    111.9433   1.1805366001e+02   5.1910032896e+01    0.2187259    0.1691698  77.99  0.001010501    1.327    0.247
       325  -9.2318     32.0342    113.4990   1.0879625298e+02   4.9415706104e+01    0.2037299    0.1538947 -64.83 0.0005113867    1.135    0.119
