#   1 NUMBER                 Running object number                                     
#   2 MAG_AUTO               Kron-like elliptical aperture magnitude                    [mag]
#   3 X_IMAGE                Object position along x                                    [pixel]
#   4 Y_IMAGE                Object position along y                                    [pixel]
#   5 X_WORLD                Barycenter position along world x axis                     [deg]
#   6 Y_WORLD                Barycenter position along world y axis                     [deg]
#   7 A_WORLD                Profile RMS along major axis (world units)                 [deg]
#   8 B_WORLD                Profile RMS along minor axis (world units)                 [deg]
#   9 THETA_WORLD            Position angle (CCW/world-x)                               [deg]
#  10 FWHM_WORLD             FWHM assuming a gaussian core                              [deg]
#  11 ELONGATION             A_IMAGE/B_IMAGE                                           
#  12 ELLIPTICITY            1 - B_IMAGE/A_IMAGE                                       
         1 -12.9678    237.6342     20.2775   2.7431706455e+01   2.5344877382e+01    0.6540664    0.3152644 -51.46  0.003180216    1.777    0.437
         2 -10.5276     28.6125     19.2014   7.4111353645e+01   6.8832478234e+01     0.411838    0.1954947 -19.57  0.002004679    2.478    0.596
         3 -11.2793     34.9784     19.4023   7.1130941146e+01   6.8045843828e+01    0.6288158    0.2800729 -16.63   0.00255925    3.610    0.723
         4 -11.1557    248.7131     11.3278   2.4843658652e+01   2.4151559855e+01      0.34568    0.2699014 -88.88  0.002498615    1.176    0.149
         5 -11.4558    249.1251     17.2562   2.5943541094e+01   2.3391201429e+01    0.2934737    0.2352068 -25.34  0.001359446    1.689    0.408
         6 -11.6382    244.8451     17.4296   2.6297667319e+01   2.4219514295e+01    0.3088733    0.2443756 -35.85  0.001607919    1.474    0.322
         7 -12.0027    112.0268     18.9427   4.4604929054e+01   5.4156042329e+01    0.3984129    0.3063713  36.61  0.001091879    1.206    0.171
         8 -11.2173     58.0082     13.4986   5.8603895648e+01   6.5413306834e+01    0.4253181    0.2812184   7.09  0.002532151    1.498    0.332
         9 -12.1202    227.5176     14.4864   2.7086283827e+01   2.8115540967e+01    0.4370622    0.2270928 -27.57  0.002294422    2.376    0.579
        10 -10.9826    155.4627     14.7653   3.5197152112e+01   4.4491128560e+01    0.2883854    0.1995018  40.84  0.001365633    1.581    0.367
        11 -10.8556    104.4172     10.6079   4.3375402462e+01   5.6639807842e+01    0.2895617    0.1950775  23.17 0.0008770889    1.596    0.373
        12 -11.1422     10.0606     15.1861   8.2058354604e+01   7.1236118965e+01    0.2554822    0.1962415 -15.64 0.0006398204    1.075    0.070
        13 -11.4168     16.1080     13.5857   7.8046635497e+01   7.0942537450e+01    0.2331367     0.164732   6.00 0.0002374394    1.226    0.185
        14 -12.4625     24.3144     11.9924   7.2989134367e+01   7.0320544256e+01    0.3321731    0.2097585  -0.96 0.0003595742    1.434    0.303
        15 -11.5868    208.6870      9.6615   2.7694742072e+01   3.2708844237e+01    0.5011654    0.3077258   7.16  0.002266035    3.885    0.743
        16 -11.8600    186.9863     13.8002   3.0861301448e+01   3.7184833738e+01    0.2357377    0.1934032  89.02 0.0002320195    1.046    0.044
        17 -11.7188    182.3844     12.3792   3.1033831374e+01   3.8398048757e+01    0.3978036    0.3193997  45.20   0.00142844    1.446    0.309
        18 -11.6042    122.7447     11.0020   3.9603303484e+01   5.2502626182e+01    0.3685008    0.2861154  18.35  0.001201037    1.449    0.310
        19  -9.8742    117.5990      9.4039   4.0084449344e+01   5.3816904361e+01    0.2405006    0.1809202 -81.70 0.0006646042    1.678    0.404
        20  -9.4070    101.5184      8.4906   4.3274648246e+01   5.7458532568e+01    0.1277548    0.1065749  42.51 7.522707e-05    1.010    0.010
        21  -9.7506     92.5134     10.0132   4.6099557599e+01   5.9234398455e+01     0.163538   0.09759409 -49.46 0.0005108106    2.477    0.596
        22 -10.7461     47.2562      8.5971   6.0654568508e+01   6.7680273101e+01    0.3263982    0.1799646  25.59 0.0007993294    1.663    0.399
        23  -9.7920     34.6868      8.8868   6.6390239872e+01   6.9449652766e+01    0.1617557    0.1243678  -7.98  0.001018335    1.122    0.109
        24 -10.1694      7.8748      9.0931   8.0574554492e+01   7.2320897910e+01    0.1534467    0.1249114  -9.34 0.0003545907    1.224    0.183
        25 -10.5435    238.4695      7.4953   2.4831613132e+01   2.6621790195e+01    0.2359122    0.1750854 -43.53   0.00123764    1.374    0.272
        26 -11.2938    216.1608      7.2911   2.6524646720e+01   3.1323751994e+01    0.2152461    0.1494359 -51.37 0.0004147914    1.333    0.250
        27  -9.4587    189.3150      8.2959   2.9271741004e+01   3.7211082306e+01    0.1198345   0.08663876  47.72 0.0003863354    1.603    0.376
        28  -8.8642    137.6877      8.6869   3.6179238096e+01   4.9251666968e+01    0.1326205    0.0844105  39.85 0.0002323512    1.634    0.388
        29 -10.2211     77.6639      6.8058   4.8978231132e+01   6.2523337510e+01     0.229783    0.1812523  41.61 0.0008948835    1.120    0.107
        30 -11.4793     12.5432      5.5434   7.6235055838e+01   7.2403858550e+01    0.3384617    0.2715907  10.36  0.002587267    1.333    0.250
        31 -11.5102    127.6748      4.7057   3.6625165517e+01   5.1917946705e+01    0.2870608    0.2341885 -86.57 0.0009969495    1.339    0.253
        32 -11.8190     89.9753      2.9594   4.3988773203e+01   6.0373089239e+01       0.3616    0.2720096  49.12 0.0008147685    1.133    0.117
        33  -9.3086     40.6378      5.2551   6.1899019872e+01   6.9037629253e+01    0.1461348     0.093114 -11.63  0.000225235    1.467    0.318
        34 -10.9392      2.1225      2.8283   8.1014425743e+01   7.3670455852e+01    0.1952461    0.1835171 -31.44  0.001585845    1.760    0.432
        35  -9.9347    250.4922      2.9586   2.3160209962e+01   2.4722919426e+01     0.163801   0.09403618 -42.15 0.0008386294    1.599    0.374
        36  -9.6600     25.1733      1.9854   6.7633524709e+01   7.1478955909e+01    0.1551021    0.1257319 -43.09  0.001074264    1.999    0.500
        37 -10.3562    104.0599      2.2038   4.0376878172e+01   5.7429673253e+01    0.4205683    0.1973277  70.62  0.001910682    2.430    0.588
        38 -11.0147     28.4767    139.8867   1.0505590663e+02   4.3076378147e+01    0.4408092    0.1653939 -58.88  0.001309587    2.136    0.532
        39  -9.2112     96.7883     95.6053   7.4229865477e+01   4.4748080325e+01    0.2108985    0.1401862  48.53 0.0009486254    1.666    0.400
        40 -10.2419     16.2440     95.1615   1.0198524110e+02   5.4893381745e+01    0.1879409    0.1420896 -47.89  0.000452061    1.117    0.105
        41 -10.0338    116.7813     93.7688   6.7715188631e+01   4.1245944498e+01    0.2158344    0.2021205  -8.62 0.0005113204    1.071    0.067
        42  -8.8297     29.6194     94.6966   9.7128454080e+01   5.4001172080e+01     0.143631   0.08309538 -33.11 0.0007024068    1.778    0.438
        43 -10.8355    126.5904     91.5890   6.4362412590e+01   3.9630129630e+01    0.2613989    0.2514348 -80.08 0.0005250765    1.123    0.109
        44 -10.1004     57.5188     90.5332   8.6088545325e+01   5.2016442533e+01    0.1395513    0.1257862 -36.51 4.580541e-05    1.026    0.026
        45 -11.0611     34.7786     89.9809   9.4232533144e+01   5.4640348691e+01     0.216265    0.1902255  -2.55            0    1.223    0.183
        46 -10.3909    120.7839     87.6679   6.4821711608e+01   4.1662445062e+01    0.2578741    0.2383829  75.01 0.0009800831    1.216    0.177
        47  -9.7346    139.1077     86.8837   5.9756282967e+01   3.7806552722e+01     0.217989    0.2004075 -79.08  0.001145569    1.194    0.163
        48 -10.4987    131.2791     85.9106   6.1475756329e+01   3.9739707184e+01    0.2532606    0.2148474  39.44  0.000283461    1.176    0.149
        49 -10.0038     85.9462     86.1720   7.5019516035e+01   4.8709421247e+01    0.2114888     0.201496  71.05  0.000410774    1.242    0.195
        50 -10.5348     28.3614     85.0513   9.5507193903e+01   5.6329400159e+01    0.2400761    0.1836139  30.19 0.0005023257    1.524    0.344
        51 -11.3002     75.9925     82.8092   7.7407184830e+01   5.1069336888e+01    0.4070295    0.2292337 -50.79  0.001212564    1.774    0.436
        52 -10.0325     71.0596     82.1723   7.8947678232e+01   5.1969408218e+01    0.2114318    0.1767688 -15.39 0.0002367865    1.176    0.150
        53  -9.5553     47.6146     82.1986   8.7534705072e+01   5.5076156031e+01    0.2009484    0.1068738 -44.68 0.0009439579    1.642    0.391
        54 -11.0822    104.3500     79.5475   6.7169704997e+01   4.6653773119e+01    0.2996662     0.235348 -72.96  0.001443466    1.755    0.430
        55  -9.6538     54.4481     80.5137   8.4515469234e+01   5.4627076943e+01    0.1384225    0.1206614 -30.44 6.776577e-05    1.006    0.006
        56 -11.9310     75.5444     75.4499   7.5345552118e+01   5.2669165675e+01    0.5865272    0.3811356  14.53  0.002754109    1.857    0.461
        57 -10.6865     59.9109     76.5517   8.1343498589e+01   5.4760865209e+01    0.3555957    0.2114131  15.99  0.001274747    1.995    0.499
        58 -10.0600      4.5369     75.7240   1.0267190746e+02   5.9986875075e+01     0.224424   0.08979399 -60.01 0.0006532085    1.872    0.466
        59  -9.8373    130.7778     74.9356   5.8358655912e+01   4.1918924106e+01    0.2207869    0.1958056  11.81 0.0005286409    1.210    0.174
        60 -11.3100     45.9672     73.9158   8.5893486563e+01   5.7057081300e+01    0.3956023    0.1944865 -49.05  0.001709329    1.779    0.438
        61 -10.1318    250.4666     71.7295   3.6722472828e+01   1.5790886145e+01    0.3297098    0.1170413 -34.68  0.001315292    2.851    0.649
        62 -10.3325    151.5202     72.4530   5.2685394089e+01   3.7594710587e+01    0.2427927    0.2379604  79.37  0.001374071    1.012    0.012
        63 -10.0209     64.5202     70.6138   7.7826522487e+01   5.5335657454e+01    0.2563831    0.1649893  35.66  0.001295073    1.637    0.389
        64 -10.4144     17.6203     70.5209   9.6338312775e+01   6.0360417305e+01    0.2157678    0.1888195 -10.82   0.00101694    1.208    0.172
        65 -11.4082    137.0742     69.5142   5.5159280204e+01   4.1451771863e+01    0.2537007    0.2329338 -33.80  0.001394322    1.119    0.107
        66 -11.5032    101.7330     68.8537   6.4605681301e+01   4.9207748543e+01    0.2885123    0.2434181 -46.55            0    1.278    0.218
        67 -10.4768    155.0942     67.9620   5.0625811324e+01   3.7516378063e+01    0.3378237    0.1799648 -52.15  0.001361848    2.208    0.547
        68 -10.3036     97.1358     68.7042   6.5983669238e+01   5.0138724715e+01    0.2765154    0.2012374 -30.73 0.0006945996    1.383    0.277
        69 -11.2429    110.6891     65.3548   6.0820438897e+01   4.7998830163e+01    0.3800016    0.2745606 -64.50  0.001778416    1.946    0.486
        70 -10.7193     58.2475     66.1574   7.8790931963e+01   5.7111114579e+01    0.2454955    0.1839993  30.45  0.001374223    1.402    0.287
        71  -9.7658     48.4391     66.2609   8.2660194736e+01   5.8354487042e+01    0.2372406    0.1569796   7.10  0.001230156    1.678    0.404
        72 -10.6040     33.6208     64.8455   8.8257925308e+01   6.0248182319e+01    0.3138373    0.2177446 -73.22  0.001533854    2.029    0.507
        73 -11.1149     71.2038     63.8338   7.3179014633e+01   5.5640175227e+01    0.2990302    0.2603515  -4.77 0.0004340854    1.050    0.048
        74  -9.8226    235.5787     64.2071   3.6845119733e+01   1.9880757059e+01    0.1784189    0.1186644 -29.92 0.0009511908    1.678    0.404
        75  -9.9863    193.9559     64.0463   4.2473341324e+01   2.9010922069e+01    0.2054148    0.1881775 -76.15            0    1.008    0.008
        76  -9.5538     44.2550     64.4133   8.3771751465e+01   5.9218642804e+01    0.2320745     0.124516  19.40  0.001118481    2.059    0.514
        77 -10.7520    147.1009     61.6165   5.0496292306e+01   4.0434286580e+01    0.2467893    0.2230591 -42.17 0.0003950026    1.146    0.127
        78 -12.2718    150.8500     57.6568   4.8530557031e+01   4.0171410700e+01    0.2661343    0.2598052 -76.41 0.0003220068    1.049    0.046
        79 -10.6813    100.8465     59.0850   6.1658875793e+01   5.1105793753e+01    0.1994386    0.1607559   1.55  0.001026468    1.332    0.249
        80  -8.9677     50.7052     59.6551   7.9656179406e+01   5.9377084797e+01    0.1403105   0.08964027 -19.40  0.000703157    1.667    0.400
        81 -10.5626      4.1165     59.4870   9.9366854085e+01   6.3496583885e+01    0.2067963    0.1501115 -12.62 0.0006533529    1.398    0.285
        82 -10.3820      7.9057     57.0632   9.7131416014e+01   6.3798252266e+01    0.2238253     0.151022 -29.13 0.0003511737    1.287    0.223
        83 -10.7856     96.1869     57.5307   6.2566762395e+01   5.2297312757e+01    0.2609671    0.2015714 -33.58  0.001399411    1.312    0.238
        84 -10.1683    160.4813     56.8281   4.6362702373e+01   3.8010133611e+01    0.2750983    0.2147348  33.04 0.0006906851    1.473    0.321
        85  -9.9244    162.3091     52.9597   4.4922057284e+01   3.8152139827e+01    0.2347472    0.1955683 -15.20 0.0004090912    1.419    0.295
        86  -9.6491    176.1424     55.8571   4.3258511098e+01   3.4430627453e+01    0.2176704    0.1785101 -86.78 0.0008571314    1.255    0.203
        87  -9.9385    112.1077     55.8259   5.7299763580e+01   4.9292921318e+01    0.2025855    0.1931882  70.57 0.0002970634    1.181    0.153
        88 -10.9888     60.4646     57.6217   7.5119520288e+01   5.8432377916e+01    0.3435997    0.2827597   6.62  0.002052424    1.146    0.128
        89  -9.5062     33.4746     55.9755   8.5649443799e+01   6.2043245122e+01    0.1613077    0.1128205 -77.72 0.0008096589    2.508    0.601
        90  -9.9848    200.6895     54.8779   3.9200943559e+01   2.8849661867e+01    0.2021385    0.1761444 -17.09 0.0009837176    1.414    0.293
        91 -11.5610     85.3575     49.0415   6.3084204252e+01   5.5765510219e+01    0.4977489    0.2945296  23.19  0.001997955    1.991    0.498
        92 -10.8872     85.7281     45.0268   6.1506060739e+01   5.6321517493e+01    0.2787938    0.2089905 -28.60 0.0009624254    1.347    0.258
        93  -9.5920     36.9898     54.0513   8.3522250138e+01   6.2054170506e+01    0.1526891     0.124467 -25.48 0.0003179677    1.022    0.021
        94  -9.8498     91.2140     62.4177   6.5804636862e+01   5.2411062993e+01    0.1871237    0.1332075  49.06 0.0004202017    1.526    0.345
        95  -9.9078    212.2075     49.8802   3.6475782290e+01   2.6972047054e+01    0.1973837    0.1561317 -64.33 0.0004617894    1.154    0.133
        96 -10.7727    202.6067     49.9015   3.7728980103e+01   2.9128738036e+01     0.219617    0.1741278  59.67 0.0005468505    1.305    0.234
        97 -10.3058    126.2771     49.1705   5.1436318692e+01   4.7171901254e+01    0.3015899    0.2038145 -48.81  0.001478853    1.699    0.412
        98  -9.4030     72.8775     50.6385   6.7997612245e+01   5.7720277277e+01     0.187737     0.120905  46.56 0.0009435274    1.754    0.430
        99  -9.7309     55.2140     49.7771   7.4445694482e+01   6.0593437641e+01    0.1861845    0.1345064  -8.59 0.0007870721    1.373    0.272
       100 -10.5230     25.1713     48.8100   8.7030046543e+01   6.4200531555e+01    0.3077107    0.1398979 -25.74 0.0008555994    2.518    0.603
       101  -9.5024      5.1210     50.1835   9.6591232939e+01   6.5341820181e+01    0.1439623    0.1344182 -54.79 0.0009058955    1.314    0.239
       102  -8.9440    106.3582     49.6864   5.6843642468e+01   5.1476211856e+01     0.137886    0.1125818 -85.64 0.0007043515    1.745    0.427
       103 -11.4313    136.8389     46.7281   4.8222106126e+01   4.5085345057e+01    0.2586981    0.2359791 -62.00 0.0003861219    1.195    0.163
       104 -10.1356    121.8006     48.0970   5.2188527636e+01   4.8341340661e+01    0.2280572    0.1887013  50.54 0.0003446663    1.141    0.124
       105 -10.5376     98.6837     47.2990   5.8253349973e+01   5.3430730455e+01    0.2384347    0.2070862  15.20 0.0002791157    1.092    0.084
       106 -10.4531     61.9810     47.1701   7.0821365412e+01   6.0050284990e+01    0.2777457    0.2453572  80.10   0.00155738    1.817    0.450
       107  -9.7680     45.8753     47.1150   7.7344573858e+01   6.2302514611e+01    0.1746237    0.1597359 -15.42 0.0003037102    1.203    0.169
       108 -10.2362     79.5958     44.7393   6.3464209906e+01   5.7499262429e+01    0.2055018    0.1675074  61.96 0.0005192562    1.658    0.397
       109  -9.8536     74.2167     44.9854   6.5443863994e+01   5.8412007386e+01    0.1919046    0.1679199   5.11  0.001173114    1.010    0.010
       110 -11.1239     33.0412     44.4056   8.1987953978e+01   6.4260293273e+01    0.2789744    0.1755263 -33.12  0.001149481    1.359    0.264
       111 -11.6581    247.4297     41.2322   3.0799515185e+01   2.0734264851e+01    0.5108271    0.2695608  56.04  0.002741124    2.217    0.549
       112 -11.5872    235.8865     42.6965   3.2214924276e+01   2.2876763845e+01    0.2841685    0.2635189 -25.90   0.00161748    1.396    0.284
       113 -10.5669    108.6461     43.2182   5.3977000052e+01   5.1938178355e+01    0.3205187    0.2277821  75.39 0.0009763952    1.984    0.496
       114 -10.4528    141.2233     43.2264   4.6200193003e+01   4.4541325164e+01    0.1858411    0.1587249 -80.52 0.0002927062    1.311    0.237
       115 -10.2188    163.0183     42.2402   4.1771946003e+01   3.9486312022e+01     0.201811     0.172755  47.64 0.0004804335    1.199    0.166
       116 -11.5577     56.8005     41.7324   7.0830015108e+01   6.1723684296e+01    0.3061247    0.2143479   0.93 0.0002395777    1.458    0.314
       117  -9.4307     61.4981     41.5391   6.8896818364e+01   6.1044462988e+01    0.1837025    0.1149745  23.68 0.0005291135    1.584    0.369
       118 -11.1914     63.0904     38.0218   6.6921426683e+01   6.1340806108e+01    0.3120794    0.2027988  37.24 0.0004127855    1.515    0.340
       119 -10.3295     91.0566     40.0549   5.7974201091e+01   5.6023206773e+01    0.1979314    0.1766677  18.41            0    1.013    0.013
       120 -11.6746    228.7214     37.3775   3.1808498070e+01   2.5081419371e+01    0.5080451    0.2690899 -72.78  0.002460486    2.186    0.543
       121 -10.2114     76.0889     38.3968   6.2292784246e+01   5.9082850835e+01    0.2117279    0.1651307  -8.15  0.001235163    1.248    0.199
       122 -10.0649     70.0684     38.7669   6.4589631289e+01   6.0078380100e+01    0.2202001    0.1334645  16.84  0.001073302    1.912    0.477
       123  -9.5590      7.0029     38.0130   9.2155197583e+01   6.7577836766e+01    0.1490462    0.1399363  89.30 0.0005334792    1.596    0.373
       124  -9.6719    148.8314     38.5183   4.3262194928e+01   4.3362135831e+01    0.2168451    0.1579292 -41.37 0.0007016658    1.462    0.316
       125 -10.5717    195.2899     37.0263   3.5561094947e+01   3.2549725080e+01    0.2336813    0.1726872  47.68 0.0007987802    1.546    0.353
       126 -10.5345     19.2319     42.7687   8.7799659562e+01   6.5833332288e+01    0.2134456    0.1631762 -17.61 0.0004803697    1.110    0.099
       127 -10.5711    127.7022     36.8347   4.7098987307e+01   4.8537817320e+01    0.2892934    0.2234385  54.53 0.0008244173    1.184    0.156
       128 -10.4214     47.4123     36.2038   7.2579394413e+01   6.3933528864e+01    0.2334195    0.1812898 -77.67  0.001201887    2.913    0.657
       129 -10.2413    106.9697     34.7714   5.1469412667e+01   5.3438888407e+01    0.2062941    0.1886942   4.60 0.0004127733    1.108    0.097
       130 -11.2637    240.2314     32.2812   2.9641181952e+01   2.3345188088e+01    0.5305871    0.2592641 -86.25  0.002530871    2.499    0.600
       131 -11.7345    236.6627     27.6836   2.9019544414e+01   2.4651514810e+01    0.4825485    0.1936379  52.30  0.002137123    3.277    0.695
       132 -12.3521     68.4468    218.3175   1.0436586357e+02   1.9709251876e+01    0.8027816    0.6172919  59.46  0.004025505    1.155    0.134
       133  -9.5859    170.3441     33.7807   3.8236503855e+01   3.8825777557e+01    0.1724311    0.1294372 -18.39 0.0005297083    1.642    0.391
       134  -9.0046     69.3076     33.3064   6.2728940576e+01   6.1000313653e+01    0.1337508   0.08977495   8.72 0.0003000931    1.610    0.379
       135 -10.5987     40.5724     32.7418   7.4196108279e+01   6.5369050899e+01    0.2571452     0.166613  10.21  0.001212123    1.514    0.339
       136  -9.7657    245.5539     31.8932   2.9093729272e+01   2.2320206278e+01    0.1772964    0.1023166 -41.62  0.001018377    1.565    0.361
       137 -10.5489    153.9672     29.6253   3.9716041467e+01   4.3234670538e+01    0.2222546    0.1995613 -31.21 0.0001539754    1.243    0.195
       138 -10.8191    249.9323     27.1470   2.7792219445e+01   2.2045274060e+01    0.3442023    0.1643734 -32.71  0.001788627    2.263    0.558
       139 -10.9094     47.2769     28.5474   6.9533414752e+01   6.5117962312e+01    0.2667777    0.2026369  23.64 0.0009505462    1.246    0.197
       140 -10.9358     15.2167     28.2542   8.4616886389e+01   6.8722227551e+01    0.2962125    0.1902263 -13.22  0.001163008    1.377    0.274
       141 -11.4063     80.3154     26.2986   5.6133046044e+01   5.9929096544e+01    0.4549254    0.3551183  81.09  0.002491861    2.147    0.534
       142  -9.7301      2.6831     26.4791   9.0504936597e+01   6.9907254463e+01    0.2068492   0.08371986 -51.27  0.001098785    2.072    0.517
       143 -10.0263     73.1836     25.8205   5.8335562788e+01   6.1312439589e+01    0.1818504    0.1732332  20.29  0.001218174    1.258    0.205
       144 -10.0813     35.0018     25.6830   7.3842371717e+01   6.7135704047e+01    0.1905382    0.1352804 -26.97   0.00107168    1.253    0.202
       145 -11.6144     77.1272    219.0246   1.0253050370e+02   1.8377757550e+01    0.4391537    0.3927391  63.89  0.002133344    1.045    0.043
       146 -11.0039     29.9801     23.7926   7.5433253236e+01   6.8002804595e+01    0.3941998    0.1339559 -34.36  0.001732708    2.825    0.646
       147 -10.7893     59.1878    208.9624   1.0544115099e+02   2.2987894037e+01    0.3701167    0.1743487  47.76  0.001748593    1.954    0.488
       148  -9.3937    184.2378     25.4324   3.4093686113e+01   3.6542194352e+01    0.1841665    0.1130216  84.83 0.0009363185    1.654    0.395
       149  -8.8351    221.3165     24.2839   2.9715314119e+01   2.8303699972e+01    0.1120829   0.09189208  47.07  0.000253486    1.583    0.368
       150  -9.8278     51.3422     21.6063   6.4852717063e+01   6.5487919066e+01    0.2870512    0.1043822 -29.96   0.00123478    2.884    0.653
       151 -10.5222    237.3898    208.2139   6.6588864303e+01  -4.8007987211e+00    0.1747764    0.1094066 -42.63 0.0007697417    1.716    0.417
       152 -10.1529    131.8658    205.6433   8.8192138340e+01   1.2803488495e+01    0.2987319    0.1305868  29.18  0.001106533    2.645    0.622
       153 -11.4021    249.1439    183.3391   5.9833947177e+01  -2.5201810134e+00    0.3539231    0.1713606 -37.56  0.001735183    1.791    0.442
       154  -9.7641    164.1655     22.3410   3.6033195160e+01   4.1632720581e+01     0.210864    0.1431537  53.38  0.001114167    1.407    0.289
       155  -9.3540    158.5117     22.5862   3.6955533260e+01   4.2950489172e+01    0.1320587    0.1151296  71.70 6.564128e-05    1.017    0.017
       156  -9.2052    104.6797    185.6932   9.1488423038e+01   2.1802077308e+01    0.1434774    0.1141453 -17.81 0.0003824811    1.638    0.389
       157  -9.5935      1.6105     20.6915   8.8968530227e+01   7.0956595260e+01    0.2133121   0.07806402 -46.70  0.001123938    2.104    0.525
       158 -11.7963    150.4943     18.8751   3.7152244162e+01   4.5250914941e+01    0.3010396    0.2356327  71.95 0.0004626856    1.149    0.130
       159 -10.2178     55.0170     19.2773   6.2336654773e+01   6.5216399149e+01    0.2222266     0.163279   5.40 0.0006062925    1.216    0.177
       160 -11.6900    236.1953    179.3802   6.1300546586e+01   9.2938392024e-02     0.342733    0.2378218  41.82  0.001606487    1.663    0.399
       161  -9.9829    119.1927     18.8965   4.2993064859e+01   5.2549954922e+01    0.1932662    0.1755994  78.56 0.0007725594    1.188    0.158
       162  -9.6651     44.1105     18.1885   6.6428453014e+01   6.6992105317e+01    0.1485944    0.1334502   6.93 0.0004719655    1.301    0.232
       163 -12.7497    216.7375    157.0095   6.0259524765e+01   7.3766137813e+00    0.6437586    0.4228009 -53.08  0.003107095    1.726    0.421
       164 -11.6479    223.9378    155.7121   5.8659621467e+01   6.3300857140e+00    0.4096113     0.237049 -21.90  0.001791541    2.118    0.528
       165 -10.8347    100.2112     15.9446   4.6373769158e+01   5.7039787798e+01    0.3957722    0.1631103  46.00   0.00119191    2.060    0.514
       166 -11.1425     11.8512    145.1553   1.1030588805e+02   4.3104384594e+01    0.2092364     0.165849 -67.85 0.0002441923    1.096    0.087
       167 -15.0025    219.9136    133.9641   5.4676771504e+01   1.1101545566e+01     3.298324     1.978445  37.94   0.01547527    1.925    0.480
       168 -14.2996    220.7722    115.2272   5.0337981224e+01   1.4386321459e+01     2.094076     1.499057  15.41   0.01002061    2.082    0.520
       169 -10.0559     15.7847    128.7720   1.0727574426e+02   4.6834358256e+01    0.1690418     0.132026  83.30 0.0003087912    1.292    0.226
       170  -9.3288    107.9806     14.9655   4.4126502033e+01   5.5449244864e+01    0.1500788    0.1297233  42.28            0    1.013    0.013
       171 -10.2904     11.8327    129.0113   1.0846430258e+02   4.7048970739e+01    0.1851688    0.1729115 -69.30  0.000329563    1.148    0.129
       172 -10.2707     47.2282    126.6804   9.7389490532e+01   4.4534251074e+01    0.3140837    0.1699221  -4.23   0.00119445    3.402    0.706
       173  -9.3408     23.7146    125.3605   1.0443043018e+02   4.7075614520e+01    0.1338112   0.09151664  76.00 0.0007021158    1.682    0.405
       174  -9.5895     29.8066    124.4031   1.0241606630e+02   4.6805652750e+01     0.176512     0.125836  -6.96 0.0009540766    1.791    0.442
       175 -11.3916    250.1828    121.2006   4.7089551863e+01   7.8120044229e+00    0.4191538    0.2569444 -32.48  0.002049069    1.515    0.340
       176  -9.6646     15.0281    122.2130   1.0663214915e+02   4.8490884773e+01    0.1668653    0.1496273 -63.48 0.0003930325    1.097    0.088
       177  -9.9206     67.9472    117.5325   8.9003739574e+01   4.4248617277e+01    0.2048942    0.1260198  -4.92 0.0008093985    2.649    0.623
       178  -9.2026     26.5753    116.5389   1.0217787045e+02   4.9012139409e+01     0.133597    0.1108322 -60.05  0.000108689    1.017    0.017
       179  -9.9100     52.9588    111.4941   9.2591478493e+01   4.7635021543e+01    0.2297541     0.165942 -55.83 0.0005422695    1.231    0.188
       180 -10.7132      2.3969    111.9911   1.0916938273e+02   5.1716858666e+01    0.1847708    0.1698959  55.96 0.0003316586    1.301    0.231
       181  -8.9951    119.9892    108.0000   7.0737987190e+01   3.7514388804e+01    0.2428215   0.08858945  42.28 0.0003249946    2.789    0.641
       182 -10.2296     17.4653    107.4827   1.0367237514e+02   5.1890809026e+01    0.1979728    0.1108174 -78.47 0.0006927962    1.804    0.446
       183  -9.8759     64.0962    105.4264   8.7503469783e+01   4.7695428444e+01    0.2684896    0.1728891 -43.19  0.000909009    1.447    0.309
       184 -10.3380    249.5148    103.1950   4.3410383102e+01   1.0959439108e+01    0.2522541    0.2134808  22.18  0.001440993    1.550    0.355
       185 -10.9160     80.8359    103.1035   8.1370623182e+01   4.5785173634e+01    0.2762324     0.221922  11.74 0.0003767619    1.380    0.275
       186 -10.7772     45.0962    102.0514   9.3230499194e+01   5.0787943548e+01    0.3194571    0.2265481  48.79 0.0007361507    1.720    0.418
       187  -9.6273     52.9608    100.0715   9.0050326802e+01   5.0371540265e+01    0.2431333    0.1473778 -31.82   0.00113386    1.796    0.443
       188  -9.7244    101.6816     97.9622   7.3372846840e+01   4.3323295878e+01    0.2072108    0.1845606 -37.46 0.0002564338    1.086    0.079
       189 -10.3750     71.6776     97.3426   8.2924147575e+01   4.8516807580e+01    0.4464191      0.23909  62.00  0.001398803    4.603    0.783
       190 -10.8010     36.1809     97.6394   9.5405931000e+01   5.2726097461e+01    0.3630145    0.2857089  61.89  0.002067157    1.620    0.383
       191  -9.9956     20.8891    141.8523   1.0745243752e+02   4.3227716901e+01    0.1751505    0.1355498  79.06 0.0004512713    1.287    0.223
       192 -10.3604     41.2043     96.2148   9.3309377235e+01   5.2570785545e+01    0.2444451    0.1158073 -29.54 0.0009564543    2.825    0.646
