#   1 NUMBER                 Running object number                                     
#   2 MAG_AUTO               Kron-like elliptical aperture magnitude                    [mag]
#   3 X_IMAGE                Object position along x                                    [pixel]
#   4 Y_IMAGE                Object position along y                                    [pixel]
#   5 X_WORLD                Barycenter position along world x axis                     [deg]
#   6 Y_WORLD                Barycenter position along world y axis                     [deg]
#   7 A_WORLD                Profile RMS along major axis (world units)                 [deg]
#   8 B_WORLD                Profile RMS along minor axis (world units)                 [deg]
#   9 THETA_WORLD            Position angle (CCW/world-x)                               [deg]
#  10 FWHM_WORLD             FWHM assuming a gaussian core                              [deg]
#  11 ELONGATION             A_IMAGE/B_IMAGE                                           
#  12 ELLIPTICITY            1 - B_IMAGE/A_IMAGE                                       
         1 -15.5961      6.2249     69.2153   1.1720109843e+02   6.1241997799e+01     2.251291     1.071444 -68.02  0.008487462    1.576    0.366
         2 -13.2062     57.9527     65.0993   9.6522038577e+01   5.7347895281e+01     1.422858    0.5809206 -38.80  0.005376016    2.755    0.637
         3 -14.4949    121.1876     37.5361   6.5893216301e+01   5.0416313589e+01     1.302343    0.6334253  43.24  0.004269945    2.148    0.534
         4 -13.0662    232.5040      2.4372   3.8490439905e+01   2.6087718702e+01      1.41197    0.5013924  57.68  0.005731105    2.995    0.666
         5 -15.4512    211.8941     41.0749   5.0973121351e+01   2.6663583107e+01     2.791179      1.42216  68.30   0.01034606    2.089    0.521
         6 -13.8730    188.5216     14.1583   4.5750055463e+01   3.5873244670e+01     1.163252     0.773668 -64.24  0.005645602    1.593    0.372
         7 -13.9482    218.4956     15.2871   4.3015545182e+01   2.8126874826e+01    0.9536994    0.6048907  37.65  0.004335834    2.043    0.510
         8 -13.8374    215.0642      9.9303   4.1847276247e+01   2.9542147097e+01    0.9575956    0.6005148  51.40  0.001838151    1.773    0.436
         9 -13.2118      2.6602     10.7539   1.0233322779e+02   7.3960330197e+01    0.6588979     0.310308 -56.70  0.003671197    1.844    0.458
        10 -12.8070      7.9251      2.6490   9.4885166265e+01   7.5024188201e+01     0.561138    0.3600616  27.08  0.002613503    1.878    0.467
        11 -16.0703     13.6746     19.7306   9.9864515223e+01   7.1484335163e+01     1.996043    0.9607249 -39.13   0.00971811    1.668    0.400
        12 -14.5702     22.7848     13.5271   9.1878028979e+01   7.1794726918e+01    0.8963482    0.5472363  40.63  0.003539051    2.252    0.556
        13 -13.2257    139.2183     22.4130   5.5982210124e+01   4.7933068996e+01    0.7906166    0.4274108  56.57  0.001666458    1.747    0.428
        14 -14.7266    166.7330     30.1471   5.3946638812e+01   3.9778454975e+01     1.232564     1.114944  87.00  0.004167384    1.127    0.112
        15 -14.6034     42.1903      6.4862   7.7925779579e+01   7.0469686647e+01     1.506551    0.9465779  -3.14  0.008325029    1.728    0.421
        16 -12.9507    119.6329     27.0593   6.2037017449e+01   5.2267713000e+01    0.8618724    0.5615837  31.70  0.003976969    1.679    0.404
        17 -12.7746     71.9351     16.6296   7.1207450237e+01   6.4058070596e+01    0.5683082    0.2852736 -32.52     0.002668    1.856    0.461
        18 -14.8047    147.6657     30.2612   5.7320761375e+01   4.4772287744e+01     1.507348    0.9357463  60.81  0.004289106    1.587    0.370
        19 -12.0166     46.9673     21.3716   8.3761539496e+01   6.7498271382e+01    0.4192747    0.3129475 -22.11  0.001969847    1.154    0.133
        20 -15.3917     97.9686     12.5053   6.1082299060e+01   5.9131238123e+01      1.71449    0.8354397  52.90  0.003839351    1.945    0.486
        21 -15.3043    190.4299     25.5920   4.9067120124e+01   3.4095074497e+01     3.000506     1.253251  70.93   0.01132225    2.494    0.599
        22 -11.8049    153.2277      8.8648   4.8539057172e+01   4.5718315045e+01    0.3474351    0.2961611  60.09  0.001193347    1.119    0.106
        23 -10.9478     58.7448      6.3687   7.0665000088e+01   6.7798657389e+01    0.2540966    0.2110238  74.72  0.001428263    1.917    0.478
        24 -10.5390    160.5822      6.2312   4.6574675049e+01   4.4024552302e+01    0.1897946    0.1366013   1.98 0.0005120982    1.612    0.380
        25 -10.6843     68.2548      4.4306   6.6028530064e+01   6.6269828842e+01    0.2258831     0.145836 -40.55  0.001194348    1.817    0.450
        26 -11.5370    183.1756      2.8875   4.2814495161e+01   3.8378692235e+01    0.3912156     0.225184 -54.65  0.001807425    1.802    0.445
        27 -10.7434    112.0492      1.5286   5.2708837528e+01   5.6892680915e+01    0.2844538    0.2044229  69.12  0.001500071    1.442    0.306
        28 -11.5700    119.6704      3.6952   5.2143461579e+01   5.4830057916e+01    0.4600229    0.2083173  72.24  0.001824622    2.488    0.598
        29 -11.4482    116.9908      1.4919   5.1708017046e+01   5.5684288574e+01    0.4582209    0.2930435  86.68 0.0007917503    1.973    0.493
        30 -11.8465     78.1869      2.3723   6.1645191024e+01   6.4497655262e+01    0.3260545    0.2723373  36.12  0.001268946    1.145    0.127
        31 -10.9065     83.0456      1.2273   5.9599303405e+01   6.3583646443e+01    0.2806822    0.1236183  58.04  0.001005221    2.282    0.562
        32 -13.5254    224.0072     21.0151   4.4066265604e+01   2.6143428029e+01     1.050753    0.6202475  49.48  0.004438061    1.953    0.488
        33 -11.7373     61.7935      1.9810   6.6977309466e+01   6.7760157718e+01     0.336345    0.2191023  50.54   0.00129778    1.673    0.402
        34 -10.6382     28.0782      1.6721   8.2213414281e+01   7.3079003760e+01    0.1671055     0.133794  -2.29  0.001149161    1.118    0.105
        35 -10.7114     53.9832      1.3420   6.9650455986e+01   6.9230426164e+01    0.1648413    0.1095369  39.61 -0.000430966    1.506    0.336
        36 -11.9243    124.5124    167.9893   1.0089991892e+02   2.3030159631e+01    0.4564751    0.2683502 -54.22  0.002219252    1.795    0.443
        37 -14.5450     95.1178    237.1377   1.1537331021e+02   1.5015211642e+01     1.247031    0.6720685  67.96  0.007054283    2.068    0.516
        38 -13.3802     28.3171    246.1642   1.2717944234e+02   2.1710156240e+01    0.6060691    0.2836326  75.29  0.004046678    1.839    0.456
        39 -11.6873      2.6890    249.8512   1.3124009257e+02   2.3672574391e+01    0.2758852    0.1212079  53.10  0.001723809    1.507    0.337
        40 -13.6904      8.9613    245.7075   1.3016513402e+02   2.3740896463e+01    0.6689989    0.3038457  57.27  0.003098136    1.477    0.323
        41 -10.9715    177.4754    167.4933   8.9570723844e+01   1.3258047060e+01     0.137765     0.126498  23.13 0.0001214924    1.006    0.006
        42 -11.6883     77.3419    156.9513   1.1006351048e+02   3.3043560392e+01    0.4268343    0.2550942  35.90  0.001575075    1.803    0.445
        43 -12.6940     73.8813    153.3509   1.1038225431e+02   3.4350398203e+01     0.582827    0.4302153  35.47  0.002765317    1.518    0.341
        44 -10.7212    188.3213    156.3226   8.5146112008e+01   1.3078770628e+01    0.1460896    0.1057724   7.63 0.0007045734    1.676    0.403
        45 -11.1714     85.8985    152.9068   1.0740673777e+02   3.2686187442e+01    0.3419267    0.1701595 -51.76   0.00153887    2.097    0.523
        46 -11.3886    103.0759    150.3764   1.0283301323e+02   3.0493549331e+01    0.3409438    0.2489156 -34.30  0.001720264    1.800    0.444
        47 -11.7475      6.4213    147.7539   1.2587583027e+02   4.2953334367e+01    0.3955956    0.2300098  65.50  0.002457538    1.508    0.337
        48 -10.7124     61.8455    145.5996   1.1225025941e+02   3.7763906228e+01    0.3502004    0.1680811 -87.58  0.001393329    2.867    0.651
        49 -13.4412     29.8777    169.4683   1.2229761228e+02   3.6065548099e+01    0.7115871    0.4464676 -49.59  0.003074045    2.135    0.532
        50 -11.1899    148.8126    140.9709   9.0189753589e+01   2.3939041672e+01    0.2460841    0.1747341 -76.26  0.001093418    1.995    0.499
        51 -10.4900     88.4757    140.4719   1.0471162961e+02   3.5126939738e+01    0.1398963    0.1257984  89.96 5.971163e-05    1.004    0.004
        52 -12.2525     44.3016    132.9794   1.1503061906e+02   4.2842958392e+01      0.44578    0.2992195  66.61  0.002518127    1.491    0.329
        53 -10.3417     11.1548    134.3547   1.2369909537e+02   4.5621941133e+01    0.1523278   0.09418552  48.39 0.0007255572    1.643    0.391
        54 -11.2147     25.6541    127.0937   1.1923886020e+02   4.6106229360e+01    0.2415963    0.1872736 -67.43  0.000847535    1.203    0.169
        55 -12.9089     28.5977    122.7118   1.1792203722e+02   4.6878209173e+01    0.4757824    0.3252022 -65.56  0.002549303    1.270    0.213
        56 -12.7576    120.1317    102.3945   8.7883035078e+01   3.8134779278e+01    0.5953925    0.3317177  41.32  0.001758074    1.911    0.477
        57 -12.5349     77.4905    115.0700   1.0282984971e+02   4.2823291113e+01    0.9583655    0.4056044 -57.44  0.003861564    2.127    0.530
        58 -13.1537     86.2421    113.4434   9.9992081710e+01   4.1840160211e+01      1.59099    0.8200325 -32.22  0.005461381    3.618    0.724
        59 -13.7507    106.4032    121.3396   9.6222504401e+01   3.6507525786e+01     1.381955     1.053614  36.66  0.006991237    1.428    0.300
        60 -14.4098    106.6386    105.7011   9.2417405633e+01   4.0057653245e+01     1.624866     1.283055  -5.50  0.007077863    1.758    0.431
        61 -10.6180     60.0237    125.3572   1.0965297850e+02   4.2787937594e+01    0.2355527     0.135454  23.06  0.001090809    2.414    0.586
        62 -11.9139    180.6477    121.1261   7.8606145191e+01   2.1029746830e+01    0.3404453    0.2299828  48.41  0.001568033    1.513    0.339
        63 -12.3881      4.9997    119.1931   1.2393671378e+02   4.9577308676e+01    0.6771253    0.5155919 -66.55  0.004104305    1.246    0.197
        64 -13.6868      2.2177     97.2289   1.2249888985e+02   5.4895847386e+01     1.290449    0.3582153 -80.37  0.004098896    3.331    0.700
        65 -13.2748    171.0321    242.8382   1.0267439031e+02   3.0650763119e+00    0.6175456    0.3685763  31.83  0.003908385    1.427    0.299
        66 -13.5782      5.9644     43.7393   1.1188917826e+02   6.7023654323e+01     1.415023       0.4339  24.53  0.006447055    3.757    0.734
        67 -14.5303     17.9716    110.8981   1.1944483000e+02   5.0596694593e+01     1.074487    0.9679409  -8.88  0.007545921    1.511    0.338
        68 -14.9217     24.4551     94.7708   1.1518884657e+02   5.3942188743e+01     1.862808     1.269835  -8.96   0.01052876    2.165    0.538
        69 -12.6607     33.1661    111.1410   1.1505221307e+02   4.9225302433e+01    0.4153105    0.2192161 -86.84  0.001985983    1.987    0.497
        70 -11.0070    121.3565    112.2190   9.0117307204e+01   3.5703168517e+01    0.2776613    0.1783796  56.25 0.0008337887    1.740    0.425
        71 -11.2578    176.4841    110.5371   7.6750787096e+01   2.3956820369e+01    0.3569111    0.2558984  22.64  0.001590211    1.722    0.419
        72 -11.3239     61.4608    109.1630   1.0630987359e+02   4.6509209191e+01    0.4717959    0.2398482 -76.68  0.001935658    2.385    0.581
        73 -10.7339    222.6842    109.6730   6.7960182003e+01   1.3772523117e+01    0.1502744    0.1082785   8.30 0.0004542091    1.673    0.402
        74 -12.1300    135.9744    103.1880   8.4012614483e+01   3.4598045784e+01    0.6890001    0.2950014  49.15  0.002054807    2.445    0.591
        75 -11.6556     43.2667     91.4021   1.0842890337e+02   5.2974805951e+01     1.023167    0.3472257 -72.27  0.003213449    4.172    0.760
        76 -12.1665     62.4089     99.5334   1.0401717546e+02   4.8708378123e+01    0.7274665    0.4301946  62.09  0.003275139    2.268    0.559
        77 -10.7027     56.5052     93.4541   1.0454270362e+02   5.0936488260e+01    0.2080393    0.1519926 -36.11 9.366357e-06    1.532    0.347
        78 -12.6066     51.0576     99.1147   1.0749037200e+02   5.0236687760e+01    0.7275689    0.4715463  -8.59   0.00278075    2.679    0.627
        79 -12.1010     49.2937     94.4620   1.0709547565e+02   5.1565809576e+01    0.3806478    0.2809291  83.62  0.001279588    1.525    0.344
        80 -12.3306    137.3814     95.5766   8.1531579339e+01   3.5889630353e+01    0.4246442    0.3480784  77.75  0.001159677    1.458    0.314
        81 -11.4588    125.5584     92.6987   8.3730978599e+01   3.9100717648e+01    0.3155626    0.2242416  86.04  0.001302551    2.146    0.534
        82 -12.0198     89.6940     88.2048   9.2675468231e+01   4.7165311284e+01    0.4964066    0.3480356  48.30  0.001994723    1.569    0.363
        83 -12.7809    135.5168     79.8527   7.7275311057e+01   3.9522748665e+01    0.7680678     0.434051  50.32  0.003125578    1.838    0.456
        84 -11.9325    126.7896     85.9678   8.1409214948e+01   4.0252920654e+01     0.542678    0.3891858 -36.83  0.002497364    1.372    0.271
        85 -12.2460    132.0332     86.0020   8.0058598844e+01   3.9075824285e+01    0.3470058     0.331111  23.53  0.001528299    1.099    0.090
        86 -11.9418    149.7147     85.1671   7.5483971551e+01   3.5139137925e+01    0.5612845    0.3778163  26.13  0.002320919    1.951    0.487
        87 -13.2611    188.4479     84.3648   6.7175264992e+01   2.5876499225e+01    0.8016526    0.3746296  43.84  0.002363677    2.374    0.579
        88 -13.1577    237.4923     80.2768   5.8258428171e+01   1.5086033592e+01    0.4951582    0.3779826 -86.53   0.00256532    1.713    0.416
        89 -13.4447    164.2865     71.3223   6.7996993727e+01   3.4140744944e+01     1.570178    0.5528031  46.61   0.00496571    3.029    0.670
        90 -12.7859    160.0311     68.0378   6.7843724927e+01   3.5782982196e+01    0.8257512    0.3939202 -47.20  0.002236264    2.271    0.560
        91 -13.4353    160.7837     80.8349   7.1680441417e+01   3.3290317901e+01    0.9323952    0.6298798  20.75  0.002971309    2.082    0.520
        92 -14.3925    169.2831     77.4028   6.8848045524e+01   3.1818772239e+01     1.661671    0.6252011  52.66  0.005574837    2.677    0.626
        93 -11.8294     40.6405    243.6498   1.2508569032e+02   2.0777718370e+01    0.3161909    0.1899328  81.77  0.002339144    1.456    0.313
        94 -12.3223     51.5111     69.1632   1.0011501850e+02   5.7265487610e+01    0.7970536    0.4340148 -70.51  0.003455867    2.317    0.568
        95 -13.5577     74.2208     74.1742   9.3561125589e+01   5.2929564484e+01      1.33694    0.7854925  11.02  0.005076971    3.307    0.698
        96 -13.6656     88.7760     62.5800   8.4901971664e+01   5.2919304109e+01     1.423822    0.6254607 -34.57  0.004009397    2.556    0.609
        97 -12.7806     55.1417     81.6608   1.0218435536e+02   5.3913860420e+01     0.590075    0.3615918 -43.69  0.001871092    1.560    0.359
        98 -13.7648     61.0421     75.4512   9.8474762911e+01   5.4584092189e+01    0.6684962    0.4363818 -42.59  0.001048381    1.431    0.301
        99 -11.4695     44.8779    110.7658   1.1153598398e+02   4.8116346230e+01     0.481254    0.3072692 -52.67  0.002594261    1.488    0.328
       100 -13.5860    214.0980     79.0159   6.1317979573e+01   2.0596301640e+01     1.036388    0.6686825  83.61  0.004413913    2.265    0.558
       101 -12.9531    216.7603     73.7908   5.9484670456e+01   2.0779415898e+01    0.6784216    0.4490575 -70.06  0.002765635    2.069    0.517
       102 -10.7553     90.1444     81.2911   9.0532512270e+01   4.8647618564e+01     0.287028    0.1924789 -73.91  0.001234568    2.079    0.519
       103 -12.1292    114.1760     80.1838   8.3053965661e+01   4.4190268219e+01    0.4184924    0.3404261 -55.62   0.00207966    1.250    0.200
       104 -10.5650     32.7127     80.9718   1.0985044141e+02   5.6525013188e+01    0.1916676    0.1386297 -65.88 0.0009460869    1.141    0.123
       105 -11.0776     94.6987     79.3636   8.8535867497e+01   4.8242507107e+01    0.4377964    0.1304327  48.88  0.001265088    4.315    0.768
       106 -11.3515     42.4213     77.1993   1.0554491663e+02   5.6448551012e+01    0.2787675    0.2505205 -46.50  0.001468781    1.124    0.110
       107 -14.0873    198.6982     69.6609   6.1143964313e+01   2.5794019588e+01     1.009785    0.7724024  21.42  0.002886111    1.590    0.371
       108 -13.3926    133.6388     66.2319   7.3299556636e+01   4.2585679779e+01     0.943459    0.7635697  -0.81  0.004513757    1.454    0.312
       109 -11.7513    240.5699     70.8816   5.5444879257e+01   1.5772303795e+01    0.2790574    0.1912993 -85.03  0.001341972    2.006    0.501
       110 -10.4329    100.9950     70.0075   8.3604357090e+01   4.9027517265e+01    0.2311598    0.1844203 -78.41  0.001113364    1.627    0.385
       111 -12.3166     38.8569     68.1955   1.0458670774e+02   5.8921205233e+01    0.6936098    0.3599216  27.93  0.003426573    2.307    0.567
       112 -11.4076     99.9717     64.9651   8.2196568721e+01   5.0265180515e+01      0.39328    0.2874316 -40.60  0.001922718    1.278    0.217
       113 -13.9467    177.9027     57.8435   6.1129880515e+01   3.2917083696e+01    0.9761124     0.743064 -41.53  0.002678643    1.269    0.212
       114 -12.2988     79.5153     60.9142   8.7416927495e+01   5.4925756073e+01    0.4749277    0.4390092   3.91  0.001982507    1.145    0.127
       115 -12.9728     81.5023     54.6676   8.4477117579e+01   5.5846511231e+01    0.7400901    0.5391847  22.00  0.003714315    1.612    0.380
       116 -14.6205    119.6819     54.7985   7.2876201861e+01   4.7936294934e+01     1.097044    0.7747657  41.52  0.001649946    1.474    0.321
       117 -12.7242    135.5472     50.4846   6.7315210471e+01   4.4883313243e+01    0.6434605    0.3680289  36.62  0.002033542    2.051    0.512
       118 -12.1657    134.9641     40.0952   6.3615980434e+01   4.6653724636e+01    0.5692442    0.3153537  55.48  0.001150194    1.793    0.442
       119 -13.0867    131.6518     32.7124   6.1535724626e+01   4.8540182940e+01    0.6293195    0.4962866 -10.96  0.001855969    1.329    0.247
       120 -12.6864    109.9246     42.1985   7.0721644332e+01   5.2314537945e+01    0.4981641      0.27399  51.59  0.001328288    1.874    0.467
       121 -11.7356    147.3089    239.0382   1.0634148136e+02   7.1364457864e+00     0.154838    0.1319077  46.74 0.0007910033    1.105    0.095
       122 -10.7648     38.9952     60.4312   1.0238495222e+02   6.0674645426e+01       0.2814    0.1901706  86.32  0.001392345    2.280    0.561
       123 -11.8682     24.2808     59.6533   1.0808730383e+02   6.2223377265e+01    0.3777403    0.2123926 -56.40   0.00206242    1.383    0.277
       124 -12.0971    247.8971     54.7860   5.0482025249e+01   1.6384742604e+01     0.555736    0.2976978 -46.30  0.002529817    1.719    0.418
       125 -12.2758    249.3612     48.3494   4.8706224932e+01   1.6910495879e+01    0.4305158    0.3613712   8.06  0.002242069    1.438    0.304
       126 -13.4718    103.1950     50.7519   7.6018787002e+01   5.2322622010e+01    0.9058294    0.5909531 -59.26 0.0005081007    2.062    0.515
       127 -12.5000     97.9868     50.0308   7.7323609963e+01   5.3546130242e+01    0.6030245    0.3782005 -54.01  0.001999825    1.922    0.480
       128 -13.1668     65.8564     48.9676   8.7965239696e+01   5.9611866556e+01    0.5394866    0.5022048 -84.65  0.003258107    1.350    0.259
       129 -13.5257      8.8597    210.8697   1.2885462390e+02   2.9795011403e+01     1.104769    0.4992066  60.03  0.007098518    1.649    0.394
       130 -11.6236     24.8720    217.3983   1.2637518055e+02   2.7019162310e+01    0.4330616    0.2950487  74.67  0.003275489    1.097    0.088
       131 -13.4398     25.7258    227.4458   1.2673289134e+02   2.5135351766e+01    0.5863374    0.3400117 -67.10  0.004047931    1.983    0.496
       132 -12.8408     20.7248    225.2202   1.2746823895e+02   2.6041175640e+01    0.4592659    0.3022291  45.23  0.003484899    1.439    0.305
       133 -12.5188     57.2402    203.3389   1.1947547449e+02   2.5995280678e+01    0.6861889    0.2887204 -76.64  0.003502961    2.446    0.591
       134 -13.2268    157.6343     43.8520   6.0261542188e+01   4.0298651435e+01     0.918178    0.5867668  33.00  0.003902017    1.879    0.468
       135 -11.8323    169.6591     43.7081   5.8016338394e+01   3.7180823617e+01     0.341022    0.2107292  57.11  0.001174983    1.610    0.379
       136 -11.3463     55.6875     41.0658   8.8853066278e+01   6.2694356455e+01    0.1982162    0.1790616  -9.21 0.0003713831    1.117    0.105
       137 -11.7168    104.5541     37.1907   7.0201604489e+01   5.4319400751e+01    0.4406104    0.1417366 -31.42  0.001436774    3.102    0.678
       138 -12.3365     75.9476     37.4560   7.9534876047e+01   6.0066939164e+01    0.3301803    0.2518252  41.01 0.0009911328    1.423    0.297
       139 -11.8536     69.5477     36.6269   8.1532665581e+01   6.1338523317e+01    0.4316452    0.2522879  30.14  0.001342384    1.962    0.490
       140 -13.2962    242.1766     35.1566   4.6068647189e+01   2.0186669171e+01    0.6987039    0.5547596  60.88  0.002733388    1.410    0.291
       141 -11.3777     58.2222     35.4464   8.5462266472e+01   6.3380391206e+01    0.4972111    0.2977369  27.14   0.00249141    1.930    0.482
       142 -12.6802     29.2633     32.0888   9.6961717866e+01   6.7685272151e+01    0.9684073    0.3863796  20.54  0.003872069    3.457    0.711
       143 -13.3905     66.3048    223.4788   1.1938758557e+02   2.1140075472e+01    0.7343236    0.4874265  41.12  0.004973922    1.447    0.309
       144 -13.8927     62.8262    214.5076   1.1932101307e+02   2.3194070108e+01    0.9272625    0.4021184  46.34  0.005141454    1.841    0.457
       145 -12.7773     94.5681    218.8210   1.1375800263e+02   1.8143689864e+01    0.3511336    0.2119391  55.37    0.0016693    1.393    0.282
       146 -10.9933     85.4694    215.9774   1.1519580219e+02   1.9925200020e+01     0.242956    0.1272625  53.47  0.001380904    1.600    0.375
       147 -10.9635    200.5275    215.4998   9.3667287268e+01   1.9875707195e+00    0.1215814   0.09750701  23.28 0.0003780013    1.019    0.019
       148 -11.3407    185.5989    213.8073   9.6065182929e+01   4.6168951659e+00    0.1512738    0.1170627 -52.14 0.0009538509    1.728    0.421
       149 -11.5781    157.3205    213.5254   1.0123863793e+02   9.2866585160e+00    0.1917127     0.115279 -47.14  0.001080055    1.989    0.497
       150 -10.7236     90.7455     34.0480   7.3036750577e+01   5.7771772013e+01     0.260533    0.1758491  30.72  0.001268553    1.597    0.374
       151 -11.5156    238.5045    213.4937   8.6907151052e+01  -3.6066829632e+00    0.1178546   0.09015506  13.59 0.0001529773    1.005    0.005
       152 -10.0486     89.4641     30.4352   7.1854241257e+01   5.8598856746e+01    0.1416067    0.1279738  -3.53 -1.893635e-05    1.009    0.008
       153 -10.9820    136.8316    211.3142   1.0482700187e+02   1.2971566658e+01    0.1922621    0.1649728 -86.80 0.0008840226    1.354    0.262
       154 -12.8057     56.7540     27.4537   8.2457263452e+01   6.5018740658e+01    0.5863922     0.312755  45.25  0.001724555    2.241    0.554
       155 -12.6332     68.0855     24.4895   7.6528748583e+01   6.3616614255e+01    0.6824003    0.3612307  40.42  0.003261313    1.982    0.496
       156 -11.6402     45.6092    209.3744   1.2214556802e+02   2.6236473920e+01    0.3497077     0.151716  87.78  0.001783799    2.552    0.608
       157 -10.9386     97.9346     27.1296   6.7797098930e+01   5.7283653759e+01    0.2120347    0.1979579 -64.89   0.00121805    1.293    0.226
       158 -12.1202     46.1068     33.9486   8.9956197359e+01   6.5374271937e+01    0.4955396    0.2719854 -32.42  0.002464836    1.728    0.421
       159 -11.6667     42.0874    207.1706   1.2264991861e+02   2.7058555571e+01    0.2888876    0.1371267  77.51  0.001585136    2.098    0.523
       160 -12.9103     57.1969    246.7854   1.2255718842e+02   1.8355648567e+01    0.5290769    0.3280488  34.80  0.003673861    1.798    0.444
       161 -11.5448    247.8730    225.1271   8.7321052217e+01  -6.1746895207e+00    0.1647728     0.136599  17.50  0.001257826    1.272    0.214
       162 -11.0084    150.1266    206.9286   1.0166531154e+02   1.1509944552e+01    0.2982083    0.1554742  37.72  0.001185985    1.704    0.413
       163 -11.2045     60.1588     17.5073   7.6141416455e+01   6.6046103519e+01     0.267842    0.1727338 -36.38  0.001232871    1.484    0.326
       164 -12.8427     40.5113    195.3488   1.2210953972e+02   2.9539776902e+01    0.4514735    0.2003291  87.08  0.002290243    2.374    0.579
       165 -12.0548     24.3251    150.7672   1.2196141797e+02   4.0747206495e+01    0.6231735     0.262967 -86.02  0.002594471    2.218    0.549
       166 -12.6188     16.7677    195.7109   1.2669101597e+02   3.1941299917e+01    0.7603741    0.2599101 -73.87   0.00365124    2.524    0.604
       167 -14.0468     18.2990    161.2293   1.2418257740e+02   3.8974635364e+01     1.784913     1.006569  20.43   0.01009734    2.606    0.616
       168 -13.4249     22.3346    181.2573   1.2473744086e+02   3.4321563531e+01    0.5572311    0.4792784 -72.06  0.002946061    1.414    0.293
       169 -14.9003      7.7741    183.9191   1.2777799392e+02   3.5126246329e+01     1.173183    0.7843602  87.64  0.008437076    1.162    0.140
       170 -14.2058     15.9198    175.7082   1.2568218656e+02   3.6087790478e+01      1.21922    0.3994012  54.25  0.005941759    2.615    0.618
       171 -11.6197    248.4259    195.6985   8.2193408574e+01  -3.0596539576e+00    0.3903671    0.1505891 -33.18  0.001882922    2.595    0.615
       172 -11.9625    163.7213    195.5154   9.7291946654e+01   1.1051052943e+01    0.3208248    0.2275046 -85.96  0.001608975    2.491    0.599
       173 -12.1066    201.0956    191.8389   8.9601489795e+01   5.1177365198e+00     0.321647      0.25943  16.35  0.001789288    1.120    0.107
       174 -11.5628     49.0920    181.5663   1.1923900851e+02   3.1368092724e+01    0.3211332    0.2200321 -58.21   0.00199588    1.685    0.407
       175 -12.0023    198.4379    181.6270   8.8228486520e+01   7.0891970573e+00    0.2684199    0.2429409  32.03  0.001276676    1.142    0.125
