#   1 NUMBER                 Running object number                                     
#   2 MAG_AUTO               Kron-like elliptical aperture magnitude                    [mag]
#   3 X_IMAGE                Object position along x                                    [pixel]
#   4 Y_IMAGE                Object position along y                                    [pixel]
#   5 X_WORLD                Barycenter position along world x axis                     [deg]
#   6 Y_WORLD                Barycenter position along world y axis                     [deg]
#   7 A_WORLD                Profile RMS along major axis (world units)                 [deg]
#   8 B_WORLD                Profile RMS along minor axis (world units)                 [deg]
#   9 THETA_WORLD            Position angle (CCW/world-x)                               [deg]
#  10 FWHM_WORLD             FWHM assuming a gaussian core                              [deg]
#  11 ELONGATION             A_IMAGE/B_IMAGE                                           
#  12 ELLIPTICITY            1 - B_IMAGE/A_IMAGE                                       
         1 -10.5764    139.8438     28.5611   7.7918004840e+01   4.6709543980e+01    0.7915087    0.4145696 -43.27  0.003245213    2.064    0.516
         2 -12.2159     76.6017     24.3653   9.3763579533e+01   6.2318283545e+01    0.5129959    0.3664697 -40.81  0.001136677    1.487    0.328
         3 -10.5160     12.7930     16.1005   1.2412867182e+02   7.3070501383e+01    0.3897113    0.1958359  31.84  0.001991564    2.344    0.573
         4 -10.5171     26.6613     16.4426   1.1497134484e+02   7.1741030124e+01    0.2889765    0.2478147 -36.63  0.001253508    1.142    0.125
         5 -10.2788    100.5666     19.1646   8.3287432321e+01   5.7708316072e+01    0.4208545    0.2337095 -50.90  0.001694339    2.495    0.599
         6 -11.2447     42.3474     18.4210   1.0661586833e+02   6.9371102070e+01     0.586272    0.3370081  13.39   0.00269714    2.260    0.558
         7  -9.7561    109.7242     13.0444   7.8071976980e+01   5.6192803879e+01    0.2747257    0.1767868  -9.90 0.0007993575    1.679    0.404
         8 -11.3198     90.2689     15.9131   8.4792092146e+01   6.0539052569e+01    0.3635729    0.2407978 -11.53 0.0005038768    1.596    0.373
         9  -9.8755     87.0326     12.2915   8.3986494361e+01   6.1733560882e+01    0.2539207    0.2352398 -16.69  0.001004016    1.137    0.121
        10  -9.7982     88.0109      7.9991   8.1464458946e+01   6.2007109251e+01    0.3935785     0.215752  12.79  0.001595952    2.457    0.593
        11 -11.5528     30.1142      7.1553   1.0754349458e+02   7.3056550372e+01    0.4024869    0.3210736  16.58   0.00138172    1.263    0.208
        12 -11.6236     34.9160     12.9952   1.0795453080e+02   7.1389041532e+01    0.5030173    0.3021895 -50.49  0.001904787    1.862    0.463
        13 -11.4765     39.6448     10.5063   1.0370216711e+02   7.1154200458e+01    0.3216682    0.2403345 -42.64 0.0001787103    1.434    0.303
        14 -10.8828    212.2067     12.0087   6.2951585829e+01   3.0389101369e+01    0.2489362    0.2128629  83.31 0.0007345272    1.210    0.174
        15 -10.1558     68.7846     12.0072   9.0372152859e+01   6.5735725402e+01    0.3498443    0.2482276 -48.50  0.001415746    1.809    0.447
        16  -9.9427    119.0135     11.9830   7.5500308156e+01   5.3958003967e+01    0.2133674     0.202267  35.59 0.0003303468    1.021    0.021
        17 -11.0897     92.9936      8.4027   8.0213218974e+01   6.0787621985e+01     0.492159    0.2056964 -26.50 0.0004993855    2.351    0.575
        18 -10.9045     22.2779      9.2533   1.1407051022e+02   7.3601529794e+01    0.3384945    0.2142188 -17.63  0.001469102    1.602    0.376
        19 -11.8736      4.1154      8.9936   1.2742140292e+02   7.5124359371e+01    0.3624455    0.3229995  65.90  0.001337434    1.557    0.358
        20 -10.1073      1.8682      2.9025   1.2642527180e+02   7.6511658121e+01    0.2624111    0.1245456 -47.91   0.00141555    1.584    0.369
        21 -10.5582     13.0033      8.0106   1.2012802072e+02   7.4716618118e+01    0.4209631    0.3460523  12.02  0.002805323    1.335    0.251
        22  -9.7891      7.6857      5.1672   1.2278267568e+02   7.5689210476e+01    0.2388132     0.167206  14.84  0.001108569    1.559    0.358
        23 -11.8541    150.9758      7.6615   6.8228114914e+01   4.6056580637e+01    0.4075912    0.3391923  26.42  0.001849919    1.263    0.208
        24 -11.2731     65.9950      6.4925   8.8343484191e+01   6.7032582835e+01    0.7332106    0.2941534  33.18  0.002649286    3.150    0.683
        25 -10.4108     55.2735      7.9469   9.3918095192e+01   6.8933556191e+01    0.2267066    0.2062274   6.75 0.0003823535    1.127    0.113
        26 -11.5889     57.3840      4.2345   9.0664139623e+01   6.9038451193e+01    0.7811268    0.3718488  47.77   0.00354625    2.103    0.525
        27 -10.5139    210.1208      7.1410   6.1788393970e+01   3.1319899704e+01    0.2414151    0.1610743 -33.67  0.001099496    1.361    0.265
        28  -9.5201    182.7670      7.8032   6.4457121052e+01   3.7873117619e+01    0.2407528    0.1126494  37.73 0.0005971642    2.758    0.637
        29  -9.7237     76.5414      7.9932   8.5209688802e+01   6.4606844552e+01    0.2034748    0.1311971 -16.84 0.0005434003    1.549    0.354
        30 -10.8687    218.1879      7.2178   6.1186631363e+01   2.9464715520e+01    0.2661007    0.1455703  69.31  0.000892993    1.885    0.469
        31 -10.3735    147.0347      2.5212   6.6874707709e+01   4.7534687984e+01    0.2344316    0.1564135  52.36 0.0004384296    1.420    0.296
        32 -10.9471    119.6598      4.5573   7.2138030874e+01   5.4511418395e+01     0.462395     0.208039  55.22  0.001295693    1.949    0.487
        33 -10.5708    235.2059      4.6056   5.9353477018e+01   2.5970656018e+01    0.1629913    0.1071727  62.04 0.0007885704    1.680    0.405
        34 -10.0543    194.0000      3.9738   6.2233380762e+01   3.5436065510e+01    0.2216593   0.07293927 -20.36 0.0008119622    3.009    0.668
        35 -11.1287    130.2891      3.5709   6.9812632571e+01   5.1836050177e+01     0.282536    0.2448281  74.38  0.001119281    1.155    0.134
        36  -9.9113    243.8520      2.5598   5.8342293934e+01   2.4349403556e+01    0.2697661    0.1372124  -2.73  0.001244966    2.827    0.646
        37 -10.3649    199.1745      2.8408   6.1466229430e+01   3.4282756248e+01    0.1764077    0.1527706  34.55 0.0006602137    1.297    0.229
        38 -11.8407     80.3753      1.8171   8.0488893950e+01   6.4431571278e+01    0.4674222    0.1913995  51.64  0.001933372    2.163    0.538
        39 -10.5370     38.7592      2.2592   9.9019735832e+01   7.2600882951e+01    0.3445384    0.2132321  11.40  0.001755478    1.850    0.459
        40 -10.9101     19.0188      2.7431   1.1256619282e+02   7.5153260787e+01    0.3830777    0.2170514   8.75  0.001998304    2.037    0.509
        41  -9.6966    221.3750      2.3026   5.9669097270e+01   2.9182889000e+01     0.182384   0.09879125 -34.11 0.0009436666    1.596    0.373
        42 -11.2633     70.8639      6.9900   8.6723405106e+01   6.5954029057e+01    0.4765744    0.3819771 -53.52 0.0004740456    1.667    0.400
        43 -10.9747     41.5088      6.5209   1.0019310025e+02   7.1514798118e+01     0.589086     0.257761  26.44  0.002350449    3.012    0.668
        44 -10.0086     10.0110      1.4919   1.1887577528e+02   7.6235437760e+01    0.1690197    0.1129173  10.82 0.0006727972    1.563    0.360
        45  -9.5588      2.3441    114.2850   1.4687575205e+02   5.0152287782e+01    0.1268666    0.1027043  82.04 0.0003108907    1.066    0.062
        46 -12.6317      5.1702    240.5735   1.5129992664e+02   2.4612121943e+01    0.6348542     0.186956  52.31  0.003811867    2.215    0.548
        47 -11.4651      6.6291    249.1808   1.5125637952e+02   2.3161126190e+01     0.159702    0.1101876  36.04 0.0007314946    1.330    0.248
        48 -10.9432      1.7117    250.0091   1.5209183765e+02   2.3429638268e+01    0.1826053    0.1506684  38.94  0.001121212    1.349    0.259
        49 -10.6576      1.5175    246.4801   1.5205111587e+02   2.3983070218e+01    0.1508827    0.1172094  70.19  0.001045157    1.222    0.181
        50  -9.8636      5.3530    113.3226   1.4588028795e+02   5.0222323944e+01    0.1818113   0.09096565 -27.66 0.0007093162    2.895    0.655
        51 -10.3067    249.2653    111.9675   8.3815834789e+01   1.0935693783e+01    0.1894986    0.1425266 -17.27  0.001164636    1.085    0.078
        52 -11.5682      5.3728    108.7026   1.4552074874e+02   5.1330697274e+01    0.3498994    0.2184274  -0.21  0.001985508    2.102    0.524
        53 -10.5141     58.6017    107.3838   1.2770435925e+02   4.7061954895e+01    0.2782063    0.1793478 -29.38  0.001087807    1.993    0.498
        54  -9.1622     93.3310    104.9903   1.1594676166e+02   4.2570504182e+01    0.2507333   0.09900527 -35.88 0.0007049249    4.312    0.768
        55  -9.4585     18.6653    104.6993   1.4078224108e+02   5.1503312315e+01    0.1309818    0.0840476 -44.43 0.0003218189    1.656    0.396
        56  -9.9653     66.8509    102.1415   1.2389794218e+02   4.7276414539e+01    0.2594561    0.1641806 -69.17 0.0007132689    1.661    0.398
        57  -9.7937    113.5034    102.5141   1.0928065474e+02   3.9490572625e+01    0.1497979    0.1439829  -7.54 0.0001556036    1.012    0.012
        58 -10.5858     57.8456    101.1556   1.2676744662e+02   4.8676198102e+01     0.216223    0.1887671  81.50  0.001236222    1.206    0.171
        59 -10.2571     62.7541     99.5606   1.2475180018e+02   4.8445685030e+01     0.196276    0.1266318  44.22 0.0009448089    1.652    0.395
        60  -9.2201    129.5058     97.5117   1.0348408834e+02   3.7352733056e+01    0.1524758    0.1449727  -2.58 0.0002170891    1.006    0.006
        61 -10.3363     38.3502     96.7552   1.3282215834e+02   5.1879103178e+01    0.4456698    0.2517448  83.14  0.001314935    2.311    0.567
        62  -9.4268     38.4228     92.4126   1.3204556492e+02   5.2950339865e+01    0.1336721    0.1185822 -60.91  9.11281e-05    1.038    0.036
        63 -11.2834     17.5668     94.6121   1.3998149021e+02   5.4063124279e+01     0.305593    0.2431745 -41.41  0.001319253    1.334    0.251
        64 -10.3538     20.5198     91.5042   1.3850532846e+02   5.4636743925e+01    0.2074824    0.1718843  15.63  0.001107637    1.413    0.292
        65 -10.3868     78.7989     94.6730   1.1814866953e+02   4.7330288925e+01    0.2154158    0.1798801   2.70 0.0003993698    1.370    0.270
        66 -10.8599     84.2745     93.5974   1.1604128679e+02   4.6710286351e+01    0.3284987    0.2686527  -1.75   0.00168619    1.429    0.300
        67 -11.1772     27.3984     90.6914   1.3584213134e+02   5.4333881414e+01    0.5728223    0.2991092  53.65   0.00265954    2.278    0.561
        68  -9.8707     25.4796     84.9480   1.3565916806e+02   5.5910439990e+01    0.2438927    0.1852644 -80.36  0.000842487    1.222    0.181
        69 -11.5357     11.1714     88.0866   1.4152733408e+02   5.6059685923e+01    0.6083364     0.230611 -74.33  0.002294407    2.191    0.544
        70  -9.9087     16.0516     89.4541   1.3988425855e+02   5.5436470067e+01    0.2300554    0.1910653  -6.99 0.0008283242    1.443    0.307
        71  -9.6541     18.7867     86.9508   1.3852301100e+02   5.5883483899e+01    0.2066913    0.1520522 -55.24 0.0009002407    1.235    0.190
        72 -10.5135     76.4420     89.2427   1.1759036344e+02   4.8975843319e+01    0.2541609    0.2492858 -31.17 0.0004699913    1.036    0.035
        73 -10.0202     44.1034     89.6253   1.2941673025e+02   5.3076009109e+01    0.2944532    0.1446356  38.87   0.00131428    2.167    0.538
        74 -10.4262      1.7401     89.6864   1.4514345561e+02   5.6126167706e+01    0.2234742    0.1368762 -77.39  0.000224434    1.338    0.252
        75 -10.7881    103.8506     87.8114   1.0815046780e+02   4.4536376362e+01    0.2040336    0.1840292  86.70 0.0005271832    1.323    0.244
        76  -9.1506    250.6757     87.6994   7.8102683485e+01   1.3733206002e+01    0.1287282   0.08870419   8.59 0.0002711024    1.633    0.388
        77  -9.7850    124.0032     86.7448   1.0191156682e+02   4.0690302275e+01    0.2161846    0.2012187  31.47 0.0006782032    1.080    0.074
        78  -9.1933    113.6180     86.4550   1.0479912335e+02   4.2900560243e+01    0.1544272    0.1391488 -12.16 0.0001423879    1.120    0.107
        79 -10.7121     54.6005     84.1264   1.2427712023e+02   5.3238769719e+01    0.2989191    0.2306298 -66.19 0.0008935084    1.252    0.201
        80 -10.4808      3.8352     82.8011   1.4369171205e+02   5.7724068958e+01     0.283201    0.1580834 -74.61  0.001200482    1.461    0.316
        81 -10.1339     89.4450     80.6298   1.1072831394e+02   4.8791287287e+01    0.3297999      0.17796 -53.59   0.00105282    1.918    0.479
        82 -11.6013     63.9718     80.7343   1.1989222420e+02   5.2829768586e+01    0.6035776    0.4192942 -66.65  0.002969164    1.521    0.343
        83  -9.6430     65.8251     75.1503   1.1766774822e+02   5.3887586548e+01    0.2165906    0.1964331 -30.67            0    1.068    0.064
        84  -9.8377    250.3753     80.7993   7.6529705196e+01   1.4636781846e+01    0.1839282    0.1053895 -17.81  0.000561012    1.628    0.386
        85  -9.1512     70.7770     80.0119   1.1716296963e+02   5.2012938308e+01     0.194633    0.1135067 -53.66 0.0005631578    1.618    0.382
        86  -8.8622    124.4447     79.4411   9.9574316192e+01   4.2055611344e+01    0.1506963    0.1479381 -41.23 0.0002395546    1.095    0.086
        87  -9.5341     24.0340     78.9729   1.3523158128e+02   5.7503323355e+01    0.2249824    0.1310687 -41.28   0.00113475    1.736    0.424
        88  -9.9160    176.9864     77.0282   8.6641458166e+01   3.0507958874e+01    0.2347171    0.2212394  -2.74  0.001302614    1.018    0.017
        89  -9.6624     74.9817     75.6818   1.1437871124e+02   5.2365009338e+01    0.1912464    0.1800317  14.44 0.0002063896    1.103    0.093
        90 -11.0477     55.6945     75.6132   1.2174250723e+02   5.5161825899e+01    0.3064761    0.2603747  -3.55 0.0007886638    1.302    0.232
        91 -10.5348     15.6943     75.9968   1.3813035280e+02   5.8796025907e+01    0.1841438    0.1518014 -70.54     0.000632    1.035    0.034
        92 -10.2012    150.9706     75.0070   9.1488922425e+01   3.6882709758e+01    0.1838841    0.1743353  -3.65 0.0003338154    1.001    0.001
        93  -9.2290     70.3004     75.3426   1.1602277286e+02   5.3175613472e+01     0.152715    0.1071017 -24.19 0.0002567104    1.674    0.403
        94 -10.7841     32.1488     72.9266   1.3073422759e+02   5.8350815406e+01    0.4102203    0.2164674  45.93  0.001894902    2.267    0.559
        95 -11.0401     35.6872     72.6167   1.2918232711e+02   5.8107051064e+01    0.4956866    0.3199882 -49.14  0.001557674    1.382    0.277
        96  -8.9049    224.3026     74.2891   7.8241974789e+01   2.0519280052e+01    0.1347452   0.09832383  12.69 0.0002594463    1.565    0.361
        97  -9.9220    136.5218     74.1146   9.4693621668e+01   4.0377195063e+01    0.2222829    0.2052585  29.80 0.0004858781    1.076    0.071
        98 -11.0537      3.9934     73.7374   1.4259948479e+02   5.9947151809e+01    0.3520097    0.2199626  10.83  0.001131859    1.937    0.484
        99  -9.7257    216.9424     72.4619   7.8788058937e+01   2.2296637538e+01    0.2171837    0.1657437 -23.04 0.0004845047    1.178    0.151
       100  -9.1811     95.7077     73.3266   1.0637239454e+02   4.9228983982e+01    0.1474663    0.1220149 -85.06 0.0007018514    1.620    0.383
       101 -10.2389     80.9988     72.0421   1.1107315625e+02   5.2190296011e+01    0.3245969    0.2080577 -73.34  0.001294792    2.522    0.604
       102  -9.3346     48.9521     74.0000   1.2403045757e+02   5.6374974131e+01    0.2129404   0.08055492  27.24 0.0007119621    2.909    0.656
       103 -10.2522    105.8755     71.4689   1.0248782365e+02   4.7593393204e+01    0.2528518    0.2092316 -38.16 0.0004742857    1.177    0.151
       104  -9.4757     92.4596     72.4544   1.0718376995e+02   5.0033754433e+01    0.2239166    0.1906899 -85.17 0.0008411086    1.515    0.340
       105  -9.0927     90.7290     69.3599   1.0676933612e+02   5.1023402795e+01    0.2382299    0.1371426 -49.23 0.0003553915    1.746    0.427
       106 -10.4953     10.5199     68.9789   1.3921671403e+02   6.0817833985e+01    0.2892515    0.1910824 -73.62  0.001649098    1.285    0.222
       107 -10.4657     47.3010     69.2226   1.2347567630e+02   5.7718928194e+01    0.5179698    0.2043147  17.14  0.001766849    3.903    0.744
       108  -9.4541    114.7180     66.7263   9.8217096394e+01   4.6658619623e+01    0.2400087    0.1810925 -80.30  0.001039246    2.052    0.513
       109 -11.4110     34.2359     65.0920   1.2805300228e+02   6.0080692471e+01    0.3069301    0.2414963 -33.39 0.0004347691    1.262    0.208
       110 -11.0805     39.1927     62.7979   1.2526793455e+02   6.0148976768e+01    0.4128003     0.239738 -42.37  0.001244351    1.614    0.380
       111 -10.7200     40.7130     59.3314   1.2362845749e+02   6.0815719843e+01    0.2643599    0.2346744 -22.02 0.0008382623    1.136    0.120
       112 -11.3119     17.1593     64.1716   1.3547961191e+02   6.1627013424e+01    0.5205997    0.3161514  39.99  0.002778533    1.910    0.476
       113 -12.9306     20.6175     57.5760   1.3252272582e+02   6.3011725731e+01    0.4631672    0.3684846  47.11 0.0007881498    1.488    0.328
       114 -10.7281     20.2973     51.4303   1.3123142954e+02   6.4516654825e+01    0.3921609    0.1869516 -44.79 0.0009793882    1.839    0.456
       115 -11.6407     17.5753     45.4779   1.3110981019e+02   6.6120338722e+01     1.772933    0.6940768 -14.87  0.005956796    4.883    0.795
       116 -10.8718    130.1047     63.8303   9.2966974703e+01   4.3720531019e+01    0.4781147    0.3383274 -81.32  0.001938843    2.408    0.585
       117  -9.1261    101.5060     65.4903   1.0186481954e+02   4.9705520572e+01    0.1523409    0.1438288 -11.61 0.0008105871    1.002    0.002
       118  -9.8800     75.9978     65.0000   1.1065736539e+02   5.4604073301e+01    0.2895846    0.1176513  37.12 0.0007284862    2.588    0.614
       119 -10.1321     72.8085     63.3975   1.1134801221e+02   5.5489528428e+01    0.2873054    0.1464324 -53.94  0.001166841    2.028    0.507
       120 -11.3141      7.5365     62.9990   1.3959469867e+02   6.2432548467e+01    0.3080687    0.1881437 -29.19  0.001693406    1.786    0.440
       121  -9.5258    100.8445     61.8114   1.0079438529e+02   5.0577144043e+01    0.2061367    0.1817704 -67.47 0.0005532242    1.359    0.264
       122 -10.5332     62.8517     61.9219   1.1483797227e+02   5.7378008877e+01    0.2287526    0.1800614 -26.63 0.0007259966    1.285    0.222
       123 -10.5912     60.5151     58.0175   1.1451976803e+02   5.8602160389e+01    0.2538424    0.2431268 -45.74 0.0005753559    1.108    0.098
       124 -10.6521      2.4046     59.7158   1.4141785548e+02   6.3447428337e+01    0.2982673    0.1878594  70.74  0.001644451    1.805    0.446
       125 -11.0395     54.6622     58.3050   1.1711907865e+02   5.9361505281e+01    0.5604809    0.2987051  42.01  0.002484054    2.150    0.535
       126  -9.7456     54.2694     55.3099   1.1630197976e+02   6.0095126021e+01    0.1807717    0.1645439 -87.38 0.0001785232    1.330    0.248
       127  -9.8832    178.5074     56.9249   8.0381600797e+01   3.3182682257e+01    0.3900713    0.2104383  -7.67  0.001428824    2.757    0.637
       128  -9.7634     71.4361     57.7022   1.0993178065e+02   5.6961554912e+01    0.1934977    0.1301192 -36.80 0.0003067005    1.428    0.300
       129  -9.6329    158.1497     57.0287   8.4216920727e+01   3.8115535873e+01    0.2530715    0.1604846 -52.42  0.001075333    1.884    0.469
       130 -11.7996     86.6959     54.5111   1.0297080037e+02   5.4872130793e+01    0.6208793    0.4141268  18.51  0.002756711    1.880    0.468
       131 -10.3968     99.9250     56.0910   9.9020837517e+01   5.1883797821e+01    0.2269574    0.2071327 -12.26  0.000450529    1.048    0.046
       132 -10.9754      7.6714     55.7589   1.3831911673e+02   6.4195224867e+01    0.2382517    0.2234562  68.34  0.001033519    1.236    0.191
       133 -11.0179    115.0676     53.8807   9.3558496853e+01   4.8960250620e+01     0.357096    0.2950845  36.28  0.001142135    1.205    0.170
       134  -9.5153    162.4771     54.4631   8.2527655460e+01   3.7441211575e+01    0.1498804    0.1423452   3.95 0.0002918054    1.028    0.028
       135 -10.1033    106.4383     53.2629   9.5897974389e+01   5.1008821002e+01    0.3332566    0.2465611 -72.45  0.001462521    2.063    0.515
       136 -11.9910     66.0326     52.4855   1.1025150524e+02   5.8967699117e+01    0.6406625    0.2791417  34.04  0.002258701    2.477    0.596
       137  -9.8931    169.7922     52.8805   8.0656718972e+01   3.5876069562e+01    0.2116913    0.1914888  10.44 0.0003043771    1.124    0.111
       138  -9.3397    176.1926     52.3551   7.9371466274e+01   3.4386536304e+01    0.1916477    0.1415972  73.85 0.0003481356    1.568    0.362
       139  -9.7767     46.0474     50.6367   1.1845922248e+02   6.2219625138e+01    0.3033468    0.1451888 -41.13  0.001299072    1.981    0.495
       140  -9.3802    147.5228     49.9860   8.4070494603e+01   4.1803849534e+01    0.2089179    0.1179681 -52.33 -0.0001613613    2.254    0.556
       141  -9.8779     34.6211     53.1783   1.2469041590e+02   6.2896279922e+01    0.2782489    0.1586546 -37.94 0.0008778008    1.704    0.413
       142  -9.8220     38.1665     49.0252   1.2169405522e+02   6.3497817115e+01     0.216895    0.1573518 -33.86  0.001061848    1.299    0.230
       143  -8.9737    211.9974     48.7757   7.3093227687e+01   2.6433700611e+01     0.159665    0.1144756  63.72 0.0002165378    1.529    0.346
       144 -10.0059    106.4041     47.4120   9.3665112941e+01   5.2060543844e+01    0.3699533    0.1513802  55.02 0.0009776651    2.858    0.650
       145 -10.5457     77.9814     46.0970   1.0295555805e+02   5.8196363961e+01    0.3604146    0.2421184  31.74 0.0008285887    1.561    0.359
       146 -10.6821     67.9310     46.7438   1.0726692704e+02   5.9857767199e+01    0.4054516    0.2098252  39.61  0.001478753    2.042    0.510
       147 -10.1318     31.5351     46.4544   1.2417316246e+02   6.4764549837e+01    0.3442957    0.1766002 -60.04  0.001615247    1.766    0.434
       148 -11.1244     19.8768     31.6409   1.2563071822e+02   6.9151307303e+01     0.601879    0.2838911 -11.68  0.002291331    3.156    0.683
       149 -11.0986     25.3888     43.3756   1.2639762959e+02   6.6028238355e+01    0.3353221    0.2649474 -82.62  0.001323379    1.485    0.327
       150 -10.2538     22.7614     38.6020   1.2631880375e+02   6.7344719447e+01    0.2596831    0.2120578  50.60  0.001050656    1.554    0.356
       151 -11.0753     26.6559     35.0958   1.2295818663e+02   6.7803494666e+01    0.4422233    0.2112529 -46.33  0.001285207    1.736    0.424
       152  -9.3252     91.4252     44.5241   9.7379896245e+01   5.5827054317e+01    0.1497471    0.1370664  -6.45 0.0001068651    1.022    0.021
       153 -10.0014    195.1466     42.4071   7.3475538336e+01   3.1116681185e+01    0.2262035    0.1834591 -12.76 0.0004023502    1.246    0.197
       154 -10.9845    139.7112     40.4824   8.2380444052e+01   4.5149027430e+01    0.3789354    0.2253636 -36.12    0.0012718    1.666    0.400
       155 -10.4030     70.3003     41.1890   1.0401129446e+02   6.0555883970e+01    0.3798217     0.216048 -32.14  0.001265345    1.776    0.437
       156 -10.4237      2.7129     41.7382   1.3816804510e+02   6.7774808261e+01    0.3793971    0.1696054 -28.69  0.001811505    2.396    0.583
       157 -10.0614    182.4288     40.8558   7.4810894602e+01   3.4384297531e+01    0.2621177    0.2048039 -85.14 0.0008988354    1.505    0.336
       158 -10.2686     36.0416     40.7174   1.1992157702e+02   6.5609430874e+01    0.3339133    0.1854929 -41.14  0.001625647    1.606    0.377
       159 -10.5190     13.1265     38.2113   1.3157463256e+02   6.8108279702e+01    0.3322622    0.1142189 -57.65  0.001441059    2.139    0.532
       160 -10.1372    130.7027     37.7601   8.3389293707e+01   4.7793104969e+01    0.2648232    0.1956487  43.88 0.0008737227    1.328    0.247
       161 -11.8596    121.3867     36.3006   8.5081549170e+01   5.0308750118e+01     0.541329    0.4770453 -72.05  0.002840811    1.359    0.264
       162 -11.5308    145.0245     32.9110   7.8512310110e+01   4.4830559550e+01    0.2900602    0.2360232 -35.68  0.001491569    1.241    0.194
       163 -11.2260     16.5585    249.4944   1.4959011261e+02   2.2286138949e+01    0.1941397   0.07314751  31.37  0.001207236    2.153    0.535
       164 -10.2048     70.2447     34.9242   1.0130573297e+02   6.1751068512e+01    0.4406732    0.1748749 -31.88  0.001544192    2.902    0.655
       165 -10.8291      1.6071     28.8141   1.3585160448e+02   7.0845585969e+01    0.2625729    0.1070924 -73.00  0.001190955    2.269    0.559
       166 -10.6055      1.7003     35.9447   1.3750061791e+02   6.9181574385e+01    0.2520174    0.1613093 -70.61  0.001168887    1.339    0.253
       167 -11.5622     50.5603     33.8573   1.0977765889e+02   6.5216742134e+01    0.3586421    0.2466912  34.80 0.0005630701    1.568    0.362
       168 -11.0678    134.4022     33.9717   8.1108075793e+01   4.7391983866e+01    0.2531714    0.1965868  42.90 0.0003630234    1.262    0.208
       169 -11.1693     43.6049     30.5351   1.1184480730e+02   6.6863133375e+01    0.5329275     0.337087 -20.20  0.002619708    1.777    0.437
       170 -10.1473     43.5184     26.5149   1.1004130428e+02   6.7675591973e+01    0.2688296    0.2061484  20.15  0.001052546    1.351    0.260
       171  -9.6953    166.6203     32.0519   7.4407364747e+01   3.9420984392e+01    0.2968439    0.1130673 -34.15  0.001092246    2.412    0.585
       172  -9.7582    104.0171     29.8246   8.7101999746e+01   5.5432992747e+01    0.2659825    0.1517848  31.15  0.001088253    2.040    0.510
       173  -9.3872    187.4672     29.5315   7.0629312049e+01   3.4496412763e+01    0.1373425    0.1336691 -20.24 0.0004218034    1.030    0.029
       174 -10.0046    150.2229     29.3029   7.6225647951e+01   4.3950744448e+01    0.4280358    0.1969441  75.89   0.00147804    3.045    0.672
       175 -10.0784     69.6732     28.2314   9.8429931113e+01   6.3047986130e+01    0.2563226    0.2084561 -52.53 0.0009753093    1.500    0.333
       176  -9.7867      7.4708     28.3067   1.3207182902e+02   7.0704773493e+01    0.2171727    0.1489023  11.50  0.001003672    1.668    0.400
       177 -10.4490     34.0498    247.2680   1.4648432790e+02   2.1065385525e+01    0.1444616   0.09448207  45.23 0.0005182696    1.111    0.100
       178  -9.8880    214.1475     26.1197   6.6635763808e+01   2.8534999872e+01    0.1878199    0.1404211 -50.86 0.0003766141    1.291    0.225
       179 -10.1974    200.9959     25.9887   6.7969374931e+01   3.1613311651e+01    0.2003357    0.1854366 -40.51  0.001213231    1.013    0.013
       180 -10.0103    153.4090     25.8082   7.4415902620e+01   4.3546175851e+01    0.2491669     0.195123  80.51 0.0007049831    1.388    0.280
       181 -10.2511    113.9619     25.2099   8.2391631235e+01   5.3673956549e+01    0.2575739    0.2090275 -20.83 0.0007820777    1.234    0.189
       182  -9.8589    218.2460     25.3993   6.6043749721e+01   2.7682280624e+01    0.1803067    0.1214323 -85.13  0.000868169    1.722    0.419
       183 -10.2577     58.9085     24.4577   1.0132191455e+02   6.5655062107e+01    0.2775632    0.1977182 -11.08  0.001038399    1.488    0.328
       184 -10.0137     51.3834     22.9969   1.0422503724e+02   6.7166837615e+01    0.3522433    0.2555421  -7.38   0.00187821    1.452    0.311
       185  -9.6008     89.3858     22.8148   8.8441578686e+01   5.9807009849e+01    0.2577337     0.173297 -29.35 0.0009650181    1.466    0.318
       186 -10.2890     85.4245     21.0400   8.8915063794e+01   6.0939879376e+01    0.4975759    0.1444615  42.49  0.001551153    3.622    0.724
       187 -11.0933     13.3632     20.5709   1.2559083660e+02   7.2073247600e+01    0.3391502     0.294252  39.74  0.001281966    1.476    0.323
       188  -9.6789    217.4634    245.0000   1.1321482695e+02  -1.6963325954e-01    0.2308249   0.04561301  35.03 0.0009349209    3.936    0.746
       189 -10.4938     30.9458     19.7158   1.1392718525e+02   7.0613367422e+01    0.2700634    0.1675575 -49.89  0.001431139    1.537    0.349
       190 -10.9737     37.1281    241.4781   1.4569156378e+02   2.1674430462e+01    0.3510552   0.06169047  49.13  0.001563021    3.626    0.724
       191  -9.7000    175.5264     20.4624   6.9316472346e+01   3.8465710105e+01    0.1366142    0.1360319 -55.72 6.008289e-05    1.016    0.015
       192  -9.5646    202.5024    240.0655   1.1505892066e+02   2.1516983242e+00    0.1378136   0.09642061 -19.39 0.0008040063    1.529    0.346
       193  -9.1608     60.0341    241.0000   1.4146825284e+02   1.9463304688e+01    0.1772933   0.04649069  31.77  0.000811122    3.003    0.667
       194  -9.1293      1.6594     20.3387   1.3341486585e+02   7.2771381513e+01    0.1169079   0.08928356  66.53 0.0007050151    1.766    0.434
       195  -9.9044    199.8800     17.1529   6.5530690134e+01   3.2791195738e+01    0.2111558     0.165748 -52.56 0.0005415974    1.236    0.191
       196  -9.6595    190.5030     17.4767   6.6604556171e+01   3.5033506253e+01    0.1335687    0.1300707 -47.26 0.0004649539    1.024    0.023
       197 -10.5678    107.5261     16.6078   8.0237294616e+01   5.6332274559e+01    0.4130009    0.2305244  69.35  0.001669557    2.132    0.531
       198 -11.9241     15.2584    239.3634   1.4951318517e+02   2.3972022355e+01    0.2690183   0.07579735  49.97  0.001533604    2.310    0.567
       199 -12.3167     26.3751    236.1162   1.4741658058e+02   2.3521515064e+01    0.2941484    0.2294313  60.34  0.001732643    1.101    0.092
       200 -13.4372      9.4126    229.6910   1.5026811609e+02   2.6027580136e+01     0.570868    0.3446241  81.66   0.00372023    1.531    0.347
       201  -9.0006    155.5535    235.5125   1.2288441460e+02   8.7125904578e+00    0.1136683   0.08563937  24.52 5.958784e-05    1.020    0.020
       202 -10.1943     85.9353     17.2450   8.6857985845e+01   6.1349906019e+01    0.2009459    0.1720788  35.40 0.0003349297    1.115    0.103
       203  -9.7846    249.1578    234.1433   1.0661120244e+02  -2.8242180488e+00    0.1617239   0.09862372   9.56 0.0005364672    1.179    0.152
       204  -9.6539    140.0847    227.0624   1.2482101765e+02   1.1899692046e+01    0.1757228    0.1190886  52.13 0.0006751239    1.706    0.414
       205  -9.6076    109.6953    226.6748   1.3074865108e+02   1.5922626615e+01    0.1074068   0.08145778   2.51  0.000602807    1.644    0.392
       206 -10.6809     20.0501     16.8097   1.1948698085e+02   7.2328547628e+01    0.2242858    0.1681124  12.67 0.0004277011    1.420    0.296
       207 -10.4048    240.4835     15.4636   6.1667792014e+01   2.3863765075e+01     0.123606    0.1056745 -41.64 0.0002000862    1.004    0.004
       208  -9.1612     64.3223     15.3196   9.4068509133e+01   6.6148304135e+01    0.1464979   0.09921826   9.28 0.0007044547    1.671    0.402
       209 -10.5000    156.1759     14.1279   6.9817088267e+01   4.4086589314e+01    0.3145034    0.1797412  52.60  0.001422903    1.677    0.404
       210  -9.6280    144.2164     14.4190   7.1770842130e+01   4.7175694474e+01    0.1915106    0.1379352  82.41 0.0004309099    1.516    0.340
       211  -9.0046     76.3306     14.3216   8.8720507552e+01   6.3844747479e+01     0.151287   0.09970728  17.43 0.0007049212    1.695    0.410
       212 -10.1183     32.7045    225.0949   1.4577535367e+02   2.4764305856e+01    0.2642357   0.08595964  42.57  0.001460272    2.105    0.525
       213 -10.1673     25.6983    225.0146   1.4710103182e+02   2.5418359081e+01    0.1418924    0.1100884  65.65 0.0006608869    1.116    0.104
       214 -11.7829      4.1315    232.5873   1.5128701152e+02   2.5976078581e+01     0.285622    0.1382964  48.97 0.0009140619    1.441    0.306
       215 -11.6914      7.7053    217.6590   1.5022991488e+02   2.8206786545e+01    0.2389821    0.1843563  70.10   0.00141163    1.130    0.115
       216 -10.4357      3.7508    212.6548   1.5083194003e+02   2.9394783553e+01    0.2250553    0.0939419  36.88  0.001411092    1.850    0.460
       217  -9.6833    209.4726    211.9728   1.0976414516e+02   4.3966506249e+00    0.1579594    0.1024841 -23.47  0.001023102    1.567    0.362
       218 -10.7663     15.8718    211.8779   1.4847028429e+02   2.8559074291e+01    0.1459744    0.1324074  60.57  0.000896653    1.242    0.195
       219  -9.7363    246.7291    207.0375   1.0275766106e+02   9.3658802885e-02    0.1587472     0.107464  -7.33  0.001121885    1.195    0.163
       220 -10.0650      2.4571    205.5269   1.5087834365e+02   3.0772451491e+01    0.1036308   0.07758701  60.86 7.175261e-05    1.005    0.005
       221  -9.2241    197.4782    204.4386   1.1072234649e+02   6.9784312764e+00    0.1212266   0.09290227  14.44 0.0001554688    1.009    0.009
       222 -10.9718      9.3949    203.2617   1.4943716670e+02   3.0651709817e+01    0.2182564    0.1557305  70.67 0.0008460674    1.151    0.131
       223  -8.9072    181.6749    199.3438   1.1287331449e+02   9.9404267099e+00    0.1113172    0.0949173  56.06 0.0007050683    1.738    0.425
       224  -9.5507     23.0358    197.4872   1.4640534378e+02   3.0602206659e+01    0.1593742   0.09365796  32.48 0.0004853732    1.572    0.364
       225  -9.5479      6.5136    191.4899   1.4961003852e+02   3.3093981360e+01    0.1101429   0.08082722  61.78 -2.176362e-05    1.059    0.055
       226  -9.6856     15.4116    185.5786   1.4747327906e+02   3.3554532164e+01    0.1966332   0.09215813  88.97  0.001104733    2.031    0.508
       227  -9.0138    250.4680    183.4843   9.8112178425e+01   2.1302023159e+00    0.1188187   0.08582142   1.59 0.0002320875    1.014    0.014
       228  -9.5016      1.3066    183.2348   1.5042401353e+02   3.5085075830e+01    0.1451053   0.07889216  81.40 0.0005350855    1.587    0.370
       229 -10.7548      4.7864    167.4838   1.4906067308e+02   3.8042633217e+01    0.2963185    0.1369371  49.83   0.00148964    1.800    0.444
       230  -9.2080     41.6922    158.3397   1.3942626825e+02   3.6928098849e+01    0.1331729   0.07833976  62.53 0.0007043003    1.684    0.406
       231  -9.2034    247.4564    155.5305   9.3288085630e+01   5.7927225558e+00    0.1241697   0.09507167  -3.36 0.0001113583    1.007    0.007
       232 -10.1740      3.1834    153.7976   1.4884420177e+02   4.1071153228e+01    0.2445086   0.05354675  29.68  0.001041319    3.494    0.714
       233  -9.9905      8.7857    148.9460   1.4719379461e+02   4.1765617193e+01    0.1526214   0.08150441 -81.71 0.0003611842    1.645    0.392
       234 -10.2063     21.9535    143.3174   1.4336041460e+02   4.2067720103e+01    0.2169694    0.1469076  82.30  0.001239919    1.338    0.253
       235 -10.7220     13.1357    130.8025   1.4486215091e+02   4.5608401929e+01    0.3971591    0.1602376  56.87  0.001317785    2.534    0.605
       236  -9.7898     29.1702    128.8721   1.4004134345e+02   4.4849677817e+01    0.2567683    0.1519572  73.91  0.001191138    1.754    0.430
       237  -9.5673     21.3967    126.1869   1.4208256299e+02   4.6107620054e+01    0.1773895    0.1416688  88.98 0.0004179539    1.095    0.087
       238 -11.2630     24.1748    122.3612   1.4088239894e+02   4.6809488695e+01    0.3272691    0.2048744  66.97 0.0002891615    1.611    0.379
       239 -10.8955     22.0000    118.0107   1.4111417300e+02   4.8022474494e+01    0.2515309    0.1900841  82.48  0.001130756    1.216    0.178
       240 -10.4353      3.5048    119.0011   1.4684140510e+02   4.8972117791e+01    0.1723786    0.1535146  65.80 0.0005069172    1.141    0.123
       241 -10.3190     65.6142    111.7746   1.2622603263e+02   4.5111228854e+01     0.453172    0.1441112 -54.49   0.00131193    2.790    0.642
