#   1 NUMBER                 Running object number                                     
#   2 MAG_AUTO               Kron-like elliptical aperture magnitude                    [mag]
#   3 X_IMAGE                Object position along x                                    [pixel]
#   4 Y_IMAGE                Object position along y                                    [pixel]
#   5 X_WORLD                Barycenter position along world x axis                     [deg]
#   6 Y_WORLD                Barycenter position along world y axis                     [deg]
#   7 A_WORLD                Profile RMS along major axis (world units)                 [deg]
#   8 B_WORLD                Profile RMS along minor axis (world units)                 [deg]
#   9 THETA_WORLD            Position angle (CCW/world-x)                               [deg]
#  10 FWHM_WORLD             FWHM assuming a gaussian core                              [deg]
#  11 ELONGATION             A_IMAGE/B_IMAGE                                           
#  12 ELLIPTICITY            1 - B_IMAGE/A_IMAGE                                       
         1 -13.7170    204.6134     20.3344   5.0173930913e+01   3.1468912328e+01     1.361096    0.9751551  20.00  0.003960376    1.759    0.431
         2 -13.8528    194.2114     32.9786   5.5439653450e+01   3.2661484926e+01     2.053037     1.362201  26.86  0.008224404    1.892    0.472
         3 -10.9062     40.5297      3.2982   8.3843755926e+01   6.8861642518e+01    0.3740626    0.1337325 -31.44  0.001747001    2.481    0.597
         4  -9.1587     83.0000      2.9909   6.8245012476e+01   6.2403803478e+01    0.2097933    0.0658561 -25.96 0.0008115509    3.006    0.667
         5 -10.7775     99.5928    240.8598   1.1782308692e+02   1.4906599904e+01    0.3005345      0.19357  78.09  0.001001494    1.500    0.333
         6 -10.4261    199.5250    250.0402   1.0273195950e+02  -1.8993420632e+00    0.2763783    0.1419984  38.29  0.001675788    1.505    0.336
         7 -13.0979    155.9264    211.2751   1.0492810287e+02   1.0514080230e+01     2.243243     1.255458 -71.40   0.01052536    3.165    0.684
         8 -12.3346    146.6555    208.8076   1.0626139265e+02   1.2510086715e+01     1.248334    0.7504129  74.70  0.006224544    2.439    0.590
         9 -13.7283    145.3449    222.9794   1.0832595369e+02   1.0530875409e+01     2.171854     1.285705  40.13   0.01278554    1.540    0.351
        10 -13.7683     79.1104    180.0581   1.1535192897e+02   2.8476142377e+01     2.791792     1.023007  48.29  0.004116694    2.447    0.591
        11 -14.4824     73.9114    155.8750   1.1341622923e+02   3.4133736905e+01     3.325709     1.605435 -87.92  0.009545152    3.115    0.679
        12 -11.9714    126.9044    243.8893   1.1373627377e+02   1.0410803099e+01    0.5388185     0.502457 -82.56  0.002941474    1.388    0.280
        13  -9.2331     84.2913    234.1101   1.1968911619e+02   1.8100592216e+01    0.1849441    0.1434686 -73.21  0.000821504    1.494    0.331
        14 -10.4778    182.9796    234.0360   1.0333488289e+02   2.6842603966e+00     0.179568    0.1279271  66.17 0.0006662674    1.712    0.416
        15  -9.2655     90.0000    232.0809   1.1860040053e+02   1.7634376226e+01    0.3122751   0.05808546 -63.35  0.001164757    6.019    0.834
        16 -12.7572     31.2292    206.0585   1.2619832424e+02   2.9397207142e+01     0.731591    0.2128404  56.60  0.001928159    2.927    0.658
        17 -17.0961      8.6713    234.2975   1.3106700589e+02   2.6875457781e+01     7.340642     1.473767 -76.03   0.03692252    4.092    0.756
        18 -13.2540    117.0779    242.4202   1.1517280999e+02   1.2111383921e+01    0.9641387    0.6073061  34.40  0.006126601    1.943    0.485
        19 -11.4292    184.1469    215.6738   1.0055227177e+02   4.9110708209e+00    0.3150665    0.2799737 -26.27  0.001679605    1.370    0.270
        20 -11.5111    193.8823    194.4202   9.5430224595e+01   6.1737590777e+00    0.7381901     0.523413 -65.06  0.003980313    2.143    0.533
        21 -10.0743     81.5307    194.8823   1.1652186493e+02   2.5287568934e+01    0.2788364    0.2581495  33.27  0.002033041    1.562    0.360
        22  -8.3009     95.3260    200.6057   1.1461015858e+02   2.2238808729e+01    0.1307702   0.07488659  73.55 0.0006996086    1.889    0.471
        23 -10.1882    208.1107    183.0084   9.0809929227e+01   5.1500701164e+00    0.3656857    0.2512009   4.96  0.001395086    1.892    0.472
        24 -15.9027      1.9658     38.0864   1.1279475845e+02   6.6001118143e+01     11.78164    0.8751051 -63.74   0.02420172   13.897    0.928
        25  -9.6572     99.6681    180.8025   1.1141576563e+02   2.5301193571e+01    0.1988477    0.1582358  45.60 0.0007048924    1.324    0.245
        26 -11.2321     58.9174    177.1236   1.1893955846e+02   3.1712571733e+01    0.3488142    0.1849925 -68.20  0.001788078    1.716    0.417
        27  -9.2765    118.3440    173.3193   1.0662230060e+02   2.3718032675e+01    0.1214864    0.1055963  -0.52 0.0007049459    1.723    0.420
        28 -10.1396     92.9826    236.0039   1.1845787881e+02   1.6594207069e+01    0.1714008    0.1255078  78.12 0.0003452599    1.198    0.166
        29 -13.6056    105.0844    228.9338   1.1583609758e+02   1.5961313179e+01    0.8166713    0.4169677  49.34  0.002401691    1.547    0.353
        30  -9.7805    195.9182    170.5041   9.0703219612e+01   9.4575829634e+00    0.3024774     0.269523 -11.75  0.001390475    1.205    0.170
        31  -9.6168    193.8488    165.1386   9.0046189187e+01   1.0746768479e+01    0.3431696    0.2429785 -70.83  0.001624691    2.233    0.552
        32 -10.0620    138.4209    169.7448   1.0195298751e+02   2.0838175239e+01    0.3154484    0.2310275 -17.19  0.001555141    2.316    0.568
        33 -11.8184     92.0340    157.7207   1.0979129678e+02   3.1135945715e+01    0.5325724    0.3923282 -31.87  0.002894002    2.138    0.532
        34  -9.1583    140.0888    156.8148   9.9331501822e+01   2.3026140927e+01    0.2089583    0.1729404  77.31 0.0004839906    1.252    0.201
        35  -9.5416    188.9587    154.5180   8.8838979576e+01   1.3547475297e+01    0.2293018    0.1322483  46.24   0.00104099    1.617    0.382
        36  -9.1923    174.8539    149.0907   9.0535051492e+01   1.7480616912e+01    0.2216625    0.1954674  83.42 0.0009391613    1.285    0.222
        37 -10.4465    133.5808    143.6971   9.8249055895e+01   2.6906201502e+01     1.030308    0.2374991 -55.24  0.002423971    7.025    0.858
        38 -10.9274     53.4009    147.4428   1.1675468342e+02   3.8510414643e+01    0.3915939    0.2061972 -83.39  0.002055431    1.896    0.473
        39 -11.4811     47.0764    146.0198   1.1795461891e+02   3.9529786171e+01    0.3419322    0.1908216  44.52  0.002001988    1.859    0.462
        40 -11.0667    104.5922    141.9953   1.0445942718e+02   3.2465474499e+01    0.5187226    0.3426567 -29.55  0.002395628    2.500    0.600
        41 -11.6016     92.4310    142.4047   1.0730335366e+02   3.4328307974e+01    0.2698978    0.2305154 -58.49 0.0004544833    1.221    0.181
        42 -10.0146    105.7599    131.0733   1.0216138955e+02   3.4621454846e+01    0.3406152    0.3224313 -59.56  0.001881496    1.143    0.125
        43 -10.0047    113.2592    131.5458   1.0048402632e+02   3.3217854541e+01    0.3224816    0.2711166 -17.64  0.000929019    1.616    0.381
        44 -11.9174    118.2223    127.1560   9.8414815293e+01   3.3264600319e+01    0.8642288    0.3800093 -40.09  0.003192054    2.915    0.657
        45 -10.4488    100.4614    128.0415   1.0283798945e+02   3.6167304792e+01    0.2887688    0.2269802 -42.69  0.000728473    1.415    0.293
        46 -10.4978     45.1784    130.0070   1.1637028583e+02   4.3190165024e+01    0.2379316    0.1474528 -88.62  0.001376413    1.547    0.353
        47 -11.3316     39.7739    124.0623   1.1684705182e+02   4.5042924046e+01    0.4506333    0.1620135 -58.08  0.002128354    2.296    0.564
        48 -10.4629    135.2445    121.9091   9.3249366656e+01   3.1099100439e+01    0.4983974    0.1192616 -51.04  0.001315994    4.831    0.793
        49  -9.5402    110.1202    115.6456   9.7901117295e+01   3.7214672352e+01    0.2306536    0.1816766 -67.20   0.00043457    1.260    0.206
        50  -9.3730     33.2826    116.6309   1.1741067994e+02   4.7287267442e+01    0.1229676   0.07603883  81.58 0.0003813868    1.696    0.410
        51  -9.0766    167.9197    112.7835   8.3635709192e+01   2.5892110756e+01    0.2936738    0.1972319 -67.56  0.001216942    2.087    0.521
        52  -9.2356    108.9779    120.0199   9.9134856196e+01   3.6466334481e+01    0.2038762    0.1928321 -74.95 0.0003244031    1.042    0.040
        53 -10.5077    120.0020    111.1648   9.4423051953e+01   3.6361277444e+01    0.2316746    0.2193905 -78.03 0.0009273587    1.020    0.020
        54 -15.2346     53.8341    204.5575   1.2232348967e+02   2.7106441754e+01     3.678608     2.077519 -80.46   0.02419276    1.590    0.371
        55  -9.2463    205.5477    110.0341   7.5274508474e+01   1.7612316213e+01    0.2834459    0.2041466  33.96 0.0007114945    1.478    0.323
        56 -10.5115     33.0806    104.8727   1.1576998360e+02   4.9878499461e+01    0.3892152   0.09069733 -65.24  0.001484937    3.255    0.693
        57  -9.2508    134.4986    102.9227   8.8819681336e+01   3.5209359299e+01    0.2327459    0.1440321 -45.15  0.001029408    1.579    0.367
        58  -8.3671     77.9662    243.4745   1.2140826553e+02   1.7483358620e+01    0.1388384   0.07843794  51.22 -7.478719e-05    1.374    0.272
        59 -10.9772    110.2163    237.4581   1.1580899166e+02   1.3874872314e+01    0.2840634    0.2000846  54.10 0.0008731504    1.115    0.103
        60  -8.8938    183.1257     77.7738   7.0889239781e+01   2.8707714962e+01    0.2658325     0.106981  44.68 0.0008756849    2.653    0.623
        61  -8.6959     63.5168     69.5333   9.9605031759e+01   5.4317908129e+01    0.1306186     0.110924 -47.26 0.0003334637    1.003    0.003
        62 -10.2435    159.3116     61.0558   7.0793601790e+01   3.7503218374e+01    0.3417105    0.2647893 -72.62 0.0007860906    1.649    0.394
        63  -9.3584     94.2636    240.3040   1.1861989520e+02   1.5747199466e+01    0.1807242    0.1613066 -57.35  0.001014595    1.700    0.412
        64  -8.8483    116.9424     56.4640   7.9625326812e+01   4.7971919361e+01    0.2001787    0.1324628  76.04 0.0008091639    2.640    0.621
        65  -9.8427    161.4316     54.6688   6.8296262533e+01   3.8025262209e+01    0.2952161    0.2475991 -78.75 0.0006039186    1.426    0.299
        66  -9.6979    173.8558    248.3758   1.0664635684e+02   2.4036559838e+00     0.182118    0.1096439  51.69  0.001170294    1.369    0.269
        67 -12.6745    184.8435     40.2822   5.9220983055e+01   3.4149073672e+01    0.8448939    0.6332872  44.43  0.002151229    1.347    0.258
        68 -13.4913    128.5415    226.9003   1.1167423069e+02   1.2670247980e+01     1.006811    0.8014247  -2.95  0.006323278    2.399    0.583
        69 -12.6657    131.0440    217.2996   1.1013159041e+02   1.3772846173e+01     0.807416    0.3681684  60.23  0.003066924    2.472    0.595
        70  -9.5947     97.0609    246.1047   1.1866582042e+02   1.4477098243e+01    0.2975778    0.1234351  43.70  0.001699282    2.029    0.507
        71  -9.0078    150.4669     23.0554   5.9828515510e+01   4.5259597920e+01    0.2585074    0.2029731  85.62 0.0007597127    1.522    0.343
