#   1 NUMBER                 Running object number                                     
#   2 MAG_AUTO               Kron-like elliptical aperture magnitude                    [mag]
#   3 X_IMAGE                Object position along x                                    [pixel]
#   4 Y_IMAGE                Object position along y                                    [pixel]
#   5 X_WORLD                Barycenter position along world x axis                     [deg]
#   6 Y_WORLD                Barycenter position along world y axis                     [deg]
#   7 A_WORLD                Profile RMS along major axis (world units)                 [deg]
#   8 B_WORLD                Profile RMS along minor axis (world units)                 [deg]
#   9 THETA_WORLD            Position angle (CCW/world-x)                               [deg]
#  10 FWHM_WORLD             FWHM assuming a gaussian core                              [deg]
#  11 ELONGATION             A_IMAGE/B_IMAGE                                           
#  12 ELLIPTICITY            1 - B_IMAGE/A_IMAGE                                       
         1 -14.5331     68.5310    144.4285   1.0029244480e+02   3.7346913116e+01     4.615034     2.496623  74.30  0.006142884    3.621    0.724
         2 -14.2688    218.5112     27.0110   3.6879854650e+01   2.7831144771e+01      1.23825    0.9029542  39.72  0.007184512    1.909    0.476
         3 -14.3745    205.1821     39.8212   4.1299075887e+01   2.9214923079e+01     1.995736     1.413813  35.64  0.007753198    1.958    0.489
         4 -13.0722    244.2386      3.9537   3.0021288587e+01   2.5021532896e+01    0.7345781    0.3981847  80.14  0.004445271    1.704    0.413
         5 -10.6959     47.5816      2.2099   6.2737034767e+01   6.8290164619e+01    0.2458444    0.2014288  58.82 0.0006675991    1.778    0.437
         6  -9.4839      2.3238      2.3155   8.5951352747e+01   7.3987483155e+01    0.1164123   0.06305933 -14.88 0.0007042574    1.665    0.399
         7 -14.2884     56.9764    238.9201   1.1477028113e+02   1.7190575288e+01    0.8907381    0.6593607  76.22 0.0005843818    1.224    0.183
         8 -10.9343    139.7366    249.6741   9.9123750258e+01   3.4577792088e+00    0.2454556    0.2148805 -50.21  0.001654129    1.374    0.272
         9 -11.5642    117.1093    247.7760   1.0348830229e+02   7.1742202691e+00    0.4849482    0.2934162 -59.13  0.002724897    1.968    0.492
        10 -15.8584      4.8774    185.3427   1.2153489458e+02   3.4245838145e+01     9.561564    0.8668569 -73.88  0.001173309    6.699    0.851
        11 -14.3150     37.3740    200.1115   1.1552564438e+02   2.7756704487e+01     1.644796    0.8197857 -72.42   0.00310664    1.843    0.458
        12 -15.1033     47.0247    190.9574   1.1242155181e+02   2.8750437748e+01     3.044063     1.609931 -88.49   0.01432438    2.087    0.521
        13 -15.7744     30.4656    249.4855   1.2057121190e+02   1.8273611179e+01     9.004879     2.483719  26.04    0.0168582   15.352    0.935
        14 -15.9051      7.5342    247.4173   1.2454028032e+02   2.1048220427e+01      1.72085     1.620901  41.38   0.01440403    1.520    0.342
        15  -9.7260    207.4810    192.9863   7.5960224844e+01   2.3415905258e+00    0.1782285      0.11916 -61.51 0.0008099953    2.522    0.603
        16  -9.5211    149.3148    187.4421   8.7323536519e+01   1.3623215476e+01    0.2449141    0.1855208 -75.98  0.001179737    1.808    0.447
        17  -9.6081     80.4626    182.4549   1.0322068501e+02   2.6327353653e+01    0.4114491    0.2219795  41.59  0.001880561    1.778    0.438
        18  -9.7545     99.2305    180.9355   9.8284790129e+01   2.3784102606e+01    0.2342579    0.2035604  37.79 0.0006232373    1.154    0.133
        19  -9.6019    189.1353    177.5262   7.6604229926e+01   8.3306158977e+00    0.3511688    0.1616676 -46.13  0.001413876    2.256    0.557
        20 -12.1797     63.7115    175.1296   1.0641718406e+02   3.0423345546e+01    0.4859954    0.3181733 -42.69  0.002040849    1.812    0.448
        21 -12.0491     68.6353    170.0638   1.0442812644e+02   3.0988928520e+01    0.3348451    0.2773888 -34.74   0.00112065    1.437    0.304
        22 -10.7776     76.5352    137.0614   9.6571448889e+01   3.8027509014e+01    0.3434461    0.2451379  48.86 0.0003206604    1.504    0.335
        23 -12.7766     85.4001    154.2169   9.7311805851e+01   3.2422899342e+01     1.611151    0.8998528 -54.41  0.007069752    1.710    0.415
        24 -12.5282     77.9631    160.7021   1.0047786658e+02   3.1955131523e+01    0.6337978    0.5022109  64.26 0.0004039944    1.324    0.245
        25 -13.5594     65.4387    156.6620   1.0323022894e+02   3.4722799781e+01    0.5647438    0.3993047 -50.06  0.001369755    1.419    0.295
        26 -14.9757     17.6894    218.0313   1.2104281116e+02   2.5909661426e+01      1.74735    0.9378576  60.81   0.01024414    1.607    0.378
        27 -10.6549    134.0000    145.9028   8.2563105318e+01   2.5705642827e+01    0.7836496     0.209946 -51.94  0.002089273    4.241    0.764
        28 -10.0627    133.0000    140.0227   8.1482265863e+01   2.7251414909e+01    0.4902611    0.2025288 -51.37  0.001678808    2.516    0.603
        29 -10.1134    174.3324    148.8412   7.3633055718e+01   1.6896187229e+01    0.3069591    0.2750283 -89.58  0.000795299    1.360    0.265
        30 -11.0991     24.5798    148.2828   1.1328573203e+02   4.1372799291e+01    0.4282558    0.1812073  54.70  0.001767355    2.930    0.659
        31  -9.9611    146.2966    171.6494   8.4984779293e+01   1.7549532106e+01    0.2642559    0.1853641 -60.47 0.0007630879    1.646    0.393
        32 -10.6736     32.3772    144.1460   1.1059896840e+02   4.1670354250e+01    0.4088115    0.2866317  51.72   0.00227542    1.528    0.346
        33 -10.7513    100.4184    139.5554   9.0195257091e+01   3.3525662037e+01    0.6055983    0.3661943 -20.60  0.002176737    2.964    0.663
        34 -10.2119    198.1904    139.6501   6.6576092459e+01   1.3909383021e+01    0.3188153     0.221486 -60.63  0.001245526    1.817    0.450
        35 -12.4823     87.2734    139.4554   9.3924739303e+01   3.5765453303e+01    0.3125046    0.2622553 -41.35 0.0004373069    1.212    0.175
        36 -10.3320    106.2404    131.0142   8.6639884206e+01   3.4535291795e+01    0.3774278    0.2801036 -56.44   0.00178245    1.349    0.259
        37 -10.3229    109.5316    130.4977   8.5590227988e+01   3.4046688710e+01    0.3658092    0.2715006  13.02   0.00107218    1.715    0.417
        38 -11.2463     44.1505    129.8624   1.0497622217e+02   4.4016250594e+01    0.3675869    0.2083607 -66.57  0.001749346    1.598    0.374
        39 -10.2339    134.9194    128.2783   7.8191687929e+01   2.9528248655e+01    0.3864422    0.2972549 -34.41  0.001813613    1.347    0.258
        40 -10.9919     66.7205    127.3471   9.7576088818e+01   4.1851011289e+01    0.5566493     0.352202 -53.60   0.00265154    1.445    0.308
        41  -9.4991    160.5981    127.7886   7.1779129938e+01   2.4184995345e+01    0.2294544    0.1436974 -53.23 0.0009540561    1.728    0.421
        42 -10.8684     97.3490    126.1883   8.8082961559e+01   3.7294770435e+01    0.3265201    0.2600813 -21.03 0.0008724015    1.465    0.317
        43  -9.0046    116.4930    124.4797   8.2200074200e+01   3.4123196770e+01    0.1567062    0.1482895 -17.21 0.0008089715    1.082    0.076
        44 -10.9900     44.0852    123.1286   1.0381872450e+02   4.5695071596e+01    0.3422182    0.1795308 -58.94 0.0008923704    1.639    0.390
        45  -9.2629    163.4607    121.2473   6.9502975782e+01   2.4934009597e+01    0.2182987    0.1447169 -53.72 0.0009375734    1.628    0.386
        46  -9.7823    106.9384    119.0357   8.3560696223e+01   3.7232820552e+01    0.2179152    0.2107388 -23.26 0.0002896794    1.029    0.028
        47 -10.9424     23.4900    119.5116   1.0969545293e+02   4.8543436705e+01    0.3150896    0.1758482  50.86  0.001541766    2.175    0.540
        48 -10.8726     24.3138    116.6662   1.0898853166e+02   4.9171251353e+01    0.2073745    0.1744259 -82.23  0.001050637    1.159    0.137
        49  -9.0426     82.0016    116.5265   9.0451560156e+01   4.2209059640e+01     0.213901    0.1479976  34.97 0.0004906058    1.521    0.343
        50  -9.4815    135.0000    112.9392   7.4273823750e+01   3.2906417586e+01    0.2632853   0.08817644 -44.52  0.000803199    2.948    0.661
        51 -10.5444     28.3220    107.7337   1.0615540219e+02   5.1003102006e+01    0.3003216    0.1642977   4.52  0.001301384    2.523    0.604
        52 -10.4991    230.3801    166.7828   6.6458678813e+01   3.0458730869e+00    0.1989781    0.1132787 -29.06 0.0009524447    1.669    0.401
        53 -10.0462    205.6563    110.2412   5.8317075402e+01   1.7899913691e+01    0.2532168    0.2338796  40.24   0.00062787    1.175    0.149
        54 -11.5956    248.6236    103.2723   5.0158165049e+01   1.0559608581e+01    0.2740169    0.1999955 -31.71  0.001573296    1.285    0.222
        55  -9.0846    119.4820    103.5437   7.5917142200e+01   3.8230448188e+01    0.1530343    0.1500354 -16.03 6.579842e-05    1.006    0.006
        56  -9.7748    120.8625     98.1251   7.4025049397e+01   3.9100187244e+01    0.2357044     0.213943 -88.76  0.000570599    1.271    0.213
        57  -8.9578    152.4046    152.2166   7.9424929400e+01   2.0612344433e+01    0.2164821    0.1450053 -58.71 0.0005462683    1.724    0.420
        58 -11.8406    246.0024     93.4980   4.8410127275e+01   1.2617203782e+01    0.4917732      0.27452  36.17  0.002244166    2.790    0.642
        59 -10.4674     53.1980     91.2793   9.3865777223e+01   5.2281711702e+01     0.286043    0.1891401 -63.95   0.00103306    1.615    0.381
        60 -10.3343     18.0007     90.2701   1.0647880664e+02   5.5958141743e+01    0.1716358     0.152025 -41.86 0.0003654778    1.096    0.088
        61  -9.6196     73.0027     83.6543   8.4739923234e+01   5.1168939440e+01     0.286004    0.2071728  55.17  0.001040973    1.783    0.439
        62  -9.5636    160.1506     82.7870   6.0037865826e+01   3.3215905740e+01    0.2053941    0.1782715  17.43 0.0004316152    1.326    0.246
        63 -15.6580     82.3411    220.4984   1.0767018773e+02   1.7547756711e+01     7.318854     1.347752  39.01  0.008756126    4.030    0.752
        64  -9.1367     92.0344     66.4978   7.2920452807e+01   5.1248365045e+01    0.2141832    0.1388168  43.06 0.0007864048    1.548    0.354
        65  -9.2891     48.8406     62.8507   8.7347688547e+01   5.8935514328e+01    0.1919624    0.1562377 -18.24 0.0002751708    1.114    0.102
        66 -10.6520     13.4789     59.9694   1.0139658688e+02   6.2975798575e+01    0.2461942    0.1785842 -48.76 0.0004166971    1.141    0.124
        67 -15.6219      9.6317    207.4467   1.2198789431e+02   2.8935374942e+01     3.194599     1.151049 -56.46   0.01461671    3.178    0.685
        68 -11.9854    196.4166     45.5780   4.3822613687e+01   3.0469656144e+01    0.4809768     0.415288  34.22  0.001114002    1.433    0.302
        69 -10.6663    108.1254    203.8849   9.9681286228e+01   1.7186594654e+01    0.2871647    0.2037033  27.60 0.0005604635    1.490    0.329
        70 -10.6909    138.2893     36.3702   5.0743442268e+01   4.5639030962e+01    0.3586134    0.2451622 -82.11  0.001195944    1.986    0.497
        71  -9.6280    136.9611     43.0213   5.3127388104e+01   4.5086442637e+01    0.2092614    0.1949931  79.96 0.0004015635    1.102    0.092
        72  -9.3187    189.7012     15.0422   3.7018943718e+01   3.5727964981e+01    0.1734766     0.154925 -62.73 0.0006295929    1.132    0.117
        73 -11.4922    194.5040    197.4025   7.9390051933e+01   3.7321289854e+00    0.5450928     0.358801 -64.13   0.00241583    2.681    0.627
        74 -10.3890    191.6617    191.9987   7.8941589068e+01   5.1867086745e+00    0.4914718    0.3058203 -72.25  0.001639365    4.914    0.797
