#   1 NUMBER                 Running object number                                     
#   2 MAG_AUTO               Kron-like elliptical aperture magnitude                    [mag]
#   3 X_IMAGE                Object position along x                                    [pixel]
#   4 Y_IMAGE                Object position along y                                    [pixel]
#   5 X_WORLD                Barycenter position along world x axis                     [deg]
#   6 Y_WORLD                Barycenter position along world y axis                     [deg]
#   7 A_WORLD                Profile RMS along major axis (world units)                 [deg]
#   8 B_WORLD                Profile RMS along minor axis (world units)                 [deg]
#   9 THETA_WORLD            Position angle (CCW/world-x)                               [deg]
#  10 FWHM_WORLD             FWHM assuming a gaussian core                              [deg]
#  11 ELONGATION             A_IMAGE/B_IMAGE                                           
#  12 ELLIPTICITY            1 - B_IMAGE/A_IMAGE                                       
         1 -15.3214      6.6526     69.0138   7.7975768270e+01   6.1550693053e+01     1.441671    0.7312599 -62.31   0.00535237    1.662    0.398
         2 -13.9399     55.3714     65.1990   5.6930223954e+01   5.7831388435e+01      1.60648    0.9803222 -24.76  0.007894292    1.741    0.426
         3 -13.9144     41.7725      4.5128   3.7858171783e+01   6.9068233137e+01    0.8135495    0.4926686   3.53  0.004484027    1.623    0.384
         4 -12.7729      7.8855      2.6356   5.4423418721e+01   7.3411300285e+01     0.473373     0.337546  24.26  0.003444616    1.604    0.377
         5 -15.9671     11.6111     23.0994   6.1669728888e+01   7.0065835225e+01     1.871007    0.9275142 -26.90  0.009392443    1.767    0.434
         6 -14.2141     27.1675     11.8692   4.8440662854e+01   7.0177930029e+01    0.8444296    0.4899239  -7.15  0.004960371    1.712    0.416
         7 -11.4390    194.8596     23.1209   9.2076557557e+00   3.3784137816e+01    0.3385841    0.2399757 -44.92  0.001964126    1.412    0.292
         8 -13.7105    188.1960     24.0836   1.0233920821e+01   3.5248176689e+01      2.93975     1.110476 -63.68   0.00845114    5.863    0.829
         9 -12.8525    187.2972     11.3746   7.1785572645e+00   3.6832455755e+01    0.8097048    0.5296502 -54.14  0.004639114    1.516    0.340
        10 -12.9462    118.9988     27.1816   2.2807522058e+01   5.1551145798e+01     1.041553    0.5523985  29.04  0.004462099    2.453    0.592
        11 -13.8796    122.3478     36.5458   2.5231663926e+01   4.9651641561e+01    0.9734033    0.5360724  31.23  0.003843653    2.238    0.553
        12 -12.8610     43.3915     32.7187   5.0050830502e+01   6.5168929618e+01    0.9288698    0.7760188  13.53  0.006193894    1.188    0.159
        13 -14.2058    166.5340     29.0709   1.4507552475e+01   3.9897835825e+01       1.0309    0.7497241  70.23  0.003806514    1.241    0.194
        14 -14.1990    147.6075     29.7216   1.7827647990e+01   4.4440076513e+01     1.321113    0.6732054  63.92  0.004352621    1.786    0.440
        15 -12.4676    223.3639     20.7564   5.7593229431e+00   2.7584562459e+01    0.3898336    0.2794518 -71.56  0.002086704    1.209    0.173
        16 -13.5209    219.0756     15.2761   4.9615198950e+00   2.9150721689e+01    0.6793368    0.3895889  45.61  0.003507691    2.460    0.593
        17 -13.3031    215.0173      9.8946   4.1494686187e+00   3.0634066227e+01    0.6462564    0.3490383  76.75  0.002553201    1.649    0.393
        18 -15.1769     98.8364     11.3920   2.1871247764e+01   5.7694787814e+01     1.431551    0.8379361  50.93  0.004032727    1.423    0.297
        19 -12.2709     85.6412     13.8123   2.6368517182e+01   6.0263036713e+01    0.4477868    0.3621107 -38.33  0.002008299    1.533    0.348
        20 -11.5836     71.0968     16.1808   3.1941875913e+01   6.2873910837e+01    0.2957305    0.1940515 -13.63  0.001411068    1.575    0.365
        21 -11.6712     75.0398      9.9544   2.7959037369e+01   6.2752225178e+01    0.3351521    0.2206423   6.94  0.001355634    1.596    0.373
        22 -12.1108     60.0452     15.2999   3.5528563796e+01   6.4952541547e+01     0.523744    0.2637072  29.42  0.002649602    1.909    0.476
        23 -11.7810     46.7400     12.7368   3.9706909345e+01   6.7405304948e+01    0.2820327    0.2469328  29.06  0.001448428    1.382    0.277
        24 -12.2123    123.3884     10.8658   1.6311291087e+01   5.2170273827e+01    0.2346423    0.2057662  67.11 0.0003053078    1.097    0.089
        25 -11.7828    152.2032      9.0147   1.0935720177e+01   4.5461160410e+01    0.4057927    0.2210406  60.16  0.001723751    1.541    0.351
        26 -10.6141     80.4827      7.0729   2.5076965350e+01   6.1937078727e+01    0.1700203    0.1183058 -16.27 0.0007652056    1.550    0.355
        27 -11.7493    119.0113      2.5444   1.4319368892e+01   5.3879840397e+01    0.5945984    0.2646281  82.01  0.002219817    3.638    0.725
        28 -11.2627     67.7275      2.7056   2.7107122986e+01   6.4805529427e+01    0.2717131    0.1520266  26.74    0.0014939    1.680    0.405
        29 -10.9223    232.6596      1.6350   1.0669739345e+00   2.7693710807e+01    0.2209253    0.1225925  83.27  0.000892717    1.583    0.368
        30 -11.4743     81.3970      1.2441   2.2361710464e+01   6.2234338800e+01     0.659807          nan  53.99  0.001760024    6.383    0.843
        31 -11.0696     61.2526      1.4448   2.8709937197e+01   6.6111751181e+01    0.3180684    0.1003517  50.81  0.001366819    2.776    0.640
        32 -12.1407      4.6214    212.1224   9.4927220176e+01   2.8355386575e+01    0.4347715    0.1921127 -73.28  0.002381887    1.944    0.485
        33 -12.3493    109.6169    249.0397   7.6726709041e+01   7.6634069447e+00    0.4508155    0.2525679  48.08  0.002405411    1.549    0.355
        34 -12.7822     50.8649    248.6146   8.8402518177e+01   1.5864268827e+01    0.6670734     0.516253  -6.84  0.004048656    2.406    0.584
        35 -13.1483     28.3858    246.2966   9.2453172476e+01   1.8949171326e+01     0.525705    0.4698946  64.37  0.004069005    1.288    0.224
        36 -12.3076      2.8579    249.6268   9.7133368091e+01   2.0949824125e+01    0.3421443    0.2247783  65.81  0.001680406    1.108    0.098
        37 -13.9514      9.5805    245.7110   9.5792688481e+01   2.1038773026e+01    0.9321336    0.3746899  54.58   0.00436883    1.926    0.481
        38 -12.3920     84.0821    178.5256   7.3239026386e+01   2.6759116114e+01    0.4279917     0.188189 -68.55   0.00159694    2.619    0.618
        39 -12.6063    124.1048    166.5460   6.0724157257e+01   2.2833579596e+01     0.675463    0.4447645 -70.88  0.002865267    1.938    0.484
        40 -10.8146    177.9884    167.4755   4.7914149214e+01   1.2128171082e+01    0.2351064    0.1463224  40.77  0.001038528    1.612    0.380
        41 -11.9718     24.4766    159.0281   8.6149709903e+01   3.8864256609e+01     0.353898    0.2281997 -83.59  0.001948416    1.381    0.276
        42 -12.1749     77.2421    156.7932   7.1504284577e+01   3.3165604717e+01    0.4718511    0.3560201  22.75   0.00136057    1.530    0.346
        43 -13.2485     73.6430    153.1131   7.1870179624e+01   3.4616726963e+01    0.8413973     0.586969  35.04  0.002940547    1.508    0.337
        44 -12.0926    110.9003    155.2444   6.1932801584e+01   2.7981280277e+01    0.5968373    0.3894487 -84.23  0.002351026    2.345    0.574
        45 -12.5890      7.5551    148.9455   8.9502900192e+01   4.2681636366e+01    0.5656469    0.3571865  74.11  0.003214289    1.590    0.371
        46 -10.8855     12.6603    148.6793   8.8133722807e+01   4.2374400183e+01    0.2048116    0.1513441 -62.70  0.001002927    1.209    0.173
        47 -11.3565    103.4551    149.8156   6.2860342232e+01   3.0645726783e+01    0.3818885    0.2543545 -33.95  0.001364312    1.786    0.440
        48 -11.8829    189.4783    149.9977   4.1562114243e+01   1.3423649697e+01    0.2428054    0.1438197 -41.18  0.001043187    1.623    0.384
        49 -12.0026     59.5944    147.8078   7.4961906446e+01   3.7867776526e+01    0.3108723    0.2353685  66.78  0.001617861    1.451    0.311
        50 -11.6169     62.4061    146.1792   7.3877050597e+01   3.7915453122e+01    0.2778414    0.1998336  53.15  0.001148751    1.502    0.334
        51 -12.0005    189.2190    155.7496   4.2907837035e+01   1.2308853134e+01    0.2709508    0.1943956  44.75  0.001293848    1.459    0.314
        52 -10.5255     38.4809    145.5237   8.0644048699e+01   4.0872316678e+01    0.1366406    0.1183842 -70.40 0.0001195853    1.027    0.027
        53 -11.5856    148.3631    140.9549   4.8928756311e+01   2.3955954458e+01    0.3775855    0.1491379 -46.52  0.001256581    2.516    0.603
        54 -12.4971     40.3997    137.0457   7.8824308898e+01   4.2802556275e+01    0.4683706    0.2748917  70.22   0.00210293    2.273    0.560
        55 -12.0562     45.3588    132.6704   7.6627097807e+01   4.3374574367e+01    0.4163871    0.3759945  35.25  0.002507541    1.242    0.195
        56 -10.9937      5.2858    128.7264   8.7980345307e+01   4.7728072781e+01    0.2693796    0.1269459 -46.21  0.001331462    2.082    0.520
        57 -14.4334    105.7590    104.3970   5.1305930301e+01   4.1084577278e+01     1.984462     1.271064 -43.43  0.008753414    1.527    0.345
        58 -13.3417    108.5246    123.6960   5.5506722041e+01   3.6072515412e+01     1.133631     0.680203  27.54   0.00458544    1.972    0.493
        59 -11.2469     83.1859    125.7003   6.3587346391e+01   4.0039689164e+01    0.4024211    0.2364699 -82.09  0.001418981    3.063    0.674
        60 -13.3326     29.9977    118.7777   7.9074104345e+01   4.8342925112e+01     2.054333    0.6315403 -54.20  0.008016771    2.510    0.602
        61 -12.3463     49.1099     93.3966   6.7328036210e+01   5.2523490032e+01    0.4487301    0.4141836  47.81   0.00272423    1.279    0.218
        62 -12.4942     50.0053     98.6729   6.8280638273e+01   5.1188039404e+01    0.8001813    0.4596554  10.34  0.003605484    2.278    0.561
        63 -12.2984     42.6772     90.6243   6.8996554778e+01   5.3875833117e+01     0.545073    0.3278978 -68.64  0.002607825    1.890    0.471
        64 -12.6938      4.4710    119.4098   8.7110097863e+01   5.0023635902e+01    0.6377005    0.4146449 -57.49  0.002991203    1.272    0.214
        65 -15.0152     24.6682     93.9418   7.6317962041e+01   5.4759093637e+01     1.751646     1.239141  -4.49   0.01007523    1.641    0.391
        66 -13.7944      2.2259     96.9596   8.4753010086e+01   5.5467013711e+01     1.479873    0.3836933 -72.49  0.005277811    3.627    0.724
        67 -13.9924     18.5990    111.8136   8.1611118427e+01   5.0950834560e+01    0.9034578    0.5892512   2.25  0.004816119    1.939    0.484
        68 -14.4007     14.0114    103.5810   8.1802139659e+01   5.3239892581e+01     1.032254    0.5999209  19.18   0.00337291    2.049    0.512
        69 -12.0187    181.1799    120.9801   3.6446980242e+01   2.1107434688e+01    0.2782373    0.2319985  47.19 0.0009960843    1.242    0.195
        70 -11.4729     88.3758    109.4958   5.8057794092e+01   4.3094335667e+01    0.4076088    0.2088395 -59.41  0.001557365    2.226    0.551
        71 -12.6341     84.2998    114.9218   6.0710611102e+01   4.2485779429e+01     0.926352    0.5283431  25.13  0.003833792    2.085    0.520
        72 -11.9171     78.6714    110.3508   6.1390218670e+01   4.4484797229e+01    0.4469001    0.3531444  87.10  0.002180933    1.672    0.402
        73 -11.0712     45.9242    110.2199   7.2244359660e+01   4.8879749161e+01    0.3995607    0.1503408 -44.36  0.001508087    2.594    0.614
        74 -11.2212    121.6830    111.9843   4.8721901176e+01   3.6162161485e+01    0.3015189     0.235117  49.90  0.000722154    1.339    0.253
        75 -10.1292     62.3786    108.5006   6.6327405534e+01   4.7300018489e+01      1.09138    0.4460005 -63.65  0.003847258    2.889    0.654
        76 -10.7913     64.5172    101.5424   6.3922662518e+01   4.8665662323e+01    0.2081333    0.1835938  34.12  1.64379e-05    1.237    0.192
        77 -11.8932     61.5033     97.5357   6.3957023971e+01   5.0013246365e+01    0.4606979    0.3368455  84.99  0.001831959    2.089    0.521
        78 -11.2521     42.8013    106.6990   7.2571342834e+01   5.0067157702e+01    0.2683412    0.1866201 -28.20  0.001309464    1.559    0.359
        79 -12.7795     99.4930    119.4948   5.7143274340e+01   3.8758163209e+01    0.9395181     0.417858 -45.63  0.003444745    2.191    0.544
        80 -12.0714    136.5428    102.9841   4.2234185416e+01   3.4918187391e+01    0.5050667    0.2771456  51.93  0.001606584    1.938    0.484
        81 -12.9852    111.8760    116.4916   5.2712831234e+01   3.7118010599e+01    0.6587092    0.4441119  32.31  0.002898932    1.583    0.368
        82 -11.5758    163.7671     97.9516   3.4276501160e+01   2.9689245733e+01    0.2757674    0.2285381  60.62 0.0004234025    1.251    0.200
        83 -12.5141    137.0418     94.7001   3.9778496994e+01   3.6520805865e+01    0.5078743    0.4329461  79.71  0.001785603    1.385    0.278
        84 -13.2160    188.4142     83.9632   2.5615126940e+01   2.6484410955e+01    0.5817516    0.3173577  45.41  0.001893408    2.007    0.502
        85 -13.1033    163.7844     71.4609   2.6956189355e+01   3.4519637185e+01    0.9221866    0.5225473  47.52   0.00396805    1.772    0.436
        86 -14.1197    169.4975     76.9137   2.7325932011e+01   3.2210684065e+01     1.264241    0.6111364  49.62  0.002381952    2.053    0.513
        87 -12.6431    161.0582     80.1895   2.9978505392e+01   3.3660982930e+01     0.496094    0.3700466  28.77   0.00145492    1.615    0.381
        88 -12.1872     40.0070     67.9779   6.3957708005e+01   5.9128445273e+01    0.9048574    0.2698474  29.15  0.003440326    3.467    0.712
        89 -13.1458     65.9313     48.9530   4.7135570004e+01   5.9246139892e+01    0.6746311    0.5631469 -23.94  0.003330339    1.149    0.130
        90 -13.6286     89.0170     62.3629   4.3711431974e+01   5.2868459829e+01     1.259052    0.6897425 -17.51  0.004012383    2.834    0.647
        91 -12.6906     54.7220     81.2288   6.2041864000e+01   5.4578529848e+01    0.6401975    0.3811355 -32.38  0.003063083    1.699    0.412
        92 -13.7928     61.1212     75.7463   5.8033258098e+01   5.4892270604e+01    0.7322971    0.4551455 -36.57  0.001681728    1.508    0.337
        93 -12.8797    213.8971     79.6636   2.0357186029e+01   2.1388904223e+01    0.8149011    0.4519272 -88.84  0.003007449    3.340    0.701
        94 -11.7822    114.1016     79.8084   4.1623663674e+01   4.4545528944e+01    0.4634501    0.3469998 -44.56  0.002252954    1.378    0.274
        95 -11.4753     42.5173     79.4756   6.6208082760e+01   5.6401122720e+01    0.4012381      0.30727 -75.46  0.002207124    1.675    0.403
        96 -11.1921     41.6237     75.7382   6.5535114482e+01   5.7311201478e+01    0.3129983    0.2515107 -77.91   0.00147853    1.643    0.391
        97 -13.2471    171.8298    242.7788   6.2989267067e+01  -9.2092184378e-01    0.6734107    0.3759558  27.13   0.00343606    1.660    0.398
        98 -12.3242    135.7992     79.3537   3.5611439367e+01   3.9787728762e+01    0.6951087     0.336116  51.29  0.002241807    2.052    0.513
        99 -11.7317    158.4532     83.4999   3.1473314715e+01   3.3684347853e+01    0.3613988    0.2695545  60.84 0.0008125892    1.379    0.275
       100 -11.6980     27.1496     75.2745   7.1155629699e+01   5.8794367913e+01    0.5332279     0.269387 -72.12  0.002294745    2.771    0.639
       101 -13.5147    199.2253     70.0524   2.0257049738e+01   2.6288661248e+01    0.6937145    0.4460406  46.06  0.002348649    1.753    0.430
       102 -10.4759    117.5401     71.5237   3.8045165731e+01   4.5351753813e+01     0.148088    0.1423325  20.87 0.0001191755    1.018    0.018
       103 -11.8948    158.6040     64.8075   2.6113595366e+01   3.6872521451e+01     0.591549    0.2401347 -44.98  0.002149758    2.627    0.619
       104 -11.1249     99.5525     64.8659   4.1175141491e+01   5.0354033533e+01    0.3507795    0.2572438  82.56  0.001546716    2.392    0.582
       105 -12.8807     78.7646     59.6858   4.6294382571e+01   5.5222622807e+01    0.6841391    0.4658239 -47.40  0.003461711    1.640    0.390
       106 -12.0573     36.3073     54.5512   6.1308300874e+01   6.2208991167e+01    0.5513919    0.2140503 -38.36  0.002385305    2.354    0.575
       107 -11.1388     34.4721     60.5490   6.4014070204e+01   6.1219962922e+01    0.4172985    0.1750688 -42.80  0.001911426    2.012    0.503
       108 -11.9309     38.7193     59.7592   6.1967535372e+01   6.0934277571e+01    0.3213303    0.2593092 -83.97  0.001801842    1.986    0.496
       109 -12.5816    134.4652     66.4620   3.2015169888e+01   4.2382570784e+01    0.6811581    0.4566581  29.64  0.002034133    1.760    0.432
       110 -13.4063    177.6158     57.0638   2.0404765660e+01   3.3452161199e+01    0.8673598    0.5792333 -53.04  0.002951465    1.558    0.358
       111 -11.7224     24.8595     58.6691   6.7583970919e+01   6.2486707589e+01    0.4864619    0.2091153 -44.49  0.002359304    1.867    0.465
       112 -11.1347    111.2219     58.5846   3.5595498488e+01   4.8967874838e+01    0.2831506    0.2141917  15.97 0.0007552305    1.493    0.330
       113 -14.3838    119.7517     54.8027   3.2007220488e+01   4.7671982942e+01     0.991089    0.6230017  47.65  0.002096805    1.487    0.327
       114 -13.6460     73.8380     73.9174   5.2799359882e+01   5.3344691644e+01     1.336135    0.7008519  12.64  0.004659204    3.546    0.718
       115 -11.5727     17.5315     55.3862   6.9856315629e+01   6.3724692465e+01      0.29812    0.1918724 -53.44  0.001772042    1.396    0.284
       116 -12.1053    136.0226     50.6773   2.6698198066e+01   4.4498824651e+01    0.5094752    0.4152176 -27.09  0.002148321    1.324    0.245
       117 -13.5054    103.3416     50.3488   3.5037188059e+01   5.1971242453e+01    0.9486875    0.5922192 -53.51  0.001269749    2.212    0.548
       118 -13.1529     97.9839     49.9808   3.6509563742e+01   5.3150677854e+01    0.7093349    0.4090993 -40.26  0.002472417    1.863    0.463
       119 -13.1618     98.0750    239.4022   7.8031739536e+01   1.1205832539e+01    0.7736094    0.4467135  38.58  0.004117974    1.507    0.336
       120 -11.0914     84.9164     49.4556   4.0506959364e+01   5.5825502580e+01    0.3029836     0.188309 -28.79  0.001491293    1.647    0.393
       121 -10.5511     23.5268     49.9387   6.5485366128e+01   6.4321964277e+01    0.1768429    0.1028914 -46.77 0.0004168151    1.466    0.318
       122 -13.7623     91.2681    231.5102   7.8583172194e+01   1.3782451252e+01    0.7067353    0.5734161 -80.05  0.004381879    1.306    0.234
       123 -13.3721      5.9673     42.9195   7.1543217547e+01   6.6925025919e+01    0.8152915    0.4411813  15.66  0.004825118    2.001    0.500
       124 -11.7410     27.8091    235.4811   9.1881051770e+01   2.1159989454e+01    0.2169797    0.1671734 -81.33  0.001094383    1.285    0.222
       125 -11.9001    147.3127    238.9958   6.7540574579e+01   3.5994779558e+00    0.1776695     0.166868  28.47 0.0008115977    1.105    0.095
       126 -12.1130     16.2925    235.5172   9.4045167794e+01   2.2369451933e+01    0.7423071     0.210846  56.38  0.003230981    3.145    0.682
       127 -11.4942    151.6746     46.7121   2.2183520745e+01   4.1281222554e+01    0.3594709    0.1913017  58.26 0.0009985042    1.730    0.422
       128 -12.6704    158.3659     43.0880   1.9858264414e+01   4.0139609623e+01    0.6197655    0.4168474  44.14  0.003093973    1.541    0.351
       129 -10.8482     38.8651     46.1119   5.7259882122e+01   6.3492235239e+01    0.1808162    0.1635914 -20.09 0.0007295086    1.219    0.180
       130 -10.5017     30.4179     45.7017   6.0910883321e+01   6.4477524938e+01    0.1793156     0.095497 -37.35 0.0009454517    1.597    0.374
       131 -12.6976     23.4611    216.2629   9.1435863491e+01   2.5647573564e+01     1.053376    0.2915424  45.86  0.004597602    2.878    0.652
       132 -13.3134     26.3055    226.3599   9.1566504558e+01   2.3201137104e+01     0.780782    0.3916493 -55.51  0.004168216    2.429    0.588
       133 -13.7402     20.7325    223.9325   9.2497156902e+01   2.4295764145e+01    0.6099042    0.5436941  50.41  0.003149628    1.324    0.245
       134 -13.0016    212.2351     43.0175   1.1916517601e+01   2.7273740803e+01    0.6136888    0.2857808  67.96  0.002806742    2.103    0.524
       135 -13.4266    219.3202     41.5123   1.0753151812e+01   2.5882303771e+01     0.596049    0.3763369  84.13  0.001933123    1.603    0.376
       136 -11.0221     25.7045     43.9247   6.2464103623e+01   6.5257347906e+01    0.2135816    0.1661824 -55.32  0.001176569    1.547    0.354
       137 -12.4712     57.4930    201.9884   8.2799189136e+01   2.4908775150e+01    0.8826907    0.3341642 -72.91  0.003526235    2.807    0.644
       138 -11.6317    134.6338     39.5185   2.3447303044e+01   4.6370477207e+01     0.443267    0.2645892  65.83  0.001444445    1.715    0.417
       139 -11.9623    110.0310     42.0120   3.0222250851e+01   5.1730998499e+01    0.3966032    0.1907948  55.20 0.0007716846    2.043    0.510
       140 -12.9342    113.7959     37.6639   2.7711132364e+01   5.1470063849e+01      0.39645    0.3814898   1.28  0.001381078    1.110    0.099
       141 -13.2306     65.8594    223.2511   8.3157999540e+01   1.9092741061e+01    0.8445483    0.5399181  39.08  0.004748664    1.470    0.320
       142 -12.8005    131.3661     33.4351   2.2178451708e+01   4.7914449352e+01    0.5011716    0.4112757   6.87  0.001487298    1.404    0.288
       143 -14.2184     62.9462    214.0522   8.2852481408e+01   2.1478644806e+01      1.02905    0.5599508  44.96   0.00529159    1.643    0.391
       144 -12.1489     40.5616     40.3993   5.4372160866e+01   6.4284943475e+01    0.4591307    0.2746244  24.06  0.002305628    1.652    0.394
       145 -12.5025     33.0035     40.0271   5.7659120755e+01   6.5219389527e+01    0.3873174    0.2491608  -1.77 0.0008784138    1.568    0.362
       146 -11.7805     30.5365     25.4871   5.2978701041e+01   6.7859219704e+01    0.3311668     0.199021  16.16  0.001725526    1.584    0.369
       147 -12.4069     35.3548     23.3895   4.9753826526e+01   6.7595602693e+01    0.2826734    0.2011683   0.64 0.0008281163    1.207    0.171
       148 -12.4937     76.0319     37.0055   3.8830985701e+01   5.9358514074e+01    0.4276007    0.2549226  33.40  0.001247397    1.571    0.363
       149 -11.8244     70.8465     36.1200   4.0335704785e+01   6.0415867381e+01    0.3200378    0.2561046 -32.02  0.001047923    1.349    0.259
       150 -11.8993    105.0748     35.8117   2.9352165173e+01   5.3650051878e+01    0.4628967    0.2092322 -24.02  0.001902126    2.635    0.620
       151 -12.4003    241.9214     35.9712   7.2717392956e+00   2.1760631775e+01    0.4516226    0.2499939  76.76  0.001923688    1.812    0.448
       152 -11.1605    249.5103    216.0122   4.3394533723e+01  -8.2599340503e+00     0.154141    0.1028648 -52.46  0.000810207    2.519    0.603
       153 -10.8386      5.6773    219.1816   9.5122089344e+01   2.6761638414e+01    0.1850622    0.1112268  78.90 0.0008198014    1.347    0.258
       154 -12.5534    140.7601     21.6348   1.6571795740e+01   4.6993249858e+01     0.901951    0.3201633  64.66     0.002291    2.573    0.611
       155 -13.5010    216.6344     28.1850   8.0368153932e+00   2.8186050113e+01    0.4492547    0.2631834 -51.64  0.002021021    1.565    0.361
       156 -11.4321    156.6645    213.8793   6.1602329643e+01   6.6912952069e+00    0.2737454     0.120946 -40.76  0.001099216    2.570    0.611
       157 -13.0255     72.5030    207.8658   8.0016745763e+01   2.1559636868e+01    0.5951874    0.3020092 -71.31  0.002762431    2.064    0.515
       158 -10.5282    136.6176    210.8176   6.5610132071e+01   1.0751027220e+01    0.1877023    0.1366586 -67.79 0.0008701739    1.686    0.407
       159 -13.2431     57.9714     26.7523   4.1373233676e+01   6.3886716182e+01     1.006567    0.3248621  39.11  0.003665088    2.888    0.654
       160 -10.2134     87.7446     27.9723   3.1410320337e+01   5.8284519054e+01    0.1486231    0.1104367 -19.01 0.0004814257    1.404    0.288
       161 -10.9600     97.6550     26.0995   2.7792843813e+01   5.6440114004e+01    0.3047244    0.2014889 -51.35  0.001538093    2.119    0.528
       162 -12.3006     94.1474    218.1476   7.6349805789e+01   1.6133764163e+01    0.2951923    0.2015687  44.79  0.001243314    1.308    0.236
       163 -12.9754     17.1190    195.6634   9.1258799484e+01   3.0847523107e+01     1.035856    0.1480228 -60.89  0.003374123    5.019    0.801
       164 -10.7478     51.2071     20.4083   4.1351907193e+01   6.5784481203e+01    0.2786202    0.1425855  43.59  0.001433265    2.058    0.514
       165 -11.5962     46.1498     20.3551   4.3485152624e+01   6.6551555564e+01    0.3524992    0.1975754  14.15  0.001195163    1.957    0.489
       166 -12.8640     41.8355    200.8392   8.6241056627e+01   2.7077612080e+01    0.2913978    0.1956169 -77.46  0.001334083    1.357    0.263
       167 -12.7241     40.2684    194.7751   8.6011399332e+01   2.8658096622e+01    0.4702616    0.2969876 -82.91  0.002139911    1.452    0.311
       168 -12.1287     36.7595    194.0177   8.6741972570e+01   2.9225622796e+01    0.3444247    0.1980778 -70.55  0.001845377    1.570    0.363
       169 -13.4564     30.0156    169.2082   8.5845793227e+01   3.5852012099e+01    0.8714162    0.7251706 -25.16  0.004692698    1.586    0.369
       170 -13.2417     22.1065    180.9015   8.8914443380e+01   3.3804973866e+01    0.7127749    0.3441242 -65.65  0.003289009    1.799    0.444
       171  -9.7108     55.3295     11.3062   3.5517564624e+01   6.6190561860e+01     0.129491   0.07752459  16.70  0.000703777    1.657    0.396
       172 -14.9814      8.3293    183.2523   9.2256205484e+01   3.4476333523e+01     1.356608     1.028565 -55.84  0.008889209    1.476    0.323
       173 -15.2290     10.5274    175.3516   9.1137492741e+01   3.6138027002e+01      1.65846     1.161227  88.11   0.01035227    1.187    0.157
       174 -11.3393    200.7812    191.4170   4.7965774011e+01   3.2374605198e+00    0.2708032    0.2484064  20.75  0.001126596    1.136    0.120
       175 -11.7687     48.6827    181.3045   8.2564657915e+01   3.0882262920e+01    0.4063988    0.2413473 -54.07  0.002052616    1.727    0.421
       176 -11.2640    121.7045    180.7186   6.4029525989e+01   1.9958024533e+01    0.4844127    0.2907739  83.03  0.001626319    3.612    0.723
       177 -11.3346    199.1951    181.4195   4.6287537267e+01   5.3754366198e+00    0.1976032     0.134216  48.36 0.0009508863    1.687    0.407
