#   1 NUMBER                 Running object number                                     
#   2 MAG_AUTO               Kron-like elliptical aperture magnitude                    [mag]
#   3 X_IMAGE                Object position along x                                    [pixel]
#   4 Y_IMAGE                Object position along y                                    [pixel]
#   5 X_WORLD                Barycenter position along world x axis                     [deg]
#   6 Y_WORLD                Barycenter position along world y axis                     [deg]
#   7 A_WORLD                Profile RMS along major axis (world units)                 [deg]
#   8 B_WORLD                Profile RMS along minor axis (world units)                 [deg]
#   9 THETA_WORLD            Position angle (CCW/world-x)                               [deg]
#  10 FWHM_WORLD             FWHM assuming a gaussian core                              [deg]
#  11 ELONGATION             A_IMAGE/B_IMAGE                                           
#  12 ELLIPTICITY            1 - B_IMAGE/A_IMAGE                                       
         1 -10.2070     10.0292     19.1580   1.0398195085e+02   6.9098405499e+01     1.067357    0.3337609 -28.57  0.003516151    6.780    0.853
         2 -10.0469      4.7119     41.8734   1.1266852013e+02   6.5121739236e+01     1.107123    0.3478742 -69.42  0.004567212    3.657    0.727
         3  -9.5697     27.1961     23.1099   9.8047409003e+01   6.7113284161e+01    0.6452081    0.2463325 -28.64  0.002621103    3.813    0.738
         4 -10.7033     23.2024     34.2511   1.0347149737e+02   6.5413556563e+01    0.6207761    0.3910467 -28.04  0.003022845    1.538    0.350
         5 -10.7854    134.1054     30.8841   6.6178758686e+01   4.8226498266e+01    0.4165365    0.2881767  -6.10  0.001986295    1.638    0.389
         6  -9.0139     78.2547      4.0876   7.0238483841e+01   6.3137975516e+01     0.481482    0.2456639 -11.21  0.001396083    2.189    0.543
         7 -10.2019     73.5452     17.6850   7.7961211356e+01   6.2202871941e+01     1.230265    0.2893527 -31.99  0.003613019    4.291    0.767
         8  -8.3681     72.0161      8.6634   7.4428016539e+01   6.3657240552e+01    0.1948928    0.1451958   1.90 0.0004488975    1.218    0.179
         9 -10.1144     69.5541     40.8095   8.8568756988e+01   5.9103285146e+01    0.9543737    0.3253256 -42.21  0.002522886    2.554    0.609
        10 -10.1381     76.3018     32.0343   8.2971579632e+01   5.9579034612e+01    0.6223559    0.4303466  61.19  0.001147296    2.318    0.569
        11  -9.7979     79.3499     23.9969   7.8705044890e+01   6.0333252153e+01    0.5912119    0.3036191  21.37  0.001849321    2.919    0.657
        12  -9.0761    110.2307     33.0012   7.3013863546e+01   5.3210018323e+01    0.5114118    0.2183996 -41.65 0.0009795856    2.483    0.597
        13  -8.3850     68.0068      9.4618   7.6181644084e+01   6.4204445140e+01    0.1946869    0.1439397 -19.07 0.0006918214    1.166    0.142
        14  -9.7906     63.8711      2.8995   7.4533564448e+01   6.5676836935e+01    0.5683028    0.3381372 -24.40  0.003290228    1.480    0.324
        15  -9.8967     63.2566     21.2563   8.3118927934e+01   6.3254554076e+01     1.200729    0.3996601 -48.31  0.003825566    5.313    0.812
        16  -9.8317     64.5800     13.3388   7.9173465932e+01   6.4214547107e+01    0.4074758    0.3195206 -41.06 0.0002345522    1.489    0.329
        17 -10.0747     50.5569     15.4071   8.5376292579e+01   6.5870871393e+01      0.94919    0.4953047  -7.36  0.004115616    3.283    0.695
        18 -10.1810     46.2538     29.4845   9.2806185362e+01   6.4094481193e+01    0.5534378    0.3127851 -58.92  0.002299202    2.481    0.597
        19  -8.9110    128.6397     24.8276   6.5196540271e+01   5.0305162813e+01    0.5573499    0.3397127  -6.09  0.002035397    1.991    0.498
        20  -9.5958    119.1617     20.2273   6.5701810484e+01   5.3037075041e+01    0.7955624    0.3508976 -21.37  0.002802798    2.455    0.593
        21  -8.7188    125.0592     13.0560   6.1476648299e+01   5.2544761547e+01    0.3207336    0.2053515  48.05 0.0007782462    1.451    0.311
        22  -8.7762    132.6404     10.2755   5.8740229453e+01   5.1066218558e+01    0.4352749    0.2372929 -40.57  0.001955763    2.069    0.517
        23  -9.3787    133.8225      3.7225   5.5978343153e+01   5.1434262550e+01    0.6446747     0.290874  31.83  0.002508912    2.662    0.624
        24  -9.0052    132.6868     17.3309   6.1429112284e+01   5.0276413992e+01    0.4151628    0.2724347  -7.90  0.001591427    1.672    0.402
        25  -9.3644    102.7077     21.8911   7.0706931213e+01   5.6313131100e+01    0.4890753    0.2303014 -22.89  0.001531954    2.220    0.549
        26  -8.9404    112.3426     15.5300   6.5528166921e+01   5.5102863700e+01    0.3341801    0.2120545 -36.22  0.001236653    1.660    0.398
        27  -9.4706    114.2644      9.9619   6.2768981665e+01   5.5317135513e+01    0.3691798    0.2054707  32.81 0.0005796262    1.850    0.459
        28  -9.1288    115.2545      4.2553   6.0177404546e+01   5.5688714819e+01    0.2794093    0.2078309 -39.07 0.0007242194    1.539    0.350
        29 -10.6903     37.1574      9.7971   8.8336960622e+01   6.8311893005e+01    0.8095036    0.5372614 -33.29  0.002678012    1.225    0.183
        30  -9.4033     18.8813      9.3767   9.6247007588e+01   7.0127189138e+01    0.3490845    0.2558621  10.76  0.001725595    1.515    0.340
        31 -10.1410     18.2684      3.9891   9.4175087288e+01   7.1031658159e+01    0.8741512    0.6725948  79.93   0.00492281    3.902    0.744
        32  -9.4782      2.3156     14.4849   1.0581954895e+02   7.0377599177e+01    0.4463813    0.2023233 -66.27  0.001881879    2.903    0.656
        33 -10.4301      5.1808      4.5437   1.0071639597e+02   7.1902943371e+01    0.4448226    0.3422291 -23.52  0.002243925    1.163    0.140
        34  -8.7595     96.9834     12.2951   6.8296267402e+01   5.8670390096e+01    0.3640362    0.2145482  10.41  0.001703206    2.096    0.523
        35  -8.6469     97.4618      5.7984   6.5333937572e+01   5.9310949448e+01    0.3079573    0.2261292  -2.56  0.001021524    1.290    0.225
        36  -8.0117     95.7150      2.6853   6.4431263402e+01   5.9988704367e+01    0.2580513    0.1779564   1.20 0.0006048931    1.415    0.293
        37  -8.7014    104.9614     14.4086   6.6994157311e+01   5.6799641247e+01    0.2794486    0.1529171   7.62  0.001095392    2.627    0.619
        38  -9.2010    139.7600     11.2802   5.7665982763e+01   4.9243198250e+01    0.4947129     0.311636 -81.77  0.002092504    2.580    0.612
        39  -7.7254     80.6538     12.5096   7.3321827965e+01   6.1698104529e+01    0.2648368    0.1329141 -39.84  0.001260301    2.166    0.538
        40  -9.5228     85.2619     13.0552   7.2107680120e+01   6.0805326591e+01    0.3883179    0.2452273 -50.91  0.001269808    2.370    0.578
        41  -8.8508    126.8377      9.3333   5.9615583152e+01   5.2532752689e+01    0.2738787    0.1944299  49.29 0.0004630654    1.307    0.235
        42  -8.7511    125.7424      5.3372   5.8273379189e+01   5.3191990414e+01    0.4328593    0.2265606   5.79  0.001484977    2.575    0.612
        43  -8.7915    102.0587      8.1406   6.5111621934e+01   5.8119159038e+01    0.2817701    0.1864234 -39.11 0.0007389827    1.718    0.418
        44  -8.6690    143.0374      5.3372   5.4823980162e+01   4.9034697460e+01    0.4176421    0.1494238 -32.71  0.001144129    2.777    0.640
        45  -7.4806     84.2826      7.3643   6.9862071137e+01   6.1675180100e+01    0.1361977   0.08662156  10.06 0.0007016999    1.684    0.406
        46  -9.4905    110.5217      5.9102   6.1998487964e+01   5.6563271470e+01     0.488045    0.2668182  -1.73  0.002199752    2.194    0.544
        47  -8.8045     88.9572      3.6686   6.6780826254e+01   6.1211661899e+01    0.3773191      0.21026 -25.62  0.001557809    1.705    0.413
        48  -8.5219    152.0071      3.0048   5.2389604452e+01   4.7010022511e+01    0.3883101    0.1109059 -42.30  0.001161079    4.561    0.781
        49  -8.2514    104.2810      2.1168   6.1930931996e+01   5.8280635096e+01    0.2797878    0.1805994  31.88  0.001117222    1.452    0.311
        50 -10.0024    128.3082    100.7456   8.9781602226e+01   3.6933415577e+01    0.8251148    0.4407794 -32.91  0.002085425    2.337    0.572
        51 -10.8737    187.6436    248.2488   1.0440891063e+02   2.0236082657e-01    0.4934689    0.2858883  33.75  0.003096547    1.552    0.356
        52  -9.7777    208.3600    249.7327   1.0128359374e+02  -3.2675767843e+00    0.2916165    0.1246993  43.08  0.001630624    1.740    0.425
        53 -10.6890    197.6262    247.1173   1.0265727518e+02  -1.2735497113e+00    0.6495062    0.2851074  36.47  0.003518303    1.947    0.486
        54 -10.5671    124.0084     89.9489   8.7987137731e+01   4.0040702849e+01     1.207861    0.5495852 -35.85  0.003004669    2.515    0.602
        55 -11.1945    121.0431    109.7355   9.3825336252e+01   3.6467791769e+01     1.289811    0.6443295 -54.13    0.0031491    2.041    0.510
        56 -10.1164    108.6360    114.5120   9.8019117263e+01   3.7724210283e+01    0.7263838    0.3745739 -65.01  0.002188909    2.421    0.587
        57 -10.7017    108.5304     99.7781   9.4581552183e+01   4.0931676018e+01     1.035494     0.698039 -80.68  0.003257088    2.149    0.535
        58  -8.1840    238.8669    126.1422   7.3254019483e+01   7.4848192922e+00    0.1962612    0.1566597  13.70 0.0003960533    1.292    0.226
        59  -7.2453    177.9710    125.9935   8.4725645692e+01   2.1095937648e+01    0.1785046    0.1632029  46.01 0.0009499074    1.066    0.062
        60  -9.8131     27.5343    123.1966   1.1963129687e+02   4.6376518971e+01    0.5227573     0.252374  72.71  0.002268506    2.655    0.623
        61  -8.1886    129.6978    123.8835   9.4995806272e+01   3.1785313860e+01     0.250646    0.1987996  37.04 0.0007595793    1.366    0.268
        62  -8.0675    158.3768    122.1982   8.8041314434e+01   2.6175672440e+01      0.33367    0.1763377  68.16  0.001079331    3.505    0.715
        63  -8.2566    152.2105    121.5975   8.9277272735e+01   2.7630303651e+01    0.2105926    0.1389176  37.56 0.0009420448    1.633    0.388
        64  -8.3060      1.5152    116.5586   1.2495519822e+02   4.9752892287e+01    0.3020921    0.1024586 -82.31  0.001359312    2.630    0.620
        65 -10.1491     91.8673    113.1071   1.0195488784e+02   4.0834790967e+01    0.5451647    0.3923076 -78.09  0.001662893    1.514    0.339
        66  -8.9211     93.0987    103.5895   9.9550224046e+01   4.2733951305e+01    0.6593216    0.4051445  17.96  0.002812151    2.824    0.646
        67  -9.0291    153.0173    115.7268   8.7682126371e+01   2.8637744853e+01    0.2844196    0.1858718 -56.14 0.0009151192    1.691    0.409
        68 -10.2209     78.2940    113.0998   1.0543612523e+02   4.2863250996e+01    0.5340392    0.3167047 -86.76  0.001713283    2.432    0.589
        69  -9.4454     41.5299    122.1139   1.1615942727e+02   4.5292986420e+01    0.4853725    0.2057464 -80.40    0.0019278    2.735    0.634
        70  -8.4091    166.8842    114.1102   8.4194607548e+01   2.5870554721e+01    0.2097179    0.1831293   6.05 0.0004021663    1.312    0.238
        71  -8.8356     64.1623    101.8024   1.0693276042e+02   4.7250269248e+01    0.2000826    0.1669053 -41.91 0.0009585341    1.287    0.223
        72 -10.4679     62.8654     95.7037   1.0604221583e+02   4.8759126418e+01    0.7905265    0.4382394  89.80  0.003015564    3.488    0.713
        73  -8.8211     65.0064     86.0495   1.0329962249e+02   5.0607276671e+01    0.6064216    0.3348793 -21.09   0.00226898    4.180    0.761
        74 -10.1390     65.7151    110.5395   1.0820343593e+02   4.5115427777e+01    0.7011201    0.4161362 -71.42  0.001929682    1.631    0.387
        75  -9.4018     59.2715    109.3823   1.0967185852e+02   4.6162512590e+01    0.3357021    0.1915725 -70.96 0.0008483673    1.645    0.392
        76  -9.6275     14.1463    111.4687   1.2143124184e+02   4.9974640497e+01    0.3919474    0.1855418  84.85   0.00190422    2.406    0.584
        77  -8.7230    158.8539    112.0382   8.5449931307e+01   2.8085322777e+01    0.2315999    0.2025916 -79.62 0.0005369822    1.280    0.219
        78  -9.3671     35.0569    111.0084   1.1617661396e+02   4.8354100219e+01    0.3773389    0.1881257 -74.92  0.002002219    1.769    0.435
        79  -8.7215     31.5138    109.5120   1.1685836071e+02   4.9002429364e+01    0.3462728    0.1634311 -76.60  0.001779372    1.936    0.484
        80  -8.6715    149.9800    110.0268   8.6960747031e+01   3.0449211666e+01    0.2289798    0.2264153 -37.38 0.0005361977    1.033    0.032
        81  -9.7121    149.4270    103.4454   8.5398703023e+01   3.1895855063e+01    0.4616845    0.3252372 -41.98 0.0009217667    1.410    0.291
        82 -10.8664     44.6984    102.3343   1.1228440682e+02   4.9329197304e+01    0.7656054    0.3968384  76.20  0.002990034    3.419    0.707
        83  -8.5218     40.2765    107.0007   1.1422579858e+02   4.8739810613e+01    0.1738444    0.1250822 -72.78 0.0003886756    1.136    0.120
        84 -10.8725     20.8074    100.8008   1.1838012280e+02   5.1779890764e+01     1.025985    0.4559452  87.99  0.003618183    3.289    0.696
        85  -9.9107     20.3341     83.7749   1.1589525175e+02   5.5490965572e+01    0.8035834    0.2013957 -65.78  0.003298603    2.978    0.664
        86 -10.4698     25.6701     77.9890   1.1329229619e+02   5.6333321855e+01    0.6334037    0.3611399  82.56  0.001917223    2.604    0.616
        87  -9.9605     34.5109     90.6389   1.1303486084e+02   5.2865236215e+01    0.5845339    0.2487808 -78.94  0.001941146    3.241    0.691
        88  -9.9014    139.4293    104.7752   8.8104912812e+01   3.3791533828e+01    0.5596269    0.2955395 -55.42 0.0007353676    2.180    0.541
        89  -9.5869    140.8764     99.2931   8.6326398674e+01   3.4602124854e+01    0.4796502    0.3128314  31.69  0.001673619    1.859    0.462
        90  -8.3043     77.9733    105.9439   1.0407379030e+02   4.4496344625e+01    0.2928852    0.1886997 -33.26  0.001439639    2.047    0.512
        91  -9.5507     81.5796    100.2582   1.0188137744e+02   4.5234036215e+01    0.6732767    0.2755233 -53.98  0.001075454    2.154    0.536
        92  -9.4997      6.5930    103.7645   1.2239268571e+02   5.2135206215e+01    0.3822904    0.1949776  70.59  0.001401693    2.314    0.568
        93  -8.3943     14.1876    105.1014   1.2065003635e+02   5.1338203064e+01    0.1703556    0.1160932 -59.70 0.0005650433    1.290    0.225
        94  -9.2094    165.0309    103.3613   8.1837484651e+01   2.8378118393e+01    0.3555052    0.2704457  73.49  0.001064415    1.597    0.374
        95 -10.0114     37.2918     80.7849   1.1035089686e+02   5.4754478979e+01    0.5705272    0.3166521 -22.61  0.002535231    3.067    0.674
        96  -8.3257     73.8675    102.6169   1.0447600673e+02   4.5803635282e+01    0.2610539    0.1601344 -73.96 0.0007383791    1.814    0.449
        97  -8.9681    159.0060    101.2068   8.2610936816e+01   3.0183511851e+01    0.3015292    0.2117172 -48.25 0.0004129918    1.453    0.312
        98  -9.4474     94.2513     97.2264   9.7747979899e+01   4.3937027055e+01    0.3252086    0.2275403 -64.02  0.000624072    1.445    0.308
        99  -8.7652     96.1441     90.9477   9.5671622348e+01   4.4980626848e+01    0.5050517    0.3228823 -13.79   0.00203209    3.017    0.669
       100  -9.7072    220.5843     96.6419   6.9099404074e+01   1.6301707761e+01    0.2674542    0.2542436  14.59 0.0003380773    1.046    0.044
       101  -8.5413    164.5916     94.3450   7.9501929455e+01   3.0210488508e+01    0.3070681    0.2387525 -75.89 0.0006887444    1.649    0.393
       102 -10.2261      4.3320     89.6918   1.2124560930e+02   5.5263686287e+01    0.6650774    0.3018114  88.56  0.001947482    2.583    0.613
       103  -9.5264      6.2004     78.8273   1.1919300363e+02   5.7456444776e+01    0.5382611    0.2320451 -38.56  0.002829469    2.799    0.643
       104  -9.7475    138.8285     92.0157   8.4849218667e+01   3.6514958795e+01    0.6406628    0.3214215 -43.01  0.001726256    1.944    0.486
       105  -9.4729    140.4426     82.1246   8.1639066746e+01   3.8114489044e+01    0.6662338     0.394143 -37.06  0.001752551    1.682    0.405
       106  -9.3864    140.0201     74.9446   7.9600026471e+01   3.9583207425e+01    0.6730404    0.2702642 -31.90  0.001311666    2.961    0.662
       107  -7.6781    225.2792     92.9709   6.7344467056e+01   1.5779099995e+01    0.2073599     0.183136 -25.21 0.0003152962    1.093    0.085
       108  -9.1430    157.9211     90.5835   7.9950775798e+01   3.2492390156e+01    0.4668614      0.21195 -33.31  0.001559279    2.433    0.589
       109  -8.2017    106.9941     91.5232   9.2877722740e+01   4.2970780891e+01    0.2836121    0.2276508  26.62  0.001404706    1.454    0.312
       110  -9.2597    112.2807     89.1930   9.0844560769e+01   4.2485921490e+01    0.4750119    0.3489256  23.92  0.002329322    1.703    0.413
       111  -9.4501    150.3781     89.4674   8.1375760315e+01   3.4447954781e+01    0.4364395    0.2589442 -30.42  0.001541668    1.878    0.467
       112 -10.2060     47.8262     84.3995   1.0797127029e+02   5.2943455510e+01    0.5680884     0.330725 -71.87  0.001595345    1.740    0.425
       113  -8.9213     49.7239     77.0382   1.0577096071e+02   5.4333175063e+01    0.4924549    0.3421235 -21.45  0.002822117    1.876    0.467
       114  -8.9050     87.4126     58.3813   8.8815637617e+01   5.3094673811e+01    0.4034954    0.2193599 -43.81  0.001461983    1.660    0.397
       115  -9.9514     62.7019     60.8943   9.7432319337e+01   5.6195124886e+01     0.566739    0.2690297  32.85   0.00239805    2.490    0.598
       116 -10.5355     55.3360     71.0215   1.0256606648e+02   5.4991694577e+01    0.5749515    0.3703042  63.66  0.001434764    2.402    0.584
       117  -9.2778     55.3886     63.2006   1.0047265131e+02   5.6613509557e+01    0.3967141    0.2499838 -13.81  0.001543985    2.371    0.578
       118  -9.9715     73.4775     57.2814   9.2841903953e+01   5.5454744801e+01     1.090007    0.3355742 -40.82  0.002489505    3.150    0.683
       119 -10.1856     85.2955     86.6165   9.7594497792e+01   4.7648632864e+01    0.4396535    0.3232179  85.38 0.0008687699    1.881    0.468
       120  -9.6246     87.4887     78.8158   9.4900677265e+01   4.8963400967e+01    0.5697991    0.3858284   9.20  0.001842894    2.300    0.565
       121 -10.3818     85.1854     48.1107   8.6046085602e+01   5.5377525641e+01    0.5382727    0.3975233 -82.42 0.0009463149    2.469    0.595
       122  -9.1856     80.0600     46.2521   8.7028350677e+01   5.6540388438e+01    0.3289708    0.2033774 -32.66 0.0002807641    1.499    0.333
       123  -9.8063     81.6349     72.4765   9.4858600940e+01   5.1189860712e+01    0.4415531    0.2929418 -75.13  0.001001984    2.247    0.555
       124  -9.2969     83.2721     64.8320   9.2113382220e+01   5.2492820507e+01    0.5563557    0.3168365 -21.98  0.002300878    2.734    0.634
       125  -8.1775    163.4905     87.0559   7.7702841732e+01   3.1847482577e+01    0.2283454    0.1519235 -37.11 0.0003777526    1.495    0.331
       126  -7.9177     80.5060     85.5123   9.8682102114e+01   4.8605701799e+01    0.2815836    0.1201802 -52.34 0.0008134975    2.071    0.517
       127 -10.4302     31.7231     64.9394   1.0866455043e+02   5.8611120791e+01    0.9230968    0.3458973 -41.41  0.003352702    2.743    0.635
       128 -10.3829    104.0288     82.6597   9.1282645105e+01   4.5365679751e+01    0.5078996    0.3198021 -59.53   0.00078683    1.760    0.432
       129  -9.7926    104.8808     72.0448   8.7962144588e+01   4.7373227821e+01    0.8261307    0.3225005 -36.16  0.002889471    2.914    0.657
       130  -9.3573    109.6739     63.7803   8.4039419314e+01   4.8076459368e+01    0.3671863    0.2576032 -53.85 0.0007363221    1.555    0.357
       131  -9.0859    110.8894     58.1124   8.1843264025e+01   4.8894837994e+01    0.4058569    0.3072273   3.71   0.00116025    1.618    0.382
       132  -7.8271    170.5876     83.8140   7.5228061047e+01   3.0735845499e+01    0.2230891     0.141403 -47.56 0.0009373172    1.657    0.397
       133  -8.9264    157.8503     83.6536   7.7989096716e+01   3.3823527888e+01    0.3660488    0.2136914 -44.02 0.0006425183    1.718    0.418
       134  -8.7717    157.1151     76.9772   7.6189948601e+01   3.5236304436e+01    0.5015064    0.2341348 -49.90  0.001326022    2.551    0.608
       135  -8.6496    156.9000     71.0223   7.4436315793e+01   3.6364565019e+01    0.4417869    0.1962878 -43.44  0.001596219    2.295    0.564
       136  -8.0493     63.2293     81.9599   1.0285715703e+02   5.1715345775e+01    0.2010988    0.1361617 -82.79 0.0006652039    1.933    0.483
       137  -8.4364    150.0984     80.9059   7.8972404986e+01   3.6154976009e+01    0.3020575    0.2163983 -51.10  0.000686335    1.475    0.322
       138  -7.9143    150.3617     77.3134   7.7843664338e+01   3.6768090471e+01    0.2173813     0.158117 -19.26 0.0006603462    1.589    0.371
       139  -8.8358    119.0579     80.5095   8.6604820169e+01   4.2955041208e+01    0.3485713     0.231205 -56.16 0.0006915228    1.642    0.391
       140  -8.0158    119.8520     76.1608   8.5110577474e+01   4.3662629174e+01    0.2280036    0.2116962 -11.91 0.0005322027    1.106    0.096
       141  -9.3301     74.2023     79.3049   9.8934036228e+01   5.0837743529e+01    0.5934675    0.2138675 -53.27  0.001938232    2.456    0.593
       142  -8.3579    247.4417     79.8805   6.0522454338e+01   1.2600624229e+01    0.2321507    0.1908003  26.13 0.0004073496    1.347    0.258
       143  -7.9914     68.6612     79.0887   1.0053002747e+02   5.1636092357e+01    0.3215109    0.1088076 -54.16  0.001248697    2.568    0.611
       144  -7.6067    174.2114     78.9026   7.3038322935e+01   3.0729136677e+01    0.2061165    0.1234141 -37.27  0.000662597    1.649    0.394
       145  -9.0667    165.5218     76.9661   7.4321218993e+01   3.3209346849e+01    0.5703847      0.26427 -51.06  0.001477906    2.745    0.636
       146  -8.0935    162.5574     73.0691   7.3802005317e+01   3.4628753350e+01    0.3157552    0.1404528 -41.75 0.0008217095    2.240    0.553
       147  -7.9781    184.2311     78.0560   7.0750791087e+01   2.8382155798e+01    0.2435232    0.2065142  11.11 0.0008787262    1.327    0.246
       148  -8.4029    130.5190     63.8639   7.8499702226e+01   4.3749034408e+01    0.3532963    0.2082121 -24.20  0.001276831    2.002    0.500
       149  -9.4550    127.3210     75.2573   8.2884798679e+01   4.2295480892e+01    0.4308921    0.2558703 -54.57   0.00082907    1.949    0.487
       150  -9.1277    129.2278     69.1449   8.0509993123e+01   4.3054613627e+01     0.598771    0.3681221  17.07  0.002255958    2.795    0.642
       151  -9.1957    115.3042     71.9406   8.5051366913e+01   4.5401726328e+01    0.5591199    0.2546469 -40.63   0.00146264    2.092    0.522
       152  -7.4112    143.3320    250.6596   1.1179635492e+02   6.9474020638e+00    0.1133246   0.06916951  66.47 0.0007051514    1.747    0.428
       153  -9.9102     16.9670     60.1912   1.1247727070e+02   6.0703556640e+01    0.6278032    0.3895532 -48.74  0.003879673    1.301    0.232
       154 -10.7598     22.0100     53.6683   1.0927423873e+02   6.1692598486e+01    0.7243927    0.3805757 -83.30  0.003211782    3.415    0.707
       155  -9.3074    174.3156    249.1204   1.0666117040e+02   2.2398623066e+00    0.2070971    0.1219149  38.95 0.0008670516    1.387    0.279
       156  -9.3418    243.3832    246.3802   9.5296005836e+01  -8.3578505805e+00    0.2068981    0.1549186  43.51 0.0003001481    1.405    0.288
       157 -10.0036     13.0345     45.6340   1.1051105284e+02   6.3906958892e+01    0.6433419    0.3009879 -25.02  0.003131266    2.896    0.655
       158  -9.5292    159.6521    247.1826   1.0880031245e+02   4.8280927181e+00     0.167399    0.1141627  51.19  0.001155331    1.133    0.117
       159  -9.4229      6.8941     32.5122   1.0942931611e+02   6.6819714054e+01    0.2195144    0.1680119 -32.18 0.0007753825    1.241    0.194
       160 -10.0492      7.1983     28.3174   1.0810892184e+02   6.7594582985e+01    0.2790931    0.2402621  79.44   0.00102023    1.673    0.402
       161  -8.1083    169.3139     71.3798   7.1836785808e+01   3.3263169884e+01     0.265212    0.1786164 -53.02  0.000468317    1.681    0.405
       162  -9.2201    147.1330     69.4926   7.6213771487e+01   3.8958595441e+01     0.388246    0.2647157 -61.95 0.0008281993    1.914    0.478
       163  -9.9465     94.8725     68.0726   8.9628968755e+01   4.9945676955e+01    0.5237926    0.2569913 -50.54  0.001058644    2.013    0.503
       164  -9.2183     97.3262     58.3036   8.5804152237e+01   5.1410317481e+01    0.6980664    0.4038753 -11.76  0.002561801    3.394    0.705
       165  -9.4709    137.9414     65.4535   7.7153557333e+01   4.1805472727e+01    0.6984573    0.3132004 -36.78  0.001869891    2.182    0.542
       166  -8.8836    138.9909     56.8994   7.4115643972e+01   4.3067927678e+01    0.3609968    0.2202163 -42.92 0.0004933803    1.663    0.399
       167  -9.7085    141.3304     49.4247   7.1046612119e+01   4.3760202519e+01    0.5821788    0.3549059   1.59  0.001876218    2.694    0.629
       168  -9.1123    121.0529     65.6766   8.1545558282e+01   4.5435741085e+01    0.4007347    0.2461361 -52.97  0.001036162    1.849    0.459
       169  -8.9447    122.0534     60.7784   7.9692121513e+01   4.6130200534e+01    0.2926223    0.2475605 -26.83 0.0005552837    1.143    0.125
       170  -8.1528    170.6337     64.7756   6.9550311906e+01   3.4060140714e+01    0.2222032    0.1383863 -42.62 0.0005075724    1.628    0.386
       171  -7.8490    147.4450     63.7431   7.4329512624e+01   3.9908623221e+01    0.2050296    0.1468141 -20.95 0.0009293656    1.529    0.346
       172  -8.2497    157.7849     63.0680   7.1765042337e+01   3.7537602852e+01    0.2359498     0.200616 -55.17 0.0006635193    1.271    0.213
       173  -8.4022    164.4676     60.3242   6.9454988135e+01   3.6345949922e+01    0.2704319    0.1534739 -28.24 0.0008322783    1.846    0.458
       174  -9.0524    146.8843     56.8427   7.2228169816e+01   4.1224631126e+01    0.7088182      0.25447 -26.20   0.00203534    3.976    0.748
       175  -7.8667     23.2765     69.0180   1.1227073934e+02   5.8420163346e+01    0.1778854     0.123072 -51.61 0.0001913509    1.180    0.153
       176  -9.1455     39.5330     53.4855   1.0311425372e+02   6.0263624051e+01    0.2234851    0.1514185 -46.00 0.0008118619    1.179    0.152
       177  -8.3474     40.2316     49.9619   1.0186406309e+02   6.0898980242e+01    0.2348749   0.09962163 -59.57 0.0007768738    2.351    0.575
       178  -8.5870    130.0050     58.0291   7.6719504545e+01   4.4904209759e+01     0.255331     0.204091 -40.01 0.0005127729    1.234    0.189
       179  -8.0992    130.7890     53.8337   7.5113007492e+01   4.5454497179e+01    0.3369622    0.1858906  36.04  0.001375895    2.079    0.519
       180 -10.1616     50.1718     54.3330   9.9685110300e+01   5.8999225560e+01    0.5883862    0.3155988 -64.00  0.001828597    2.233    0.552
       181  -9.5833     55.9364     43.6740   9.4306901689e+01   6.0392516879e+01    0.7041162    0.3666256 -15.59  0.002712811    3.968    0.748
       182  -8.5593     53.4247     39.2269   9.3675246895e+01   6.1519422696e+01    0.2912391    0.1451376 -45.69 0.0009657919    1.689    0.408
       183  -8.3331     54.8447     35.4937   9.1822873705e+01   6.2019687463e+01    0.1949283    0.1659505 -26.62 0.0006074549    1.054    0.052
       184  -8.9144    121.0658     46.8927   7.5214165608e+01   4.8748013359e+01    0.3209938    0.2156696 -37.27 0.0004810457    1.447    0.309
       185  -8.2470    122.1207     41.7363   7.3093659486e+01   4.9349136719e+01    0.5394038    0.2963015  11.16  0.001729846    4.067    0.754
       186  -8.9681    118.2480     55.5357   7.8958850107e+01   4.7866734557e+01    0.3157529    0.2324267 -60.41 0.0006586389    1.714    0.417
       187  -8.0975    118.9899     51.4995   7.7377544523e+01   4.8414902963e+01    0.3579938    0.1909833  32.12  0.001427813    2.369    0.578
       188  -9.6640     43.9045     54.0685   1.0176327690e+02   5.9716062904e+01    0.3985518    0.1768895 -48.71  0.001136189    1.776    0.437
       189  -9.0327    162.7497     54.2604   6.7886879686e+01   3.7760595076e+01    0.2813476    0.2220543 -57.84 0.0005849729    1.440    0.306
       190  -9.0379    105.4357     51.7738   8.1230327252e+01   5.1099987119e+01    0.5685021    0.2526039 -34.74  0.002086614    2.205    0.546
       191  -7.6411    152.8615     53.4142   6.9746321331e+01   4.0346048367e+01     0.210932    0.1869922 -41.94   0.00051093    1.154    0.134
       192  -9.7914     16.0762     70.5442   1.1483003359e+02   5.8600618827e+01    0.3950142    0.1648596 -62.01  0.001270953    1.736    0.424
       193  -9.6970    130.4291     46.2152   7.2576694446e+01   4.6793783662e+01    0.8943414    0.3631162 -22.88  0.001283993    3.621    0.724
       194  -9.5191    138.7125     39.8924   6.8353199682e+01   4.5853774016e+01     0.504326    0.3804966  87.57  0.001767019    1.835    0.455
       195  -8.5402    133.0688     35.8975   6.8251640231e+01   4.7762781363e+01    0.3428883    0.2134548 -42.54 0.0004381717    1.717    0.418
       196  -8.5098    175.3087    242.6551   1.0571388132e+02   2.8708761470e+00    0.1107524   0.07773378  66.87 0.0007044271    1.699    0.412
       197  -9.1552    218.0001     48.3565   5.6367686429e+01   2.4381055343e+01     0.400942    0.2729066 -18.53   0.00111271    1.613    0.380
       198  -7.4261    172.4280     50.4991   6.4723157158e+01   3.5889794833e+01    0.1510727    0.1475359 -57.72 0.0001575292    1.057    0.054
       199  -8.6725    157.3208     48.7522   6.7239175387e+01   3.9982856580e+01     0.276441    0.1828731 -36.31 0.0009588009    1.507    0.336
       200  -9.0949    149.9015     47.8294   6.8546138566e+01   4.1955370081e+01    0.3896672    0.2074589 -34.89   0.00094112    1.848    0.459
       201 -10.1091    152.8566     41.1577   6.5642510017e+01   4.2236115696e+01    0.4912037    0.3652978 -19.95  0.001626928    1.399    0.285
       202  -9.1343    113.5382     42.3031   7.5585259179e+01   5.1084361609e+01    0.7294957    0.3429965 -17.79  0.002410139    3.644    0.726
       203  -7.1231    101.5213    239.4963   1.1739618787e+02   1.4837204730e+01     0.110224   0.08125029  62.08 -1.960908e-05    1.009    0.009
       204 -10.2609    187.8248    234.1242   1.0253732558e+02   1.8630565223e+00     0.283612    0.2185397 -31.18  0.001980005    1.670    0.401
       205  -8.4737    182.6603    235.3165   1.0355838674e+02   2.5761361830e+00    0.1142511   0.08027765  65.05 0.0007048465    1.705    0.414
       206 -10.1737    137.1161    232.4331   1.1084388402e+02   1.0468622925e+01    0.1868561    0.1573138  64.51 0.0001851616    1.119    0.106
       207  -7.7576      9.2248    220.7543   1.3040002566e+02   2.9050137530e+01    0.1169354   0.09189408  85.42 0.0006796932    1.347    0.258
       208  -7.7947    139.0886    218.2569   1.0883415329e+02   1.2295686604e+01    0.1667489    0.1259079  54.35 0.0003691415    1.063    0.060
       209  -8.7997     84.7041     21.9037   7.6095930805e+01   5.9716894770e+01    0.2452689    0.1763017 -30.08 0.0006290703    1.296    0.228
       210  -8.6668     40.2929     35.1177   9.7125177113e+01   6.3727528630e+01    0.3276531    0.2093282  14.92  0.001047648    1.896    0.473
       211  -9.8693     37.8256     42.0208   1.0032981454e+02   6.2676923680e+01    0.3441485    0.2753462 -85.15  0.001554542    1.817    0.450
       212 -10.1493     35.8951     37.9758   9.9757486195e+01   6.3627349131e+01    0.2594037    0.1799842 -41.91 0.0003504751    1.127    0.113
       213  -9.7917      9.8129    207.6462   1.2968550832e+02   3.1249224315e+01    0.3857319     0.245946  30.97  0.002852171    2.364    0.577
       214  -7.8320    110.2236     26.7907   7.0602884118e+01   5.4103272891e+01    0.2952053    0.2010804   2.59  0.001449194    1.694    0.410
       215  -9.0189    105.1191     41.4732   7.7636724361e+01   5.2918036231e+01    0.3644117    0.2355868 -53.32 0.0008455939    1.968    0.492
       216  -8.5627    106.0978     36.4613   7.5484824234e+01   5.3523836052e+01    0.3168912    0.2324135  19.46  0.001027488    1.484    0.326
       217 -10.2690     89.6439     38.4200   8.1121152374e+01   5.6300321327e+01    0.8394288    0.3598101  30.81  0.002860571    3.375    0.704
       218  -7.3683    191.8392     40.1891   5.8017304890e+01   3.2325399397e+01    0.2068849    0.1718072  21.08 0.0005128364    1.348    0.258
       219  -7.9337    160.2206     39.2572   6.3473879415e+01   4.0662808219e+01    0.2756218     0.180897 -24.60 0.0009073101    1.576    0.366
       220  -8.9460    144.0973     36.4245   6.5906034398e+01   4.5068087356e+01     0.271567    0.2036844 -38.43  0.000563515    1.372    0.271
       221  -8.8530    118.8720     34.6247   7.1319099887e+01   5.1139355096e+01    0.3681026    0.1802242 -36.89 0.0006981332    2.002    0.500
       222  -8.4930    111.9813     47.0064   7.7708591997e+01   5.0628730532e+01    0.2463108    0.1922875 -36.99 0.0004679484    1.239    0.193
       223  -8.1847    123.9803    205.9169   1.1000550337e+02   1.6810925710e+01    0.1686265    0.1390022  62.06   0.00113419    1.018    0.018
       224  -8.8544    246.5153    204.0234   8.7975369930e+01  -4.5024201379e+00    0.2202869    0.1490429  35.38  0.001365184    1.245    0.197
       225  -9.2054    191.8734    194.3309   9.5781113589e+01   6.5627549087e+00    0.6647596    0.3562281 -65.30  0.002261239    5.545    0.820
       226  -9.6890    244.5609    185.8624   8.4974325060e+01  -2.0009213035e+00    0.3035872    0.2724997 -71.59  0.001379656    1.761    0.432
       227  -9.3946     60.2645     33.9126   8.9271810906e+01   6.1601606438e+01    0.3800327    0.2397727 -50.86  0.001477045    1.699    0.411
       228  -8.9627     62.6438     26.9343   8.5690127900e+01   6.2447313527e+01    0.4312851    0.2237099  19.93  0.001978398    2.755    0.637
       229  -9.0340    232.5552    180.9578   8.6082940891e+01   8.1392548020e-01    0.2685227    0.2015003  43.40 0.0009720646    1.286    0.222
       230  -9.1567    233.3702    176.0340   8.4985387616e+01   1.3250943817e+00    0.2805726    0.2008816  24.96 0.0001656422    1.301    0.231
       231  -8.1073     42.0429     28.0499   9.3896866169e+01   6.4808731773e+01    0.1990112    0.1150169 -36.12  0.001153363    1.414    0.293
       232  -7.4835     13.2980     34.6246   1.0748552780e+02   6.6037040948e+01    0.1041596   0.07980796 -84.33 0.0007026502    1.750    0.428
       233  -9.2209    101.0297     32.0864   7.5257900792e+01   5.5194267179e+01    0.3716444    0.1934608 -39.44 0.0009916893    1.905    0.475
       234  -7.3745    165.0030     30.0026   5.9438976709e+01   4.0693703282e+01    0.1768203    0.1689567  43.93 0.0003953385    1.008    0.008
       235  -7.7492    151.7751     29.9780   6.2006194911e+01   4.4057663958e+01    0.1864377    0.1210696 -25.08  0.000316836    1.574    0.365
       236  -8.9168     91.2462     25.9943   7.5747728464e+01   5.7949996489e+01    0.4005893    0.2251816 -47.30  0.001486474    2.216    0.549
       237  -8.7191     92.0445     21.0025   7.3443653071e+01   5.8507208413e+01    0.3353786    0.1962143  30.23 0.0008962081    1.830    0.453
       238 -10.1353    101.0011    175.9956   1.1051293105e+02   2.6033745788e+01     0.179276    0.1510189  74.84  0.001158041    1.004    0.004
       239  -9.0344     87.9620    171.5316   1.1255187065e+02   2.8908757913e+01    0.2010474    0.1585112 -74.63 0.0003453007    1.207    0.171
       240  -7.5733    243.0609    170.9547   8.2313202521e+01   1.9443748219e-01     0.155997    0.1338412  12.95 0.0003276471    1.014    0.014
       241  -9.6742    232.8630    170.7321   8.4021541640e+01   2.1495580678e+00    0.3697748     0.289662  65.49 0.0009689791    1.750    0.428
       242  -8.4282    154.4919    171.0149   9.8911337331e+01   1.7569455269e+01    0.2227483    0.1729154  35.07 3.752199e-05    1.340    0.253
       243 -10.4016    201.6164    168.4497   8.9226769680e+01   8.6406950498e+00    0.2585437    0.2376001  47.87 0.0008182157    1.126    0.112
       244  -8.0820    128.7879     16.0721   6.1811169402e+01   5.1338984945e+01    0.2853808       0.1843 -40.43  0.000811361    1.711    0.416
       245  -8.7656    144.3482     25.9175   6.2103273364e+01   4.6420701535e+01    0.2303601    0.2013765  73.56 0.0005812401    1.259    0.206
       246  -7.5679    149.7554     24.9512   6.0643787269e+01   4.5204396104e+01    0.1826842    0.1236405 -22.09  0.000637955    1.524    0.344
       247  -7.1425     14.3473    170.3257   1.2671646377e+02   3.7777816516e+01   0.09775629   0.07028292 -57.73 0.0004094779    1.749    0.428
       248  -8.9844    154.8275     22.6886   5.8850183402e+01   4.4206147664e+01    0.2032617    0.1778896   9.09  0.000423269    1.174    0.148
       249  -8.1662    111.5853     21.8167   6.8264719047e+01   5.4483521691e+01     0.366114    0.1278545 -28.08  0.001350129    2.821    0.646
       250  -8.5813     87.2193    156.0889   1.1058799808e+02   3.2200671588e+01    0.1856542    0.1617983  69.38 0.0003130785    1.107    0.097
       251  -8.7397    221.3697    151.4428   8.2049195211e+01   7.2687289585e+00    0.2256089    0.2040153  19.22 0.0002208656    1.006    0.006
       252  -7.6009    207.3844    150.2062   8.4369591737e+01   1.0388925300e+01    0.1847679    0.1326355 -46.04 0.0003542475    1.563    0.360
       253  -8.4736     40.9753     20.9386   9.1537807322e+01   6.6131316106e+01    0.2206752    0.1357851 -33.20 0.0003818803    1.313    0.238
       254  -8.7308    133.7043    146.1093   9.8691999980e+01   2.6389615809e+01    0.5752295    0.1546996 -54.11  0.001698098    4.457    0.776
       255  -7.1908    149.5319    148.4011   9.5702847855e+01   2.2832474224e+01    0.1413907    0.1306001  61.71 0.0001992138    1.020    0.019
       256  -9.3727     66.9396    144.2195   1.1334715581e+02   3.7544581132e+01    0.5106372    0.2816651  69.50  0.002538516    2.166    0.538
       257  -8.1756    248.6569    143.6823   7.5610131464e+01   2.8834357986e+00    0.1459759   0.09710784  13.86 0.0007048986    1.717    0.418
       258  -8.7890    248.6169    138.8866   7.4549609266e+01   3.5772800193e+00    0.2178212    0.1573986  -7.12 0.0005478315    1.427    0.299
       259  -7.5606    140.3133     22.6815   6.1780517471e+01   4.7808634287e+01    0.1439283    0.1111442 -63.14 0.0004973288    1.648    0.393
       260  -8.0008    140.3752     17.7771   5.9958468109e+01   4.8377187215e+01    0.1913473    0.1325257  -4.88 0.0004822354    1.591    0.371
       261  -8.5509     96.0626     16.8604   7.0510243841e+01   5.8287336083e+01    0.2502202    0.1774791 -31.95 0.0003608726    1.405    0.288
       262  -8.5521    241.8228    137.1870   7.5300421088e+01   5.2045291028e+00    0.1992418    0.1542771   8.45  0.001064441    1.329    0.247
       263  -8.3604    112.3132    133.8794   1.0116570063e+02   3.2883876778e+01    0.2881111    0.1932884  71.71  0.001105753    1.814    0.449
       264  -9.7636    133.9111    131.5268   9.5681572927e+01   2.9357449072e+01    0.5644522    0.5119762 -74.38  0.003144028    1.090    0.082
       265  -8.6743     27.5547     16.4929   9.5332878233e+01   6.8211795642e+01    0.1960478    0.1570565   2.32  0.001443815    1.326    0.246
       266  -9.3960    140.5824    112.1448   8.9680778323e+01   3.2030400699e+01     0.403744    0.3193028  17.31  0.001965608    1.621    0.383
       267 -10.0188    140.7742    118.5623   9.1181021642e+01   3.0664694665e+01    0.4837419    0.3655021 -68.93  0.001334568    1.518    0.341
       268 -10.4006    131.5592    119.3985   9.3542278412e+01   3.2362902564e+01    0.9635957    0.5515997  73.43  0.002044544    3.414    0.707
       269 -10.8891    133.6301    109.8640   9.0777872154e+01   3.3945036542e+01    0.8951268    0.4276753 -47.21  0.002408149    2.055    0.513
       270  -7.8024     83.0692    131.6258   1.0765893814e+02   3.8080093638e+01    0.4880249    0.2575467 -85.68  0.001933431    3.095    0.677
       271  -7.8623    142.6476    131.7564   9.3744841683e+01   2.7563914147e+01    0.4178391    0.2541558  81.21  0.001503226    3.241    0.691
       272 -10.4922     70.3598    126.2113   1.0979610753e+02   4.1037399843e+01    0.6468235    0.5310831 -47.21  0.002486588    1.366    0.268
       273 -10.2038     58.1824    124.4863   1.1247584247e+02   4.2943576444e+01    0.7572497    0.3827055  80.11  0.002775054    3.396    0.706
       274  -9.7235     98.4857    128.6283   1.0342556779e+02   3.6362487297e+01    0.5500516    0.3250877  78.92  0.002200948    2.725    0.633
       275  -7.8852    241.9945    130.2029   7.3673820241e+01   6.2099299258e+00    0.1808205    0.1095214  48.49 0.0003697615    1.681    0.405
       276  -7.7375    160.8208    128.8355   8.9054671336e+01   2.4333846894e+01    0.2133911    0.1803184 -88.81  0.001089337    1.373    0.272
       277 -10.1191    117.0914    124.5513   9.8134542788e+01   3.4030764409e+01    0.9098123    0.5187802 -69.42  0.002773008    2.312    0.568
