#   1 NUMBER                 Running object number                                     
#   2 MAG_AUTO               Kron-like elliptical aperture magnitude                    [mag]
#   3 X_IMAGE                Object position along x                                    [pixel]
#   4 Y_IMAGE                Object position along y                                    [pixel]
#   5 X_WORLD                Barycenter position along world x axis                     [deg]
#   6 Y_WORLD                Barycenter position along world y axis                     [deg]
#   7 A_WORLD                Profile RMS along major axis (world units)                 [deg]
#   8 B_WORLD                Profile RMS along minor axis (world units)                 [deg]
#   9 THETA_WORLD            Position angle (CCW/world-x)                               [deg]
#  10 FWHM_WORLD             FWHM assuming a gaussian core                              [deg]
#  11 ELONGATION             A_IMAGE/B_IMAGE                                           
#  12 ELLIPTICITY            1 - B_IMAGE/A_IMAGE                                       
         1 -10.3866     50.7880     36.2693   1.0068908996e+02   6.2771205507e+01    0.6875506    0.5162874 -53.80  0.004177431    1.988    0.497
         2  -9.3384     39.1455      7.4881   9.3326539676e+01   6.7929827145e+01    0.3654889    0.2308894  12.40  0.001581018    1.403    0.287
         3 -10.7894     39.3935     29.5532   1.0252557001e+02   6.5191306142e+01    0.7408556     0.317504 -40.95  0.003807732    2.307    0.567
         4 -11.7458     43.2508     19.8807   9.7067232386e+01   6.5972529781e+01    0.8141313    0.7059117 -46.01  0.005193815    1.780    0.438
         5 -11.7288    128.4358     15.1893   7.1129349685e+01   5.0592176898e+01     1.187449    0.9075335 -47.19  0.007185929    1.537    0.349
         6 -12.2406    115.4972      3.9853   7.0003638087e+01   5.4426989185e+01      3.18146    0.7812378  64.50   0.01079502    4.115    0.757
         7 -11.1754    131.6021      3.2659   6.6847680753e+01   5.0916899725e+01     1.302499    0.3203629  64.54  0.004733788    3.375    0.704
         8 -11.9792     82.6293      6.6914   7.8569445026e+01   6.0913433658e+01     1.664432    0.8572448  10.59  0.008130989    2.633    0.620
         9 -13.4760    169.2446     16.9828   6.4992071674e+01   4.0881632811e+01     3.032864    0.9611384  60.42   0.01193358    2.525    0.604
        10 -10.4613     71.1496      5.6157   8.1404489562e+01   6.3105385826e+01     0.557711    0.2850095  41.23  0.002434029    1.623    0.384
        11  -9.7415    117.0830     16.9630   7.3994418104e+01   5.2945405185e+01    0.7351997    0.2811086 -29.94  0.003256704    2.816    0.645
        12  -9.6931    111.9124     15.7348   7.4702206077e+01   5.4182449506e+01    0.5192223     0.194593  44.75  0.002249396    2.366    0.577
        13  -9.7081     93.6792     17.8734   7.9848991347e+01   5.7743835743e+01    0.4087221    0.3570862  48.77  0.001942776    1.178    0.151
        14  -9.4785     64.4754     16.6638   8.8028073843e+01   6.3179378307e+01    0.2595383    0.2007758 -27.98   0.00128088    1.439    0.305
        15  -9.0036     20.0095     14.1469   1.0445061994e+02   6.9403913174e+01    0.4969605    0.2137061 -20.23  0.002491039    2.752    0.637
        16  -8.0913      7.9452     17.0441   1.1126564864e+02   7.0099586144e+01    0.1788936   0.09508254 -17.33 0.0007504319    1.731    0.422
        17  -9.0007     69.5836     14.2202   8.5379616446e+01   6.2573837117e+01    0.2279056    0.2032908 -84.80  0.001537905    1.833    0.454
        18  -9.9803    249.1324     14.7544   5.6154551648e+01   2.2949557730e+01    0.2691097    0.2061562 -50.89   0.00182499    1.303    0.233
        19 -13.0779    167.6330      4.6345   6.1973033494e+01   4.2464027009e+01     3.200632    0.7125462  66.38   0.01140691    3.418    0.707
        20 -10.0178    250.0588      5.9622   5.4430454234e+01   2.3786051209e+01    0.4501009    0.1965347 -36.48  0.002374219    2.359    0.576
        21 -10.5208    245.2002      7.1222   5.5001575192e+01   2.4663661301e+01    0.4134147    0.1838619 -52.40  0.002220855    1.906    0.475
        22 -10.9382    200.8880      7.7035   5.8961618551e+01   3.4397597517e+01    0.5513887    0.2055304  78.29  0.002274648    2.640    0.621
        23  -9.9471    203.5210      4.3099   5.7942356568e+01   3.4139821083e+01      0.25352    0.2311589  87.81  0.001784899    1.207    0.172
        24  -8.0805     51.9848      2.1156   8.6121001779e+01   6.6591426279e+01    0.2275352    0.1551876  22.67  0.001167437    1.189    0.159
        25 -10.1527     60.2835      2.6601   8.3556328775e+01   6.5216684710e+01    0.5963981    0.4029615  16.38  0.003983976    1.300    0.231
        26  -8.8512     55.6416      7.2415   8.7082800989e+01   6.5549632002e+01    0.4419148    0.1686285  51.51   0.00202798    3.151    0.683
        27  -7.3760     29.0000      8.9121   9.8167386676e+01   6.9054351926e+01    0.1711451   0.05335206 -33.70 0.0005855137    2.996    0.666
        28  -8.4729     48.6252      6.7573   8.9374990591e+01   6.6666492674e+01    0.2098785    0.1338393  31.34  0.001239538    1.342    0.255
        29  -9.1409    230.1525      6.0774   5.5965642656e+01   2.7995555182e+01    0.1749157    0.1495729  80.98  0.001122941    1.256    0.204
        30  -9.3702    222.6896      3.7096   5.6099566164e+01   2.9887948471e+01    0.4077465    0.1631256 -28.43  0.001865922    3.216    0.689
        31  -9.9130    214.1649      3.9579   5.6884346720e+01   3.1761402671e+01    0.3392206    0.1777955  54.23  0.001788187    2.136    0.532
        32  -8.9005     26.3523      2.8323   9.6525047894e+01   7.0033915749e+01    0.2329945    0.1684412 -19.09  0.001514923    1.302    0.232
        33  -8.8800     16.5835      1.8358   1.0047296078e+02   7.1227365340e+01    0.2323387      0.12934  21.45  0.001198351    1.608    0.378
        34  -8.5203     40.5286      1.4924   9.0062546487e+01   6.8336532602e+01    0.2117132   0.09209093  40.59  0.001001147    2.095    0.523
        35  -9.2777     48.5167     62.2231   1.1054784309e+02   5.8793684691e+01    0.4032505    0.2649415  -5.53  0.002209949    1.764    0.433
        36  -7.9619     75.8535     60.1450   1.0034966207e+02   5.5267802536e+01    0.1895218    0.1449462 -11.37 0.0007467974    1.326    0.246
        37  -8.3798     92.5208     57.1545   9.4094266405e+01   5.2842359977e+01    0.2666209    0.1800357  59.58  0.001316809    1.933    0.483
        38  -7.9806      9.3016     55.5366   1.2357431710e+02   6.3665009131e+01     0.210756   0.08310886 -54.59  0.001078405    2.051    0.512
        39  -9.2083    198.7128     54.9321   7.0458783241e+01   2.8949262187e+01    0.2479026    0.2082271  73.57 0.0004015497    1.129    0.114
        40  -8.9856     66.3974     53.8388   1.0140281433e+02   5.7814384946e+01    0.3458442    0.1468994 -44.14  0.001523084    2.386    0.581
        41  -7.9753     35.2594     52.4312   1.1239793324e+02   6.2040822437e+01    0.1886089    0.1065543  37.96  0.001034125    2.179    0.541
        42  -7.9222     22.9049     52.6713   1.1733569680e+02   6.3169598345e+01    0.1604987    0.1329163 -21.82 0.0008425735    1.085    0.078
        43 -10.3739     81.5010     39.2589   9.1229656635e+01   5.7519913174e+01    0.5402102    0.3908165 -21.66  0.003172976    1.369    0.269
        44  -9.8671     82.9307     47.2809   9.3652148213e+01   5.6120376332e+01    0.5332389    0.4654225 -88.11  0.003177125    1.728    0.421
        45  -8.5022    111.3147     45.9232   8.5057887209e+01   5.0778765281e+01    0.2356132    0.2103189  11.41 0.0008807901    1.107    0.097
        46 -10.3508      3.4459     39.3471   1.2127278539e+02   6.6927962002e+01    0.5369308    0.3560883 -30.56  0.002790426    1.155    0.134
        47  -9.3562     12.0091     34.0078   1.1578295517e+02   6.7226149576e+01    0.3759119    0.2596152 -32.34   0.00245227    1.120    0.107
        48  -9.9051    182.8267    246.6821   1.1538672082e+02  -4.1013129710e+00     0.306441    0.1413228  30.90  0.001359469    2.247    0.555
        49  -9.2718    163.4824    244.0809   1.1880253317e+02  -4.1543791189e-01     0.177529    0.1309071 -48.64 0.0008606753    1.565    0.361
        50  -9.0854     35.1596     19.9753   1.0036783212e+02   6.6985432382e+01    0.3092594    0.2459334  -0.59   0.00183051    1.073    0.068
        51  -9.3433    194.4127    241.3030   1.1226856866e+02  -5.1564272747e+00    0.2291237    0.1210857 -37.02  0.001133352    2.112    0.527
        52 -10.0245    173.6513    241.8810   1.1644455433e+02  -1.7727474163e+00    0.2509874    0.1638349  31.71  0.001354172    1.429    0.300
        53  -9.8902     49.7569     27.6081   9.7712101232e+01   6.4108869571e+01    0.3159758    0.2953017 -19.17   0.00185236    1.416    0.294
        54  -9.4204    195.9723     35.8145   6.6149943075e+01   3.2279866791e+01    0.5399293    0.2596636  38.08  0.001942918    4.012    0.751
        55  -8.7393     69.4294     36.6041   9.4166274992e+01   5.9941016141e+01    0.2686722     0.200923   3.13  0.001641203    1.284    0.221
        56  -9.7363     66.3248     31.1919   9.3163464219e+01   6.1163605855e+01    0.5805706    0.2584163 -33.89  0.002852047    2.234    0.552
        57  -8.7216     27.7321     35.8257   1.0969636942e+02   6.5553599432e+01    0.2009187    0.1719084 -13.30  0.001155811    1.182    0.154
        58  -9.4520     86.4343     31.2406   8.6794789504e+01   5.7657504259e+01    0.2708369    0.2101539 -18.99  0.001666705    1.302    0.232
        59 -10.5362    225.2939     28.8351   6.1138942918e+01   2.6371163960e+01    0.4137129    0.3871509 -48.07   0.00161663    1.336    0.251
        60 -10.2962    205.9329    222.5444   1.0680084608e+02  -4.0147873397e+00     0.286401     0.201581  -3.99  0.001508163    1.700    0.412
        61  -9.9404    123.9985    205.9961   1.2119104228e+02   1.4052889784e+01    0.2020421    0.1848108  67.80            0    1.006    0.006
        62  -8.7985    238.7343    202.9867   9.6940069185e+01  -6.1964148052e+00    0.1930388    0.1579579 -23.85  0.001171481    1.112    0.101
        63  -7.8500      1.6782    192.3350   1.4590468455e+02   3.3941473130e+01    0.1257381    0.0667919  71.79 0.0007050233    1.707    0.414
        64 -11.3557     11.3168    141.7461   1.3888546331e+02   4.4797806659e+01    0.6336833    0.3038248 -69.87  0.003313299    1.617    0.382
        65  -8.8843    105.8654     25.8535   7.9602493226e+01   5.4428529583e+01    0.2321917    0.1910113  64.61  0.001247422    1.327    0.247
        66  -8.5935     21.2094     23.4333   1.0776415071e+02   6.8033849801e+01    0.2568716    0.2263924   7.44  0.002016442    1.404    0.288
        67  -8.9930     40.6890    142.0846   1.3127426815e+02   4.2009329818e+01    0.2331968    0.2094772   7.36  0.001469847    1.418    0.295
        68 -12.6651    240.8037    132.7131   8.2019809874e+01   5.9675116318e+00     1.513477     1.184017  51.18   0.00541319    1.443    0.307
        69 -10.3215     12.0942    127.9018   1.3687433978e+02   4.7975914226e+01    0.2954006     0.183334 -69.73  0.001736533    1.271    0.213
        70  -8.3607     10.9580     22.2255   1.1191584052e+02   6.9116674991e+01    0.1309213   0.07843379  17.18 0.0006231968    1.670    0.401
        71  -8.5732     97.2021     27.8536   8.2536788214e+01   5.5974704406e+01    0.3253986    0.1864422  -5.82  0.001552294    2.351    0.575
        72  -9.1789     17.3512    126.0049   1.3516156756e+02   4.8018326230e+01    0.1897094    0.1341572 -67.24 0.0008636034    1.123    0.109
        73 -10.3934     11.9942    118.8093   1.3558646212e+02   5.0087695947e+01    0.4394525    0.2678858  74.95  0.002371638    2.104    0.525
        74  -8.2728     73.3241    118.6740   1.1751377902e+02   4.3509402395e+01    0.1445867    0.1099953  82.23 0.0007048755    1.690    0.408
        75  -8.8258     14.5166    114.9309   1.3426052414e+02   5.0797076323e+01    0.1985829   0.09778869 -64.63  0.001029088    1.584    0.369
        76  -9.8453     17.6382    104.5974   1.3157053047e+02   5.2915973443e+01    0.3780786    0.2434913 -68.04  0.002226727    1.341    0.254
        77  -8.7583     30.3158    101.8667   1.2707551332e+02   5.2490409694e+01    0.2264249    0.1880258  -9.55  0.001233058    1.386    0.278
        78  -9.0449     57.7960     99.1513   1.1766798820e+02   5.0121758566e+01     0.302534    0.1828252 -64.44  0.001450728    1.798    0.444
        79  -9.2753     47.0323     98.4599   1.2096403747e+02   5.1565867390e+01    0.2797111    0.1552027 -43.43  0.001387106    1.615    0.381
        80  -9.0005      2.3710     88.9119   1.3356562710e+02   5.7345056135e+01    0.3351029    0.2038147 -76.58  0.001992314    1.658    0.397
        81 -11.6215     43.2837     82.3506   1.1821888163e+02   5.5447837490e+01     1.069465    0.6950534 -21.17   0.00539292    1.730    0.422
        82  -9.2170     35.6872     79.9965   1.2024735561e+02   5.6719792337e+01    0.3250028    0.2229779 -58.95  0.001514719    1.416    0.294
        83  -9.0315     19.1038     88.3594   1.2791522413e+02   5.6382072918e+01    0.2405217    0.1323324 -50.07  0.001347509    1.421    0.296
        84  -8.1127     21.0198     83.0095   1.2608682363e+02   5.7374127989e+01     0.155431    0.1177823 -49.62 0.0005765376    1.059    0.056
        85 -10.3996      3.9263     76.0790   1.3052616602e+02   5.9951089986e+01    0.5922437    0.3629794 -45.56  0.003235639    1.266    0.210
        86 -10.1149     24.6538     64.9801   1.2024795815e+02   6.0726549070e+01    0.6779829    0.2382915 -49.20  0.003169866    2.196    0.545
        87 -11.1648     15.1841     75.0565   1.2630254681e+02   5.9453227158e+01    0.8501254    0.4343396 -27.42  0.004511521    2.138    0.532
        88 -10.6625     11.0773     71.6298   1.2697944752e+02   6.0425263713e+01    0.6232415    0.2196966 -51.60  0.003068574    2.024    0.506
        89  -9.3460     74.0038     68.6645   1.0373069579e+02   5.4053603019e+01    0.3698112    0.3058492 -10.20  0.002179462    1.175    0.149
        90  -8.5687    125.5604     28.6206   7.5999047543e+01   4.9847193852e+01    0.2868805    0.2116543  23.58  0.001600378    1.511    0.338
        91  -8.9063     33.4330     69.2558   1.1817515977e+02   5.9100348442e+01    0.2877903    0.1695924   6.78  0.001549293    2.078    0.519
        92  -9.1948    227.7323     78.8197   7.1955080163e+01   1.8392763969e+01    0.3969204    0.3033279  10.72  0.001931622    2.263    0.558
        93  -9.3695     82.6384     69.8857   1.0131995009e+02   5.2415120073e+01    0.3928846    0.2569133   7.66  0.001828116    2.093    0.522
