#   1 NUMBER                 Running object number                                     
#   2 MAG_AUTO               Kron-like elliptical aperture magnitude                    [mag]
#   3 X_IMAGE                Object position along x                                    [pixel]
#   4 Y_IMAGE                Object position along y                                    [pixel]
#   5 X_WORLD                Barycenter position along world x axis                     [deg]
#   6 Y_WORLD                Barycenter position along world y axis                     [deg]
#   7 A_WORLD                Profile RMS along major axis (world units)                 [deg]
#   8 B_WORLD                Profile RMS along minor axis (world units)                 [deg]
#   9 THETA_WORLD            Position angle (CCW/world-x)                               [deg]
#  10 FWHM_WORLD             FWHM assuming a gaussian core                              [deg]
#  11 ELONGATION             A_IMAGE/B_IMAGE                                           
#  12 ELLIPTICITY            1 - B_IMAGE/A_IMAGE                                       
         1 -12.0324    239.1291     22.3035   3.2309987214e+01   2.4723012106e+01    0.5961367    0.2242158 -49.43  0.002486122    2.198    0.545
         2 -10.8377     51.2741     19.3709   6.7802044150e+01   6.6207354481e+01    0.5033076    0.1608626 -34.39  0.002094298    3.185    0.686
         3 -11.9533     55.8795     14.9406   6.3876172389e+01   6.5985116631e+01    0.5408224    0.3629925 -12.67   0.00290717    1.488    0.328
         4 -11.9547     30.0488     20.2499   7.8109994253e+01   6.9077027873e+01    0.4596537    0.3411465 -39.69  0.002992744    1.559    0.358
         5 -11.8585    111.5833     19.1804   4.8688722709e+01   5.4234645446e+01    0.4239641    0.3771862 -89.90  0.002050534    1.284    0.221
         6 -11.0454    154.8370     16.1580   3.9840463837e+01   4.4340292898e+01     0.497654    0.2780715 -13.66  0.002139341    2.523    0.604
         7  -9.8491    155.5143     10.4800   3.8131067557e+01   4.4734504938e+01      0.21224    0.1487758  65.06 0.0006427303    1.236    0.191
         8 -10.9205    101.3336     15.9811   4.9939554244e+01   5.6858598938e+01     0.277245    0.2156886  19.63 0.0004188161    1.338    0.253
         9 -10.9835     24.8018     14.1922   7.8008895085e+01   7.0562424976e+01    0.3433384    0.2086175  14.05  0.002099215    1.512    0.338
        10 -11.5641    183.4750     12.6054   3.5290131473e+01   3.7938613446e+01    0.6322605    0.3292656  58.12  0.002363148    1.827    0.453
        11 -12.1210    122.6407     11.0856   4.3594651061e+01   5.2465070552e+01    0.4072494    0.2814959  44.59 0.0009754056    1.348    0.258
        12  -9.2764     93.4258     10.1980   4.9702788227e+01   5.9136592572e+01    0.1529214    0.1172896 -37.00 0.0003872886    1.552    0.356
        13 -10.3269     47.9774      8.3569   6.3999676532e+01   6.8036776441e+01    0.2316492    0.1521243 -15.45 0.0005998142    1.493    0.330
        14 -10.0031    209.9830      9.0014   3.1903155869e+01   3.2336610810e+01     0.198263    0.1630819 -54.05 0.0004402525    1.206    0.171
        15 -10.2141    212.7215      5.8209   3.0987759222e+01   3.2071362029e+01    0.2625241    0.1882915 -32.87  0.001688456    1.588    0.370
        16 -12.0387     13.5157      6.7148   8.0662115787e+01   7.2817678838e+01    0.5155412    0.4702886  50.04  0.003773206    2.063    0.515
        17 -11.3602      4.7592      7.1590   8.6224257842e+01   7.3549583939e+01    0.2783133    0.1890128   0.60 0.0007240942    1.233    0.189
        18 -11.0719      4.7883      2.6485   8.3947167756e+01   7.4192518047e+01    0.3086961    0.1631596   9.33  0.001696712    1.772    0.436
        19 -10.5362     24.1800      8.0198   7.5288305981e+01   7.1464482426e+01    0.2560789    0.1328117  21.22 0.0005960501    1.809    0.447
        20  -9.0423    216.5188      7.5261   3.1049909088e+01   3.1077860337e+01      0.11995    0.0957635 -77.32 0.0008098041    1.005    0.005
        21  -9.3258    108.7846      6.8152   4.4864433461e+01   5.6028559631e+01    0.2050232    0.1477517 -51.32 0.0006505213    1.730    0.422
        22 -10.2104    105.9191      3.0000   4.4077102329e+01   5.6987622219e+01    0.2900027    0.1520786  77.83  0.001341696    2.363    0.577
        23  -9.2906     69.5354      7.4459   5.5491207697e+01   6.4285016952e+01    0.1258391    0.1001442  28.90 0.0001113021    1.030    0.029
        24 -10.4050    127.7377      4.9011   4.0645129541e+01   5.1809926560e+01    0.2315566    0.2061992 -68.26 0.0007130729    1.248    0.199
        25  -9.4392     39.8368      5.0488   6.5935092824e+01   6.9676164855e+01    0.2604322    0.1354046  44.84  0.001171028    2.007    0.502
        26 -11.4763     90.7024      2.8581   4.7479968853e+01   6.0351047440e+01    0.2803575    0.2283374  60.23 0.0004368409    1.192    0.161
        27  -9.8913     84.7080      1.3521   4.8393200794e+01   6.1744522299e+01     0.249553    0.1123581  64.94 0.0006875907    2.364    0.577
        28 -10.4110     19.1896      3.4956   7.5696958277e+01   7.2628129892e+01    0.2866973   0.09603355  31.51  0.001371934    2.784    0.641
        29  -8.8432     30.6533      2.2952   6.8914814538e+01   7.1313064315e+01   0.09695844   0.09099021  34.19 0.0007032352    1.672    0.402
        30  -9.1231    137.5032      1.5551   3.8054807285e+01   4.9786470950e+01    0.1267427      0.10641  72.73  6.55887e-05    1.029    0.028
        31 -10.8985     24.1767    125.5123   1.0921555314e+02   4.7172460567e+01    0.2427999    0.1945263 -71.39 0.0003354267    1.086    0.079
        32 -10.8742     12.8941    125.2943   1.1272354662e+02   4.8063077096e+01    0.2266592    0.1528557 -83.77 0.0006182521    1.377    0.274
        33 -11.6751    249.9142    120.3290   5.1389635465e+01   8.1763286173e+00    0.5931072    0.1654015 -42.86  0.002171153    2.971    0.663
        34  -9.8540     75.2746    122.5805   9.2162396906e+01   4.2029908950e+01    0.3515252    0.1667762  39.73  0.001385216    2.202    0.546
        35  -8.7502     31.2775    123.7037   1.0666950706e+02   4.7021241427e+01    0.1317678   0.09797671  73.92 0.0001773777    1.532    0.347
        36 -11.3418    219.4495    114.7791   5.4791584103e+01   1.4747159066e+01    0.7857528    0.2871913 -44.83  0.002950471    2.495    0.599
        37 -11.8087    222.3439    112.6673   5.3852484138e+01   1.4556656237e+01     1.124272    0.5886561 -60.46  0.004426159    2.791    0.642
        38  -9.1819     61.2394    120.5804   9.6286059401e+01   4.4506415121e+01    0.2054923    0.1418795   7.93 0.0009597536    1.822    0.451
        39  -8.9363     57.6876    118.3108   9.6987174289e+01   4.5532481906e+01    0.1440707    0.1099827  72.75 0.0005193027    1.629    0.386
        40  -9.0682     98.4841    117.4827   8.3672879908e+01   3.9425430002e+01     0.154343    0.1474884 -29.57  0.000246092    1.027    0.027
        41 -10.2202     26.0485    116.3807   1.0720627627e+02   4.9306159114e+01     0.265039    0.1304984  20.95  0.001224514    2.347    0.574
        42  -9.7250      1.9644    116.0285   1.1500724995e+02   5.0999478710e+01    0.1901078    0.1511397 -68.37 0.0003452401    1.014    0.014
        43 -10.1938     45.5733    113.2681   1.0004321614e+02   4.8219330253e+01    0.2443991    0.1672066 -14.79   0.00119287    1.827    0.453
        44  -9.6577     32.1507    113.5900   1.0468115474e+02   4.9476407416e+01    0.1685007     0.126863 -10.47 0.0006182476    1.566    0.361
        45 -11.2158    248.2449    110.1059   4.9500362133e+01   1.0167494219e+01    0.3593298    0.1946569 -51.02  0.001776066    1.757    0.431
        46  -9.3591      1.4819    111.5171   1.1461085294e+02   5.2122241937e+01    0.1284187    0.1016638 -63.63 1.571711e-05    1.034    0.033
        47  -9.9488    100.0123    109.4037   8.1142215001e+01   4.1051723962e+01    0.2897238    0.2084199 -28.94  0.001302386    1.553    0.356
        48 -10.4762     21.2140    110.1221   1.0781819416e+02   5.1236297582e+01    0.2151667    0.1893127  58.05 0.0007268516    1.308    0.236
        49  -9.3708     28.7453    109.4304   1.0510968777e+02   5.0805491286e+01    0.1676921    0.1261907 -11.01  0.000452628    1.545    0.353
        50 -11.1947      6.3623    108.1778   1.1255949599e+02   5.2675885973e+01    0.2916439    0.2278397 -79.76 0.0007658737    1.184    0.155
        51  -9.6102    238.8363    106.8774   5.0115778707e+01   1.2412589933e+01    0.2000595    0.1720916 -25.13 0.0006396648    1.226    0.184
        52 -10.5552     88.0791    105.7368   8.3952696276e+01   4.4047941459e+01    0.2560179    0.2059747 -43.05 0.0002714024    1.192    0.161
        53 -10.9902    249.0478    103.0319   4.7922708494e+01   1.1187546308e+01    0.3530379    0.2726716 -44.32  0.001802219    1.078    0.072
        54 -10.8556    249.8680     96.7138   4.6506419361e+01   1.2063378691e+01    0.3874547    0.1653889 -37.59  0.001750743    2.035    0.509
        55 -10.3650     79.4218    103.6972   8.6272421915e+01   4.5972038801e+01    0.3784919    0.2576149   8.94  0.001237309    1.912    0.477
        56 -10.5183      9.0052    103.3847   1.1096434631e+02   5.3689029287e+01    0.2316774    0.1965602  51.97 0.0008158389    1.398    0.285
        57  -9.5390     45.5080    101.5456   9.7598459902e+01   5.1103723278e+01    0.1396925    0.1249952 -46.84 0.0008088235    1.013    0.013
        58  -9.0987     96.8371     98.3611   7.9149029660e+01   4.4164764510e+01    0.1990246    0.1425039  26.85 0.0002404326    1.510    0.338
        59  -9.9167     53.6639     97.9025   9.3805439373e+01   5.1023688946e+01    0.2083251    0.1666172 -53.78  0.001131305    1.161    0.139
        60 -10.1561     69.0298     96.1262   8.7857165174e+01   4.9350618914e+01    0.2540402    0.1993337 -48.10 0.0004794752    1.197    0.165
        61 -10.3641    235.2681     95.5207   4.8163415753e+01   1.4985914062e+01    0.3153223     0.231205   7.08  0.001592748    2.257    0.557
        62  -9.1956    147.8463     96.1825   6.4337935938e+01   3.3871463832e+01    0.1999096    0.1774906  15.07   0.00026167    1.258    0.205
        63  -9.8680     16.4998     95.2327   1.0693240489e+02   5.5184769038e+01    0.1933769    0.1744271   1.52 0.0004356719    1.268    0.211
        64 -10.1430    116.5998     93.6045   7.1822384282e+01   4.1270053867e+01    0.2626014    0.2475807  88.49 0.0008019212    1.180    0.153
        65  -9.3164     46.0639     94.5140   9.5778126379e+01   5.2723258549e+01    0.1917423    0.1366797  25.19   0.00043258    1.525    0.344
        66 -10.7930     33.7515     89.6071   9.9279914453e+01   5.5143372564e+01    0.2941759    0.2366531  21.51  0.001430071    1.382    0.276
        67  -9.7010     86.2176     89.2197   8.0004817549e+01   4.8113259996e+01    0.2359035    0.1110029  47.29 0.0008780668    2.475    0.596
        68  -9.9733     57.9686     89.4798   9.0085796775e+01   5.2436972256e+01    0.2008336    0.1116829  52.13 0.0008102235    2.639    0.621
        69 -10.8141    120.5903     87.6600   6.8961697552e+01   4.1645618969e+01    0.3117211    0.2713067  71.32 0.0001502717    1.315    0.240
        70  -9.2391    131.4297     86.7570   6.5773744559e+01   3.9442692512e+01    0.2136239    0.1469661 -29.00 0.0008160554    1.615    0.381
        71 -10.3465    102.1526     86.5384   7.4060872791e+01   4.5697714385e+01    0.3195744    0.2126489 -34.81  0.001451354    1.548    0.354
        72 -10.3662     28.6862     85.3179   1.0026692429e+02   5.6595647457e+01    0.2407008    0.2221733 -47.07 0.0007391283    1.106    0.096
        73 -11.5500    245.3259     84.9746   4.4618289004e+01   1.4770340231e+01    0.2640404    0.1983308  76.30  0.001380727    1.521    0.342
        74  -9.0188    124.2529     85.3566   6.7273138470e+01   4.1308491237e+01    0.1524832    0.1188102  -5.40 0.0005356995    1.607    0.378
        75 -11.5451     75.9464     83.3231   8.1809499486e+01   5.1138070228e+01    0.4543255    0.3014227  35.56 0.0003496105    1.548    0.354
        76 -11.3650     80.0919     81.0952   7.9682079442e+01   5.0918835810e+01    0.3413656    0.2602606 -64.94  0.001688314    1.647    0.393
        77  -9.5631     60.4281     85.1932   8.8000934856e+01   5.3072812236e+01     0.185101    0.1331502 -60.96 0.0003517829    1.519    0.342
        78 -10.0983     65.9542     83.4840   8.5466421225e+01   5.2660592333e+01    0.3284344    0.1960467 -53.39  0.001263072    1.681    0.405
        79 -10.5063     45.5056     83.2085   9.3155896333e+01   5.5401839914e+01    0.2785623    0.1896633 -68.56  0.001147102    1.724    0.420
        80  -9.3588    134.8804     82.8971   6.3762465910e+01   3.9411407977e+01    0.1965699    0.1737857 -69.29  0.001009492    1.252    0.202
        81 -10.6290    112.7373     81.4928   6.9352253260e+01   4.4552823963e+01    0.2633508    0.2547161 -16.42 0.0004718098    1.031    0.030
        82 -10.7242     54.0861     80.5882   8.9110917806e+01   5.4943415172e+01     0.307906    0.2552592  19.83  0.001619982    1.257    0.205
        83 -11.0741    104.3657     78.6128   7.0961021875e+01   4.6858320395e+01    0.3238694    0.2717475 -43.92 0.0009896138    1.222    0.182
        84 -10.5217    109.2238     73.4563   6.7885274025e+01   4.6842057259e+01    0.3933045    0.2550162   2.33  0.001544108    2.589    0.614
        85  -9.7658     30.9944     80.0337   9.8099070998e+01   5.7603104759e+01    0.1986269    0.1697033 -39.00 0.0004022468    1.010    0.010
        86 -12.4348    249.4748     73.7711   4.1810751388e+01   1.5714616317e+01    0.6812294    0.2977933 -32.21  0.003026257    2.474    0.596
        87  -9.8575     85.8832     79.4635   7.7188129044e+01   5.0242428571e+01    0.2098509    0.1417819  34.56 0.0003955836    1.493    0.330
        88 -10.0026     98.8511     76.1766   7.1909343634e+01   4.8445968085e+01    0.2048538    0.1698143   6.11 0.0004184206    1.305    0.233
        89 -11.3590     78.6049     74.8292   7.8259132818e+01   5.2469431679e+01     0.296027     0.260504  22.28 0.0006213894    1.125    0.111
        90 -10.4387     74.5557     75.4651   7.9906464061e+01   5.3020624049e+01    0.2452328    0.2231617   8.20  9.03557e-05    1.068    0.063
        91 -10.2113     50.2091     76.4410   8.9440280133e+01   5.6342277888e+01    0.2554211    0.1343881  19.86  0.001135361    2.177    0.541
        92  -9.8925      4.7084     75.6523   1.0782583886e+02   6.0420408767e+01    0.2513449    0.1289647 -49.22  0.000712225    1.510    0.338
        93  -9.9774      1.8330     73.3424   1.0855562434e+02   6.1075626982e+01    0.2163066    0.1730007  -1.38 0.0003897903    1.409    0.290
        94 -12.6402    240.2536     73.2597   4.2750015193e+01   1.7560787543e+01    0.5386474    0.3706699  68.32  0.003128616    1.602    0.376
        95 -10.6029    103.8718     72.8189   6.9285447875e+01   4.8077387383e+01    0.2348154    0.2201877   9.91 0.0003080747    1.025    0.024
        96 -11.8701    137.1549     69.4894   5.9218410012e+01   4.1323728711e+01    0.4080904    0.2712777  44.04 0.0004327449    1.495    0.331
        97 -11.8400     97.3219     69.4445   7.0230293824e+01   5.0038741703e+01    0.3246149    0.2895237 -40.98 0.0004406547    1.176    0.150
        98 -10.5393    101.3566     68.0899   6.8526705944e+01   4.9473647824e+01    0.2746147    0.1727551 -49.12  0.000679184    1.779    0.438
        99 -10.5043     63.8849     70.5707   8.2323632286e+01   5.5703999372e+01    0.3096457    0.2255714  31.79  0.001528448    1.409    0.290
       100 -10.6416    155.5289     68.0518   5.4707169329e+01   3.7241580271e+01     0.379853    0.2364641 -63.68 0.0008069166    2.138    0.532
       101  -9.6414     34.4814     69.0841   9.3770204883e+01   5.9688851386e+01    0.1957811    0.1147224 -51.08 0.0004970467    1.508    0.337
       102  -9.8693     26.9474     69.5124   9.7087060423e+01   6.0294892713e+01    0.1723191    0.1239014  12.66 -9.325188e-05    1.490    0.329
       103 -10.8888     89.9038     67.5713   7.2019824387e+01   5.1837584173e+01    0.2633232    0.2467718 -19.54 6.854376e-05    1.072    0.067
       104 -10.6115    109.8992     64.0688   6.4664158162e+01   4.8395610513e+01    0.3894284     0.307441 -71.70  0.001929713    1.720    0.419
       105  -9.6858     70.5366     66.0936   7.8352158187e+01   5.5554522614e+01     0.245509    0.1883637  47.87 0.0007704578    1.531    0.347
       106 -10.3875     71.4212     62.6089   7.6848237922e+01   5.6076308466e+01    0.3585955    0.2455753  71.55  0.001242121    3.104    0.678
       107  -9.2308     17.6576     71.1133   1.0144587420e+02   6.0667995997e+01    0.1870723    0.0885168 -50.23 0.0003813189    1.665    0.399
       108 -12.9483    247.2483     58.2601   3.8864209137e+01   1.8412591192e+01    0.5966458    0.4713589 -53.64  0.003911253    1.063    0.059
       109 -11.2609     43.0920     63.2325   8.8372029724e+01   5.9981081080e+01    0.3508124    0.2952768 -77.33  0.002047878    1.661    0.398
       110 -10.1970      3.5110     64.4328   1.0600789716e+02   6.2965785075e+01    0.2987127    0.2031064  88.85  0.001346173    1.998    0.500
       111 -10.9454      3.9711     59.5692   1.0469555366e+02   6.3989885578e+01    0.2310446    0.1614594 -40.15 0.0003394593    1.140    0.123
       112 -11.1667    235.4979     63.3803   4.1189700301e+01   1.9987503313e+01    0.2680222    0.1817209 -29.72  0.001486804    1.646    0.392
       113  -9.9357    202.9859     64.0416   4.5465997234e+01   2.6814890385e+01    0.2114334    0.1720088  16.49  0.001140177    1.762    0.432
       114  -9.9120     32.7967     63.6934   9.2933510396e+01   6.0995670728e+01    0.2315448    0.1511987 -39.02 0.0007012389    1.312    0.238
       115  -9.6476     50.8377     59.7820   8.3997573462e+01   5.9701485049e+01    0.1945144    0.1585708 -13.06 0.0003842317    1.119    0.106
       116  -9.6301    103.9869     58.7180   6.4609457036e+01   5.0571270158e+01    0.1980465    0.1739879  35.98 0.0002813991    1.080    0.074
       117 -11.5728     95.0797     57.1528   6.6801937214e+01   5.2676902245e+01    0.4582843    0.3296693  15.92   0.00227267    1.600    0.375
       118 -10.8324     59.2851     58.5733   8.0141281965e+01   5.8746703906e+01    0.3454767    0.2659056  -2.03  0.001936848    1.300    0.231
       119 -10.2891    200.4130     56.0941   4.3902005468e+01   2.8585865716e+01    0.2905984    0.2037291  27.27  0.001414356    2.247    0.555
       120 -10.8903    162.7051     52.6695   4.8951680119e+01   3.7929706385e+01    0.3692285    0.2571253 -24.95  0.001264635    1.673    0.402
       121  -9.7842    150.5582     57.5254   5.2681309995e+01   4.0110688035e+01    0.1425938    0.1351126  81.40 9.882238e-05    1.029    0.028
       122 -10.1732    223.1792     56.2011   4.1036854506e+01   2.3579267744e+01    0.1876354    0.1342002 -68.15 0.0007449652    1.334    0.250
       123  -9.8697    112.0663     55.6424   6.1259735264e+01   4.9330974193e+01    0.2239127    0.1971447 -48.17 0.0002949533    1.255    0.203
       124 -11.4378     85.0160     46.9555   6.6427450286e+01   5.6329432583e+01    0.4547965    0.2921913 -21.54  0.001984078    1.721    0.419
       125 -10.1321     81.4661     50.4573   6.8923034730e+01   5.6444531067e+01    0.3260551    0.1274318 -44.08 0.0009537198    2.859    0.650
       126  -9.1147     34.5245     57.4844   9.0266256838e+01   6.2090373768e+01    0.1299394    0.1102199 -24.88 0.0002353838    1.030    0.029
       127 -10.7056    206.8564     51.6803   4.1991094318e+01   2.7775099472e+01    0.4164694    0.2373364 -17.74  0.001778285    2.907    0.656
       128 -10.1732     62.4826     64.5848   8.0918118622e+01   5.7111948400e+01    0.2616632    0.2034452 -84.06  0.001284256    2.200    0.546
       129 -12.6071    247.5796     41.6654   3.5476370481e+01   2.0623416787e+01    0.5167088    0.4069138  73.41  0.003500346    1.373    0.272
       130 -12.5472    237.5547     42.8168   3.6631385917e+01   2.2458919191e+01    0.5279607    0.2614157  72.54  0.002729955    2.104    0.525
       131 -10.2481    106.1203     49.9202   6.0975386892e+01   5.1526481144e+01    0.3150574    0.2409404  76.93  0.001227766    1.759    0.431
       132 -11.8591    233.0009     48.6521   3.8311710461e+01   2.2596079649e+01    0.3458864    0.2169452 -35.54 0.0006182826    1.598    0.374
       133  -9.6221    113.6630     49.7853   5.8853643044e+01   4.9886982222e+01    0.3744752    0.1836905  64.77  0.001382522    2.893    0.654
       134 -12.3082     63.2754     37.1148   7.0507393080e+01   6.1776653442e+01      0.83088    0.3608022 -26.46  0.002915766    2.838    0.648
       135  -9.7239     55.3217     50.2779   7.8798617875e+01   6.0852446047e+01    0.1999484    0.1540205 -29.49 0.0004994184    1.205    0.170
       136 -10.8865     58.6899     47.8113   7.6503292981e+01   6.0780724834e+01    0.3536594    0.2314993 -18.75  0.001649052    1.613    0.380
       137  -9.3630     17.2457     50.7615   9.6134528674e+01   6.4987810179e+01    0.1881819   0.09234497   0.85 0.0008977104    2.448    0.592
       138 -10.1211    212.3322     49.4599   4.0794822493e+01   2.6876269310e+01    0.2637821    0.1236209  67.78  0.001205211    2.170    0.539
       139  -9.9254     95.0010     48.7010   6.3845895783e+01   5.4062874793e+01    0.1936339    0.1708155  32.26 0.0004210966    1.056    0.053
       140  -9.7209     49.1204     49.2469   8.1033631221e+01   6.1910382238e+01    0.1994976    0.1528781  -9.45  0.001166602    1.216    0.178
       141 -10.4887     28.5164     48.4210   9.0033281071e+01   6.4470427819e+01    0.2316834    0.1585872 -23.72 9.312077e-05    1.300    0.231
       142  -9.2872     89.1549     48.1677   6.5507853736e+01   5.5327276194e+01    0.1712571    0.1626869  65.60 0.0002445885    1.271    0.213
       143  -9.9872    169.7213     47.3752   4.6273487646e+01   3.7005920972e+01    0.2675353    0.1628364  53.17  0.001295118    1.608    0.378
       144 -10.9175    136.1425     46.4049   5.2337110552e+01   4.5185307642e+01    0.3515402    0.2342408  65.36  0.001723956    1.510    0.338
       145 -10.8340     41.3883     44.4251   8.2655220812e+01   6.3778189028e+01     0.306784    0.2456598 -68.72  0.001224669    1.982    0.496
       146 -10.2777    166.8488     43.4930   4.5677561573e+01   3.8226337008e+01    0.2806776    0.2325808  58.90  0.001004708    1.170    0.145
       147 -10.7165    108.7803     43.3837   5.7962865018e+01   5.1907999147e+01    0.2720945    0.2393376  59.59 0.0004330475    1.180    0.153
       148  -9.8203     25.4964     48.5480   9.1502241642e+01   6.4732437744e+01    0.2085413    0.1726898   4.40 0.0008827961    1.211    0.175
       149  -9.8320     29.1803     42.2045   8.7533275291e+01   6.5563993206e+01    0.1912678    0.1441266  50.63  0.001107603    2.076    0.518
       150 -11.1165    142.3036     42.6710   4.9894167282e+01   4.4233099802e+01    0.4288585    0.1925611  45.71  0.001263528    2.276    0.561
       151 -10.1168     69.4467     41.7191   6.9961370755e+01   6.0015937801e+01    0.2938045    0.2111036  77.05  0.001216743    3.107    0.678
       152 -10.0847     56.5599     41.7711   7.5062514600e+01   6.2121184219e+01    0.2277916     0.162821  28.98 0.0002326511    1.337    0.252
       153 -10.7148    202.6066     50.8351   4.2337777762e+01   2.8847752906e+01    0.3524935    0.1544284 -46.20  0.001539084    2.133    0.531
       154 -12.0095    229.2691     38.0215   3.6420011188e+01   2.4790538257e+01    0.4300384    0.2791637 -69.97  0.002458551    1.447    0.309
       155 -10.5917     36.1505     38.2048   8.2698426547e+01   6.5499315031e+01    0.2064215    0.1646526 -13.42 0.0003808085    1.036    0.035
       156  -9.9872     33.6813     34.7175   8.2498530508e+01   6.6379862506e+01    0.1800462    0.1423089 -25.01 0.0004257153    1.129    0.114
       157  -9.1919    181.9623     38.2686   4.1992139899e+01   3.5321276825e+01    0.1806153    0.1575637  88.00 0.0003598208    1.034    0.033
       158 -10.5594     81.2910     54.6109   7.0485658765e+01   5.5780839613e+01    0.4265151    0.2242009  33.75  0.001512015    1.939    0.484
       159 -10.8217     83.8332     37.3297   6.3187087690e+01   5.7991412742e+01    0.3456243    0.1993188 -54.15   0.00148314    2.876    0.652
       160 -11.9838    234.8642     35.8792   3.5440850744e+01   2.3912688763e+01    0.7137944    0.1418307 -34.99  0.002415253    4.545    0.780
       161 -12.4348    240.3050     32.8056   3.4326939089e+01   2.3202707109e+01    0.5317745    0.3108912 -82.82  0.002741438    1.741    0.426
       162  -9.9733    235.3360    241.3089   7.6859625275e+01  -8.9883042849e+00    0.1247008   0.07423286  -1.67 0.0007042947    1.678    0.404
       163  -9.9237     48.3463     36.6123   7.6505208516e+01   6.4170116793e+01    0.1612295    0.1560129  74.20 0.0004126228    1.563    0.360
       164 -10.2851     67.2273     35.2520   6.8233467991e+01   6.1377247266e+01    0.1589228    0.1561037 -25.04 0.0004743317    1.333    0.250
       165  -9.0336     99.2177     33.9547   5.7214449992e+01   5.5271500936e+01    0.1618209    0.1097184 -29.07 0.0003282123    1.583    0.368
       166 -10.4012     43.5496     32.3305   7.6888107627e+01   6.5516361483e+01     0.342882    0.1160613 -46.49   0.00131813    3.622    0.724
       167  -9.7843    193.8895     33.6487   3.9273467760e+01   3.3130323480e+01    0.2619078   0.09696533  59.24 0.0007891994    2.498    0.600
       168 -10.5961    115.3046     31.6759   5.2216653618e+01   5.1981731513e+01    0.2988719     0.203744  34.39  0.000599484    1.506    0.336
       169  -9.7519    151.3808     30.7504   4.4624650808e+01   4.3565336001e+01    0.1798543    0.1329068 -12.30 0.0009573664    1.714    0.417
       170 -10.5543     78.8456     30.9397   6.2337309926e+01   5.9834433100e+01    0.2156155    0.1841118  17.34 0.0004483664    1.036    0.035
       171 -11.6801    250.3670     25.8106   3.2135059057e+01   2.2089367564e+01    0.5064938    0.2474796 -24.35  0.002393763    3.221    0.690
       172 -11.0802    248.5112     22.5049   3.1635890737e+01   2.2845766816e+01    0.2045528    0.1653836 -77.17 0.0006855855    1.103    0.093
       173  -8.9114    125.2910     30.3292   4.9492791348e+01   4.9831623519e+01     0.139048   0.09685663  29.55 0.0007018489    1.623    0.384
       174 -10.2213    216.3315     28.3261   3.5578121639e+01   2.8764821089e+01    0.2461565    0.1952578  38.84  0.001508492    1.767    0.434
       175  -9.9337    109.8236     29.4595   5.2771964060e+01   5.3492107194e+01    0.4141626    0.1253118  57.66  0.001446275    3.118    0.679
       176 -10.9564     47.7242     28.3386   7.3320871484e+01   6.5527088665e+01    0.2731979    0.1961055  33.57 0.0006843837    1.394    0.283
       177 -10.2616     15.6370     28.5427   8.9251628861e+01   6.9246714976e+01    0.2984875    0.1593072 -25.13  0.001664471    1.720    0.418
       178 -12.0486    237.9733     26.5287   3.3252411481e+01   2.4448701377e+01    0.4216565    0.2379043  44.65  0.002149446    2.897    0.655
       179 -10.6683    183.1642     26.6043   3.8842364404e+01   3.6474556075e+01    0.4924412    0.2052174  52.73  0.001576819    2.465    0.594
       180  -9.9504    207.0320     26.2314   3.6041397682e+01   3.1060413375e+01    0.2412519    0.1669181 -48.42 0.0009937787    1.350    0.259
       181 -10.5345     80.7150     26.1831   5.9802891534e+01   6.0073538064e+01    0.3052007    0.2374957 -73.81  0.001546016    2.178    0.541
       182  -9.5151    121.9729     25.7356   4.8668142262e+01   5.1136378062e+01    0.1909342    0.1578663  57.82 0.0003216694    1.086    0.079
       183 -10.9378    227.8095     23.1292   3.3407482931e+01   2.6944866804e+01    0.3022591    0.1760769  89.89  0.001373549    1.665    0.399
       184  -9.2777     98.7281     23.7718   5.3543290694e+01   5.6606597083e+01    0.1691185    0.1521274  89.42 0.0007218183    1.369    0.270
       185 -12.6268     75.5651    218.2450   1.0721945285e+02   1.8610400121e+01    0.7931558    0.6086621  72.07  0.003114371    1.273    0.214
       186 -11.2715     67.9034    215.7538   1.0869286688e+02   2.0191121532e+01    0.5133594    0.2896395  75.28  0.002406507    2.170    0.539
       187 -12.5923    235.6139    207.4707   7.0946847003e+01  -4.0971931190e+00    0.4802066     0.295028 -17.52   0.00265219    1.583    0.368
       188  -9.2427    179.0108     23.0202   3.8445540934e+01   3.7860806682e+01    0.1620006     0.135228  83.14 0.0007412399    1.053    0.051
       189 -10.2722    164.3896     22.2492   4.0183253304e+01   4.1414681183e+01    0.2730485    0.1823631  42.20  0.001343323    1.716    0.417
       190 -10.3082    141.7516     21.7875   4.3580232079e+01   4.6887186846e+01    0.2277369    0.1896346  66.22 0.0002918633    1.061    0.058
       191 -14.1269    247.4051    188.7589   6.5423700040e+01  -2.7900792581e+00     1.728249    0.5505078 -33.34  0.006707493    3.038    0.671
       192  -9.7815    108.0204     14.9832   4.7988968769e+01   5.5461696452e+01     0.192867    0.1668228  51.80 0.0003168009    1.033    0.032
       193  -9.7680      1.4925     22.0956   9.4673967757e+01   7.1390497142e+01    0.1680598   0.09303688 -47.97  0.001025456    1.570    0.363
       194 -10.1081      1.4563    185.4570   1.2124910946e+02   3.4225275985e+01    0.2591743   0.09887597 -78.77   0.00121162    2.183    0.542
       195 -11.9530    236.7478    179.4978   6.5467124313e+01   2.6158827035e-01    0.3323374    0.2114631 -34.47    0.0018208    1.367    0.268
       196 -10.9061    149.9351     18.5261   4.1262124887e+01   4.5270827040e+01    0.2876529    0.2191786  82.25 0.0005765762    1.246    0.198
       197 -10.6138    242.9752     17.6317   3.1096444159e+01   2.4502708973e+01    0.2078832    0.1271887 -55.89  0.001304656    1.331    0.249
       198 -10.1075     60.8575     18.1586   6.3390878979e+01   6.4749002559e+01    0.1752273    0.1537597  24.49 0.0002898972    1.162    0.139
       199 -10.9798    249.4265     16.8093   3.0479902806e+01   2.3335991946e+01    0.2037237    0.1445607 -23.31  0.001299385    1.960    0.490
       200 -12.6928    247.9353    212.1174   6.9627835073e+01  -6.4315160624e+00    0.4587767    0.3490354  -9.93  0.002713707    1.046    0.044
       201  -9.6866     87.2897     17.6485   5.4337746593e+01   5.9707960385e+01    0.1197018    0.1007284 -68.99  0.000702656    1.671    0.401
       202  -9.3356    100.8740    175.9928   9.5112346598e+01   2.4625789389e+01    0.1838713    0.1770683  86.26  0.001026672    1.020    0.020
       203 -10.1342     19.9115     15.3876   8.1235551349e+01   7.0932246795e+01     0.178013     0.142405 -28.22 0.0004865035    1.313    0.239
       204 -10.4014     10.7845     15.4836   8.6472381823e+01   7.1790448992e+01    0.2452613    0.1596048  -4.17  0.001089081    1.332    0.249
       205  -9.1340     72.8029     15.5762   5.7976616903e+01   6.2837102015e+01    0.1629145    0.1138383  56.80 0.0003298469    1.580    0.367
       206  -9.8532    127.4994     36.5837   5.1075511286e+01   4.8543653658e+01    0.2458565     0.226412  53.96  0.001107653    1.011    0.011
       207 -10.9797      6.0245    167.9979   1.1892674406e+02   3.8013208821e+01    0.2122815      0.12137  65.06  0.001140897    1.716    0.417
       208  -9.8327     85.1397     14.1298   5.3534168454e+01   6.0515385797e+01     0.163477    0.1497409  72.08  0.000690626    1.329    0.248
       209 -11.9901    249.1998    204.7643   6.8086916810e+01  -5.5019950131e+00    0.5845485    0.2256598 -42.05    0.0026565    2.557    0.609
       210  -8.8248    116.3037     13.2927   4.5596706869e+01   5.3731501521e+01    0.1337757   0.08565193  37.10 0.0002382004    1.574    0.365
       211 -10.3737     25.5237    152.6247   1.1232987688e+02   4.0223315454e+01    0.3382969    0.1655448  72.65  0.001025993    2.689    0.628
       212 -10.9166      3.2793    152.7378   1.1836490023e+02   4.1913020435e+01     0.377758    0.2113501 -38.14  0.001611847    2.231    0.552
       213  -9.8444      9.9780    151.7473   1.1649200006e+02   4.1691860716e+01    0.1680346    0.1547323 -87.71 0.0004676942    1.130    0.115
       214  -8.9433     39.5571    145.5120   1.0740270963e+02   4.0682762394e+01    0.1385764    0.1216589 -73.59 5.344294e-05    1.008    0.008
       215 -12.4797    245.1352    141.1450   5.6379795505e+01   5.4596709646e+00    0.5443294    0.4395956   5.13  0.003269263    1.440    0.306
       216 -10.2397      1.9609    143.7089   1.1791415517e+02   4.4208351750e+01    0.2111042    0.1387187 -66.39  0.000184098    1.269    0.212
       217  -9.8613     36.1558    142.0687   1.0791865736e+02   4.1902984449e+01    0.2075358    0.1645368 -49.43 0.0002870253    1.248    0.199
       218 -10.9390     21.8376    141.8681   1.1210185137e+02   4.3244295000e+01    0.2193566    0.2048593  70.49 0.0002609365    1.154    0.134
       219 -10.2512    219.4655    135.6537   5.9416374927e+01   1.0941630158e+01    0.5238256      0.17425 -39.99  0.001875852    2.691    0.628
       220 -11.2185    224.7915    136.1483   5.8610605723e+01   9.8706019757e+00    0.6009607    0.3499429 -36.84  0.002899798    1.535    0.348
       221 -11.1326     29.3009    138.1776   1.0942253093e+02   4.3536801026e+01     0.331783    0.2056852 -64.94 0.0004896253    1.376    0.273
       222  -9.3859      2.2532    137.9680   1.1729018804e+02   4.5600355818e+01     0.168396   0.09030762 -76.27 0.0006454802    1.522    0.343
       223  -8.8183    215.2926    134.6540   5.9929465895e+01   1.1909895308e+01    0.1420932    0.1074603 -66.31 0.0002929035    1.664    0.399
       224  -9.0113      1.3022    134.3003   1.1720047837e+02   4.6557404629e+01    0.1282524   0.07783198 -49.62 0.0003027854    1.586    0.370
       225  -8.8175     71.2727    131.2890   9.5273137052e+01   4.0428243728e+01    0.1464712    0.1090628 -30.92 0.0002113574    1.511    0.338
       226 -11.0440    245.7818    128.8121   5.3737490002e+01   7.4530522927e+00    0.3332442    0.2458855  -0.58  0.001770797    1.824    0.452
       227  -9.4957    211.6606    128.3218   5.9164940581e+01   1.3789511498e+01    0.3284559    0.2290352 -75.44  0.001454746    2.214    0.548
       228 -10.6787    219.6026    127.2372   5.7543019070e+01   1.2459134386e+01    0.2793154    0.2453345 -48.75 0.0009413761    1.101    0.092
