#   1 NUMBER                 Running object number                                     
#   2 MAG_AUTO               Kron-like elliptical aperture magnitude                    [mag]
#   3 X_IMAGE                Object position along x                                    [pixel]
#   4 Y_IMAGE                Object position along y                                    [pixel]
#   5 X_WORLD                Barycenter position along world x axis                     [deg]
#   6 Y_WORLD                Barycenter position along world y axis                     [deg]
#   7 A_WORLD                Profile RMS along major axis (world units)                 [deg]
#   8 B_WORLD                Profile RMS along minor axis (world units)                 [deg]
#   9 THETA_WORLD            Position angle (CCW/world-x)                               [deg]
#  10 FWHM_WORLD             FWHM assuming a gaussian core                              [deg]
#  11 ELONGATION             A_IMAGE/B_IMAGE                                           
#  12 ELLIPTICITY            1 - B_IMAGE/A_IMAGE                                       
         1 -10.8473    236.2594     19.7063   3.1693658552e+01   2.5110604138e+01    0.5787802    0.4504038 -54.34  0.003471546    1.195    0.163
         2 -14.0320    174.8738     93.0762   5.6355161007e+01   2.7749375473e+01     2.749683     1.773293  55.00   0.01288954    1.574    0.365
         3 -11.0462    204.1352     31.8955   3.7145781563e+01   3.0431417463e+01    0.4904375    0.3234937 -20.22 0.0006868966    2.141    0.533
         4  -8.7279    203.7789     15.8330   3.3608252011e+01   3.2387801565e+01    0.8035782    0.5605186 -38.26  0.005010454    1.528    0.346
         5 -14.4563    230.5490    103.4388   4.9606576858e+01   1.4137019608e+01     5.381219     2.328286 -50.73  0.004053877    2.285    0.562
         6 -11.5875    227.2646     32.7247   3.5043098891e+01   2.5364898784e+01     3.315099      1.67012  69.09  0.004515005    1.927    0.481
         7 -11.6396    212.9067     24.1622   3.4568519805e+01   2.9447187023e+01    0.6223689    0.3179884 -32.30   0.00221363    2.157    0.536
         8 -14.6095    178.4954     78.2433   5.1938465747e+01   2.9529746852e+01     5.041152     2.469381 -66.66   0.00185954    4.329    0.769
         9 -14.6859    216.5484     75.2146   4.5378850252e+01   2.1589302491e+01     8.278928     4.545022 -45.08   0.04093837    1.628    0.386
        10 -14.6976    239.1284     55.8791   3.8632727553e+01   1.9867093073e+01     4.762329    0.6648151  55.45   0.01355252    7.471    0.866
        11 -11.1867    134.2397     20.9334   4.3836641331e+01   4.8019805108e+01    0.4734832      0.24312 -28.61   0.00205463    2.215    0.548
        12 -10.0520      1.4612     12.2856   8.7398222913e+01   7.2724960155e+01    0.4050529   0.08277093 -46.42  0.001637237    4.089    0.755
        13 -12.4604    249.6714     26.7497   3.2031883812e+01   2.1647174550e+01    0.8009128    0.2721742 -34.29 0.0008075917    3.065    0.674
        14 -11.2288    135.9519     12.6550   4.1047651204e+01   4.8436892214e+01    0.3784911    0.2817045 -85.91  0.002212983    1.404    0.288
        15 -10.2226    249.9670      7.7978   2.8533865793e+01   2.3787487399e+01    0.2762693    0.1623595 -34.64   0.00112326    1.871    0.466
        16  -8.2681    184.7901      6.0038   3.3174840044e+01   3.7659353752e+01    0.1841184    0.1328811  30.96  0.001075238    2.073    0.518
        17  -9.4444    128.3523      5.1462   3.9978706827e+01   5.0886077280e+01    0.2217992    0.1232036  -7.25  0.001095812    2.598    0.615
        18 -10.2031    119.2525      4.7015   4.1358625605e+01   5.3032987186e+01    0.2950472    0.1782133  -5.16  0.001568883    2.250    0.556
        19  -8.3376    236.0983      2.8057   2.8479062432e+01   2.7016288064e+01    0.2030544    0.1070193  56.10  0.001157202    2.417    0.586
        20  -9.2829    159.2303      2.0675   3.4900045448e+01   4.3917915335e+01    0.2326134    0.2009522  27.90 0.0009808844    1.482    0.325
        21  -8.4970    181.3962      4.2193   3.3084552126e+01   3.8603014034e+01    0.1639495    0.1006654 -47.33 0.0009512203    1.616    0.381
        22  -8.2827    212.3292    180.3280   6.8664864780e+01   3.6612234106e+00    0.1421481    0.0987959  -6.00 0.0007051094    1.708    0.414
        23  -9.0238    230.1104    250.1560   7.7754758486e+01  -9.8507933747e+00    0.1435079    0.1253421   7.18 0.0006135222    1.324    0.245
        24  -9.9790    248.9277    248.5796   7.4232388632e+01  -1.1840145426e+01    0.3137482    0.1744515 -15.69  0.001909615    1.681    0.405
        25  -8.8151    241.6669    242.3238   7.4463179464e+01  -1.0190737441e+01   0.09575413   0.09265524  19.54 0.0005166367    1.707    0.414
        26  -9.2082    190.2551    237.4308   8.3228851914e+01  -2.6849915620e+00     0.212352    0.2071591 -36.84 0.0008690107    1.383    0.277
        27 -10.3134    210.2645    231.3717   7.8346276262e+01  -4.5837891242e+00    0.2094183     0.184178  -6.39 0.0002265445    1.157    0.135
        28  -9.4828    178.4121    231.3108   8.4634567071e+01   7.7745540387e-02    0.2987363    0.1900094  36.68 0.0008874336    1.462    0.316
        29 -11.8708      2.7269    167.0752   1.1801542613e+02   3.8888876510e+01    0.8121686    0.3001207 -77.49  0.003585476    2.301    0.565
        30  -9.3246    250.6459    171.7809   6.0411834793e+01  -8.1908529701e-01    0.1742939    0.1000986 -43.66 0.0002938773    1.609    0.378
        31 -10.2843     22.7927    166.4983   1.1280158249e+02   3.7334539881e+01    0.6893471   0.09670595  34.49  0.002228116    4.657    0.785
        32 -10.9597     19.7113    161.4205   1.1307859262e+02   3.8871632057e+01    0.2802564    0.1648932  26.74  0.001464928    1.919    0.479
        33 -11.9305     16.4309    149.9510   1.1271448373e+02   4.1997391230e+01    0.7789165    0.4723332 -56.33  0.004178502    1.513    0.339
        34  -9.1064    179.2356    226.6357   8.3702999326e+01   7.4872148608e-01    0.2092434    0.1734193 -31.15 0.0003650504    1.259    0.206
        35 -11.1192     65.6909    143.5823   9.7325721645e+01   3.8121961684e+01     2.425113    0.9577838  37.23  0.009167179    2.523    0.604
        36 -12.4633     33.3514    153.1676   1.0832782054e+02   3.9621382491e+01    0.6481745    0.5318344  75.17  0.001470378    1.206    0.171
        37 -12.9968     43.6988    148.7047   1.0470986618e+02   3.9626855726e+01     1.137401    0.8284149  16.35  0.005117883    1.650    0.394
        38 -10.9662    190.4362    153.6774   6.7450466406e+01   1.2619178760e+01    0.3980688     0.342218  84.73 0.0009216036    1.490    0.329
        39 -11.1632    176.5871    149.0349   6.9312845390e+01   1.6271957181e+01    0.5335782    0.4079869  42.78 0.0005121806    1.352    0.260
        40 -10.0649    133.6780    145.6075   7.8615324015e+01   2.5705260521e+01    0.8777754    0.3138249 -56.64  0.002503713    3.840    0.740
        41  -8.9558    145.5287    148.0174   7.6195151211e+01   2.2770585673e+01    0.2447617    0.1510017 -48.00  0.001013708    1.614    0.381
        42  -9.1999    222.3513    144.6627   5.9616821299e+01   8.4020005898e+00    0.3427982    0.2345104 -76.78  0.001552943    2.560    0.609
        43  -9.6487    192.1125    143.9357   6.4996230388e+01   1.4222434396e+01      0.28841    0.2152185 -31.06 0.0005216388    1.341    0.254
        44  -8.1341    120.5534    145.4574   8.2012669621e+01   2.8327574461e+01    0.1523515    0.1513335 -59.41 8.500174e-05    1.006    0.006
        45  -8.9521    158.5211    143.0467   7.1985958762e+01   2.1210982503e+01    0.2976303    0.2146254  59.97 0.0008556252    1.618    0.382
        46 -10.5233    175.9312    139.2593   6.7261983130e+01   1.8422771978e+01    0.4284995    0.2816246  88.89  0.001572057    3.103    0.678
        47 -10.2260    181.0563    138.3116   6.5972927579e+01   1.7566396610e+01    0.3628614    0.2088518  27.72  0.001420818    2.456    0.593
        48 -10.6072    155.9739    137.3439   7.1264974337e+01   2.2975257357e+01    0.6041192    0.3730883  36.27  0.002575914    1.748    0.428
        49 -10.1002    205.2328    135.2205   6.0595204920e+01   1.3340870475e+01    0.3389375    0.1989416  49.12  0.001569837    1.868    0.465
        50 -12.0148    199.0114     82.9350   4.9683778669e+01   2.4111404891e+01    0.9527465    0.3955887  46.06  0.003631948    2.949    0.661
        51 -10.3362    190.7099    132.0646   6.2618745700e+01   1.6843000354e+01    0.3344035    0.2397285  54.55  0.001640612    1.532    0.347
        52  -9.9287    225.4028    129.3578   5.5893305143e+01   1.0597989749e+01    0.4309099    0.2563932 -59.05  0.001992115    2.062    0.515
        53 -10.4946    161.0967    128.3756   6.7973640429e+01   2.3810313743e+01    0.4683973    0.2884805 -54.98  0.001980247    1.769    0.435
        54  -9.1149    136.1573    129.4027   7.4212716564e+01   2.8886973136e+01    0.3091859     0.109937 -44.77 0.0009806654    2.809    0.644
        55  -9.8667    208.5473    126.9748   5.8190676813e+01   1.4240459180e+01    0.2588596    0.2000967  29.18   0.00119514    1.552    0.356
        56  -7.9084     92.6295    127.7431   8.5920848358e+01   3.7783005835e+01    0.1532763    0.1195763  -6.43 0.0006970391    1.644    0.392
        57  -9.0683    180.4096    222.1510   8.2714166764e+01   1.3434404562e+00    0.2323315    0.1677245  29.20 0.0005176867    1.265    0.209
        58  -8.2773     33.3398    218.3217   1.1507082090e+02   2.4013658260e+01    0.1166917   0.09361232 -39.95 0.0007050479    1.719    0.418
        59 -10.5107    227.2247    119.2225   5.3455797517e+01   1.2050626646e+01    0.2760319    0.2147737 -66.38 0.0003608434    1.417    0.294
        60  -9.0328    177.8593    121.8724   6.2817092039e+01   2.1552073863e+01     0.256299    0.2082492 -55.70 0.0003956323    1.240    0.194
        61  -9.6053    170.2617    121.9450   6.4420035294e+01   2.3172196946e+01    0.2841804    0.2189067  77.44  0.001338569    1.627    0.386
        62 -10.0469    213.9950    120.8889   5.5923105323e+01   1.4290070211e+01    0.2784856    0.2443761  19.71  0.001603042    1.353    0.261
        63  -9.3282    135.1696    120.0463   7.2163126281e+01   3.1174576927e+01    0.3491978    0.2003438 -52.11 0.0008772755    1.821    0.451
        64 -10.1910    205.1533    114.8231   5.6060529829e+01   1.7170065399e+01    0.4512365    0.2981323  19.78   0.00194071    2.564    0.610
        65 -11.3385    204.6797    110.6263   5.5188704442e+01   1.8035555442e+01    0.7454651    0.5533007  16.45  0.003632351    1.992    0.498
        66 -10.7448    167.9375    114.0001   6.2982869434e+01   2.5285669691e+01    0.5647559    0.3561052 -41.11   0.00251803    1.557    0.358
        67  -8.0100     28.8395    114.8489   1.0385859918e+02   4.9635254599e+01     0.172907    0.1475169  84.53 0.0003560434    1.274    0.215
        68  -9.7677    134.8975    109.7313   6.9592068665e+01   3.3465127964e+01     0.742257    0.2004491 -44.12  0.002104714    3.702    0.730
        69  -8.0090     69.5497    113.5850   8.9876537143e+01   4.4994138642e+01    0.1442527    0.1375402 -40.18 0.0001324328    1.010    0.010
        70  -9.9077    237.4710    172.8089   6.2738449498e+01   9.6992955240e-01    0.2210554    0.1706087 -38.34  0.000667377    1.195    0.163
        71  -7.9359    108.9511    110.7509   7.6910119172e+01   3.8686760939e+01    0.1926085    0.1312528  39.59 0.0003713648    1.483    0.326
        72  -9.9353    135.4946    100.0897   6.6880511729e+01   3.5342974794e+01    0.7426137    0.3088205 -38.44 0.0007257644    2.599    0.615
        73 -11.1874    126.7693    104.6267   7.0348287145e+01   3.6313056811e+01    0.6216227    0.4641137 -65.78   0.00286028    1.594    0.373
        74 -10.8634    120.1099    102.3996   7.1538477779e+01   3.8212048993e+01    0.4170669    0.2900612 -38.86  0.001904745    1.475    0.322
        75  -7.8135    143.3145    106.3401   6.6619043909e+01   3.2320401918e+01    0.1571126    0.1238492   1.79 0.0007047508    1.702    0.412
        76  -9.6126    149.8889    103.4760   6.4315879504e+01   3.1431543744e+01    0.3222015    0.2755758  23.66 0.0006543506    1.335    0.251
        77  -8.9584    111.5214    104.5121   7.4514939688e+01   3.9548369909e+01    0.1509538    0.1498272 -10.02 6.271945e-05    1.005    0.005
        78 -13.3984    231.8860     69.3738   4.2206431858e+01   1.9337687585e+01     1.288338    0.6168664  60.03   0.00197289    2.235    0.553
        79 -10.3919     87.9412     95.7228   7.9259265284e+01   4.6040996397e+01    0.2506958    0.2147326 -42.28 0.0002422419    1.146    0.128
        80 -10.1972    143.7550     94.0108   6.3227838799e+01   3.4695529239e+01    0.3279502    0.3011109  79.42   0.00114475    1.127    0.113
        81 -10.2614    113.4963     94.9946   7.1329404646e+01   4.1165000689e+01    0.3132392    0.2347588  44.19  0.001091325    1.325    0.245
        82 -10.9067    117.7631     92.2076   6.9351475659e+01   4.0830534469e+01    0.4220812    0.3411812 -64.00    0.0020859    1.412    0.292
        83  -9.9117      2.9790     93.2193   1.0925716013e+02   5.6695562102e+01    0.2051344    0.1022422 -48.68  0.001060824    1.645    0.392
        84 -11.3840    159.5831     90.1983   5.8683373418e+01   3.1786508201e+01    0.3443179    0.2817381 -34.78 0.0007031512    1.279    0.218
        85  -8.6484    173.6093    175.2948   7.5509701469e+01   1.1432080142e+01    0.3183464    0.2186149  65.51  0.001400287    2.182    0.542
        86  -9.0859    140.5027     87.4865   6.2204653158e+01   3.6691071374e+01    0.1490243     0.145532  35.83 0.0008099198    1.055    0.052
        87 -10.6379    135.9353     80.8179   6.1414132941e+01   3.8979834631e+01    0.5695153    0.1993359  39.65  0.001648014    4.020    0.751
        88 -10.5405    142.1667     78.7262   5.9363866430e+01   3.7919276491e+01    0.4799975    0.2081082  54.49  0.001794386    2.299    0.565
        89  -9.0639    136.9157     74.9785   5.9505673735e+01   3.9801493217e+01    0.2329362    0.1788222 -82.70  0.000615449    1.650    0.394
        90 -10.2406    150.8693     71.4500   5.5422825985e+01   3.7143056030e+01    0.2842602    0.2519222  86.32 0.0003614728    1.147    0.128
        91 -10.7225      2.1763     62.5563   1.0351635919e+02   6.3527903835e+01    0.3758614     0.161183 -59.40  0.001898051    1.918    0.479
        92  -9.2467    134.3914     63.2334   5.6645232846e+01   4.2369017453e+01    0.1984968    0.1328501 -48.35 0.0004909972    1.606    0.377
        93 -10.4362    125.2035     59.3197   5.7611163130e+01   4.5124375121e+01    0.3268224     0.249567 -43.23 0.0006557198    1.389    0.280
        94 -10.3048    153.5313     56.0747   5.0590294324e+01   3.8950676109e+01     0.391428    0.2533672 -60.99  0.001844818    1.816    0.449
        95  -9.1059    195.0009     56.1755   4.3906185311e+01   2.9213153345e+01    0.2260508    0.1736776 -52.42 0.0004057875    1.224    0.183
        96  -9.7919    176.0214     49.4918   4.4997273167e+01   3.4560900990e+01    0.3523697    0.2340879 -34.36  0.001825122    1.620    0.383
        97 -11.9699      2.5677     45.7607   9.8941352411e+01   6.6886038741e+01    0.8688332    0.4161497  -3.79  0.002462883    2.387    0.581
        98 -11.5429      2.2190     39.9972   9.7379630243e+01   6.7998747274e+01    0.7082332    0.1836533 -58.52  0.002782906    3.761    0.734
        99  -9.4815    189.9916     35.3261   3.9563126486e+01   3.3194720935e+01    0.3703169    0.2098861 -23.16 0.0001478605    2.395    0.582
       100  -8.3205    192.4928     45.9950   4.1805008364e+01   3.1221222504e+01    0.2261101    0.1621938 -71.68  0.001238959    1.370    0.270
       101  -8.9979    191.4728     42.4987   4.1098229004e+01   3.1925656495e+01    0.3253437    0.1965469 -61.46  0.001191071    1.698    0.411
       102  -9.7024    147.0929    215.6707   8.8803469228e+01   7.9363745933e+00    0.2230484     0.210581 -43.76 0.0004524511    1.167    0.143
       103 -11.6529    120.5027     39.4175   5.2418331790e+01   4.9078756681e+01    0.6075951    0.4598565  36.48  0.002181004    1.349    0.259
       104 -12.6716    249.3845     61.1978   3.8675355887e+01   1.7135596637e+01    0.6541372    0.2684842 -42.60 0.0003496904    1.998    0.499
       105  -8.8605    145.0000     28.9819   4.4376844739e+01   4.4579164119e+01    0.2011524   0.07701504 -29.70 0.0008011922    2.934    0.659
       106 -12.2045    250.2731     41.0013   3.4678436687e+01   1.9731590231e+01    0.6297506    0.4283077 -34.65 0.0006193529    1.615    0.381
       107  -9.6435    158.5675     26.2963   4.1475453297e+01   4.1651585015e+01    0.3981848    0.2450791  59.07   0.00123205    1.466    0.318
       108  -9.9774    179.4971     24.0487   3.8095953807e+01   3.6974398091e+01    0.4448879     0.314335  86.06  0.002247151    1.286    0.222
       109 -10.0222    188.3153     23.6420   3.6969498218e+01   3.4985577106e+01    0.2293473    0.1872227 -71.59 0.0004358993    1.101    0.092
       110  -9.8201     37.0312    213.5206   1.1385778388e+02   2.4664378604e+01    0.3606425    0.1795124  40.23  0.001740421    1.814    0.449
       111 -10.9646    144.4595     21.7926   4.2377924380e+01   4.5505601857e+01    0.4240069    0.2901227  84.19  0.002314693    1.477    0.323
       112 -10.0750    245.3021    209.0563   6.8161961681e+01  -5.9228949503e+00    0.2924194    0.2167024  51.80  0.001117986    2.158    0.537
       113  -9.0287    147.9949     18.0438   4.0752380733e+01   4.5056965279e+01    0.1963751    0.1708762  70.54 0.0003942127    1.041    0.039
       114  -8.3061    167.1410     16.4887   3.7703842212e+01   4.0688158523e+01    0.1688453    0.1524241 -66.44 0.0002776374    1.155    0.134
       115  -9.8002    119.3236     15.8584   4.4982397625e+01   5.2021126717e+01     0.187922    0.1536448 -55.75 0.0005343153    1.413    0.292
       116  -8.0888     99.0122    210.8822   9.9179112337e+01   1.6781229432e+01    0.1560173    0.1445382 -86.46 0.0004228454    1.116    0.104
       117  -7.9825    221.7670    205.6120   7.1688262994e+01  -2.1389103686e+00     0.155186     0.116518  37.57 0.0003830537    1.488    0.328
       118  -8.8757    170.0097    201.4193   8.1296145520e+01   6.8606990656e+00    0.2163379     0.178276 -24.68 0.0005448702    1.228    0.186
       119  -9.4818    194.6768    198.0171   7.5503721038e+01   3.3661581116e+00    0.4219712    0.2419815 -65.73  0.001475205    4.393    0.772
       120  -8.1325    231.8473     12.8453   3.0687374725e+01   2.6781793720e+01      0.14953    0.1260248 -65.27 0.0005269985    1.176    0.150
       121  -9.7738    191.1616    191.6371   7.5013033634e+01   5.1264095139e+00     0.708939    0.3787113 -63.02  0.002418701    4.261    0.765
       122  -9.9685    239.3144    198.9665   6.7359047804e+01  -3.5685034805e+00    0.2491466    0.1801896  49.91  0.001454997    1.980    0.495
       123  -9.3221     31.2678    197.3605   1.1373705290e+02   2.9022874246e+01     0.220674    0.1906356  82.12 0.0003514001    1.041    0.039
       124 -10.2320    235.4302    179.6778   6.4406686457e+01   1.2732827156e-01    0.2941647    0.2153624 -27.04 0.0007399135    1.189    0.159
       125  -8.5662     33.6572    181.8759   1.1163461384e+02   3.2465779070e+01    0.1774556    0.1424674 -82.36 0.0003390178    1.108    0.098
