#   1 NUMBER                 Running object number                                     
#   2 MAG_AUTO               Kron-like elliptical aperture magnitude                    [mag]
#   3 X_IMAGE                Object position along x                                    [pixel]
#   4 Y_IMAGE                Object position along y                                    [pixel]
#   5 X_WORLD                Barycenter position along world x axis                     [deg]
#   6 Y_WORLD                Barycenter position along world y axis                     [deg]
#   7 A_WORLD                Profile RMS along major axis (world units)                 [deg]
#   8 B_WORLD                Profile RMS along minor axis (world units)                 [deg]
#   9 THETA_WORLD            Position angle (CCW/world-x)                               [deg]
#  10 FWHM_WORLD             FWHM assuming a gaussian core                              [deg]
#  11 ELONGATION             A_IMAGE/B_IMAGE                                           
#  12 ELLIPTICITY            1 - B_IMAGE/A_IMAGE                                       
         1 -10.9411     32.1852     64.3693   9.6062311434e+01   6.0261032302e+01     1.607228    0.5538439 -33.13  0.005477151    3.970    0.748
         2 -10.3489     10.1944     18.8918   9.0387893644e+01   7.0676832116e+01      1.28693    0.4541374 -21.07  0.003908965    6.804    0.853
         3 -10.1904      4.7117     41.8709   1.0157114324e+02   6.6914653483e+01    0.6564528    0.2939022 -59.02  0.003404321    2.037    0.509
         4  -9.7533     25.7384     24.9556   8.4931931325e+01   6.8246889497e+01    0.8074903    0.3320323 -21.72  0.003140174    3.728    0.732
         5  -8.2662     71.9591      8.6393   5.8218212111e+01   6.3283831872e+01    0.2077593    0.1485772   2.47 0.0006063606    1.358    0.264
         6 -10.0263     73.5706     17.6761   6.1693018889e+01   6.2034293298e+01     1.007632    0.2188392 -28.86  0.003320283    4.687    0.787
         7 -10.0424     69.6300     40.8247   7.2751346875e+01   5.9634505887e+01    0.9291381    0.3855403 -36.27  0.003187335    2.355    0.575
         8  -9.7408     63.2060     21.4082   6.6990016269e+01   6.3472173639e+01    0.4381641    0.2850429 -48.37  0.001968372    2.330    0.571
         9 -10.0566     64.6405     13.3611   6.2840650560e+01   6.4160837329e+01     0.450782    0.3174598 -33.09  0.001722447    1.627    0.385
        10 -10.0943     46.2340     29.3670   7.7341402694e+01   6.5036340079e+01    0.4792497    0.2550577 -46.31  0.001143048    2.325    0.570
        11 -10.3187     51.2608     15.0721   6.8751779487e+01   6.6234692962e+01    0.9625592    0.4790647  10.21  0.004034998    3.179    0.685
        12  -9.3259     91.4231     26.2602   5.9701190443e+01   5.7498135157e+01    0.5003433    0.2148392 -39.12  0.002006015    2.688    0.628
        13  -8.9753    128.4806     25.0097   5.0115316958e+01   4.9357724160e+01    0.4449401     0.279153 -14.04   0.00115165    1.887    0.470
        14  -9.3714    102.8788     21.5867   5.4742341556e+01   5.5584293562e+01    0.5296712    0.2905962 -26.72  0.002106906    1.939    0.484
        15  -8.5588    112.3379     15.6877   5.0272303464e+01   5.4072177489e+01    0.2512769    0.1922922 -39.70 0.0008557054    1.514    0.339
        16 -10.6787     37.4017     10.0184   7.2310287102e+01   6.8923186450e+01      0.82744    0.3302981 -35.61  0.002793747    2.522    0.604
        17  -9.4042     24.6119     11.2342   7.9147817428e+01   7.0404015798e+01    0.3671269    0.2507114   9.46  0.001257793    1.267    0.211
        18  -9.4058     30.2468     11.1523   7.6279250862e+01   6.9732773442e+01    0.3762681    0.3521774 -72.76  0.002442166    2.112    0.527
        19  -9.0378     19.5147      8.9752   8.0690613475e+01   7.1283632310e+01    0.3868454    0.2200581   1.05   0.00171942    1.778    0.438
        20  -9.7100     18.1956      3.8459   7.8757900996e+01   7.2109811652e+01    0.3317084    0.2959503  53.36  0.001482992    2.267    0.559
        21  -9.3551      2.5610     14.5417   9.2773222277e+01   7.1956799193e+01     0.406346    0.2116138 -59.05  0.001727437    2.924    0.658
        22 -10.5161      5.4844      4.5640   8.6382480682e+01   7.3255776146e+01     0.544055    0.3755446  -2.73  0.001788259    1.184    0.156
        23  -9.4840    131.7246      5.0390   4.2805792596e+01   5.0503415308e+01     0.398739    0.1634278  55.89  0.001801415    1.972    0.493
        24  -9.8949    133.1514     13.9095   4.5491146325e+01   4.9383132337e+01    0.6694996    0.2377776 -21.17  0.002595564    3.351    0.702
        25  -8.3833    137.4879      9.5341   4.3316863851e+01   4.8749298975e+01    0.2555707     0.171087  -3.74  0.001247267    1.859    0.462
        26  -8.4062    120.2641     15.6524   4.8562862162e+01   5.2251147992e+01    0.3108868    0.2122351  25.37  0.001664087    1.597    0.374
        27  -8.5661     96.5050     12.9884   5.3018033477e+01   5.7848848062e+01    0.3164038    0.1882462  16.87  0.001574038    1.971    0.493
        28  -9.4613     85.3238     13.0829   5.6087683330e+01   6.0195966720e+01    0.3875426    0.2653036 -56.76  0.001514835    2.378    0.580
        29  -8.8944    125.1492     12.9768   4.6659186215e+01   5.1362563280e+01    0.2762188    0.1991935 -43.45 0.0008086162    1.601    0.375
        30  -8.5730    126.8538      8.8393   4.4925643048e+01   5.1332838886e+01    0.2023139    0.1547977  43.79 0.0004698603    1.199    0.166
        31  -9.4288    125.5605      4.9779   4.3842685257e+01   5.1961430940e+01    0.3529561    0.2387609  31.25  0.001969335    1.555    0.357
        32  -8.1948     80.5202     12.7086   5.7341888240e+01   6.1206548708e+01    0.2649968   0.09917354 -35.12  0.001065936    2.996    0.666
        33  -7.9605    141.4837     12.4660   4.3598213938e+01   4.7526352313e+01    0.2424491    0.1313425 -23.82  0.000723128    2.074    0.518
        34  -8.9378    113.9990     10.1024   4.7872212503e+01   5.4211255354e+01    0.3055161    0.1662561  43.99 0.0003049079    1.639    0.390
        35  -8.9744    115.4442      4.5905   4.5586136598e+01   5.4344482049e+01     0.317166     0.205457 -42.23 0.0007737213    1.847    0.459
        36  -8.7902    101.9194      8.1768   4.9808941710e+01   5.7102265303e+01    0.2367596    0.1878907 -60.36 0.0005705376    1.685    0.407
        37  -8.3376    103.8757      2.7311   4.7273178968e+01   5.7114991567e+01     0.420363    0.1654703  34.58  0.001706011    2.896    0.655
        38  -7.8258    110.0297      7.7388   4.7839925885e+01   5.5321674118e+01    0.1895829    0.1545848 -64.60 0.0006548362    1.566    0.361
        39  -8.7673    110.2519      3.3611   4.6172398332e+01   5.5629405599e+01     0.402416    0.2733806 -72.05  0.002008414    2.140    0.533
        40  -7.4242     67.9796      9.0197   5.9698762650e+01   6.4000079276e+01    0.1498003     0.122141  17.39  0.000380998    1.028    0.027
        41  -7.1100    193.2655      7.2789   3.5532236452e+01   3.5666833851e+01    0.1145042   0.08974658  46.19 0.0006877165    1.482    0.325
        42  -8.3505     97.5362      5.9845   4.9982095511e+01   5.8252251448e+01    0.2594196    0.1733436  24.68 0.0008028729    1.494    0.331
        43  -8.4093     96.2492      2.9822   4.9093089352e+01   5.8777180178e+01    0.2224688    0.1779943  -6.81 0.0007256149    1.343    0.255
        44  -8.7480     77.4333      6.4818   5.5562784676e+01   6.2414373460e+01    0.2417808    0.2264429  55.91  0.001278981    1.324    0.245
        45  -8.6396     78.5167      3.0530   5.3737953880e+01   6.2494998903e+01    0.2437788      0.22472  15.70 0.0007078256    1.183    0.155
        46  -7.4617     85.3667      6.4166   5.3269004383e+01   6.0807265728e+01    0.2691856   0.06164219  45.36 0.0009510927    3.373    0.704
        47  -8.4764     89.1949      3.0158   5.0834383188e+01   6.0289774088e+01    0.3231318     0.161767 -25.02   0.00115141    2.161    0.537
        48  -9.9963     62.8857      3.0711   5.8653937649e+01   6.5507008886e+01    0.4259002    0.3029558  45.46  0.001610636    1.344    0.256
        49  -7.9371    153.3097      4.6698   3.9450909239e+01   4.5379834155e+01    0.1320381   0.08958039 -67.27 0.0007041312    1.666    0.400
        50  -7.5484    150.5075      1.5023   3.8889188758e+01   4.6313996264e+01    0.1281959      0.11051  69.41 -0.0001037489    1.008    0.008
        51  -8.3421    136.2918      1.5577   4.0943857793e+01   4.9699289959e+01    0.1880669   0.09909074  56.84 0.0007784625    1.580    0.367
        52  -7.8390    161.0219    129.0491   7.3592281527e+01   2.3826693883e+01      0.28792    0.1726437 -64.98  0.001031179    2.676    0.626
        53 -10.1749    200.7571    249.5605   8.8832458655e+01  -5.3483521487e+00    0.4749824    0.1962329  42.09   0.00222574    2.512    0.602
        54 -10.2043    189.7908    248.6053   9.0779493032e+01  -3.6513324326e+00    0.3018095    0.2933844  23.74  0.002193111    1.406    0.289
        55  -9.9826     42.0658    122.9495   1.0584353971e+02   4.5647928069e+01    0.7694612    0.3694912 -86.54  0.002556899    3.760    0.734
        56 -10.0940     27.3153    123.1937   1.1040183956e+02   4.6977465738e+01    0.6110433    0.3491608  72.27  0.002546051    2.405    0.584
        57  -7.7555    142.8507    132.0296   7.8730270062e+01   2.7010995073e+01     0.271225    0.1919344 -78.71  0.001088344    2.210    0.548
        58  -7.8155    158.0396    121.9928   7.2519703630e+01   2.5961564688e+01    0.2443557    0.1939441 -78.97 0.0007205095    1.682    0.405
        59  -8.9424     99.9538    118.8355   8.7180269722e+01   3.8447323025e+01    0.5717919    0.3581736   3.25  0.002085675    2.898    0.655
        60  -8.6786      1.6072    116.6516   1.1723943249e+02   5.0355868752e+01    0.3914877     0.137516 -78.04   0.00140075    2.634    0.620
        61 -10.2530     92.1821    112.9667   8.8046534175e+01   4.1196324930e+01    0.6111227     0.481937  80.64  0.001824925    1.712    0.416
        62  -8.9838     92.6432    103.7021   8.5494892427e+01   4.3271761417e+01    0.5990811    0.3802948  10.52  0.002411934    2.357    0.576
        63 -10.3139     78.2943    113.0855   9.2382645483e+01   4.3427127061e+01    0.5621167    0.3633493 -78.42  0.001972751    2.269    0.559
        64  -8.7479    152.9867    115.0953   7.1938994952e+01   2.8518252886e+01    0.2434458    0.2302481 -26.51 0.0006215641    1.028    0.028
        65  -7.4476    167.3809    114.1452   6.8360368861e+01   2.5533029384e+01    0.2164649    0.1401737 -51.10 0.0003509398    1.637    0.389
        66 -10.5855     63.0635     95.9392   9.3125877474e+01   4.9687951251e+01    0.9571036    0.5710755 -81.10  0.001880646    3.325    0.699
        67  -8.9223     65.1689     85.5632   8.9588396070e+01   5.1751899852e+01    0.6546072    0.3584473  -8.06   0.00222199    3.875    0.742
        68 -10.1922     65.7637    110.4275   9.5759724935e+01   4.5886030906e+01    0.7301322    0.4332178 -68.12  0.001167345    1.927    0.481
        69  -9.4218     59.0814    109.5879   9.7744923528e+01   4.6971053524e+01    0.6242856    0.3560995 -70.33  0.001629378    2.063    0.515
        70  -9.9438     14.2551    110.1284   1.1246509347e+02   5.1156145976e+01    0.7380903    0.2771444 -73.17  0.003069916    2.479    0.597
        71 -10.9693     21.1246    100.8233   1.0867333391e+02   5.2906294568e+01     1.401555    0.7423724  81.02  0.003616459    3.335    0.700
        72  -9.8915     20.1394     85.1190   1.0596846980e+02   5.6668891108e+01    0.8055523     0.209736 -54.87  0.002482176    2.613    0.617
        73 -10.5912     25.6712     77.6706   1.0219951155e+02   5.7938877441e+01    0.9492036    0.5288068 -80.81  0.004142082    2.861    0.650
        74  -8.5172    221.5066    249.5180   8.4969509372e+01  -8.1793920924e+00    0.1206758   0.09094052   8.48 0.0008103046    1.020    0.019
        75  -9.9934     34.4051     90.4251   1.0191047961e+02   5.4256401428e+01    0.5905118    0.3021466 -77.12  0.002020475    2.911    0.657
        76 -10.1620     36.7511     81.2240   9.8840928555e+01   5.6143401995e+01    0.9706186    0.4464368 -16.60  0.003165288    4.517    0.779
        77  -8.2409    158.6616    111.9416   6.9769236891e+01   2.7920226962e+01    0.2264262    0.1855629 -36.92 0.0005076847    1.189    0.159
        78  -9.0533     35.7718    110.8465   1.0564377658e+02   4.9247389847e+01    0.2391999    0.1717566 -83.01 0.0006988953    1.513    0.339
        79  -8.4436    149.3879    109.6153   7.1355218895e+01   3.0459471508e+01     0.358338    0.2818227 -77.24  0.001354363    1.685    0.407
        80 -10.8190     44.8042    102.4162   1.0092600592e+02   5.0376340467e+01    0.8610389    0.5144209  73.12  0.003074317    3.132    0.681
        81  -8.3722     40.1546    106.7304   1.0339813361e+02   4.9820177007e+01    0.2987031     0.162908 -66.58 0.0006445641    1.741    0.426
        82  -9.3946    139.4929    104.5844   7.2448580586e+01   3.3692485053e+01    0.3893628    0.2933797 -74.38 0.0006864659    1.827    0.453
        83  -8.9713    138.7126    100.0144   7.1376106945e+01   3.4814786451e+01    0.3854936    0.2270147  37.83  0.001573945    1.815    0.449
        84  -8.4320     78.7684    104.8970   9.0204141701e+01   4.5298443509e+01    0.3765152    0.2434638  -5.78  0.001552227    2.378    0.579
        85  -9.4618     81.5251    100.2018   8.8085678886e+01   4.5951416305e+01    0.4172198    0.2917753 -69.38  0.001143727    1.815    0.449
        86  -8.2526     81.8018     94.2066   8.6357035293e+01   4.7269823280e+01    0.3784314    0.2260827 -15.45  0.001383203    2.738    0.635
        87  -9.5975      6.3919    103.6828   1.1402779897e+02   5.3185708074e+01     0.434406    0.2420682  77.39  0.001247467    2.395    0.582
        88  -7.9244      1.5888    105.7600   1.1585800129e+02   5.2951921394e+01    0.1747493    0.1002728 -81.65 0.0008552023    1.614    0.380
        89  -9.4845    149.4794    103.1532   6.9579515656e+01   3.1772685822e+01    0.4137971    0.2884338 -53.49  0.001043391    1.561    0.360
        90  -8.5688    242.7930    104.6031   5.2463508042e+01   1.1372814831e+01    0.1640817    0.1311023  76.31 0.0003224809    1.560    0.359
        91  -8.2847    166.0167    103.8347   6.5948352004e+01   2.7899128784e+01    0.2633075    0.2147604 -41.79 0.0005508056    1.193    0.162
        92  -8.5783     73.8473    102.6901   9.1240244108e+01   4.6570182762e+01    0.3325673    0.1809663 -53.70 0.0005404893    1.728    0.421
        93  -9.1000    159.1555    101.1739   6.6768182121e+01   2.9983616229e+01    0.4556669    0.2485142 -44.55  0.001481207    1.817    0.450
        94  -9.5113     94.2843     97.1558   8.3183447172e+01   4.4459560944e+01      0.36829    0.2576857 -54.25 0.0006953362    1.485    0.327
        95  -9.4662     97.3892     88.8674   7.9814273798e+01   4.5695478151e+01    0.6751034    0.3660087 -23.63  0.002403647    2.834    0.647
        96 -10.0385    240.4993     95.6457   5.0783777338e+01   1.3274006308e+01    0.4111188    0.2749675  28.05  0.002035926    2.184    0.542
        97  -8.8591    150.2502     96.8613   6.7650549204e+01   3.2864481986e+01    0.3104215    0.2020211  22.17  0.001141539    2.157    0.536
        98  -8.3626    164.4982     94.4190   6.3728726596e+01   3.0069710226e+01    0.2701505    0.2463072 -43.01 0.0007902392    1.078    0.072
        99  -9.4675    138.6358     92.8516   6.9357247690e+01   3.6285672655e+01    0.3877438    0.3527757 -58.93 0.0008078763    1.179    0.152
       100  -9.1396    150.3493     90.3604   6.5789401515e+01   3.4111531354e+01    0.5308574     0.258107 -27.20   0.00182184    2.751    0.637
       101  -8.2283    249.9726     92.7650   4.8890284647e+01   1.1918279841e+01     0.154615    0.1119425  58.50 0.0008764598    1.614    0.380
       102  -8.6752    157.6651     91.5227   6.4436965897e+01   3.2200750332e+01      0.29376    0.2176723 -62.83  0.000652734    1.626    0.385
       103  -9.5784    109.2178     90.6066   7.6743908602e+01   4.3030638805e+01    0.6390197    0.2914849  28.73   0.00205195    3.338    0.700
       104 -10.1187      4.3291     89.4522   1.1249538544e+02   5.6642247005e+01    0.5580165    0.2866592 -89.80  0.002126921    2.587    0.613
       105  -9.4491      6.4954     78.5405   1.0973688306e+02   5.9031397618e+01     0.726647     0.220036 -32.81   0.00260384    4.272    0.766
       106  -8.5045    194.3416     88.3870   5.6243115399e+01   2.4296217538e+01    0.4217747    0.2516475 -25.79  0.001808962    1.924    0.480
       107 -10.3604     47.9790     84.4361   9.5484001509e+01   5.4219263477e+01    0.6221308    0.4503872 -74.58  0.001995637    1.752    0.429
       108  -9.2066     49.0562     77.0965   9.3072671128e+01   5.5723549220e+01    0.5706563    0.3396674 -12.66  0.002588581    2.257    0.557
       109  -9.7668     81.6125     72.4671   7.9858256980e+01   5.1925867989e+01     0.433001    0.3105709 -65.57 0.0009497773    2.008    0.502
       110  -8.9966     83.1187     64.9996   7.6860514532e+01   5.3108457540e+01    0.5700952    0.3609025  -5.11  0.002442381    2.264    0.558
       111 -10.2076     85.3416     86.5461   8.2984081240e+01   4.8360386384e+01    0.4791578    0.3824998 -78.95  0.001002535    1.759    0.431
       112  -9.5738     87.7047     78.6178   7.9783134882e+01   4.9611553112e+01    0.6607925    0.3725888  19.46  0.001823157    2.528    0.604
       113  -8.1564    163.3503     87.0535   6.1934102887e+01   3.1714705672e+01    0.2184484    0.1911719 -37.14 0.0005159481    1.125    0.111
       114  -9.4254    140.5300     81.9928   6.5701571928e+01   3.7956751121e+01    0.5940803    0.2748506 -35.81  0.001580356    2.215    0.549
       115  -8.9999    139.9665     75.3476   6.3838941082e+01   3.9304464816e+01    0.4630242    0.2088368 -38.11  0.001351627    2.212    0.548
       116 -10.2976    103.8762     82.4858   7.5881363419e+01   4.5771141778e+01     0.561544    0.3511397 -53.85 0.0009239408    1.855    0.461
       117  -9.5898    105.2522     71.5905   7.2003021128e+01   4.7621921520e+01    0.5954175    0.3753037 -19.32  0.002233134    1.977    0.494
       118  -8.7217    157.7259     83.2300   6.2073786466e+01   3.3731860535e+01    0.5604766    0.2280969 -33.90  0.001679392    2.621    0.618
       119  -8.3932    156.9672     76.3378   6.0251684284e+01   3.5141782071e+01    0.2831655    0.1976319 -51.97 0.0006544989    1.553    0.356
       120  -9.6726    109.8812    105.9830   8.0922927769e+01   3.9557278049e+01    0.6008984    0.5220788  31.59  0.002823608    1.184    0.155
       121  -9.0480    115.2656     72.0413   6.9244347475e+01   4.5438849092e+01    0.5375779    0.2583873 -32.24  0.001502664    2.262    0.558
       122  -8.7767    119.0735     80.6476   7.0894872195e+01   4.2993456309e+01    0.3738298     0.235224 -52.52  0.000854458    1.837    0.456
       123  -8.3496    119.9744     75.8935   6.9161874288e+01   4.3705397966e+01    0.2736043    0.2455854  52.76 0.0007476848    1.181    0.154
       124  -9.3276     74.3734     79.0191   8.4424274585e+01   5.1782319152e+01    0.7059824    0.3003441 -48.98  0.001829484    2.277    0.561
       125  -9.0756    149.7933     80.1873   6.2973230726e+01   3.6143386315e+01    0.4210229    0.2342964 -38.89  0.001154197    1.782    0.439
       126  -7.7780     63.4573     81.5371   8.9041663457e+01   5.2879959445e+01    0.1399572    0.1280357 -34.69 0.0002426484    1.074    0.069
       127  -8.0212     68.8869     79.0699   8.6369636087e+01   5.2620823431e+01    0.3418435    0.1378686 -43.07  0.001317504    2.287    0.563
       128  -8.5826    166.5347     78.3096   5.8808796593e+01   3.2531382780e+01    0.3463722    0.1488018 -34.14  0.001033748    2.397    0.583
       129  -8.2815    184.1021     78.0802   5.5368319733e+01   2.8427792759e+01    0.2236107    0.2128123 -65.44 0.0007248077    1.031    0.030
       130  -7.8402    174.4703     78.5189   5.7290690461e+01   3.0618269121e+01    0.1475776     0.142928 -61.45 0.0001323053    1.017    0.017
       131  -9.2667    127.3345     75.1664   6.6959253209e+01   4.2215870144e+01    0.3353535    0.2506177 -58.65 0.0008339903    1.619    0.382
       132  -8.6883    128.9656     69.5136   6.4760318974e+01   4.2863755982e+01    0.6769304    0.3449487  25.19  0.002102683    3.871    0.742
       133  -8.4571    130.5598     64.2891   6.2695282002e+01   4.3396990084e+01    0.4322292    0.1892751 -40.67  0.001216565    2.328    0.570
       134  -7.9338    162.8084     73.0655   5.8076991372e+01   3.4318184133e+01     0.232156      0.19235 -63.91 0.0007695835    1.328    0.247
       135 -10.4244     54.9220     70.8552   8.8994829791e+01   5.6323688395e+01    0.4900645    0.3432912  55.93  0.001113744    2.155    0.536
       136  -9.2279     54.8603     63.5721   8.6696925436e+01   5.7820771289e+01     0.436557    0.2857639  -0.49  0.002115106    1.828    0.453
       137 -10.0569     61.9519     60.8140   8.3041690774e+01   5.7362218808e+01    0.6456379    0.2564214  33.75  0.002610083    2.639    0.621
       138 -10.2450    178.9323    248.1792   9.2821204121e+01  -2.0048132157e+00     0.367599    0.2619712  54.43  0.002143212    1.908    0.476
       139  -9.8102     15.9053     70.5116   1.0433438180e+02   6.0258328107e+01    0.5196978    0.1997542 -59.87  0.001279115    2.127    0.530
       140  -9.1904     17.3351     61.4615   1.0145934054e+02   6.2113798662e+01    0.4654439    0.2988675 -50.96  0.002749178    1.267    0.211
       141 -10.9046     21.7563     53.3794   9.7226783771e+01   6.3447127670e+01    0.7477974    0.5199728 -86.27  0.003072876    2.651    0.623
       142 -10.2200     12.3943     45.6481   9.9094151143e+01   6.5690774059e+01    0.8097033    0.3600093 -12.91  0.002925205    3.046    0.672
       143 -10.3353    166.7228    247.5530   9.5130410790e+01  -9.6166257744e-02    0.5361439    0.3011485 -31.31  0.002835557    2.196    0.545
       144  -9.9708    117.5566    125.7704   8.3865489471e+01   3.3532349235e+01    0.6282567    0.4078495  73.64  0.001667421    2.757    0.637
       145  -9.6701      6.8123     32.5134   9.7481158218e+01   6.8562287625e+01    0.3120444    0.1922892 -25.74 0.0009202155    1.347    0.258
       146  -9.9145      7.2882     28.0468   9.5619096494e+01   6.9337100658e+01     0.273422    0.2485187  10.28  0.001032088    1.437    0.304
       147  -7.6212    175.4856     72.4801   5.5428979627e+01   3.1397489192e+01    0.1470379    0.1400799 -69.68 -5.637597e-06    1.041    0.040
       148  -7.9022    169.2419     71.3530   5.6304792313e+01   3.3071288385e+01    0.2549347    0.1957461  70.65 0.0007312751    1.411    0.291
       149  -9.2286    149.7001     46.5348   5.2809458131e+01   4.1585397367e+01    0.5154068    0.1787868 -32.53  0.001784369    2.940    0.660
       150  -9.4309    146.9785     69.1927   6.0335072547e+01   3.8736952755e+01    0.3892797    0.2590656 -58.24 0.0009487546    1.870    0.465
       151  -9.5747    147.0851     56.7525   5.6504895746e+01   4.0720460192e+01    0.8971997    0.2559138 -31.80  0.002731055    3.839    0.739
       152  -8.5026    156.7161     69.7218   5.8370682691e+01   3.6334437367e+01    0.3216867    0.2531693 -21.96  0.001592313    1.381    0.276
       153  -9.7786     94.7958     68.3428   7.4153574987e+01   5.0309914890e+01    0.4495071    0.2627851 -43.87 0.0007817747    1.738    0.425
       154  -9.1335     97.5829     58.1384   6.9787594742e+01   5.1590787278e+01    0.7664593    0.4368703  -1.78  0.002639271    3.600    0.722
       155  -9.0099    138.1279     66.2137   6.1465205646e+01   4.1320028190e+01    0.3497437    0.2472478 -58.74  0.000536638    1.750    0.429
       156  -8.1746    139.2688     62.0066   5.9880635138e+01   4.1747746977e+01    0.3599149    0.1889741  39.07  0.001439371    2.106    0.525
       157  -8.9441    121.1134     65.9489   6.5667029416e+01   4.5250066513e+01    0.3386351     0.239003 -54.64 0.0006367949    1.717    0.418
       158  -8.4993    121.8687     61.2078   6.3913467338e+01   4.5886643673e+01    0.3198314    0.2332284  27.89 0.0009344642    1.478    0.323
       159  -9.4697    109.7673     63.8296   6.8109495254e+01   4.8086685587e+01    0.4009459    0.3611185 -39.06 0.0006494696    1.173    0.148
       160  -8.5166    110.8103     58.0438   6.5854027876e+01   4.8847105445e+01    0.3048418    0.2277567   7.07 0.0009575724    1.564    0.361
       161  -8.3717    170.5421     65.0133   5.4263753724e+01   3.3790043174e+01    0.2192374    0.1410666 -36.73 0.0005276709    1.547    0.354
       162  -8.3317    157.6754     63.2276   5.6255843691e+01   3.7166173156e+01    0.2515611    0.2110748 -62.79 0.0007241766    1.301    0.231
       163  -8.9936     49.3117     61.4783   8.8194932512e+01   5.8960569014e+01    0.3394808    0.1206453 -54.71  0.001196387    3.434    0.709
       164  -7.9638    164.6587     60.4530   5.4068052470e+01   3.5920503342e+01    0.2352113    0.1349446 -34.72  0.000557981    1.762    0.432
       165  -9.9354     73.0963     59.0968   7.8318061879e+01   5.5935693611e+01    0.5208894    0.2612509 -49.13  0.001343657    2.264    0.558
       166  -9.3305     75.3188     50.7131   7.4486604229e+01   5.7041368422e+01    0.7414249     0.391416  16.97  0.002847436    3.013    0.668
       167  -7.7583    152.5137     60.0958   5.6381834497e+01   3.8900786219e+01    0.2210836    0.1432112 -36.09  0.001020909    1.566    0.362
       168  -8.2661      9.9809     59.9773   1.0420136823e+02   6.2913032318e+01    0.2838989    0.1273114 -23.09  0.001324857    2.590    0.614
       169  -8.6694     87.6016     58.4748   7.3093207041e+01   5.3475030875e+01    0.2669637    0.2253794 -57.50 0.0006318659    1.500    0.333
       170  -9.1922    138.8523     56.5580   5.8256068374e+01   4.2709779531e+01    0.3995294    0.1900749 -40.63 0.0007319288    2.169    0.539
       171  -8.3627    129.9715     57.9720   6.0802049032e+01   4.4565553984e+01    0.2415961     0.206884 -38.53 0.0004603042    1.214    0.176
       172  -7.8145    130.6296     53.7046   5.9250038531e+01   4.5078217357e+01    0.2320509    0.1653141  17.20  0.001084107    1.740    0.425
       173  -8.2258    122.3311     41.5348   5.7154700241e+01   4.8760324958e+01    0.3476977    0.2046429   9.54  0.001358899    2.808    0.644
       174  -9.3162    118.1500     55.5420   6.3000241234e+01   4.7641104442e+01    0.4165389     0.318914  84.16  0.001638017    1.872    0.466
       175  -7.8592    119.2798     50.9708   6.1151844349e+01   4.8097705318e+01    0.3927918    0.2012784  31.42  0.001254802    2.543    0.607
       176  -8.9681    121.0341     46.8411   5.9294767766e+01   4.8311897780e+01     0.287721    0.2217033 -39.89 0.0005062969    1.391    0.281
       177  -8.3226     53.5033     39.0733   7.8314085588e+01   6.2471689388e+01    0.3214408     0.138743 -33.13  0.001347801    2.252    0.556
       178 -10.1412     50.0873     53.9868   8.5332161497e+01   6.0315818290e+01    0.6254244    0.3515926 -54.43   0.00202093    2.140    0.533
       179  -9.5923     56.6734     43.0681   7.8610052330e+01   6.1343922380e+01    0.7278896    0.3915006   6.25  0.002933738    3.075    0.675
       180  -9.1491     44.0574     53.9348   8.7796327433e+01   6.1084023460e+01    0.3569745    0.1975783 -36.79  0.000327713    1.593    0.372
       181  -7.5964    168.8574     55.6366   5.1903143065e+01   3.5636491560e+01    0.2028107     0.133578  73.52 0.0005786959    1.693    0.409
       182  -8.6422    162.6099     53.7216   5.2492434412e+01   3.7430885219e+01    0.2868114    0.2040106 -50.55 0.0008754355    1.490    0.329
       183  -8.1103    152.9235     53.7573   5.4378314877e+01   3.9768459651e+01    0.2273473    0.1626163 -85.77 0.0004318567    1.859    0.462
       184  -8.8057    105.5514     52.1638   6.5307972487e+01   5.0924869960e+01    0.5127727    0.2531189 -30.17  0.001784604    2.143    0.533
       185 -10.3957     85.6668     48.6837   7.0181324186e+01   5.5491500347e+01    0.5993335    0.4091314 -64.55   0.00165218    2.687    0.628
       186 -10.2574     90.3977     38.1770   6.4680150085e+01   5.6153329151e+01     1.037467      0.31074  40.63  0.002908127    3.415    0.707
       187  -8.6589    157.7041     49.5088   5.2165994996e+01   3.9228813393e+01    0.2872556    0.1986874 -60.41 0.0008145594    1.715    0.417
       188  -7.4987    126.9218     51.0000   5.9249365950e+01   4.6347248809e+01    0.2451528     0.079177  53.89 0.0008071536    2.975    0.664
       189  -8.7092    142.0864     47.8107   5.4767723497e+01   4.3238028425e+01    0.4490476    0.1905075 -32.16  0.001352785    2.446    0.591
       190  -9.0880    130.0724     47.6350   5.7381039729e+01   4.6108472088e+01    0.3711292    0.2285495 -33.23  0.001237203    1.684    0.406
       191  -8.1041    132.4636     41.0506   5.4655012796e+01   4.6459842091e+01    0.3556465    0.2001453  15.77  0.001311398    3.210    0.688
       192  -8.5720    111.9407     46.8368   6.1649996789e+01   5.0354115314e+01    0.2444507    0.2018856 -38.07 0.0004911416    1.301    0.231
       193  -7.6554    162.3922     46.1855   5.0319524931e+01   3.8555514918e+01    0.1961354    0.1236759 -45.76 0.0004282404    1.657    0.397
       194  -8.8113     94.9864    246.0051   1.0930065894e+02   1.0797179072e+01    0.1853204    0.1511475  54.11 0.0003545994    1.043    0.041
       195  -8.8433     70.8186     26.2300   6.6323869453e+01   6.1511090988e+01    0.4141273    0.2064639  37.26  0.001995912    1.864    0.464
       196  -8.5280    206.9772    241.7342   8.6423623786e+01  -5.1414683493e+00    0.1856071    0.1528688  -8.02  0.001254479    1.163    0.140
       197  -8.8059    245.6998    236.0163   7.8422129401e+01  -9.5849395433e+00    0.1639195    0.1214996  -5.00 0.0007691265    1.062    0.058
       198  -9.8667     76.1504     32.1452   6.6935183632e+01   5.9745706761e+01    0.4310301    0.3306336  49.14  0.001166285    1.466    0.318
       199  -9.5785     79.3679     23.8126   6.2411274019e+01   6.0209399095e+01    0.5069984    0.2625944  26.28    0.0013707    2.219    0.549
       200  -8.9871     84.5823     21.6776   5.9885773433e+01   5.9430382508e+01    0.2653584    0.2129453  10.18 0.0007110137    1.163    0.140
       201  -8.6984     39.8947     34.3242   8.2214445908e+01   6.5094089311e+01    0.3075198    0.2720639 -50.74  0.001804688    1.587    0.370
       202  -9.9103     37.7815     41.9812   8.6172025079e+01   6.4037578968e+01    0.3530133    0.3173158  82.68  0.001369049    1.880    0.468
       203  -9.8689     35.9108     37.9953   8.5476515650e+01   6.4953789670e+01    0.3460551    0.1981168 -27.94 0.0003741159    1.588    0.370
       204  -8.1814    115.3697     38.7986   5.7913387831e+01   5.0717545981e+01    0.3334174    0.1797856 -15.07  0.001388132    2.444    0.591
       205  -9.1993    110.3245     33.1024   5.7144068360e+01   5.2588425278e+01    0.3917233     0.241363 -37.83  0.001242988    1.774    0.436
       206  -8.9447    104.8887     40.9123   6.1450070521e+01   5.2745372493e+01    0.3689644    0.2173618 -43.07  0.001057321    1.946    0.486
       207  -8.4303    106.0395     36.4776   5.9506772975e+01   5.3099454339e+01    0.2908078    0.2087199  29.47 0.0007465937    1.376    0.274
       208  -8.5512    153.5032     41.0737   5.0405260546e+01   4.1403087583e+01    0.2522072    0.1917186  87.61 0.0008142704    1.500    0.333
       209  -9.4516    153.1218     35.5132   4.8778727339e+01   4.2206781807e+01    0.4493888    0.2258556 -24.19  0.001932221    2.295    0.564
       210  -8.9347    139.4971     39.7023   5.2713466207e+01   4.4964070097e+01    0.4304354    0.2229924 -41.17  0.001447679    2.068    0.516
       211  -8.8815    144.1894     36.4445   5.0732497716e+01   4.4253802456e+01    0.2554788    0.2078153 -56.86 0.0006118889    1.371    0.271
       212  -7.6797    166.5126     36.4366   4.6779364017e+01   3.8835123731e+01    0.1370831     0.127214  73.32  0.000143813    1.013    0.012
       213  -8.3337    136.2844     26.6868   4.9119165350e+01   4.7315841707e+01    0.2214651    0.1838677 -41.13 0.0005602736    1.318    0.241
       214  -9.0280    132.9979     35.7594   5.2783647471e+01   4.7019622884e+01    0.3090583       0.2491  44.31 0.0004572849    1.161    0.139
       215 -10.7513    134.0416     31.0197   5.0993871291e+01   4.7350793057e+01    0.2567917    0.2318775  39.89  0.001526503    1.057    0.054
       216  -8.7036    118.9087     34.7733   5.5622661126e+01   5.0435061328e+01    0.2678173    0.1902541 -32.46 0.0007179825    1.496    0.331
       217  -9.2056    100.9588     32.2668   5.9321583731e+01   5.4745855306e+01    0.4632715    0.2336724 -25.03  0.001545399    2.139    0.533
       218 -10.6688     23.3214     34.1851   8.9886767712e+01   6.6941466769e+01    0.6300817    0.3977199  -4.68  0.002568015    1.580    0.367
       219  -8.7270    159.0906     34.5694   4.7456996005e+01   4.0872063040e+01    0.2310555    0.1969633 -13.30  0.000333737    1.334    0.250
       220  -9.4561     60.0334     33.3554   7.3354807949e+01   6.2363810292e+01    0.3866406    0.2813744 -44.32  0.001475905    1.684    0.406
       221  -8.4715     62.6381     26.7489   6.9542758707e+01   6.2874053298e+01    0.3964084    0.1816652  33.64  0.001828726    2.138    0.532
       222  -9.2505    188.2009    233.8863   8.8793383738e+01  -1.2312908507e+00    0.2380312     0.179305 -51.32  0.001412529    1.783    0.439
       223  -9.0432    205.7070    224.1176   8.3730596133e+01  -2.3787920123e+00    0.2625375    0.2323063  82.12  0.001443987    1.982    0.496
       224  -8.6633     45.4265     15.6762   7.1489962842e+01   6.7058511414e+01    0.2231836    0.1510883  12.62 0.0006352784    1.328    0.247
       225 -10.2940    225.7768    217.9204   7.8834920208e+01  -4.4108493321e+00     0.231736    0.1927811  -2.88 0.0004250388    1.083    0.077
       226  -8.4705     42.2370     27.9868   7.8497006948e+01   6.5793077907e+01     0.194789    0.1507707  -2.74  0.001241353    1.076    0.070
       227  -8.9313    194.1515    218.4863   8.5027845509e+01   2.8633401962e-01    0.2384137    0.2018555  26.82  0.001083041    1.165    0.142
       228  -6.9185     86.6488    217.7211   1.0791225420e+02   1.7484653570e+01    0.1209038    0.1015767  -7.20 0.0007010689    1.646    0.393
       229  -8.3611     92.2462     20.8622   5.7308442807e+01   5.7947126132e+01    0.3143243    0.1735928  18.37  0.001171863    2.349    0.574
       230  -9.5659    154.9450     26.7050   4.5792793950e+01   4.2807082509e+01    0.3789693    0.2065311  67.10  0.001770033    1.741    0.426
       231  -7.4651    147.6382     28.7244   4.7662563978e+01   4.4349667419e+01    0.1449032   0.09432749  37.73 0.0003586633    1.663    0.399
       232  -8.9615    143.6580     26.2806   4.7607892027e+01   4.5589138633e+01    0.4007772    0.2323726  33.29   0.00172533    2.080    0.519
       233  -8.9111    195.2363    214.0283   8.4026299877e+01   8.4312897589e-01    0.2148884    0.1731602  31.93 0.0002207508    1.226    0.184
       234  -7.2358    116.7049    214.2523   1.0085332373e+02   1.3658243095e+01    0.1312039   0.09519972  60.77 0.0002178858    1.489    0.329
       235  -9.4668    118.8051     21.8840   5.1082041968e+01   5.1957580485e+01    0.3461183    0.2416651 -25.07 0.0009590767    1.554    0.356
       236  -8.6652    111.5456     21.7901   5.2696622546e+01   5.3629019430e+01    0.3445149     0.193142  -7.13  0.001570987    2.320    0.569
       237  -8.2086    195.9928    209.0948   8.2987950038e+01   1.5412193914e+00    0.1953234    0.1672611   7.50 0.0002917607    1.007    0.007
       238  -8.4847    232.2380     21.0295   3.5116627091e+01   2.5517808244e+01    0.1900141    0.1537201 -88.05 0.0003361875    1.135    0.119
       239  -8.9525     40.7650     20.4141   7.5768546251e+01   6.7095471398e+01    0.2752621    0.1565334 -37.01  0.001070146    1.776    0.437
       240 -10.1011     10.2163    207.4693   1.2300689817e+02   2.8668283511e+01    0.5430481    0.3320069  24.16  0.003329787    2.098    0.523
       241  -7.4378    222.7936    205.8848   7.7185951628e+01  -2.1482367075e+00    0.1554352    0.1435691  -1.90 0.0004506385    1.268    0.211
       242 -10.3207    163.0771    203.8164   8.8932142999e+01   7.9903136992e+00    0.2529421    0.2368598 -21.35 0.0004562839    1.121    0.108
       243  -8.5155    115.0477    201.0936   9.9288637027e+01   1.6654540241e+01    0.1985928    0.1853148  54.02 0.0002845264    1.020    0.019
       244  -9.0054    191.4611    193.5337   8.0998898458e+01   4.9992551472e+00    0.5247138    0.3015511 -62.60  0.001941056    3.761    0.734
       245  -9.2601     47.5111    191.7979   1.1375383322e+02   2.8303739909e+01    0.2137283    0.1941271 -89.96 0.0003911661    1.107    0.097
       246  -8.6831    185.0622    188.9974   8.1452290175e+01   6.9418522802e+00    0.2020175    0.1835245   4.63  0.001173372    1.025    0.025
       247  -7.6168    167.6800     20.3130   4.1994894296e+01   4.0417713175e+01    0.1381015   0.09368856 -68.83 0.0003231891    1.651    0.394
       248  -7.9559    139.9238     17.9344   4.5606651043e+01   4.7372700036e+01    0.2055068    0.1511849 -65.61 0.0004341312    1.625    0.385
       249  -7.6342    155.3065     17.6578   4.3021327999e+01   4.3687605289e+01    0.1377448   0.09462716 -66.52 0.0007042436    1.687    0.407
       250  -7.4436    223.2020    187.6624   7.3601070584e+01   7.1370067320e-01    0.1746617     0.113895  24.18  0.000910077    1.551    0.355
       251  -7.1991    170.6541    186.2797   8.4021145519e+01   1.0032773621e+01    0.1387021    0.1146341  69.17 0.0007010174    1.636    0.389
       252  -7.2761    112.7485    177.9547   9.6048276868e+01   2.2154146801e+01    0.1728195    0.1230298 -54.03 0.0003197874    1.424    0.298
       253  -9.0143     49.1389    176.1909   1.1162434611e+02   3.1764798338e+01    0.2173152    0.1802863 -88.98 0.0002597567    1.073    0.068
       254  -8.7135     95.8409     16.7941   5.4702778319e+01   5.7615963930e+01    0.2114109    0.1847886 -35.29 0.0004372529    1.349    0.259
       255  -6.7840    101.2440    176.2345   9.8616753021e+01   2.4459502587e+01     0.127123    0.1098715 -17.68  0.000665275    1.385    0.278
       256  -8.4092     28.7980     16.8850   7.9771093303e+01   6.9124626361e+01    0.1941251    0.1319498  -7.03  0.001227936    1.263    0.208
       257  -7.8788    244.2145     15.7905   3.3065243892e+01   2.3633071295e+01     0.178373    0.1281481 -66.75  0.000485802    1.160    0.138
       258  -6.9418    118.2684    174.2956   9.4024695483e+01   2.2042604217e+01    0.1416215    0.1141968 -17.27 0.0002472724    1.515    0.340
       259  -7.3500    230.3150    167.6475   6.8226873476e+01   2.9004928907e+00    0.1295169    0.1073675 -63.24 0.0007046251    1.734    0.423
       260  -7.4163    143.9316    159.2349   8.4685927084e+01   2.0720010271e+01    0.1785639    0.1259138  41.37 0.0001971751    1.418    0.295
       261  -8.7321    133.7207    146.4089   8.4422387939e+01   2.5599618105e+01    0.6729597    0.1975028 -53.03  0.001832437    4.094    0.756
       262  -9.4526    237.8996    145.8171   6.2282640673e+01   5.3205059143e+00    0.5152271    0.1380201  41.71  0.001696082    4.352    0.770
       263  -9.3742     66.8559    144.3186   1.0227705668e+02   3.7368887843e+01    0.6090064    0.3735352  69.52  0.002621582    2.272    0.560
       264  -8.3904    235.5353    138.3868   6.1060332407e+01   7.0101834306e+00    0.3188816    0.1930742 -62.93  0.001313137    2.924    0.658
       265  -9.5652    190.2212    135.3942   6.8739816710e+01   1.6366048030e+01    0.2811067    0.2387086 -30.77 0.0002536097    1.110    0.099
       266 -10.8903     70.3852    126.3475   9.7797942469e+01   4.1351919983e+01    0.9147725    0.6067325 -42.47  0.001643704    1.494    0.331
       267 -10.2273     58.4610    124.6187   1.0109593397e+02   4.3361812466e+01    0.8727244    0.4875168  80.94  0.003046044    3.706    0.730
       268  -9.7100    133.6731    131.9165   8.1048076945e+01   2.8917932988e+01    0.8503726    0.6305864 -63.74  0.003854039    1.574    0.365
       269  -9.9931    140.4787    118.2162   7.5848313657e+01   3.0558150712e+01     0.802494    0.3580844 -48.22  0.001927085    2.287    0.563
       270 -10.3699    131.9953    119.8532   7.8471037765e+01   3.1981740404e+01    0.9148309    0.6270934  78.79  0.002559598    2.516    0.603
       271 -11.0087    133.5138    109.4715   7.5329718697e+01   3.3945344921e+01     1.617752    0.7893157 -52.06  0.005863819    2.300    0.565
       272 -10.0683    108.6021    114.4615   8.3546109411e+01   3.7874179335e+01    0.7591222     0.500847  81.23  0.001472078    3.034    0.670
       273 -11.3899    120.6096    111.0934   7.9252784050e+01   3.6278227301e+01     1.736812    0.8423823 -53.71  0.004743191    2.326    0.570
       274 -10.4064    127.6405    102.3214   7.4925332470e+01   3.6732886763e+01    0.6768608    0.5438406  53.98  0.001847778    1.349    0.259
       275 -10.6489    123.3107     91.3399   7.2951211734e+01   3.9952912753e+01     1.183822    0.6411694 -28.72  0.001167663    2.262    0.558
       276 -10.3413    108.1792     99.4388   7.9606468368e+01   4.1340780558e+01    0.8575289     0.535449  68.37   0.00262442    2.927    0.658
       277  -8.7832    112.0049    133.4855   8.7244361631e+01   3.2771783913e+01    0.3619551    0.2689886  81.70  0.001097719    1.914    0.478
       278  -9.1229     83.3911    131.6580   9.5026726032e+01   3.8116256961e+01    0.7092245    0.4302905  82.18  0.002421644    3.256    0.693
       279  -8.1668    195.0822    132.3151   6.7026556560e+01   1.5963636874e+01    0.2610467    0.2018662 -10.63 0.0006735784    1.468    0.319
       280  -9.8742     98.3932    128.5078   8.9945862400e+01   3.6411751667e+01    0.6365122     0.405773  69.82  0.001952494    2.585    0.613
