#   1 NUMBER                 Running object number                                     
#   2 MAG_AUTO               Kron-like elliptical aperture magnitude                    [mag]
#   3 X_IMAGE                Object position along x                                    [pixel]
#   4 Y_IMAGE                Object position along y                                    [pixel]
#   5 X_WORLD                Barycenter position along world x axis                     [deg]
#   6 Y_WORLD                Barycenter position along world y axis                     [deg]
#   7 A_WORLD                Profile RMS along major axis (world units)                 [deg]
#   8 B_WORLD                Profile RMS along minor axis (world units)                 [deg]
#   9 THETA_WORLD            Position angle (CCW/world-x)                               [deg]
#  10 FWHM_WORLD             FWHM assuming a gaussian core                              [deg]
#  11 ELONGATION             A_IMAGE/B_IMAGE                                           
#  12 ELLIPTICITY            1 - B_IMAGE/A_IMAGE                                       
         1 -11.9760    177.8981     67.7078   8.4484207004e+01   3.1930764626e+01     2.071081     0.818827 -51.17  0.006349423    3.424    0.708
         2 -11.9671    199.1223     12.9360   6.5155252780e+01   3.3909322145e+01     3.095054      1.18773 -73.52  0.007708654    6.818    0.853
         3 -12.4299    219.3491     33.8304   6.8591602392e+01   2.6338000119e+01     2.377786    0.7341923 -49.95  0.007551751    3.722    0.731
         4 -13.1181    223.0540     19.4401   6.4428600838e+01   2.7178070542e+01     2.037521    0.7367053 -45.75  0.008040194    2.525    0.604
         5 -10.2962    223.9011      6.5252   6.1058023353e+01   2.8393717527e+01    0.5281199    0.2159197 -51.31  0.001242609    2.339    0.572
         6 -11.5479    196.1024     48.4300   7.5719686241e+01   3.0244707218e+01       1.1951    0.6030977 -69.69 0.0009501893    3.515    0.716
         7 -11.3536    163.0193     51.3233   8.2270744043e+01   3.8360065642e+01     2.734486     1.366187 -88.74  0.005744864    8.763    0.886
         8 -12.3603    240.3414     80.7679   7.8015496531e+01   1.4619715933e+01     4.040288    0.5901616 -43.12  0.009195997    6.696    0.851
         9  -9.3291    171.4849     16.9215   6.9795439362e+01   4.0638187052e+01    0.3358068    0.1995611 -49.31  0.001552538    1.790    0.441
        10 -10.5048    173.8852      5.1006   6.5770644319e+01   4.1201521037e+01     0.945539    0.3206568 -46.37  0.003367473    3.284    0.695
        11 -11.5981    233.6073      5.1731   5.9935995794e+01   2.6206541689e+01    0.9289837    0.4037056 -57.11  0.004091108    2.271    0.560
        12  -8.3214    115.7607     12.4326   7.8133709089e+01   5.5054121312e+01    0.2481883    0.1981757  42.60 0.0008077375    1.148    0.129
        13 -10.2896    120.4052      8.8411   7.5690517223e+01   5.4316341709e+01     0.403526    0.3581104  21.06  0.001509366    1.098    0.089
        14 -10.0681     38.5037     16.5020   1.0560139269e+02   6.8774272245e+01    0.3612041    0.1896315  -5.72  0.001594979    3.211    0.689
        15  -9.3730      6.0163      7.4883   1.1775111805e+02   7.3371931811e+01    0.1520734   0.07431249 -12.11 0.0008105434    2.595    0.615
        16  -8.2328    205.5356      6.1182   6.2613437731e+01   3.2986993868e+01    0.1856418    0.1278051 -33.37 0.0003704684    1.475    0.322
        17  -9.2042    150.9237      5.2898   6.8960219200e+01   4.7093788879e+01    0.2369191    0.1753397 -41.47  0.001184905    1.446    0.308
        18  -9.1795    248.7021      2.2534   5.8154675420e+01   2.3020617550e+01    0.3913638      0.22123 -78.99  0.002064577    1.721    0.419
        19 -10.6676     15.2919     11.4562   1.1456890643e+02   7.1998225365e+01    0.3513288    0.1496235 -41.35  0.001519721    1.830    0.454
        20  -8.4107     63.6653      2.6673   8.8339793928e+01   6.6764763262e+01    0.1323423   0.07998519  16.33 0.0007052216    1.734    0.423
        21 -11.5946    232.9965     14.3503   6.2227799076e+01   2.5353751449e+01    0.4415155    0.3328552  38.64  0.001278711    1.732    0.423
        22  -8.2194    144.2811     98.3747   1.0075617673e+02   3.4412549862e+01    0.1586222    0.1244531  -3.70 0.0007011868    1.706    0.414
        23  -9.4917     58.7157    249.2113   1.4324003187e+02   1.8006260086e+01    0.1755515    0.1359406  62.66 0.0002906099    1.167    0.143
        24 -11.6112    244.5215    100.4832   8.2236181645e+01   1.0641017815e+01    0.7082551    0.3566355 -23.72  0.002904821    2.239    0.553
        25  -8.4259    201.9415    125.7068   9.5525000406e+01   1.5750574337e+01    0.2027775    0.1935881  48.64 0.0003827164    1.084    0.077
        26  -8.0496    181.9492    123.4663   9.8936596257e+01   2.0689926024e+01    0.2140405    0.1371601  76.40 0.0008089918    2.508    0.601
        27  -9.7471    185.8016    120.0883   9.7310314917e+01   2.0454646207e+01     0.338095    0.2014156 -49.85   0.00141235    1.798    0.444
        28  -9.0012    200.5974    115.8248   9.3347505203e+01   1.7844392742e+01     0.218005    0.1356947 -46.88 0.0009191281    1.646    0.392
        29 -10.2895    187.4228    107.3467   9.3727928717e+01   2.2481612042e+01    0.3268431    0.2803061 -18.20  0.001104801    1.253    0.202
        30 -10.7182    187.3855    112.9877   9.5195220418e+01   2.1431669637e+01    0.5065028    0.2634522 -37.67  0.002011572    1.899    0.473
        31  -8.4805    183.6735    111.9874   9.5686124348e+01   2.2490164728e+01    0.2158545    0.1980108 -42.97 0.0004522896    1.074    0.069
        32  -9.3174    167.7579    113.5548   9.9445416186e+01   2.5903115145e+01    0.2873058    0.2574841 -70.08 0.0006294302    1.186    0.157
        33  -9.7129    204.7166    110.6161   9.1269633166e+01   1.7832064891e+01    0.4122561    0.1791584  48.61  0.001420575    2.348    0.574
        34  -8.3722    123.5165    128.9833   1.1366177927e+02   3.2235412457e+01    0.2040106    0.1915393  61.35 6.478138e-05    1.070    0.065
        35 -11.5093    186.5142     91.1636   8.9559804726e+01   2.5681824559e+01     1.926558    0.1959157 -40.24  0.003845492    7.327    0.864
        36  -9.0865     75.5057    249.5180   1.4049074232e+02   1.5771125005e+01    0.1108011   0.08097824  62.11 0.0008102845    1.023    0.022
        37  -8.1384    168.5002    247.4690   1.2423090377e+02   2.1083424449e+00    0.1177338   0.09139302  38.28 -6.244005e-05    1.051    0.049
        38  -8.8981    227.6806    244.6582   1.1376921599e+02  -6.7147499673e+00    0.1177359   0.07137216  14.15 0.0007049666    1.718    0.418
        39 -11.5963      2.9915    235.3824   1.5139611335e+02   2.6576357596e+01    0.6145491    0.2258791 -81.68  0.003762014    2.304    0.566
        40  -8.6406    135.9238     90.9415   1.0069724044e+02   3.7832665584e+01    0.2369992    0.2187473 -78.44 0.0007033825    1.139    0.122
        41  -8.0468    126.0149    236.7544   1.3049398094e+02   1.0451514483e+01    0.1569801   0.08220028  44.60 0.0004226068    1.530    0.347
        42  -9.2797    160.0137     83.4477   9.2822354642e+01   3.3619049252e+01    0.3341443    0.2352661 -25.10 0.0007154868    1.595    0.373
        43 -10.0377    163.6753     79.9663   9.0998972063e+01   3.3363632544e+01    0.3571422    0.3081826 -39.48  0.001048876    1.145    0.127
        44  -7.4785    139.9743    103.0000   1.0307923723e+02   3.4426039077e+01     0.247239   0.08854477  48.05 0.0005515469    2.841    0.648
        45  -9.7724    144.3861     80.3895   9.5486377476e+01   3.7963345367e+01    0.3720744    0.2683379 -40.70 0.0006629907    1.363    0.266
        46  -8.9112    231.6489     79.2131   7.8837392797e+01   1.6836863069e+01    0.2740745    0.2116162  54.09  0.001432367    1.394    0.283
        47  -7.5046     96.3712     73.6687   1.0636808893e+02   4.9592720742e+01    0.1489734    0.1151273 -87.20 0.0007029037    1.833    0.454
        48  -8.9977    249.9772     76.6619   7.5745834914e+01   1.3112953734e+01    0.1896883    0.1791712 -55.34 0.0007317452    1.074    0.069
        49 -11.1301    159.9031     69.0597   8.8498858545e+01   3.6249452865e+01     0.390129    0.2878202 -20.66  0.000920294    1.532    0.347
        50  -8.0973    153.9698     67.9860   8.9445993439e+01   3.7913051541e+01     0.180844    0.1748195 -41.18 0.0009598158    1.030    0.029
        51 -10.4660    203.3527     42.3013   7.2925307046e+01   2.9245778604e+01    0.4293166    0.2929576  33.53  0.001310006    1.890    0.471
        52  -9.0287    187.2186     37.6872   7.3895559282e+01   3.4028990441e+01    0.3398999    0.2922799 -65.88  0.001211334    1.155    0.134
        53 -10.4422    207.3407     65.9425   7.8939788751e+01   2.4764659380e+01     1.326625    0.5994102 -66.08  0.003050729    7.182    0.861
        54 -10.3052    208.5920     61.8101   7.7611735827e+01   2.5091030598e+01     0.907231    0.4255177 -63.65  0.002769395    4.008    0.750
        55  -8.6139     36.9003    227.0836   1.4546741197e+02   2.4499847466e+01    0.1613744    0.1182506  69.43 0.0004621975    1.057    0.054
        56  -8.4127    191.1483     64.6308   8.1202819464e+01   2.9055703094e+01     0.201574    0.1860476  55.47 0.0004388932    1.114    0.103
        57  -9.3266    144.3825     59.3772   8.8820837546e+01   4.1751270882e+01    0.2984299     0.250451 -67.46 0.0006790503    1.344    0.256
        58 -10.0053    185.9599     58.4265   8.0277423046e+01   3.1360591064e+01    0.2822968    0.2642687  56.87 0.0003951556    1.092    0.085
        59  -7.5930     72.7243     58.3314   1.0897086669e+02   5.6728636800e+01    0.1293597    0.1059553 -73.79 0.0004342255    1.597    0.374
        60  -9.0515    131.9285     53.2339   8.9676560908e+01   4.5772003117e+01    0.2597579     0.208213 -21.59 0.0002100072    1.301    0.231
        61  -7.9939    191.3249     53.6510   7.7981769687e+01   3.0708521445e+01    0.1634159    0.1088349 -64.58  0.000704915    1.751    0.429
        62  -9.4642    246.5906     51.2592   6.9966209087e+01   1.7520687230e+01    0.2186305    0.2137806 -55.27 0.0004902456    1.145    0.127
        63 -12.0132    179.3296     46.1804   7.7716192194e+01   3.4905922963e+01    0.6437638    0.3965672 -11.44  0.002543758    2.198    0.545
        64  -7.5503    216.2962     49.6382   7.3203920766e+01   2.4963204538e+01    0.1580842   0.09954244 -60.10  0.000703236    1.710    0.415
        65  -8.6073    250.1028     47.1913   6.8604146064e+01   1.7282601403e+01    0.1931286    0.1852222  41.46  0.001211062    1.254    0.202
        66  -8.2917    172.0428     42.3061   7.7751556906e+01   3.7347965815e+01    0.2873207    0.1336522 -59.11 0.0009121465    3.492    0.714
        67 -11.0688    134.7563     38.3937   8.3774459133e+01   4.7355653392e+01     1.019724    0.3350802  65.51  0.002807983    4.735    0.789
        68  -9.3679     76.0616     38.2607   1.0031462099e+02   5.9799393526e+01    0.3671505    0.1696872 -56.23   0.00111213    5.452    0.817
        69  -9.8564    245.4281     35.5205   6.6257005528e+01   1.9882722565e+01      0.31404    0.2052955 -71.68 0.0009969232    1.587    0.370
        70  -8.5356    161.8017     38.1235   7.8218891607e+01   4.0578280050e+01    0.2294127    0.1873351 -60.18 0.0007967335    1.308    0.235
        71 -12.8955     22.4106    214.6875   1.4722428020e+02   2.8397070755e+01    0.8506726    0.5462335  69.20  0.003045561    1.141    0.124
        72  -9.3588    150.6566     91.9454   9.7420626204e+01   3.4228494709e+01    0.3886037     0.307647   5.43  0.001173987    1.660    0.398
        73 -10.2058    141.9219     29.4218   7.9039263861e+01   4.6781359500e+01    0.2467748    0.2183987 -33.39  0.000758183    1.171    0.146
        74  -9.7151    178.1643     24.5970   7.1242800709e+01   3.8032092418e+01    0.4132152    0.3573304  69.14  0.002302655    1.098    0.089
        75 -12.9978     41.2727    196.8941   1.4254234821e+02   2.9819607968e+01    0.9157164    0.8160242 -67.20  0.006822864    1.492    0.330
        76  -9.3906    247.6696     17.8663   6.1841119781e+01   2.1527307004e+01    0.4398085    0.1782236 -59.91  0.001775511    2.736    0.634
        77  -9.9164    180.6953    198.0115   1.1469039237e+02   7.3705867790e+00     0.224491    0.1893587  38.54 0.0003484708    1.047    0.045
        78 -11.4803     56.2480    182.3671   1.3819320027e+02   3.1037166703e+01    0.8928011    0.7303076 -71.56  0.005995266    1.295    0.228
        79  -8.3384    100.9979    175.9801   1.2769576375e+02   2.5904472294e+01    0.1840096    0.1645643  76.00            0    1.048    0.046
        80  -8.2483    213.5702    167.1948   1.0261546197e+02   6.1632687313e+00    0.2730043     0.168332  75.17 0.0009418337    4.376    0.771
        81  -8.3454      9.2020    153.6067   1.4570142344e+02   4.2223930904e+01    0.1216874    0.1133587  14.83 0.0004924564    1.585    0.369
        82  -7.9243     10.6967    147.7102   1.4488375694e+02   4.3402806547e+01    0.1081493   0.07534718 -56.99 0.0002563281    1.568    0.362
        83 -10.1771     67.4015    144.1861   1.3079988373e+02   3.8129958097e+01    0.5455063    0.3099407  62.63  0.001924428    1.987    0.497
        84  -8.6232    233.9600    145.0453   9.4253753145e+01   5.7243184906e+00    0.1692922    0.1521307 -12.51 0.0008310644    1.021    0.021
        85  -8.1298    192.2168    144.1672   1.0174082553e+02   1.4510653533e+01    0.1939603    0.1740871 -83.75 0.0004196542    1.320    0.242
        86  -8.6980    126.0813    144.0260   1.1627640859e+02   2.8393494270e+01    0.2090267    0.1958211 -87.70            0    1.022    0.021
        87  -8.7478    191.0079    134.7203   9.9806584977e+01   1.6522725663e+01    0.2442391    0.2101326 -35.65 0.0006443113    1.159    0.137
        88 -10.3206    237.1681    126.7218   8.9570813324e+01   8.0037875477e+00    0.3190393    0.2753143  46.52 0.0004223969    1.252    0.201
        89 -12.3816    243.8737    118.5769   8.6616451299e+01   7.9280056395e+00     1.889696    0.4013022 -31.95  0.004998329    5.146    0.806
