#   1 NUMBER                 Running object number                                     
#   2 MAG_AUTO               Kron-like elliptical aperture magnitude                    [mag]
#   3 X_IMAGE                Object position along x                                    [pixel]
#   4 Y_IMAGE                Object position along y                                    [pixel]
#   5 X_WORLD                Barycenter position along world x axis                     [deg]
#   6 Y_WORLD                Barycenter position along world y axis                     [deg]
#   7 A_WORLD                Profile RMS along major axis (world units)                 [deg]
#   8 B_WORLD                Profile RMS along minor axis (world units)                 [deg]
#   9 THETA_WORLD            Position angle (CCW/world-x)                               [deg]
#  10 FWHM_WORLD             FWHM assuming a gaussian core                              [deg]
#  11 ELONGATION             A_IMAGE/B_IMAGE                                           
#  12 ELLIPTICITY            1 - B_IMAGE/A_IMAGE                                       
         1 -12.8045     37.7721     50.9027   9.9713963608e+01   6.2449485499e+01    0.7210425    0.6036552 -35.66  0.002899906    1.320    0.243
         2 -11.2372     79.4413     30.7478   7.5827407017e+01   6.0526858066e+01    0.6450399    0.4088612 -15.35  0.002754723    2.225    0.551
         3 -11.5850      4.7432     18.6197   1.0663063511e+02   7.2476084211e+01    0.4284822    0.2930275  44.89  0.002563003    1.852    0.460
         4 -11.4697    112.3637     24.5327   6.2904197585e+01   5.4382828514e+01    0.5244064    0.3181654  -9.76 -0.0001063724    2.074    0.518
         5 -12.2262     60.2952     23.3185   7.9841596876e+01   6.5334591253e+01    0.9042421    0.5967173 -42.68  0.003672853    1.333    0.250
         6 -11.0234     77.4484     10.0125   6.6254940390e+01   6.4396065362e+01    0.3981674    0.2471411 -29.49  0.001088289    1.471    0.320
         7 -12.1074     81.0427      6.7341   6.3210643560e+01   6.4104040743e+01    0.5438291     0.414812  17.96  0.002894197    1.398    0.285
         8 -11.8206     74.0273      7.1432   6.5863422466e+01   6.5515705222e+01    0.3258329    0.2252722 -25.27 0.0003203855    1.321    0.243
         9 -11.4755     75.3498     16.0895   7.0262078925e+01   6.3878414481e+01     0.644762    0.3187874  36.78  0.002690544    2.446    0.591
        10 -11.0867     70.6793     13.9963   7.0905501503e+01   6.5127693541e+01    0.3933279     0.237615 -25.23  0.001700917    1.642    0.391
        11 -11.6385    130.5158     20.4170   5.6828197042e+01   5.0392577166e+01    0.5958218    0.4477009  39.12  0.001963182    1.372    0.271
        12 -11.7049     19.7325     17.3870   9.7416452087e+01   7.1684712002e+01    0.4823081    0.3450114 -83.00  0.002781362    1.700    0.412
        13 -12.1772     84.9053     20.3930   6.9088413514e+01   6.1236340945e+01    0.4472236    0.3822994 -46.81 0.0002727465    1.215    0.177
        14 -10.7812     66.1231     13.4886   7.2419063222e+01   6.6068029950e+01    0.3769432    0.2548345  31.71  0.001249935    1.681    0.405
        15 -11.0614    168.8603     13.3792   4.7394075881e+01   4.0842776467e+01    0.2967328    0.2531065   9.03 0.0003718666    1.220    0.180
        16 -10.5717     30.8363     13.3050   8.9261917539e+01   7.1417129406e+01    0.3129649    0.1571117 -44.74 0.0009131041    1.635    0.388
        17 -11.1959     26.6521     14.0145   9.1966077773e+01   7.1731275887e+01    0.2003907    0.1621145 -31.65  0.000438506    1.181    0.153
        18 -11.0443    248.9507     14.7799   3.9736055981e+01   2.0101052372e+01    0.2695187    0.1708961 -29.67 0.0006799917    1.342    0.255
        19 -10.1664     55.2406     13.3846   7.6992234647e+01   6.7985762336e+01    0.3239326    0.2031116 -50.48  0.001069779    1.671    0.402
        20 -10.2527     58.7140     10.5430   7.3881918405e+01   6.7885730980e+01     0.331788    0.2182291  43.13 0.0006177873    1.702    0.412
        21 -10.1103    157.8588     13.1940   4.8919290354e+01   4.3890410816e+01    0.4840582    0.1402873 -49.25   0.00109845    6.222    0.839
        22 -10.3198    100.1572     12.7309   6.0617536028e+01   5.8977176347e+01    0.3190015    0.1982394 -19.50 0.0008311468    1.606    0.377
        23 -10.4215    138.4833     11.9767   5.1650718780e+01   4.9305370956e+01    0.2755298    0.2225658 -59.52 0.0004997713    1.373    0.272
        24 -11.5459    116.9184      8.4492   5.4382196220e+01   5.5382176582e+01    0.6985749    0.3046806 -35.26  0.002687032    2.182    0.542
        25  -9.9960      5.4983     11.4669   1.0378161532e+02   7.4010456461e+01    0.2182201     0.115521 -51.21 1.628506e-05    1.453    0.312
        26 -10.3980      6.2692      7.9421   1.0191066490e+02   7.4724273877e+01    0.1921231    0.1596299  88.84 0.0004205682    1.424    0.298
        27 -10.8653    235.4964     10.3540   3.9516589003e+01   2.3651077773e+01    0.2917399    0.1688441  21.62  0.001160994    2.221    0.550
        28 -10.4911    184.6293     10.6326   4.4407873852e+01   3.6792093017e+01    0.3936988    0.2210215 -87.74  0.001580304    2.202    0.546
        29 -10.2196    133.1786     10.6892   5.2079601401e+01   5.0871475455e+01    0.2917139    0.1785311  -4.99   0.00122693    1.839    0.456
        30 -10.4582     39.1657     10.0848   8.3034416156e+01   7.1000719424e+01    0.3544813     0.240037 -81.65  0.001005037    3.252    0.692
        31 -11.8638     22.6396      7.4918   9.1109882830e+01   7.3466834315e+01    0.5446348    0.3872454 -69.18  0.001767083    1.667    0.400
        32 -10.8954     16.7552      3.4042   9.2713622922e+01   7.4852962437e+01    0.3606218    0.1790999 -58.58  0.001033552    1.843    0.457
        33 -11.6004     11.6073      2.6782   9.5837508383e+01   7.5443062661e+01    0.3278881    0.2140753 -29.42   0.00143004    1.539    0.350
        34 -12.9908     31.9724      2.1022   8.2366528079e+01   7.3414509856e+01    0.2895913    0.2366628  17.05 0.0005976284    1.383    0.277
        35 -10.6793     27.4805      3.4533   8.5880761399e+01   7.3719986266e+01    0.2131624    0.1930689 -87.74 0.0008477885    1.517    0.341
        36  -9.9599    107.8048      9.2697   5.6904625451e+01   5.7576393545e+01    0.2559711    0.1822663 -30.82  0.001016177    1.348    0.258
        37  -9.2756     10.8333      9.2500   9.9449855326e+01   7.4134328501e+01    0.1872077    0.1167269  72.34 0.0009501552    2.787    0.641
        38 -11.1549    150.7043      6.1425   4.7187690400e+01   4.6584503251e+01    0.5008156    0.2578372  46.08 0.0003079359    1.964    0.491
        39 -10.7453    145.5777      4.4801   4.7281916701e+01   4.8156990046e+01    0.4755499    0.2089064 -31.33   0.00157725    2.124    0.529
        40  -9.2975    127.2817      8.6514   5.2312570613e+01   5.2663776286e+01    0.1578134    0.1082566 -51.84 0.0004265383    1.646    0.393
        41  -9.8818     50.5119     11.4439   7.8105519334e+01   6.9090065702e+01    0.2799726    0.1785965  -7.26  0.001314261    2.297    0.565
        42 -10.7296     92.2065      6.2399   5.9494827412e+01   6.1680200227e+01    0.4856443    0.2997246   2.78  0.001479491    2.003    0.501
        43  -9.1602     43.4715      7.9757   7.9596847299e+01   7.0777488428e+01    0.1824857    0.1043845 -59.30 0.0008098426    2.556    0.609
        44  -9.8328     60.0636      5.9709   7.0643836771e+01   6.8382554062e+01    0.2210732    0.1974153  54.57  0.001350591    1.366    0.268
        45 -10.7539    235.9766      2.4862   3.7241682078e+01   2.4217075600e+01    0.3034168    0.1142539  66.10  0.001216986    2.687    0.628
        46 -10.2302    228.3318      4.9679   3.8503456242e+01   2.5870916703e+01    0.2108928     0.188725  82.92  0.001057914    1.201    0.167
        47 -10.9965    232.2817      4.6896   3.8131689664e+01   2.4925479474e+01    0.2621847    0.1806464 -86.65 0.0002396766    1.616    0.381
        48 -11.9623    167.8428      2.5170   4.3446223067e+01   4.2174357359e+01    0.3812763    0.2990238  33.41  0.001900796    1.332    0.249
        49  -9.9003    131.8765      5.2243   4.9899401971e+01   5.1806126890e+01    0.2885362    0.1960744 -79.26  0.001274225    1.868    0.465
        50 -10.0642     72.8349      2.1422   6.3362936696e+01   6.6452310102e+01    0.2151615    0.1883361  38.02 0.0004747937    1.208    0.172
        51  -9.6991    155.7129      1.3925   4.4552024515e+01   4.5643740992e+01    0.2105838    0.1301072  56.51 0.0003155357    1.564    0.361
        52  -9.9658    243.7504      4.1740   3.7193293307e+01   2.2229452047e+01    0.2501562   0.09509141 -51.59 0.0009528249    2.792    0.642
        53  -8.6254    107.6634      1.3263   5.2941323080e+01   5.8516360973e+01    0.1530594    0.1070135 -55.39   0.00070516    1.722    0.419
        54 -10.1806     85.9785    232.9768   1.1126229691e+02   2.0805590795e+01    0.1581583    0.1070893  52.82 0.0006017767    1.035    0.034
        55 -10.6747    250.3006    245.6746   8.7517940176e+01  -2.1008235752e+00    0.2623524    0.1371062 -13.06  0.002005316    2.144    0.534
        56 -12.0114    232.1987    246.0899   9.0044065061e+01   1.3747306153e-01    0.4570616    0.2268749  -9.19  0.003107434    2.694    0.629
        57  -9.8810     72.6188    250.0748   1.1441020384e+02   2.0150159043e+01    0.1416536     0.109156  33.58  0.001257882    1.581    0.368
        58 -12.5839     28.9528    248.3801   1.2095495080e+02   2.4946762235e+01     1.047522    0.2268715  63.78  0.004974576    4.767    0.790
        59  -9.9760      5.9295    235.4403   1.2407405222e+02   2.8841848740e+01    0.2238421    0.1365334  43.96  0.001467683    1.377    0.274
        60 -12.4372     20.2018    248.7254   1.2226346751e+02   2.5729120339e+01    0.6065639    0.1405141  43.44  0.003569368    2.301    0.566
        61  -9.2656     67.9533    203.9664   1.1234190419e+02   2.7208409137e+01    0.1257898   0.09150228  57.35 0.0003974871    1.012    0.012
        62 -11.2145     19.0937    202.9754   1.2099787768e+02   3.2574759791e+01     0.289927    0.1965883  70.17    0.0014709    1.113    0.101
        63  -9.3624    223.6054    201.8101   8.5336891597e+01   4.9241430813e+00     0.122645   0.09827773 -30.82 0.0005552243    1.683    0.406
        64 -10.3499    175.3797    202.6807   9.3172249251e+01   1.2176673686e+01    0.1941942    0.1376469  42.72 0.0005254699    1.155    0.134
        65  -9.4860    238.5067    201.4386   8.3059366711e+01   2.7755258820e+00    0.1092506   0.07794131  22.79 9.012939e-05    1.011    0.011
        66  -9.6405     34.5440    201.3206   1.1819713282e+02   3.1339210344e+01    0.1302445    0.1092957  33.24  0.000631357    1.599    0.374
        67  -9.2785    227.1298    196.8779   8.4054385883e+01   4.8545886020e+00      0.15821   0.09943829  21.03 0.0007902249    1.352    0.260
        68  -9.1877     56.6540    197.6696   1.1397152444e+02   2.9545897985e+01   0.08733465   0.08202384  -9.67 0.0007050004    1.758    0.431
        69 -10.2641    215.6577    194.6367   8.5475451131e+01   6.8124587408e+00    0.1811272    0.1216491  -3.83 0.0006053636    1.614    0.381
        70 -10.2585    187.2926    190.3493   8.9428822494e+01   1.1743725688e+01    0.1159116   0.07685462  16.32 0.0005454648    1.672    0.402
        71 -10.2500    162.8178    190.4061   9.3655989498e+01   1.5663317600e+01    0.1679046   0.08967107  35.62 0.0006558218    1.635    0.388
        72  -9.2224    145.3361    190.3398   9.6775893502e+01   1.8442482908e+01    0.1136978   0.08285831  16.41 0.0007051092    1.756    0.431
        73  -9.5361    211.3853    188.7658   8.5238220992e+01   8.0764591597e+00     0.149455   0.09749152  -8.79 0.0009498217    1.740    0.425
        74  -9.1418      1.6015    188.1765   1.2362844676e+02   3.6573150748e+01    0.1193557   0.07396383 -82.30 0.0005602777    1.582    0.368
        75  -9.4853     61.9891    185.0520   1.1205592521e+02   3.1042449142e+01    0.1326094    0.1022648  73.13 0.0009961679    1.112    0.100
        76 -11.3190     15.9521    182.8316   1.2078904941e+02   3.6261448301e+01    0.3546553    0.1459105  75.87  0.002139533    2.112    0.526
        77  -9.1478      8.6308    184.2818   1.2221720831e+02   3.6653027325e+01    0.1102557   0.04627327  58.19 0.0006450112    1.694    0.410
        78  -9.8752    167.1879    183.5917   9.1905676223e+01   1.5849582673e+01    0.1717752   0.09230128  35.61 0.0007435914    1.641    0.391
        79  -9.6348    142.6640    183.6671   9.6379505432e+01   1.9815423651e+01    0.1153232     0.085546  15.86 0.0004359548    1.738    0.425
        80  -9.6971      2.0153    180.3104   1.2332490793e+02   3.7900275394e+01     0.140705    0.0929242  59.07 0.0005039934    1.110    0.099
        81 -10.1049    244.1625    178.5255   7.8523932143e+01   3.9598706400e+00    0.2203954    0.1222604  -0.95  0.001075786    1.953    0.488
        82 -10.9771    224.0760    178.4711   8.1556777183e+01   7.1176820424e+00    0.2098975    0.1701905  26.28 0.0004319995    1.117    0.105
        83  -9.6696     70.1824    177.7268   1.0982555857e+02   3.1314418996e+01    0.1344504    0.1207851  41.54  0.000552921    1.367    0.269
        84  -9.9526     46.6100    177.3655   1.1452086530e+02   3.4165195320e+01    0.2285142    0.1282276  52.51  0.001508918    1.390    0.281
        85  -9.2124     36.4544    178.4516   1.1660620796e+02   3.5055264205e+01    0.1062575   0.07929944  66.20 0.0001968276    1.024    0.024
        86  -9.9100    200.3294    176.3822   8.5043577762e+01   1.1238415812e+01    0.1849677    0.1184957  18.31 0.0009801529    1.642    0.391
        87 -10.7502     18.3453    173.2616   1.1990984711e+02   3.7754946121e+01    0.2952063     0.120843  58.86  0.001487843    1.872    0.466
        88  -9.4232     75.0590    170.9625   1.0819624914e+02   3.1895947002e+01    0.1577566    0.1412643 -16.42  0.001122137    1.751    0.429
        89 -10.7518     12.7052    170.1469   1.2089193676e+02   3.8826483655e+01      0.28321     0.110587  78.55  0.001598364    2.275    0.560
        90  -9.4859      4.9980    168.0025   1.2234278262e+02   3.9869742107e+01    0.1672693   0.07829187 -63.13  0.001025862    2.536    0.606
        91  -9.5913    209.9909    165.9977   8.1655099747e+01   1.0807213138e+01    0.1539024    0.1169201  31.68 0.0006644505    1.096    0.088
        92 -11.2160     50.6343    164.9784   1.1276338142e+02   3.5993441601e+01    0.3650007    0.2075974 -60.79  0.002258654    1.997    0.499
        93 -11.1503     44.4448    162.6667   1.1389387201e+02   3.7122497090e+01    0.2970187    0.1755743 -84.37  0.001760649    1.572    0.364
        94  -9.8586     48.4775    159.4935   1.1277393117e+02   3.7282388468e+01     0.195532    0.1549029  52.81  0.001361569    1.196    0.164
        95 -12.1949     37.0213    159.0069   1.1521248770e+02   3.8615362722e+01    0.5043729     0.173301 -74.55 0.0006133172    2.709    0.631
        96  -9.5635     67.1843    165.1847   1.0927784223e+02   3.3967401607e+01    0.1689181     0.106924  63.07 0.0009186017    1.370    0.270
        97  -9.4731    200.4570    162.5567   8.2637994126e+01   1.2870199155e+01    0.1228848    0.1025096  27.34 0.0001741585    1.027    0.026
        98  -8.8926    116.3226    159.6579   9.8214251423e+01   2.7893218027e+01    0.1287173   0.08643246  70.85 0.0007050553    1.727    0.421
        99 -11.3419     22.5459    156.5951   1.1817473838e+02   4.0502108163e+01    0.4288565    0.2862122  54.67    0.0030984    1.235    0.190
       100 -10.1463    247.4727    158.4878   7.4446670079e+01   5.3254851953e+00    0.1175709   0.09388655  13.45 7.301156e-05    1.056    0.053
       101  -9.0829    147.6635    156.3219   9.1295857491e+01   2.3150452675e+01    0.1272559   0.09427159  72.67 0.0007050451    1.711    0.416
       102 -10.2634     11.8801    153.3304   1.2029822517e+02   4.2077516816e+01    0.2204799    0.1232716  25.32  0.001404757    2.248    0.555
       103 -10.3529    178.0376    151.4703   8.4595713149e+01   1.8382528710e+01    0.2203567    0.2088759  58.72 0.0009827119    1.224    0.183
       104  -9.4616     27.2810    147.3174   1.1653923327e+02   4.1887058464e+01   0.09858242   0.07869289 -59.75 0.0002427226    1.579    0.367
       105 -10.1024    207.1103    146.2061   7.8426167702e+01   1.3703734776e+01    0.1953593    0.1514484  22.89  0.000769095    1.146    0.127
       106 -11.0833     11.5403    145.8803   1.1999797523e+02   4.3573129976e+01    0.2605458    0.1736223  54.20   0.00188662    1.271    0.213
       107  -9.5657     30.6397    144.7381   1.1558674571e+02   4.2082422260e+01    0.1542401   0.08617812  87.34  0.000522342    1.569    0.363
       108 -10.3496      2.8366    143.8808   1.2184825487e+02   4.4658094656e+01    0.1550203    0.1241177 -83.22  0.001225792    1.302    0.232
       109 -11.3713     19.8528    141.6632   1.1786177262e+02   4.3711960255e+01    0.3246939    0.1526338  73.50 0.0005950756    1.890    0.471
       110 -10.5687     16.0273    140.0000   1.1864442147e+02   4.4382533345e+01    0.2618146    0.1395619  21.98  0.001533868    2.541    0.606
       111 -11.0317     55.2982    135.0898   1.0882562753e+02   4.1391835468e+01    0.5626574    0.2885821  86.08  0.002806346    2.229    0.551
       112 -11.1952      9.0790    136.7714   1.2007884405e+02   4.5610800319e+01    0.1928162    0.1373686  85.44 0.0002606562    1.113    0.102
       113 -11.0469      2.7765    137.3911   1.2157420015e+02   4.5965275037e+01    0.3341227     0.130853 -77.17  0.001021336    2.136    0.532
       114 -10.1353      5.5585    133.2955   1.2072478231e+02   4.6594507147e+01    0.2332313    0.1200417  81.17 0.0008181829    1.554    0.357
       115  -8.6860    143.6758    137.2966   8.8718225288e+01   2.7038095418e+01    0.1318609    0.1008837  76.06 0.0004985837    1.624    0.384
       116 -10.2350     21.4614    135.9420   1.1709965786e+02   4.4743489298e+01     0.225111    0.1434424  61.20  0.001117622    1.301    0.231
       117  -9.4032    138.0099    135.4934   8.9582042939e+01   2.8408488483e+01     0.187278     0.111365  24.64 0.0008099635    2.490    0.598
       118  -9.2806    250.0149    134.2352   6.9286983264e+01   7.3263549055e+00    0.1558336   0.09341963  43.05 0.0008771039    1.614    0.381
       119 -10.1538    106.9843    133.1585   9.6120174168e+01   3.4336695503e+01    0.2117606    0.1904739 -70.94  0.001076902    1.154    0.133
       120  -9.8117     79.5962    133.1791   1.0265321912e+02   3.8589601695e+01    0.1616544    0.1113034 -56.95 0.0004936482    1.545    0.353
       121  -9.2019    227.0413    131.9902   7.2251929694e+01   1.1721915943e+01     0.155872    0.1304915  16.62 0.0004317871    1.024    0.024
       122 -11.0278     33.4428    126.1184   1.1333790132e+02   4.5691140179e+01    0.3172727    0.1568369  68.13  0.001177759    1.990    0.497
       123  -9.7105    123.6878    130.7020   9.1838015733e+01   3.1906500330e+01    0.1267903    0.1057566   5.99 0.0004108435    1.602    0.376
       124 -10.3783     73.9600    129.5074   1.0350938489e+02   4.0147364161e+01    0.2331229    0.1756344 -75.11 0.0007466943    1.264    0.209
       125 -11.4371     37.5352    130.5516   1.1273040607e+02   4.4331683395e+01    0.3690317    0.2171078 -71.28  0.001723139    1.551    0.355
       126 -10.0826     82.0321    125.2214   1.0084727139e+02   3.9889223408e+01    0.2033619    0.1689477 -75.41 0.0005493444    1.158    0.137
       127 -10.3289     14.4134    125.5674   1.1810506812e+02   4.7519239938e+01     0.216533     0.117283 -79.48  0.001323816    1.542    0.351
       128 -11.2690     10.6205    122.5929   1.1886314535e+02   4.8451152088e+01    0.2958252    0.1647679  64.37  0.001313255    1.511    0.338
       129  -9.6077      6.6109    126.1773   1.2008521707e+02   4.7995914098e+01    0.1463944   0.08313418 -76.97 0.0007225522    1.510    0.338
       130 -11.3207      2.2494    124.3281   1.2106369832e+02   4.8698979391e+01    0.4108373    0.1397661 -74.63  0.001369837    2.385    0.581
       131  -9.8621    219.9127    124.4911   7.1761394577e+01   1.3986017739e+01    0.1892454    0.1209666  45.14  0.000597583    1.506    0.336
       132  -9.6474    244.3051    123.6611   6.7859156887e+01   9.4662398501e+00    0.1173659   0.09709553 -47.57 0.0003927257    1.676    0.403
       133 -10.4208     21.2839    121.1840   1.1602465804e+02   4.7882039058e+01    0.1659347    0.1572048  22.48 0.0006457787    1.461    0.316
       134  -9.6660     32.8477    118.9133   1.1278511229e+02   4.7310141026e+01    0.1715807    0.1371855 -72.29  0.000513657    1.249    0.199
       135  -9.5513    220.4398    116.9540   6.9985313083e+01   1.4821051026e+01    0.1944492    0.1225965 -25.76 0.0004685881    1.542    0.351
       136  -9.1474    201.4173    117.4899   7.3279359538e+01   1.8612036285e+01    0.1356034    0.1226264  11.42 9.901397e-05    1.020    0.020
       137 -10.4702     86.0043    116.7195   9.8408056858e+01   4.1085862873e+01    0.2153111    0.1749624 -69.16 0.0004631953    1.190    0.159
       138 -10.7762     51.0856    116.5621   1.0763657499e+02   4.5869316222e+01    0.2676888    0.1498161 -66.77            0    1.625    0.385
       139  -9.1702    179.5123    116.5533   7.7064218440e+01   2.3309544343e+01      0.13951     0.127202  23.47 8.590728e-05    1.023    0.022
       140  -9.5450    166.0300    115.6836   7.9520287039e+01   2.6272486094e+01    0.1938883    0.1765257  43.11  0.000529269    1.057    0.054
       141 -11.3434     17.4215    115.2911   1.1655900117e+02   4.9487029832e+01    0.2570149     0.234097  27.66  0.001461655    1.463    0.316
       142  -9.1866    214.1779    115.5925   7.0685778916e+01   1.6255171126e+01    0.1877094    0.1130737  36.92 0.0005305132    1.597    0.374
       143  -9.8287     35.2213    114.0279   1.1162737087e+02   4.8150302381e+01    0.2372787    0.1383358 -87.42  0.001349787    1.532    0.347
       144 -11.9254     35.5833    108.5450   1.1089581811e+02   4.9335468022e+01    0.4089629    0.2161326  76.09  0.001437519    1.988    0.497
       145 -10.6753    249.0292    112.1677   6.4641621427e+01   9.8417560324e+00    0.2292934    0.1655033 -14.72 0.0007053598    1.228    0.186
       146 -12.1827     54.8410    109.9663   1.0568805487e+02   4.6882697680e+01    0.2730232    0.2299701 -89.23 0.0004590753    1.021    0.021
       147 -12.7515     15.7578    109.3509   1.1651788366e+02   5.0925955898e+01    0.5611714    0.3689657  68.73 0.0007054522    1.310    0.236
       148 -11.3350     23.0416    106.8270   1.1424861421e+02   5.0886461089e+01    0.2945758    0.2121747  55.00  0.001219088    1.331    0.248
       149  -9.1575     29.4653    109.4763   1.1271795382e+02   4.9718383469e+01    0.1200813    0.0970434  88.84 0.0001564661    1.033    0.032
       150 -12.6339      2.6508     99.5805   1.1946090824e+02   5.4024993090e+01    0.7162489    0.2266333 -88.74  0.001651525    2.811    0.644
       151 -11.7140      2.4847    105.9943   1.1994027623e+02   5.2620168982e+01    0.2518588    0.1862812  84.83 0.0003804088    1.018    0.018
       152 -10.3379      6.4327    105.5229   1.1881005499e+02   5.2459882315e+01    0.2150621    0.1043923 -83.75 0.0006326389    1.640    0.390
       153 -11.0855     62.9479    106.7936   1.0292446706e+02   4.6563895250e+01     0.286936    0.2216198  55.87 0.0009099539    1.265    0.209
       154 -10.6207    243.7037    104.4510   6.3607499863e+01   1.1710479243e+01    0.2244744    0.1389611  29.55  0.001171197    1.617    0.382
       155 -10.8397    247.6449    102.1349   6.2522529964e+01   1.1204137831e+01    0.2386069    0.1801907  43.85   0.00123317    1.385    0.278
       156  -9.7523    223.2952    104.0029   6.6497947681e+01   1.5864085474e+01    0.1919424     0.158825 -12.23 0.0004235663    1.117    0.105
       157 -10.1995     93.1835    104.1226   9.4082701563e+01   4.2626922447e+01    0.1933208    0.1806023 -42.66  0.000526779    1.227    0.185
       158 -10.2283     89.3028    103.3066   9.4962320503e+01   4.3444347792e+01    0.1929208    0.1579356 -22.94 0.0001997909    1.681    0.405
       159 -11.0095     92.7494     96.5869   9.2564885927e+01   4.4325113087e+01    0.4951029    0.2151771 -45.80  0.001985886    2.477    0.596
       160 -10.8216     94.3414     91.2672   9.0884789728e+01   4.5201778328e+01    0.4370779    0.2850186  19.07  0.001339205    2.535    0.605
       161 -10.4803     36.2450    101.5398   1.0983098023e+02   5.0850276779e+01    0.3311657    0.1740037  49.35  0.001162754    1.879    0.468
       162  -9.6899    119.7843    101.4185   8.6573895608e+01   3.8358509124e+01    0.1981091    0.1326574  34.58 0.0009397866    1.689    0.408
       163  -9.8192    145.4811    100.0212   8.0134756000e+01   3.3356392757e+01    0.2215261    0.1421651 -40.88  0.001033671    1.594    0.373
       164 -10.8859     66.8330     98.3234   1.0031753809e+02   4.7941041447e+01     0.250963    0.1702406 -66.10   0.00034415    1.348    0.258
       165 -11.1686     62.3348     98.5472   1.0167575037e+02   4.8499138120e+01    0.3063966    0.2766722  45.31 0.0008103141    1.252    0.201
       166 -11.5190     20.3477     97.3475   1.1405192138e+02   5.3249393875e+01    0.4262843    0.2145862 -88.08  0.001879643    1.759    0.431
       167  -9.5398     85.3713     98.7147   9.5086614034e+01   4.5082157689e+01    0.1890855    0.1187696 -50.62 0.0007788009    1.595    0.373
       168  -8.8366     30.3929     98.2445   1.1114531062e+02   5.2167335192e+01    0.1119444   0.08712602 -40.15 0.0006936819    1.668    0.401
       169 -10.1702     57.2122     96.2451   1.0278263646e+02   4.9685239822e+01     0.260612    0.1516303 -57.33 0.0009528255    1.609    0.378
       170  -9.5660     40.9970     96.9910   1.0778400343e+02   5.1398068679e+01    0.1520119    0.1270657 -89.25 0.0004943327    1.014    0.014
       171 -10.5474     13.9393     96.9413   1.1592783720e+02   5.3840990165e+01    0.1840414    0.1423245  88.59 0.0006120165    1.005    0.005
       172  -9.0005     27.9856     95.9552   1.1158602182e+02   5.2911240598e+01    0.1412413    0.1140388 -89.27            0    1.006    0.006
       173  -9.7754    249.9827     95.5095   6.0643313624e+01   1.1479701065e+01    0.1773758    0.1257118  47.28 0.0004050056    1.498    0.332
       174 -10.3425     31.3619     92.4669   1.1009362904e+02   5.3401129130e+01    0.3121651    0.1729088  89.23  0.001647954    1.751    0.429
       175 -11.0820     25.4495     91.5195   1.1181190449e+02   5.4153259437e+01     0.233938    0.2046875 -84.93 0.0009475678    1.125    0.111
       176 -10.4295     22.8734     87.0341   1.1205755242e+02   5.5406169729e+01    0.2813742    0.1777839 -70.10   0.00132663    1.319    0.242
       177 -10.5234    162.2781     92.7924   7.4613412725e+01   3.0937555357e+01    0.2633022    0.1969069 -10.20 0.0006784159    1.608    0.378
       178 -11.4856    158.0733     90.0096   7.4750383803e+01   3.2365971360e+01    0.4923634    0.2427012 -38.84  0.001998316    2.029    0.507
       179  -9.4838    104.3781     91.8148   8.8246791441e+01   4.3274909834e+01    0.1921505    0.1279204 -41.03  9.47816e-05    1.616    0.381
       180 -11.4853     10.3254     90.8714   1.1644908555e+02   5.5477046134e+01    0.2499616    0.2057685  51.36  0.000666087    1.322    0.244
       181  -9.3233     21.3007     91.3432   1.1308574642e+02   5.4543017789e+01    0.1203916   0.07774797 -52.31  0.000359727    1.676    0.403
       182 -11.0255     46.2966     84.3725   1.0404440130e+02   5.3729260210e+01     0.605467    0.3787625  63.21   0.00324124    1.758    0.431
       183  -9.4801    139.0256     87.5368   7.8335582657e+01   3.7067856403e+01    0.2117089    0.1435568  50.52 0.0009900377    1.474    0.321
       184 -12.2786     18.1938     65.8984   1.1065128690e+02   6.0701605372e+01    0.7669376    0.5526698 -63.09  0.001957844    1.212    0.175
       185 -10.8098      4.4185     85.8874   1.1784469715e+02   5.6995820270e+01    0.4151022    0.1725283 -72.45  0.002193047    1.863    0.463
       186 -10.6135     31.0921     66.0849   1.0585572472e+02   5.9577559106e+01     0.441683    0.1894811 -62.05  0.001257784    1.862    0.463
       187  -9.9680     28.0113     68.2363   1.0740449423e+02   5.9353008855e+01    0.2339334    0.1493619 -68.54  0.001353527    1.278    0.217
       188 -11.9152      6.0684     75.3006   1.1626635716e+02   5.9324033485e+01    0.6996144    0.3727874 -44.88   0.00390191    2.217    0.549
       189 -10.9824     14.8035     83.3914   1.1423378028e+02   5.6875335057e+01    0.4089237    0.1756157 -62.39  0.001022061    1.952    0.488
       190 -12.2977     21.0759     77.7869   1.1140880633e+02   5.7699479373e+01    0.5180022    0.2701536 -65.86  0.000286371    1.564    0.361
       191 -12.0313     13.4991     77.6152   1.1398129314e+02   5.8305172341e+01    0.4921354    0.2281393 -51.03  0.001920118    2.245    0.555
       192 -11.2986    166.7148     84.3115   7.1380027616e+01   3.1343265654e+01    0.5724398    0.2788535  49.75  0.002298109    2.015    0.504
       193 -10.8322     67.2739     84.6918   9.7406082507e+01   5.0970558148e+01    0.2634996    0.2059224 -35.57  0.001245119    1.567    0.362
       194 -10.1995     87.9559     83.3468   9.0778483429e+01   4.8030555367e+01    0.2231598    0.1757587 -68.56 0.0003028102    1.242    0.195
       195 -10.2031     29.9110     82.6203   1.0913816173e+02   5.5816833026e+01     0.333089    0.1396313 -63.81  0.001608528    1.941    0.485
       196  -9.6782    117.9093     83.3510   8.2415421086e+01   4.2376272253e+01    0.2013669    0.1931429  48.70  0.001140324    1.077    0.071
       197  -9.1434    146.4996     81.5127   7.4917121608e+01   3.6502236947e+01    0.1477799    0.1442789 -72.73 1.171769e-06    1.057    0.054
       198 -10.1147     71.0156     79.5161   9.5031364977e+01   5.1600006860e+01    0.2529092    0.1771041 -79.73 0.0008351383    1.545    0.353
       199  -9.4838    150.4496     77.7371   7.2933732372e+01   3.6263788323e+01    0.2158393    0.1454064 -22.15 0.0009523631    1.706    0.414
       200 -10.2620     92.8685     77.6534   8.7822973889e+01   4.8408241825e+01    0.2151237    0.1862647  15.43 0.0007847954    1.438    0.305
       201 -11.6158     59.3192     76.0362   9.8019873033e+01   5.4051018156e+01    0.4517675    0.3469016  77.80  0.002572244    1.402    0.287
       202 -10.8574     62.3492     71.8340   9.5990653852e+01   5.4600896281e+01    0.2401405    0.2160365 -88.90 0.0006877602    1.090    0.083
       203  -9.2089     64.3158     68.6368   9.4500344258e+01   5.5051099298e+01    0.2626965     0.159096 -49.70  0.001306844    1.540    0.351
       204  -9.6637    122.0468     76.2815   7.9313511511e+01   4.2917108155e+01    0.2100707    0.1877087  57.39  0.001067535    1.144    0.126
       205  -9.4955    108.4751     76.3452   8.2972187155e+01   4.5716128856e+01     0.268239    0.1832328  15.69 0.0009075361    2.412    0.585
       206 -10.1275     75.0446     76.1212   9.2903359577e+01   5.1749102265e+01    0.2474783    0.2033315  64.15  0.001402849    1.292    0.226
       207 -12.1419     44.6000     75.1883   1.0283588882e+02   5.6058061057e+01    0.2602973    0.2062852  49.15 0.0002607332    1.373    0.272
       208 -11.1526     37.4736     69.9770   1.0429181570e+02   5.8041127397e+01    0.5215021    0.3080122  81.34  0.002600941    2.050    0.512
       209  -9.7933    145.4472     74.2048   7.3000987603e+01   3.8056132567e+01    0.2870883    0.1486154 -32.32  0.001128918    2.027    0.507
       210 -12.1267    102.7259     72.5850   8.3494148008e+01   4.7632019130e+01    0.4202287    0.2777946 -42.34 0.0006038757    1.491    0.329
       211 -10.5286    150.4357     72.1753   7.1267762293e+01   3.7239799001e+01    0.2669843    0.2081229  53.32 0.0002020122    1.301    0.231
       212 -10.3188    128.9570     71.8064   7.6201884319e+01   4.2269548290e+01    0.2350392    0.2047951 -44.24 0.0002255727    1.124    0.110
       213 -11.1024     77.1824     71.7413   9.1056365334e+01   5.2387841852e+01    0.5576515    0.2671456  43.94  0.001771128    2.235    0.553
       214 -11.5273     50.6380     68.4115   9.9225036545e+01   5.6924846343e+01    0.4473917    0.2832143 -44.91  0.001701122    1.653    0.395
       215 -10.4921     51.4999     62.7097   9.7498962608e+01   5.8134352651e+01     0.307528    0.2051717 -42.32  0.001639499    1.589    0.371
       216  -9.1857    167.9410     69.9987   6.6955104014e+01   3.3380688760e+01    0.1838929    0.1630161  50.32 0.0004532042    1.143    0.125
       217 -12.2727     94.2457     68.4255   8.4751567941e+01   5.0130000888e+01    0.4058228    0.2506898 -44.49  0.000348067    1.555    0.357
       218  -9.9252    146.0267     68.8741   7.1229411984e+01   3.8862766460e+01    0.2372279    0.1811085  14.00 0.0006374656    1.643    0.391
       219 -11.0838    140.1202     68.7008   7.2531711095e+01   4.0286873670e+01    0.3337704    0.2663794 -60.15 0.0003271718    1.394    0.283
       220 -10.7560     68.8278     67.2879   9.2597897953e+01   5.4690914376e+01     0.349009    0.1704578 -51.61  0.001051777    1.840    0.457
       221  -9.4287    123.1868     68.4179   7.6613730834e+01   4.4198404807e+01    0.1895536    0.1446342  65.18 0.0009097277    1.466    0.318
       222  -9.4176     33.0576     75.6965   1.0693443179e+02   5.7139317178e+01    0.1602706    0.1470295 -85.20 0.0004378009    1.138    0.121
       223 -12.7732      4.4422     65.2775   1.1571042968e+02   6.1740002510e+01    0.4246822    0.2553385  72.09  0.001381706    1.614    0.380
       224 -10.9676     10.9677     62.5630   1.1288023423e+02   6.1982332296e+01    0.2218264    0.1758994  79.52 0.0003717817    1.197    0.165
       225 -11.0039     12.4277     51.4436   1.1047295504e+02   6.4487925146e+01    0.2675241    0.1780407 -89.61 0.0006068166    1.385    0.278
       226 -10.7768      5.5573     58.2352   1.1437117095e+02   6.3316316721e+01    0.4254749    0.1383657 -74.11  0.001901252    2.324    0.570
       227 -11.6711      5.2836     51.7270   1.1352903823e+02   6.4847820974e+01    0.5502285     0.238823 -78.17  0.002210704    1.857    0.461
       228 -10.9794     11.2530     44.4788   1.0964851833e+02   6.6186328934e+01     0.498517    0.2204265 -48.38  0.001881132    2.106    0.525
       229 -11.0328      7.0122     41.1215   1.1091780522e+02   6.7218376683e+01    0.3745172    0.1164485 -66.73 0.0006696185    2.265    0.559
       230  -9.4233    128.1267     66.7313   7.4815995372e+01   4.3413465668e+01    0.2425182    0.1898692  72.81  0.001171539    1.496    0.332
       231 -11.4110     64.4293     60.0403   9.2064058673e+01   5.6975237269e+01    0.7724768    0.2799741  36.98  0.002969558    3.144    0.682
       232 -10.3579     56.4431     59.0104   9.4671378719e+01   5.8335993376e+01    0.3408515    0.1994977 -43.86  0.001367576    1.723    0.420
       233  -9.3595    156.0036     65.9963   6.8148098363e+01   3.6949638746e+01    0.1790257    0.1743707 -14.07 0.0009661141    1.003    0.003
       234 -10.9018     77.1973     63.8159   8.8780484146e+01   5.4137343869e+01    0.4255467    0.2591603 -52.28  0.001794112    1.495    0.331
       235  -9.4976    150.4161     64.7043   6.8935230604e+01   3.8527389798e+01    0.1971742    0.1468165 -21.79 0.0002866987    1.424    0.298
       236 -10.2020     99.7708     64.8850   8.1994449904e+01   4.9809074257e+01    0.2255995    0.1944221 -23.05  0.001205613    1.297    0.229
       237  -9.2922    216.4182     64.6025   5.7232630417e+01   2.2378428082e+01    0.2623845    0.1416155  82.13  0.000947293    3.313    0.698
       238  -9.3835     41.5053     64.4096   1.0161530954e+02   5.8914948929e+01    0.1290807    0.1099789 -76.36 0.0001816777    1.042    0.040
       239 -10.8029     83.7487     61.3830   8.5870165206e+01   5.3543622037e+01    0.3513772    0.2836853  61.76  0.001901296    1.381    0.276
       240 -10.3296     86.1316     57.8337   8.3944163104e+01   5.3869901700e+01    0.3618128    0.2578456 -44.87  0.001835859    1.310    0.236
       241 -10.1492    201.3508     62.0620   5.8727275986e+01   2.6323476883e+01    0.2325192    0.1952118  36.83 0.0004856426    1.209    0.173
       242  -9.4859    186.1427     61.1525   6.0916520060e+01   3.0210222046e+01    0.1981251    0.1707794 -53.58 0.0002456359    1.261    0.207
       243 -11.5479     57.0000     64.0045   9.5839494615e+01   5.7123076928e+01    0.5321924    0.1579876 -49.70  0.001896592    3.073    0.675
       244 -10.7269     45.2037     49.6740   9.6321712591e+01   6.1889784477e+01     0.505284    0.2126635 -56.77  0.002238601    1.972    0.493
       245 -10.0757     47.5082     58.4496   9.7877224613e+01   5.9606098146e+01    0.3481272    0.1873324 -78.72   0.00151971    2.390    0.582
       246 -10.0654     43.9721     57.0438   9.8868514428e+01   6.0346717613e+01    0.1973436    0.1577485 -47.21 0.0003691289    1.235    0.190
       247 -11.4752     29.5835     60.8516   1.0536937391e+02   6.0943307711e+01    0.5869356    0.2846429  12.85  0.002631192    3.396    0.706
       248 -11.9588    225.9288    245.8140   9.0886609193e+01   9.5979075115e-01    0.4211504    0.2096796  15.11  0.002756542    2.330    0.571
       249  -9.8040    147.0772     57.0478   6.7152135900e+01   4.0631983032e+01     0.242412    0.1823019 -65.52 0.0004790735    1.630    0.386
       250 -10.6483    129.8227     55.9420   7.0794383211e+01   4.4995608481e+01    0.5203338    0.2597416  36.94  0.001887504    2.590    0.614
       251 -12.6305    128.7219     50.4141   6.9111192582e+01   4.6229196087e+01    0.4904347    0.4174141  11.58  0.002484219    1.325    0.246
       252  -9.7471    123.0144     56.3011   7.2641458860e+01   4.6515713688e+01    0.2027488    0.1968468 -67.09 0.0003654464    1.056    0.053
       253 -10.9865     75.3322     56.0185   8.6971706674e+01   5.6145762507e+01    0.2211229    0.2060582  54.48 0.0002924098    1.176    0.149
       254 -11.4347     87.2944     52.2968   8.1669223177e+01   5.4806591682e+01    0.3847611    0.2792309 -74.44 0.0001790059    1.787    0.441
       255 -10.3471     61.3943     54.1031   9.1368175831e+01   5.8745073025e+01    0.2616514    0.2166053  72.74 0.0009804531    1.394    0.282
       256  -9.4090    143.4753     53.4593   6.6724589102e+01   4.2118522451e+01    0.1522494    0.1484548 -25.70 0.0001934425    1.008    0.008
       257 -10.0716    109.2013     52.0976   7.4899231363e+01   5.0392110411e+01    0.2245505    0.1957038 -15.34 0.0004648391    1.238    0.192
       258 -11.0515     69.9373     50.0384   8.6880375539e+01   5.8321214780e+01    0.4403088    0.3271855  88.93  0.001705768    1.831    0.454
       259  -9.9761    186.7860     50.1416   5.7376862619e+01   3.1574832740e+01    0.2224717    0.1962763 -46.79 0.0003410312    1.170    0.146
       260 -10.9799    103.9221     48.8111   7.5223148748e+01   5.2154443769e+01    0.4493541    0.3138891 -40.92  0.002166116    1.350    0.259
       261 -11.2021     79.1752     48.3916   8.3010207379e+01   5.7098324649e+01    0.4441851    0.3252947 -83.67   0.00214403    1.920    0.479
       262  -9.5390     53.4877     50.4538   9.3248850070e+01   6.0663538708e+01     0.135278    0.1167703 -54.53 8.694945e-05    1.036    0.035
       263  -9.2699    166.5204     49.4119   6.0638795481e+01   3.6903132075e+01     0.152365    0.1468674  10.45 7.827189e-05    1.031    0.031
       264 -11.3334    151.8765     47.6653   6.2900554356e+01   4.0932469705e+01      0.46584    0.3562982  24.78  0.001296948    1.487    0.328
       265 -10.9394     95.3465     48.4080   7.7678217008e+01   5.4015997901e+01    0.3648244    0.2452684 -42.99  0.001202581    1.387    0.279
       266 -10.7127    120.1153     47.4048   7.0195060043e+01   4.8789286254e+01    0.2583607    0.2057525 -40.48 0.0004801236    1.209    0.173
       267  -9.8285    115.7654     48.3734   7.1713163984e+01   4.9619242405e+01    0.2022491      0.13893  41.17  0.000211619    1.565    0.361
       268 -10.4619    100.0683     55.5417   7.8795673466e+01   5.1646848921e+01    0.3376688    0.2263479  56.36  0.001238945    1.666    0.400
       269 -10.1126    142.6568     45.6227   6.4129091706e+01   4.3595282462e+01    0.3176156    0.2426676 -53.23 0.0006386133    1.419    0.295
       270 -10.3592     86.1452     45.6742   7.9627096234e+01   5.6365969935e+01    0.1944768    0.1866023 -25.76 0.0008468158    1.070    0.065
       271  -9.1502     54.3517     46.2468   9.1544125581e+01   6.1481797810e+01    0.1283948   0.09945007 -21.63  0.000361457    1.587    0.370
       272  -8.9692     18.3267     46.2801   1.0687846510e+02   6.5280915416e+01    0.1234725   0.07807676 -44.29 0.0002973399    1.596    0.373
       273  -9.7059     51.1282     44.8941   9.2395955571e+01   6.2215586582e+01    0.1910153    0.1646773 -70.98 0.0003516659    1.148    0.129
       274 -10.4958    124.0743     41.5987   6.6977448325e+01   4.8846926180e+01    0.4910959    0.3175365  37.90  0.002156194    1.727    0.421
       275  -9.7127     91.6460     43.3123   7.6912571607e+01   5.5752661109e+01    0.2210023    0.1407173 -53.91  0.001000949    1.670    0.401
       276 -10.5626     89.1720     39.2042   7.6082385269e+01   5.7034411796e+01    0.2876797    0.1878616 -41.95 0.0006665466    1.414    0.293
       277 -10.8073    110.7775     41.9328   7.0623785358e+01   5.1906615751e+01    0.2483844    0.2291861 -82.27 0.0003410045    1.204    0.170
       278 -11.7038     97.2051     41.0823   7.4275296149e+01   5.5032360823e+01    0.7497845    0.4343421 -43.40  0.003067093    1.628    0.386
       279 -10.3593    101.6775     36.9595   7.1241551799e+01   5.4819304524e+01    0.2273555    0.1989635   6.14 0.0006090965    1.249    0.199
       280 -10.4240    104.9518     34.2586   6.9155582909e+01   5.4559547368e+01    0.2718647    0.2330455  39.72 0.0002619206    1.225    0.183
       281 -11.2531     98.0422     31.7017   7.0108900646e+01   5.6532932904e+01    0.4966109    0.3191364  16.23  0.001885059    2.391    0.582
       282 -11.1690    101.0961     28.5601   6.7815960188e+01   5.6383252036e+01    0.2888194    0.2560114 -49.05 0.0003551694    1.168    0.144
       283 -11.9370     81.2335     35.7913   7.7368718824e+01   5.9235268263e+01    0.6784561    0.3293268 -44.85  0.002861928    1.905    0.475
       284 -11.3506     73.9948    233.0222   1.1321747900e+02   2.2227390110e+01    0.2457077     0.146264  56.12  0.001072883    1.225    0.183
       285 -11.0016     66.3494     41.4983   8.5133761041e+01   6.0711700577e+01    0.3473323    0.2610141  -9.67  0.001526296    1.802    0.445
       286 -10.5790     70.0141     37.1791   8.2039091232e+01   6.0990412650e+01    0.3466502    0.1808912 -40.54  0.001081102    1.776    0.437
       287 -10.6119     34.3376     34.0626   9.6074103084e+01   6.6627469240e+01     0.429444    0.1650878  38.96  0.001879364    3.031    0.670
       288 -10.4868     23.4886     41.0601   1.0327546104e+02   6.6079050544e+01    0.2195793     0.179205  80.56 0.0008595842    1.339    0.253
       289 -12.8707     25.6395     36.2052   1.0089305804e+02   6.7001011880e+01    0.5234272    0.3574095  64.92  0.002975259    1.897    0.473
       290 -10.7884     20.2048     37.8302   1.0394261518e+02   6.7088841878e+01    0.2721542    0.2096189 -51.45  0.001006292    1.171    0.146
       291 -10.0375     51.8505     40.5738   9.0602194256e+01   6.3066680313e+01    0.2724351    0.1661001 -69.69 0.0007706322    1.956    0.489
       292 -11.0115    103.3668     58.5040   7.8833248325e+01   5.0380631225e+01    0.4435915    0.2256252 -34.06  0.001199183    2.199    0.545
       293 -10.6286     42.2122     37.0105   9.3494731434e+01   6.5081881978e+01    0.5057194    0.3123095  68.68  0.002328459    2.743    0.635
       294  -9.8196    226.4467     40.4498   4.9051034243e+01   2.2833328266e+01    0.1430662    0.1299138 -15.46 0.0001781426    1.012    0.012
       295  -8.9003    215.5107     40.4981   5.0352424663e+01   2.5497347698e+01    0.1464341    0.1353098 -16.32 -4.074244e-05    1.004    0.004
       296 -10.9034    183.0631     38.5699   5.4195593174e+01   3.4062629575e+01     0.357741    0.1810333 -39.86  0.001104732    1.932    0.482
       297  -9.1102     71.6259     40.7594   8.2856445085e+01   5.9987983462e+01    0.1346456    0.1068447  -1.97 0.0006928531    1.622    0.383
       298  -9.9800     56.2612     39.3961   8.8344814894e+01   6.2701006100e+01    0.2671793    0.1468087 -42.86  0.001267671    1.679    0.404
       299  -9.9624     61.9392     37.8809   8.5464958311e+01   6.2166389264e+01     0.199002    0.1754839 -48.77 0.0003176762    1.024    0.024
       300 -10.1254      2.5309     37.2543   1.1228916386e+02   6.8347882603e+01     0.249356    0.1373601 -35.49  0.001239262    2.088    0.521
       301  -9.1015    199.7161     37.6472   5.1501428846e+01   2.9828305286e+01     0.157353     0.109548  21.26 0.0007018823    1.661    0.398
       302 -10.4649    166.5547     36.7958   5.6279925641e+01   3.8667683777e+01    0.2667896    0.2133473  61.44 0.0002858031    1.286    0.222
       303  -9.6957    155.1515     36.0865   5.8088832441e+01   4.1786089408e+01     0.239608    0.2002496  21.48 0.0004895543    1.282    0.220
       304  -9.5008    127.2959     36.3068   6.4116142096e+01   4.8916896837e+01    0.2338909    0.1796871 -31.16  0.000364137    1.253    0.202
       305 -10.1869    125.7788     33.1853   6.3227586305e+01   4.9779557302e+01    0.2517848     0.228652 -69.16 0.0005823574    1.214    0.176
       306 -11.5528     74.7920    240.2058   1.1351837798e+02   2.1172480153e+01    0.4001676    0.2865089 -37.25  0.003009464    2.905    0.656
       307 -10.8977     10.6115     34.2858   1.0769390566e+02   6.8582565615e+01    0.4535657    0.2404226  26.55   0.00255654    2.298    0.565
       308 -10.1447     20.8128     28.2539   1.0079248239e+02   6.9209054440e+01    0.4234365   0.08669923 -55.57  0.001478039    3.121    0.680
       309 -10.5397      7.1146     30.2286   1.0847736057e+02   6.9720832073e+01     0.315284    0.1430285 -62.38  0.001009439    1.622    0.384
       310 -10.4152      9.6554     25.3127   1.0581778660e+02   7.0685292601e+01    0.4006507     0.331721  25.82  0.001372536    1.523    0.343
       311 -10.6489     17.4229     31.3540   1.0349006801e+02   6.8780828735e+01    0.3477121    0.2094462  41.10  0.001998465    2.021    0.505
       312 -10.4691     13.2492     28.4302   1.0479371712e+02   6.9744698217e+01    0.3324508    0.1707106  -0.44  0.001636782    3.080    0.675
       313  -9.8972    150.8692     34.7147   5.8402027791e+01   4.3107025193e+01    0.2312094    0.2014113  29.79 0.0005649328    1.189    0.159
       314  -9.7720    110.4652     34.2175   6.7586455253e+01   5.3303288587e+01    0.3571229     0.114697 -41.98  0.001129686    3.060    0.673
       315  -9.5781     60.4396     33.5140   8.4313141784e+01   6.3301211864e+01    0.1994883    0.1375598  40.63 9.728958e-05    1.652    0.395
       316  -9.7523     57.3576     34.7311   8.6082746828e+01   6.3522814619e+01    0.2060679    0.1794968 -61.52  0.001232539    1.160    0.138
       317 -10.2786     55.9980     31.0609   8.5144694565e+01   6.4483452309e+01    0.2778397    0.1707354 -40.38 0.0009317644    1.475    0.322
       318 -10.2052    193.2192     32.9462   5.0869190990e+01   3.2077030040e+01    0.4344782    0.1175852  44.02  0.001114782    4.991    0.800
       319 -11.3114    177.4045     30.3858   5.2274437790e+01   3.6588487638e+01    0.5370842    0.2671468 -30.49  0.002132135    1.862    0.463
       320 -10.3822    129.8049     31.7546   6.1703342872e+01   4.8986631681e+01    0.3463042    0.1836316 -11.61  0.001226836    2.642    0.622
       321 -10.7962     49.0598     30.7426   8.8039654326e+01   6.5546721528e+01    0.4565712    0.2357758 -38.31  0.001572944    1.947    0.486
       322  -9.5717     43.0694     31.7158   9.1142935428e+01   6.6126567026e+01    0.1746329    0.1561885 -38.33 0.0004756684    1.105    0.095
       323 -10.0750    139.5888     30.4965   5.9054927208e+01   4.6656813402e+01    0.2746029    0.1809188 -20.55 0.0006370795    1.547    0.353
       324 -10.3582    223.1052     30.2225   4.6429924258e+01   2.4745605882e+01    0.2604342    0.1947126 -72.20 0.0008569671    1.566    0.361
       325  -9.6051    168.7380     30.0804   5.3523207460e+01   3.8955498498e+01    0.2138443    0.1897565 -18.54 0.0003656575    1.100    0.091
       326 -10.0054    162.9954     28.9709   5.4070243041e+01   4.0641167397e+01    0.1907403    0.1681584 -22.04 0.0003622177    1.104    0.094
       327  -9.7828    153.6023     28.7993   5.5655491252e+01   4.3184990434e+01    0.2269386    0.1326359 -37.05 0.0005023772    1.655    0.396
       328  -9.6395    109.4717     28.8615   6.5577583978e+01   5.4405996417e+01    0.2680151    0.1350393 -36.41 0.0004041843    1.858    0.462
       329  -9.4458    115.5278    244.5268   1.0737409919e+02   1.5668046415e+01   0.09909691   0.06864788  46.27 0.0002877452    1.027    0.026
       330  -9.7534    108.3177     17.5877   6.0784146980e+01   5.6362254634e+01     0.251602    0.1751547  18.66 0.0008324186    1.707    0.414
       331 -10.1751    108.0351     24.7079   6.4132961718e+01   5.5391039482e+01    0.2923843    0.2306609 -34.61 0.0004807946    1.210    0.174
       332 -10.6800    107.0279     21.4857   6.2940203551e+01   5.6113099978e+01    0.2971957    0.2324674  63.37 0.0003811067    1.409    0.290
       333 -10.0844    109.6896    243.2274   1.0819299448e+02   1.6562124233e+01    0.2071688    0.1116063  58.28 0.0009446311    1.699    0.411
       334 -11.2378     37.7898    242.6168   1.1941858951e+02   2.4851332477e+01    0.4097294   0.08300008  38.29   0.00216017    3.251    0.692
       335 -10.2872     35.5076    239.4900   1.1965374739e+02   2.5507735352e+01     0.161714    0.1270177  70.03  0.001251261    1.288    0.224
       336 -10.5967    156.5056    241.1097   1.0066378643e+02   1.0650706683e+01    0.1118151    0.1017666 -41.67  0.001027027    1.572    0.364
       337  -9.7839     88.6377    241.1649   1.1138019493e+02   1.9414410653e+01    0.1052911   0.08678742 -61.13 0.0009283063    1.758    0.431
       338  -9.3115     50.3239    240.3052   1.1738062477e+02   2.3871418666e+01   0.07670341   0.06687775  34.97 0.0003598002    1.642    0.391
       339 -11.0491    214.5719     27.3666   4.6491211486e+01   2.7177653387e+01    0.2696121    0.2557732  24.18 0.0006370158    1.098    0.089
       340 -11.6844     70.5571     25.8322   7.6885137950e+01   6.3091008248e+01    0.3120072    0.2957948  12.89 0.0005450728    1.137    0.121
       341 -11.0950    135.1719     22.5115   5.6735660649e+01   4.8901466093e+01    0.6013033    0.3221674  30.19  0.002220947    2.487    0.598
       342 -10.3143    195.5775    238.4936   9.4424100153e+01   5.5807573398e+00    0.2111631    0.1282436  27.55  0.001510822    1.341    0.254
       343  -9.6032     24.6030     26.7457   9.8313093335e+01   6.9212207929e+01    0.3235294    0.1201661 -68.80  0.001211169    3.312    0.698
       344  -9.6729     15.2242     13.9779   9.8684353201e+01   7.2791324125e+01    0.1662304    0.1237663 -71.44 0.0004734314    1.341    0.254
       345 -10.3322     24.5101     19.4817   9.5581260019e+01   7.0799150224e+01    0.2287054    0.1765006 -46.55  0.001461205    1.079    0.074
       346 -11.4984     29.9701    233.3583   1.2029554229e+02   2.6913638407e+01    0.3082399    0.1731247  82.53  0.002531587    1.640    0.390
       347 -11.4047    237.4108     25.4378   4.3641302451e+01   2.1778987941e+01    0.2612691    0.2346951 -23.74 0.0002577447    1.006    0.006
       348  -9.0814    146.0139     26.2378   5.6086058778e+01   4.5545947012e+01    0.1874433    0.1296417  61.74            0    1.476    0.322
       349 -10.5529    197.2161     24.8886   4.7719810256e+01   3.1936657715e+01    0.2215956    0.1885157 -44.59 0.0003012465    1.164    0.141
       350 -11.0333     96.5337     23.5855   6.6913747111e+01   5.8210316378e+01    0.3273477    0.2675356  56.36 0.0003012043    1.335    0.251
       351  -9.9992     24.2556    232.3056   1.2115830296e+02   2.7615872072e+01      0.15985    0.1038563  52.64 0.0006834436    1.122    0.109
       352 -10.0445    159.9167    235.8866   9.9604073734e+01   1.0734174025e+01    0.1570254    0.1071212  30.99 0.0006683089    1.273    0.214
       353 -11.5931    120.2662     21.3543   5.9534018329e+01   5.2890848536e+01    0.3185366    0.2524983 -15.75  0.000270976    1.254    0.203
       354  -9.0083     35.1535     22.8574   9.1358883682e+01   6.8958617613e+01    0.2990863    0.1563687  16.04  0.001341978    3.061    0.673
       355 -10.0632     28.8578     21.4202   9.4027047125e+01   6.9952291480e+01    0.2968555    0.1331488 -40.02 0.0009077933    2.216    0.549
       356  -9.9572    184.8501     21.3492   4.8098013762e+01   3.5626623904e+01    0.2967742    0.1478361  81.53  0.001091153    2.528    0.604
       357 -10.4385     44.9065     20.4484   8.5431410349e+01   6.8217982665e+01    0.3223025    0.2116435  50.51  0.001648864    1.982    0.495
       358  -9.3264    161.9573     19.9829   5.0891033995e+01   4.2011759641e+01    0.1789666    0.1752024  -5.07            0    1.005    0.005
       359 -10.2601    215.8958     16.8337   4.3127724702e+01   2.7909253493e+01    0.5429393   0.09758836  60.28  0.001597691    4.249    0.765
       360 -10.2392    168.6870     17.2969   4.8871972538e+01   4.0472175594e+01    0.2216848    0.1428628 -38.97 0.0002168414    1.522    0.343
       361 -13.0715      6.2287    244.6401   1.2422461658e+02   2.7539216292e+01    0.8156505    0.5538919  26.51  0.006603041    2.130    0.531
       362 -10.2475     35.1018     15.2801   8.7910709252e+01   7.0518083007e+01    0.2731964    0.1860081 -12.87 0.0007460164    1.902    0.474
       363 -10.1023    177.5201    234.9478   9.6764120219e+01   8.3963304373e+00    0.1946822    0.1061901  31.46 0.0008175211    1.518    0.341
       364 -11.2693    153.6451    233.7522   1.0037451728e+02   1.1828575878e+01     0.175966    0.1488331  -0.91 0.0008056959    1.564    0.361
       365 -10.7847     10.1366     15.5811   1.0239003540e+02   7.2817954394e+01    0.2190737    0.1560269 -45.17 0.0006191798    1.223    0.182
       366 -10.0600    167.2835    233.9350   9.8243873324e+01   9.9196261086e+00    0.1352561    0.1072591  34.39 0.0008033113    1.128    0.114
       367 -10.5322    243.7876     14.8126   4.0133683690e+01   2.1287410235e+01    0.1985118    0.1409534 -45.64 0.0006593877    1.334    0.250
       368  -9.8658     80.0482    231.7828   1.1215200998e+02   2.1680880874e+01    0.1579556   0.09166992  55.40 0.0007016683    1.275    0.216
       369  -9.8967     10.8581    208.1802   1.2258656746e+02   3.2490082672e+01    0.1147099   0.09613927  72.53  0.000490074    1.353    0.261
       370  -9.6143     50.2711     15.3984   8.0352651263e+01   6.8410153824e+01    0.2403851    0.1286918  35.05  0.001152816    2.201    0.546
       371  -9.9021    232.9274     14.0087   4.0768385685e+01   2.3939794416e+01    0.2474921    0.1389017 -49.45   0.00113565    1.791    0.442
       372 -10.9681      5.1795    226.8399   1.2399803737e+02   3.0145325948e+01    0.3534951    0.1007063  64.29  0.002187595    2.510    0.602
       373 -10.0273    190.5320    227.3075   9.3869598811e+01   7.3191941198e+00    0.2410448    0.1025816 -36.96  0.001461038    3.138    0.681
       374 -10.0059     84.1688     13.9486   6.6073662771e+01   6.2399943179e+01    0.2424974    0.1927218  77.82  0.001004181    1.663    0.399
       375  -9.3494      1.4279     13.7930   1.0716288017e+02   7.3722010684e+01     0.164138   0.07916293 -57.26 0.0004535529    1.512    0.339
       376  -9.3228     90.1556     12.9010   6.3618365967e+01   6.1247922733e+01    0.1881956    0.1559158  10.87 0.0002919924    1.248    0.199
       377 -10.0012    248.7531    227.7837   8.5394473574e+01  -6.8786703686e-01    0.1593847   0.09156408  13.51  0.001048835    1.514    0.340
       378 -10.5745    179.4914    243.9737   9.7443719014e+01   7.2601810592e+00    0.1087875   0.08430253  87.57 0.0008102292    2.560    0.609
       379  -9.8386    130.0680    226.6667   1.0349195377e+02   1.5902206449e+01    0.2310868   0.09777793  52.51  0.001311289    2.177    0.541
       380 -10.9041    120.1734    226.7841   1.0513942224e+02   1.7231085503e+01    0.1577558    0.1067985  53.80 0.0006656467    1.206    0.171
       381 -10.0488     87.9976    227.0121   1.1051323948e+02   2.1365116665e+01    0.1596066    0.1136894  52.66   0.00129347    1.011    0.011
       382 -10.3130     66.5261    226.2908   1.1403949448e+02   2.4031375448e+01    0.2212381   0.09610162  43.82  0.000899739    1.632    0.387
       383 -10.0356     25.7401    225.3162   1.2068558268e+02   2.8488481391e+01    0.1489054    0.1340131 -32.38  0.001356575    2.124    0.529
       384  -9.2638     37.6886    224.7037   1.1871899849e+02   2.7393820819e+01   0.07593019    0.0701344  45.47 0.0003829307    1.597    0.374
       385 -10.5214    123.0293    221.5854   1.0418265101e+02   1.7509169327e+01    0.2941192    0.1854337  57.19  0.002100222    1.440    0.306
       386 -11.2763     73.7111    237.2523   1.1351710668e+02   2.1689253237e+01    0.2947648    0.1602716  30.08  0.001977403    2.228    0.551
       387 -10.5264     13.4504    222.0473   1.2256298614e+02   3.0122336903e+01    0.1441688    0.1218664  65.81 0.0008978635    1.395    0.283
       388 -10.2284    141.2763    221.3366   1.0110350197e+02   1.4995076967e+01    0.2090562    0.1417874  25.04  0.001470384    1.652    0.395
       389 -10.6562     21.9762    220.4703   1.2112975305e+02   2.9569906784e+01    0.1385033   0.09206251  67.53 0.0004053462    1.121    0.108
       390  -9.1765     77.5504    219.3985   1.1173871838e+02   2.3718289249e+01    0.1779318   0.06506597 -49.76 0.0008082318    5.661    0.823
       391  -9.2097     41.6708    220.7192   1.1788420663e+02   2.7573865272e+01   0.07841556   0.07096644  38.05 0.0005357611    1.603    0.376
       392  -9.4002    250.5025    219.4337   8.3992398958e+01  -3.1280992142e-01    0.1036476   0.06915466  22.59 9.223307e-05    1.026    0.025
       393  -9.9257    174.2938    219.4713   9.5482786436e+01   1.0453460197e+01    0.2180782    0.0784282  39.07  0.001149697    2.114    0.527
       394 -10.7418      9.6173    216.8931   1.2304102219e+02   3.1244884930e+01    0.2302355    0.1125362  59.69    0.0011227    1.362    0.266
       395  -9.7471     37.9826    217.4890   1.1835477967e+02   2.8442078835e+01    0.1422092   0.07309166  41.43 0.0006502734    1.557    0.358
       396 -11.4570    236.5086    214.7123   8.5307321155e+01   1.9536413715e+00    0.3846369    0.1920326  27.25  0.002198276    1.611    0.379
       397  -9.7829    194.5328    215.4809   9.1758162595e+01   7.9069552593e+00    0.1084657   0.07936101  32.08 -4.917131e-05    1.005    0.005
       398  -9.4222    136.8224    216.1553   1.0130773023e+02   1.6273612513e+01    0.1458465    0.1051546  31.80  0.001064139    1.337    0.252
       399 -10.8107     30.8788    215.8690   1.1948039068e+02   2.9406478247e+01    0.2406565    0.1068969  39.46  0.001644585    1.811    0.448
       400  -9.1634    201.6452    215.6963   9.0675060631e+01   6.8452183173e+00    0.1116452   0.06426198  22.19 0.0007039959    1.712    0.416
       401  -9.5112    170.3085    213.3118   9.5380418211e+01   1.1721340505e+01    0.1064578   0.07067126  21.33 0.0004094544    1.623    0.384
       402 -11.0032     21.2303    212.2492   1.2096722444e+02   3.0900243148e+01    0.2867613   0.09400677  53.37  0.001801771    1.991    0.498
       403 -10.1405    208.9891    212.0701   8.9048007242e+01   6.1194559156e+00    0.1634541    0.1186984  28.47 0.0004516552    1.015    0.015
       404  -8.9783     76.3321    212.3188   1.1144887635e+02   2.4909442778e+01    0.0884024   0.07788599  18.78 0.0007048323    1.692    0.409
       405  -9.5093      2.2998    212.3278   1.2412462608e+02   3.2582114260e+01    0.1309382   0.09705668  66.16 0.0004127369    1.178    0.151
       406 -11.8833      4.7000    207.3807   1.2360330294e+02   3.3153945227e+01    0.4370504    0.1719479  76.12  0.002915595    2.076    0.518
