#   1 NUMBER                 Running object number                                     
#   2 MAG_AUTO               Kron-like elliptical aperture magnitude                    [mag]
#   3 X_IMAGE                Object position along x                                    [pixel]
#   4 Y_IMAGE                Object position along y                                    [pixel]
#   5 X_WORLD                Barycenter position along world x axis                     [deg]
#   6 Y_WORLD                Barycenter position along world y axis                     [deg]
#   7 A_WORLD                Profile RMS along major axis (world units)                 [deg]
#   8 B_WORLD                Profile RMS along minor axis (world units)                 [deg]
#   9 THETA_WORLD            Position angle (CCW/world-x)                               [deg]
#  10 FWHM_WORLD             FWHM assuming a gaussian core                              [deg]
#  11 ELONGATION             A_IMAGE/B_IMAGE                                           
#  12 ELLIPTICITY            1 - B_IMAGE/A_IMAGE                                       
         1 -15.4444    247.4950    103.8401   1.1521658606e+01   1.1898379100e+01     2.936854    0.5383725 -36.45  0.009395385    4.569    0.781
         2 -12.5955    215.4309     16.0286   3.5598504547e+02   2.9586571608e+01    0.5448841    0.2468204  61.60  0.002822874    2.402    0.584
         3 -12.6089     10.3989      9.6610   4.8186457600e+01   7.5723622558e+01    0.3623893    0.3405162  85.60  0.002437646    1.752    0.429
         4 -12.5586     65.3712     11.6540   1.8409423130e+01   6.5949573287e+01    0.2448716    0.2054226  46.06 0.0003794451    1.055    0.052
         5 -11.0544     76.0548     10.4569   1.4313726380e+01   6.3640277912e+01    0.3468883    0.1781494  38.55  0.001601915    1.945    0.486
         6 -11.8106      3.3432     10.5601   5.4619087154e+01   7.6242963238e+01    0.2297308     0.129549 -43.03 0.0009104832    1.600    0.375
         7 -11.7938    184.0160      8.5057   3.5655156098e+02   3.7255661605e+01    0.2013683    0.1589495  83.34 0.0003276829    1.169    0.145
         8 -12.5906    187.1337      5.2706   3.5550943893e+02   3.6859999725e+01    0.3533392    0.2113156 -38.12  0.002037469    1.607    0.378
         9 -12.4706    155.2969      9.0541   3.5937213998e+02   4.4057128407e+01    0.2795254    0.1726318  87.44  0.001482211    1.471    0.320
        10 -11.2316    145.4978      8.4269   2.9095615115e-01   4.6547184997e+01    0.1333552     0.111596  88.85 -0.0001967661    1.016    0.016
        11 -10.4803     82.1223      6.8632   1.0920003668e+01   6.2541297323e+01    0.1833132    0.1612645  72.17 0.0002703477    1.144    0.126
        12 -12.5867    178.6997      3.7712   3.5577902070e+02   3.8943731228e+01    0.2913785    0.1931002  71.87 0.0002356969    1.410    0.291
        13 -10.9832    164.3127      4.3337   3.5714532527e+02   4.2300931530e+01    0.1248061   0.08963853  46.73 0.0005053989    1.682    0.405
        14 -10.1770     58.4721      4.5149   1.7137540820e+01   6.8179380446e+01     0.129473    0.1114232  42.30 0.0001427514    1.052    0.050
        15 -11.2265    168.5135      2.4506   3.5626510130e+02   4.1465528634e+01    0.1278385    0.1042513 -81.68 7.489262e-05    1.005    0.005
        16 -10.3083     16.5246      1.4981   3.8042583521e+01   7.6195242821e+01    0.1224433   0.09751711   7.06  8.34559e-05    1.007    0.007
        17 -10.7853      5.0108      1.4328   4.7611055776e+01   7.7602886279e+01    0.1715796   0.09993598  20.51 0.0003651249    1.549    0.354
        18 -12.1024    161.0207    235.2824   5.1162934560e+01   3.5135128976e+00    0.3242255    0.1792038   8.03  0.001284267    2.171    0.539
        19 -12.9908    197.9849    244.3348   4.5151791585e+01  -2.4359122302e+00    0.3892811    0.2170208  12.62  0.001996577    1.632    0.387
        20 -13.9489    185.5562    248.7565   4.8149668891e+01  -1.5772610281e+00     1.025038     0.393514  21.35  0.004647443    2.657    0.624
        21 -11.4253    171.6628    246.5516   5.0572040000e+01   4.2725395660e-01    0.2515737   0.09882709  29.16  0.001112309    2.115    0.527
        22 -12.4906    165.5538    246.5067   5.1798642124e+01   1.1993317075e+00    0.3008691    0.1628902  10.90  0.001379519    1.985    0.496
        23 -15.6652    129.4381    247.5383   5.9534460824e+01   5.7095493770e+00     4.311998    0.6238559  31.77   0.01243796    5.244    0.809
        24 -14.0649     91.0407    247.6709   6.8026567854e+01   1.0683134846e+01     1.934053      0.30229  31.46  0.005970051    4.494    0.777
        25 -12.5788     50.5122    249.9388   7.7192659804e+01   1.5149698665e+01     0.871733    0.1954642  27.65  0.003069581    3.954    0.747
        26 -13.4292     48.8420    245.0970   7.7240128986e+01   1.6259788755e+01     1.339422    0.1566392  31.81  0.004364496    4.362    0.771
        27 -13.2660      6.4107    246.4077   8.6400781352e+01   2.0316345070e+01    0.9720529    0.3686123  46.14  0.005263094    1.846    0.458
        28 -12.8858     64.7489    249.1762   7.4010476077e+01   1.3646627542e+01     0.905478    0.1735903  33.93  0.003348118    3.259    0.693
        29 -15.0343     74.6625    240.7498   7.1084948191e+01   1.4035294459e+01     1.692026     0.963426  36.99  0.009315735    1.391    0.281
        30 -12.7527    177.5320    243.8076   4.9016595514e+01   9.7417646147e-02    0.3868147    0.2080387  12.35  0.002053392    1.885    0.469
        31 -11.9278    109.3204    233.0809   6.2301703703e+01   1.0948070988e+01    0.2709083    0.1587791  34.55  0.001000738    1.403    0.287
        32 -11.3620    154.6799    232.5749   5.2116556252e+01   4.8023553814e+00    0.2532122    0.1074634  26.91   0.00113863    2.111    0.526
        33 -11.6953     55.0487    232.1444   7.4896563978e+01   1.8114781540e+01    0.3116205    0.1530592  32.41  0.001554492    1.677    0.404
        34 -11.4659    189.2119    230.4347   4.4739575659e+01   5.9473171331e-01    0.2499102    0.1425591   7.83  0.001089311    1.842    0.457
        35 -10.9065    141.5458    233.6913   5.5115334400e+01   6.4075463203e+00    0.2414662   0.09911989  31.32  0.001079847    2.031    0.508
        36 -11.8029    125.4786    230.8785   5.8326686571e+01   9.1223182460e+00    0.3465168     0.158631  30.81  0.001347651    1.827    0.453
        37 -11.2691     86.7226    230.7732   6.7320754099e+01   1.4430906913e+01     0.235999    0.1584846  22.36  0.001296623    1.418    0.295
        38 -11.4881     79.8199    230.9326   6.8966180544e+01   1.5299954386e+01    0.3210731    0.1855677  33.55  0.001202522    1.423    0.298
        39 -11.2528     47.0890    229.7808   7.6577156560e+01   1.9518300040e+01    0.3243193    0.1686362  50.00  0.001215633    1.647    0.393
        40 -11.7901    195.7516    229.3495   4.3311995397e+01  -6.5746982291e-02    0.2784874     0.146039  -9.64  0.001335433    2.494    0.599
        41 -11.5430    147.0467    228.7943   5.3227462779e+01   6.4843768998e+00     0.306509    0.1292159  33.95  0.001388814    2.010    0.503
        42 -10.8704    134.7637    229.5344   5.6052216606e+01   8.0678009974e+00    0.2568194    0.1128284  27.23  0.001135111    2.043    0.511
        43 -11.0356     39.4962    228.9546   7.8289280334e+01   2.0533476668e+01    0.2676846    0.1269346  43.35  0.001364892    1.666    0.400
        44 -11.3643    153.8705    228.0731   5.1640895276e+01   5.6611478699e+00    0.3242286    0.1668102  33.86  0.001632033    1.688    0.408
        45 -11.2056     94.5483    227.9749   6.5166551414e+01   1.3936988782e+01    0.3792809    0.1552889  34.09  0.001594731    1.971    0.493
        46 -13.0192     21.7805    248.9539   8.3301528798e+01   1.8375502175e+01    0.9130084    0.1915715  30.10  0.003680082    3.311    0.698
        47 -10.6051    175.4748    227.5214   4.7027132236e+01   2.8189731489e+00    0.2314672    0.1038078  20.88  0.001032078    2.350    0.574
        48 -12.0000    109.6810    226.8692   6.1464919598e+01   1.2071124130e+01    0.2798686    0.1657148  36.12  0.001419452    1.420    0.296
        49 -11.8524     75.4481    224.4667   6.9367403162e+01   1.7175738643e+01    0.3898349    0.1423011  39.88  0.001639557    2.192    0.544
        50 -10.6609     67.6952    225.3990   7.1325341607e+01   1.7968887096e+01    0.2586394   0.09905302  34.24  0.001116525    2.069    0.517
        51 -11.1376     33.4161    224.3909   7.9414246521e+01   2.2144914922e+01    0.3091428    0.1548813  46.74  0.001358341    1.618    0.382
        52 -10.1463    168.6646    224.6846   4.7995607072e+01   4.1884192305e+00    0.1340613   0.08636695  -2.14 0.0007047274    1.692    0.409
        53 -10.5374    129.0638    224.4823   5.6653455086e+01   9.7836632765e+00    0.2136694    0.1134997  30.51   0.00103614    1.601    0.375
        54 -11.6467    101.5620    229.5723   6.3694522143e+01   1.2672435982e+01    0.4210558    0.1904211  26.25  0.001659047    2.049    0.512
        55 -11.3671     58.3830    226.7421   7.3673768671e+01   1.8831572986e+01    0.2549073    0.1212026  38.88  0.001243435    1.679    0.404
        56 -12.1612     20.0848    221.7519   8.2373049299e+01   2.4053204763e+01    0.5013157    0.1531521  53.73  0.002061866    2.863    0.651
        57 -11.4881     14.6703    221.3324   8.3602429837e+01   2.4655054570e+01    0.2728059    0.1748823  54.64  0.001216761    1.266    0.210
        58 -10.9379     86.9615    223.9572   6.6535074402e+01   1.5763235446e+01     0.287337    0.1589188  32.44  0.001331569    1.519    0.342
        59 -11.5473     51.9486    221.9590   7.4823709848e+01   2.0602865105e+01    0.2737082    0.1574805  30.72  0.001106376    1.526    0.345
        60 -10.4146    116.9986    220.4908   5.8921503413e+01   1.2263391910e+01    0.2175334    0.1143781  33.29  0.001032449    1.609    0.379
        61 -11.1710     98.6543    219.5557   6.3197145662e+01   1.5053574390e+01    0.2927467    0.2018923  -2.45  0.001472153    1.919    0.479
        62 -10.6647     79.8091    223.1497   6.8178046331e+01   1.6879025612e+01    0.2326374    0.1734848  16.78 0.0009217613    1.400    0.286
        63 -15.3184     19.0645    239.8116   8.3473597961e+01   2.0422558520e+01     2.878586    0.7179646  42.34    0.0127732    2.544    0.607
        64 -11.7131     42.9655    220.4994   7.6878376240e+01   2.1943045785e+01    0.3341881    0.1118385  27.55  0.001348737    2.672    0.626
        65 -10.5325    150.4877    218.5137   5.0957245961e+01   7.7870015631e+00    0.1352467    0.1112887   9.65 0.0001164126    1.067    0.063
        66 -11.5624      9.3199    216.7167   8.4626205043e+01   2.6135039020e+01    0.3234125    0.1809486  50.99  0.001221199    1.439    0.305
        67 -10.2684    183.9806    219.5062   4.4055557114e+01   2.9436862293e+00    0.1837581   0.09490436   9.79 0.0008101773    2.527    0.604
        68 -11.0949     24.1888    216.2162   8.1103176066e+01   2.4852722074e+01    0.2426528    0.1519607  55.05 0.0004591699    1.348    0.258
        69 -11.1066    106.2025    216.4388   6.0973833071e+01   1.4614779989e+01    0.3154044    0.1473308  30.12  0.001040407    1.879    0.468
        70 -14.4190     31.6416    236.5447   8.0543231199e+01   1.9813491890e+01     1.796911    0.4118857  51.31  0.006546705    3.790    0.736
        71 -10.3610     38.3325    216.6984   7.7724592056e+01   2.3279639393e+01    0.1406921    0.0763824  54.58 0.0007034554    1.653    0.395
        72 -11.1977     14.2090    215.6792   8.3438038847e+01   2.5920881367e+01    0.2037524    0.1187437  46.52 0.0007205231    1.389    0.280
        73 -11.2535     19.0810    214.8542   8.2244186211e+01   2.5646944831e+01    0.2075715    0.1335607  53.78 0.0007375806    1.288    0.224
        74 -10.3971    120.3967    214.8249   5.7339640434e+01   1.2874210099e+01    0.2655888   0.08562102  34.41 0.0009797796    2.595    0.615
        75 -10.4071     85.9691    215.0000   6.5770840782e+01   1.7755267736e+01    0.2351455   0.06858643  30.35 0.0008076766    2.979    0.664
        76 -11.0216     31.6739    214.1029   7.9166840599e+01   2.4559656004e+01    0.2455557    0.1405361  40.03  0.001321255    1.450    0.310
        77 -11.7342     10.5436    202.1345   8.3647060892e+01   2.9280492753e+01    0.3877239    0.1590037  26.36  0.001810185    2.280    0.561
        78 -11.7132      4.3006    211.5531   8.5574348351e+01   2.7697267912e+01    0.3060615     0.216864  65.04  0.001198392    1.167    0.143
        79 -12.0667      3.2539    205.5949   8.5574906844e+01   2.9109813303e+01    0.3643917    0.2800782 -63.64  0.002214581    1.492    0.330
        80 -11.5687    218.6284    208.2465   3.5671116099e+01   1.5718204693e-01    0.5241636    0.2452611 -18.96  0.002404951    2.680    0.627
        81 -10.4429    155.2225    211.6310   4.8840281888e+01   8.3226778464e+00     0.196449    0.1122774  21.81 0.0009474206    1.699    0.412
        82 -10.2879    106.7631    210.9486   6.0110942846e+01   1.5654603040e+01    0.1698492    0.1176005 -55.57  0.000885562    1.640    0.390
        83 -10.0233     70.3156    211.6783   6.9328621056e+01   2.0562970316e+01    0.1445953   0.08893424  56.77 0.0007041378    1.661    0.398
        84 -11.9319     11.0217    209.5981   8.3898545561e+01   2.7551566029e+01     0.306977    0.1814233  51.46   0.00122962    1.393    0.282
        85 -10.1730     27.3141    208.6607   7.9880845688e+01   2.6223046968e+01    0.1424109   0.07572984  57.21 0.0007047192    1.699    0.411
        86 -11.4185     17.1419    205.8497   8.2220498145e+01   2.7841935051e+01    0.2103029     0.140254  55.96 0.0009417165    1.267    0.211
        87 -12.2969     94.4752    235.2670   6.5983172314e+01   1.2535634941e+01     0.504684    0.1682695  35.95  0.001759693    2.308    0.567
        88 -10.2099    238.4660    200.4953   3.1012372433e+01  -1.1425469920e+00    0.1186022   0.08884124 -11.98 0.0001031027    1.019    0.018
        89  -9.9292    177.4959    197.5161   4.1689276033e+01   7.5094743944e+00     0.133796    0.1150945   2.20 0.0003268975    1.021    0.021
        90 -10.5555    243.3348    237.3141   3.6192384382e+01  -6.4464373811e+00    0.1151644   0.06300624  -5.15 0.0006820901    1.688    0.408
        91 -11.7297     15.7035    192.2368   8.1794403162e+01   3.1135128228e+01    0.3240817    0.2718588  25.18  0.001308685    1.298    0.229
        92 -10.4887    156.0000    185.0386   4.4130925630e+01   1.3184936369e+01    0.2261856    0.0790032 -46.92 0.0008071008    2.975    0.664
        93 -10.8164     61.9875    184.8109   6.8547607483e+01   2.7872007280e+01    0.2484088    0.2057921 -76.27  0.001088483    1.254    0.203
        94 -11.2849     15.4182    181.8539   8.1216333591e+01   3.3663251616e+01     0.375887    0.1954507  61.91  0.001810675    1.831    0.454
        95 -11.1594      7.6042    163.6797   8.2217672195e+01   3.8824393921e+01    0.2369878    0.1482031  83.05 0.0006377561    1.479    0.324
        96 -11.1117     51.5538    160.0661   6.8521280478e+01   3.5439979026e+01    0.3875389    0.2360829  80.85   0.00168168    1.982    0.495
        97 -12.3538     17.5870    159.4129   7.8931168155e+01   3.9128289756e+01    0.3959768    0.3164841 -42.86  0.002257775    1.428    0.300
        98 -11.3179      2.7703    157.0600   8.3213609714e+01   4.0847960307e+01    0.2109197    0.1893237  33.81 0.0006182439    1.212    0.175
        99 -10.7044    117.8021    159.0533   4.8706980659e+01   2.5380900583e+01     0.346263    0.1924654 -45.75  0.001403563    1.866    0.464
       100 -10.6905     13.7890    148.1160   7.9150918216e+01   4.2371851217e+01    0.2002193    0.1641114  70.89 0.0003120149    1.136    0.120
       101 -11.8546    234.3356    146.6345   2.1764483675e+01   7.4150687890e+00    0.2535948    0.1303591 -34.56 0.0009331157    1.630    0.386
       102 -10.2080     37.5310    135.4281   6.9755749441e+01   4.3585210739e+01    0.1429492     0.135932 -89.90 9.006861e-05    1.009    0.009
       103 -10.2935     36.4397    131.0138   6.9503008611e+01   4.4884855216e+01     0.222414    0.1360518 -70.25  0.001014612    1.558    0.358
       104 -12.3085      4.8864    130.0898   8.0538680582e+01   4.7722319542e+01    0.2533551    0.2207631 -69.91 0.0003095141    1.080    0.074
       105 -13.1277    226.3159    244.2642   4.0069328179e+01  -5.5574521839e+00    0.4998425    0.2303476   0.96  0.002399658    3.007    0.667
       106  -9.5095     61.3136    121.3170   5.8806232321e+01   4.4370213602e+01    0.1587691    0.1150526 -27.14 0.0005158765    1.645    0.392
       107 -10.0014     75.1627    104.3743   4.9829249415e+01   4.6517674415e+01    0.2164642    0.1378998  46.36            0    1.643    0.391
       108 -11.1004      2.3941     96.2266   7.7999758423e+01   5.6749937108e+01    0.1911052    0.1170249 -88.55 0.0007439608    1.628    0.386
       109 -11.3107     57.1171     91.1687   5.3362878172e+01   5.2721074331e+01    0.2470386    0.2303154 -35.51 0.0004160327    1.043    0.041
       110  -9.9190     35.3862     90.4894   6.2518257149e+01   5.5710029901e+01    0.1428644    0.1322158 -51.72 7.288737e-05    1.032    0.031
       111 -10.0989    184.8375     85.2109   1.5957290903e+01   2.6702867812e+01    0.1701422    0.1580336 -11.46 0.0002960831    1.230    0.187
       112 -10.7682      3.5413     84.5301   7.5918017925e+01   5.9706394549e+01    0.1339533    0.1170654 -58.60 0.0001678698    1.003    0.003
       113 -11.5914      7.7646     73.4301   7.2019353442e+01   6.2287385590e+01    0.3034116    0.1313086   9.54   0.00117237    2.555    0.609
       114 -10.5677      1.4847     72.4746   7.5016243940e+01   6.2831104430e+01    0.1321337    0.1143165 -52.93 -6.329103e-07    1.006    0.006
       115 -10.0340    102.5896     69.4357   2.9858603980e+01   4.8741673874e+01    0.1499291    0.1452283  50.61 0.0001031304    1.016    0.016
       116 -10.1874     50.4283     68.4936   4.9570626793e+01   5.9095422294e+01    0.1447224    0.1346381 -15.25 9.212805e-05    1.011    0.011
       117 -11.1523     15.9002     67.0288   6.6443467599e+01   6.3333064816e+01    0.2190768    0.1917089  37.58 0.0007037544    1.302    0.232
       118 -10.6588      6.3022     67.5774   7.1632589630e+01   6.3807979381e+01    0.1707992     0.117819 -14.66 0.0003993126    1.493    0.330
       119  -9.7396    191.3448     66.2724   1.0263331715e+01   2.8295077854e+01    0.1283318    0.1054593  28.65 0.0003839977    1.619    0.382
       120 -12.3251    122.7896     63.6783   2.2338968118e+01   4.5008685703e+01    0.2819582    0.2536355 -36.44 0.0003265076    1.175    0.149
       121 -14.1470    235.5637     59.0777   3.5945923885e+00   2.0323780480e+01    0.9948322    0.5405114 -68.34  0.005199682    2.139    0.532
       122  -9.9808    155.6550     64.2349   1.5429359195e+01   3.6895180938e+01    0.1453113    0.1069058 -83.17 0.0003223939    1.556    0.357
       123 -11.7255    168.5566     59.8957   1.1992732676e+01   3.4483643319e+01    0.2948687     0.217362 -79.75 0.0007759709    1.465    0.318
       124  -9.9869     46.0229     60.9631   4.9114323152e+01   6.1416478846e+01    0.1684833     0.154821 -15.52 0.0003027326    1.019    0.018
       125 -12.0349     29.0742     60.5516   5.7640615020e+01   6.3664571415e+01    0.6350721    0.2762932  12.41  0.002072616    2.969    0.663
       126 -11.8752    115.4687     54.9109   2.1271837730e+01   4.8267244278e+01    0.2602892    0.2138148  55.86 0.0002995655    1.145    0.127
       127  -9.7874     59.7092     54.6651   4.0393049490e+01   6.0494498497e+01    0.1481676    0.1086981  -6.51 0.0007022174    1.635    0.389
       128 -11.9514     39.0198     52.4856   4.9600523963e+01   6.4221946568e+01    0.3800865      0.19559 -25.52  0.001321559    2.708    0.631
       129 -11.3922      3.0087     52.9632   7.0285973782e+01   6.7460898449e+01    0.2080212     0.172047 -38.00 0.0008736499    1.033    0.032
       130 -13.1224    149.5926     51.1810   1.2714407014e+01   4.0388724057e+01    0.3020008    0.2780694 -88.35 0.0006267495    1.004    0.004
       131 -10.1726    105.2364     52.4412   2.3162116816e+01   5.1147771807e+01    0.1931683    0.1392528  65.08 0.0002577681    1.442    0.307
       132 -12.1811     12.6199     48.0057   6.3139301319e+01   6.8002246661e+01    0.2331842    0.2011337 -31.96 0.0002136072    1.020    0.020
       133 -11.6055     10.6823     43.9692   6.3080805034e+01   6.9037230521e+01    0.2148477    0.1715981  -3.90 0.0003356932    1.199    0.166
       134 -10.1624    121.5419     46.4986   1.6909468634e+01   4.8076726348e+01    0.1462466    0.1357092  73.10 0.0003273047    1.017    0.017
       135 -11.6149     43.6527     42.8620   4.3336049099e+01   6.5472459788e+01    0.4431583     0.235607 -52.05  0.001981548    2.183    0.542
       136 -10.3101    143.8097     42.1630   1.0997310467e+01   4.3108704946e+01    0.1833672    0.1591983  43.23 0.0002486009    1.276    0.217
       137 -10.7074     89.0395     41.3608   2.3820848415e+01   5.6722720319e+01    0.2043599    0.1670306  50.84 0.0003513445    1.133    0.117
       138  -9.9499    148.6595     40.2584   9.5841267925e+00   4.2153760090e+01    0.1446608    0.1001847 -76.69 0.0002191743    1.584    0.369
       139 -10.4402     27.9331     37.6714   4.9955289207e+01   6.8669945939e+01    0.1819079    0.1508337  10.29 0.0002773096    1.125    0.111
       140 -10.2210     87.1916     33.8678   2.1346354718e+01   5.8247430966e+01    0.1941258    0.1526573  30.49 0.0003181871    1.299    0.230
       141  -9.9381     25.7471     30.3270   4.8043501898e+01   7.0339256274e+01     0.112359    0.1050664  77.26 0.0001865043    1.549    0.354
       142 -10.2019     19.4993     30.5685   5.2217925150e+01   7.1019582745e+01     0.128757    0.1101902  -9.44 0.0001318623    1.032    0.031
       143 -11.5695      7.9061     30.1278   6.0057261001e+01   7.2165996757e+01    0.1777098    0.1726894  18.76 0.0009527275    1.306    0.234
       144 -11.1262    231.5641     26.4028   3.5709106148e+02   2.5181560045e+01    0.1986142     0.153512 -62.09 0.0002543827    1.016    0.016
       145 -10.8297    215.3411     25.9030   3.5816863774e+02   2.8496706794e+01    0.1668333    0.1326962 -54.66 0.0004982734    1.093    0.085
       146 -10.7684     55.0007     24.9756   2.9410595916e+01   6.6461575109e+01    0.1943944    0.1710664  22.78  0.001176334    1.016    0.015
       147 -11.1377      9.0509     24.9953   5.7096140855e+01   7.3094701728e+01    0.1931066     0.156907 -19.18 0.0003603998    1.011    0.011
       148 -11.0682    249.1707     20.8625   3.5488731084e+02   2.2518807645e+01    0.1716441    0.1121705 -58.12 0.0003580264    1.158    0.136
       149 -12.0555     28.8085     20.0679   4.0923676874e+01   7.1704200479e+01    0.2199047    0.1910111   7.35  0.000306521    1.083    0.077
       150 -10.6180     41.4059     19.4413   3.3223217169e+01   6.9779963594e+01    0.3224158    0.1098135  38.27   0.00124919    2.753    0.637
       151 -11.6390     14.3823     18.6285   5.0078181646e+01   7.3769651953e+01    0.2403411     0.173145 -13.12 0.0001620999    1.246    0.197
       152 -12.7121    219.4574    245.8807   4.1495293816e+01  -5.0339535243e+00    0.2865359    0.1511875 -15.46  0.001555704    1.846    0.458
       153 -11.0826      3.0834     15.6496   5.7456480361e+01   7.5342496580e+01    0.2329103   0.08988465  26.70  0.001096447    2.527    0.604
       154 -14.0187    115.4562    240.5468   6.1787067908e+01   8.7617207733e+00    0.8556686    0.4951122  23.39  0.004542466    1.544    0.352
       155 -11.9062    108.9813    242.1021   6.3420293361e+01   9.3488429455e+00    0.3104942    0.1563046  29.83  0.001122949    1.624    0.384
       156 -12.0159    170.9691    240.0473   4.9795459084e+01   1.4792069552e+00    0.3174452    0.1649332  11.52   0.00155234    2.180    0.541
       157 -12.0493    141.1513    241.1901   5.6202269293e+01   5.2056332920e+00    0.3100864    0.1491285  30.99  0.001235694    1.696    0.411
       158 -12.0633     90.3089    240.4963   6.7484684323e+01   1.2094954990e+01    0.3797521    0.1699693  39.68  0.001136686    1.801    0.445
       159 -12.4483    170.3115    250.2552   5.1351265637e+01   5.7698837490e-02    0.5238271     0.148778  30.33  0.002171566    2.908    0.656
       160 -12.4392     52.6860    239.2684   7.5974558323e+01   1.6960074999e+01    0.3927681    0.1622321  38.39  0.001518572    1.828    0.453
       161 -11.8740    155.3194    238.7988   5.2855856522e+01   3.7095151243e+00    0.2697167    0.1480978  19.48  0.001406194    1.683    0.406
       162 -11.0911    227.4894    238.4834   3.8995905658e+01  -4.9605668731e+00    0.1145172   0.08152203  -2.72  7.38495e-05    1.027    0.027
       163 -10.5359      9.6405     15.7335   5.2191280063e+01   7.4763455077e+01    0.1293528   0.07862163 -13.31 0.0006989751    1.639    0.390
       164 -13.5978    181.8443    235.3180   4.6925412886e+01   8.0301034507e-01    0.7799729    0.2615349  28.03  0.003331627    2.731    0.634
       165 -12.1678    148.4308    237.0180   5.4076250088e+01   4.9165309834e+00    0.3521288    0.1569139  27.84  0.001638307    1.921    0.479
       166 -11.6342    136.1401    236.6448   5.6698381928e+01   6.6423471946e+00     0.296037     0.173787  20.01 0.0009768284    1.576    0.366
       167 -11.6414    131.0097    235.1040   5.7632675491e+01   7.6086808989e+00     0.267983    0.1693116  28.69  0.001045575    1.309    0.236
       168 -12.2334    105.1661    236.7683   6.3684636923e+01   1.0826835361e+01    0.3896895    0.2074144  31.68  0.001422075    1.531    0.347
