#   1 NUMBER                 Running object number                                     
#   2 MAG_AUTO               Kron-like elliptical aperture magnitude                    [mag]
#   3 X_IMAGE                Object position along x                                    [pixel]
#   4 Y_IMAGE                Object position along y                                    [pixel]
#   5 X_WORLD                Barycenter position along world x axis                     [deg]
#   6 Y_WORLD                Barycenter position along world y axis                     [deg]
#   7 A_WORLD                Profile RMS along major axis (world units)                 [deg]
#   8 B_WORLD                Profile RMS along minor axis (world units)                 [deg]
#   9 THETA_WORLD            Position angle (CCW/world-x)                               [deg]
#  10 FWHM_WORLD             FWHM assuming a gaussian core                              [deg]
#  11 ELONGATION             A_IMAGE/B_IMAGE                                           
#  12 ELLIPTICITY            1 - B_IMAGE/A_IMAGE                                       
         1 -11.1878     18.3303     32.4052   1.1189062424e+02   6.7195085990e+01     0.599062    0.3415959 -71.33   0.00315806    2.447    0.591
         2 -11.4898     20.8416     17.6380   1.0530012742e+02   6.9708247091e+01     0.519899    0.4190895 -88.16  0.003324705    2.283    0.562
         3  -9.8541     15.2010     14.1894   1.0674187947e+02   7.0766280768e+01    0.1811895    0.1264354 -50.50 0.0008092932    1.398    0.285
         4 -11.5181      4.0132     18.5745   1.1416886918e+02   7.0722027658e+01    0.3430849    0.2578192 -11.02  0.001727764    1.362    0.266
         5 -11.1653      9.8731     15.7985   1.1014061487e+02   7.0868002284e+01    0.2682664    0.1575262 -35.11 0.0006795813    1.342    0.255
         6 -12.6546    129.5944     24.1042   6.9174917860e+01   4.9985525449e+01    0.4628188    0.3317279 -40.39 0.0009939884    1.524    0.344
         7 -11.0233     34.5886     16.3874   9.8098158496e+01   6.8566860423e+01    0.3697639    0.1820432 -31.49  0.001435873    1.829    0.453
         8 -11.6043    107.8645     17.2126   7.1766697776e+01   5.5876801916e+01      0.35333    0.2224046  44.65 0.0004033085    1.462    0.316
         9 -11.6046     74.4553      6.5933   7.7039777944e+01   6.3954610701e+01    0.3785356    0.2258309 -13.93 0.0005853718    1.683    0.406
        10 -11.5796     75.8784     15.1200   8.0555937013e+01   6.2649794994e+01    0.5191504    0.2960866 -16.15  0.002576443    1.860    0.462
        11 -11.3074     70.4626     14.9037   8.2381128049e+01   6.3642471699e+01    0.4257176    0.2313917 -19.76  0.002097676    1.903    0.474
        12 -12.1588     81.1062      6.7281   7.4905555661e+01   6.2674793636e+01    0.4357295    0.2586171 -21.81 0.0006076131    1.645    0.392
        13 -10.8961     88.4983      6.7532   7.2635912559e+01   6.1195683332e+01    0.4804743    0.2743179  72.33 0.0008833639    3.096    0.677
        14 -10.8324     63.1082     14.5393   8.4969428442e+01   6.4928846104e+01    0.5547873    0.2795246  15.75  0.002229571    3.317    0.699
        15 -11.4212     54.2879     13.1040   8.7821660432e+01   6.6501696545e+01    0.5610822    0.3175582  20.22  0.001127515    2.011    0.503
        16 -10.3437     30.5104     13.4117   9.8704673609e+01   6.9491169726e+01    0.2344218   0.09610482 -41.83   0.00117483    2.055    0.513
        17 -10.2643     99.9638     12.8847   7.2072691274e+01   5.8110685804e+01    0.2302675    0.1866452  -9.60 0.0008955875    1.209    0.173
        18  -9.8108    176.1241     11.8218   5.6610378755e+01   3.9459162697e+01    0.1971297    0.1579167  37.20 0.0006285057    1.322    0.243
        19 -10.6881    118.1508     11.8153   6.7027974492e+01   5.4114943618e+01    0.2531593    0.2326485 -42.45 0.0008661047    1.250    0.200
        20 -10.1459    117.0004      8.2345   6.5847959416e+01   5.4750884401e+01    0.2469267    0.1743972  49.81 0.0006592802    1.274    0.215
        21 -10.7700    115.5683      4.1449   6.4503580306e+01   5.5479262660e+01    0.3627469    0.2154974  -7.12 0.0008552926    1.884    0.469
        22  -9.8004    185.8529     10.8474   5.5026082658e+01   3.7022927313e+01    0.2003714    0.1757068  52.82 0.0003544936    1.138    0.121
        23  -9.9291    108.2773     10.3906   6.8822536324e+01   5.6544230846e+01    0.2214974    0.1743286  65.62 0.0007770312    1.407    0.289
        24 -10.9338      4.4841      8.0013   1.0992386703e+02   7.2582982911e+01    0.5468056    0.1522216  21.77  0.002496212    3.968    0.748
        25 -13.4591     29.5873      3.0685   9.4133855399e+01   7.1171228432e+01    0.8082835    0.3789049  13.39  0.003746104    3.185    0.686
        26  -9.5229    178.6409      8.6943   5.5302959105e+01   3.9113000892e+01    0.1514267   0.09509691  40.31 0.0007039973    1.727    0.421
        27  -9.8060    155.5875      6.9174   5.8039864591e+01   4.5277435000e+01    0.2788348    0.1714286   8.45  0.001265535    2.107    0.525
        28 -10.1698     59.9435     10.5925   8.4322680794e+01   6.5972262493e+01    0.3299824    0.2091925  51.86  0.001261328    2.084    0.520
        29 -10.3935    145.8737      7.1705   5.9724339537e+01   4.7746214340e+01    0.2149801    0.1883555 -77.07  0.000708019    1.267    0.211
        30 -10.0713    229.0665      5.8028   4.9119414557e+01   2.6657187324e+01    0.1975554    0.1526893 -66.61 0.0003078422    1.199    0.166
        31  -9.5059    132.3800      5.2691   6.1473437773e+01   5.1314451382e+01    0.1524223   0.08838473  38.61 0.0006992402    1.690    0.408
        32  -9.9346     59.8592      5.5262   8.1851841980e+01   6.6632647705e+01      0.22568    0.1093515  39.61  0.001137272    2.003    0.501
        33  -9.8580    139.1082      1.7296   5.8927787915e+01   4.9948593854e+01     0.198355    0.1572957  54.60 0.0004997648    1.123    0.109
        34 -12.4309     13.5136      2.6752   1.0249153478e+02   7.2809828981e+01    0.5770875    0.3295033  26.67   0.00221413    1.989    0.497
        35 -10.0710      4.4474      1.3965   1.0705686484e+02   7.3695385206e+01    0.1926353   0.09680148  18.01  0.001113083    2.203    0.546
        36 -10.8196    123.0667    221.4255   1.1752095966e+02   1.4182096615e+01    0.3176767    0.1953051  52.34  0.001803943    1.377    0.274
        37 -10.3487    247.3005    250.0665   9.9554039553e+01  -8.7375609147e+00    0.2104724    0.1277618  16.15  0.001441073    1.381    0.276
        38 -10.6575    250.4386    245.3423   9.8353243311e+01  -8.7285075042e+00    0.3246623    0.1204759 -26.34  0.001719701    3.080    0.675
        39 -10.1806     72.6043    249.9944   1.2911800639e+02   1.6760733624e+01    0.1557663    0.1515529 -65.60  0.001340316    1.614    0.380
        40 -10.2756      5.3037    235.4066   1.3910432055e+02   2.6558555552e+01    0.1714365    0.1540445  57.57   0.00120798    1.566    0.361
        41 -12.3492     16.0799    238.3060   1.3755205851e+02   2.5050382987e+01    0.8168628    0.1952832  39.57  0.004339511    3.103    0.678
        42 -13.0827     18.9291    247.8653   1.3751445603e+02   2.3220353430e+01     0.956116    0.1959287  47.46  0.005164045    2.780    0.640
        43 -12.3662      6.6665    244.4943   1.3922982491e+02   2.4952468585e+01    0.5206856    0.3019794  79.85  0.002914896    1.321    0.243
        44 -10.8004      1.4385    245.0441   1.4002446899e+02   2.5350395333e+01    0.1717112   0.07182093 -84.88 0.0006617018    2.092    0.522
        45  -9.8098     13.2127    221.7929   1.3728528909e+02   2.8127990103e+01    0.1229911   0.09842576  88.81 0.0006098883    1.312    0.238
        46 -10.3997    141.8532    220.8378   1.1390073134e+02   1.1272758885e+01    0.2580518    0.1478351  33.22  0.001397722    1.717    0.418
        47  -9.5549    250.4787    219.4399   9.4242320406e+01  -6.1452747123e+00    0.1183872   0.08702934  15.79 0.0002858757    1.037    0.036
        48  -9.3590    249.3031    227.3232   9.5727578940e+01  -6.7990657384e+00    0.1185702   0.06945392  12.63 0.0005236872    1.636    0.389
        49  -9.8944    191.5075    217.0465   1.0409137814e+02   3.5382878088e+00    0.1910284    0.1661789 -36.73   0.00116599    1.422    0.297
        50  -9.6826    194.5223    215.4918   1.0329888726e+02   3.2424365628e+00    0.1905483   0.09883118  33.46 -8.021083e-05    1.693    0.409
        51 -10.9384      9.8309    217.0824   1.3763079479e+02   2.9273281343e+01    0.2517415    0.1261704  60.93 0.0008287124    1.491    0.329
        52 -10.9657    235.0046    216.7029   9.6359215358e+01  -3.4972085255e+00    0.1745616    0.1283075  28.48  0.001158313    1.126    0.112
        53  -9.6129    201.2664    215.9095   1.0213986504e+02   2.0569878853e+00    0.1951662     0.125983   5.81  0.001060877    1.974    0.493
        54 -10.3383     31.1186    215.7267   1.3393427016e+02   2.7407636636e+01    0.2120533    0.1212927  51.14  0.001463945    1.408    0.290
        55  -9.4570    137.1442    215.6550   1.1412920697e+02   1.2869175306e+01    0.1810239   0.09891744  35.03 0.0009373229    1.752    0.429
        56  -9.7860    170.4603    213.4815   1.0746588708e+02   7.6148199601e+00    0.1264538    0.1041031  38.17 0.0002581658    1.011    0.011
        57 -10.9545     20.9951    212.0878   1.3548982989e+02   2.9099172724e+01    0.2890768    0.1321052  65.38  0.001788006    1.807    0.447
        58  -9.3861    212.9672    212.0419   9.9415222904e+01   6.1275415229e-01    0.1447991    0.1186263  20.77 0.0003998133    1.036    0.035
        59 -10.2280    208.9752    212.0940   1.0013724454e+02   1.2699317548e+00     0.188938    0.1506406  24.54 0.0004646056    1.018    0.018
        60  -9.7376      2.2995    212.3172   1.3867528057e+02   3.0798740965e+01     0.140073    0.1136822 -88.90 0.0005013629    1.342    0.255
        61 -11.8852      4.9341    207.6751   1.3803196589e+02   3.1402441283e+01    0.4840465    0.1946182  77.62   0.00283978    2.177    0.541
        62  -9.6714     37.9947    217.4952   1.3283849769e+02   2.6349692487e+01    0.1532115   0.08766071  43.84 0.0005802227    1.559    0.358
        63 -11.1681     18.7103    202.7119   1.3537742031e+02   3.1047651998e+01    0.2874489    0.1915101 -83.68 0.0008157971    1.323    0.244
        64 -10.1984    175.2779    202.6962   1.0488337220e+02   8.4096605649e+00    0.2141526    0.1748685  51.92 0.0005913439    1.245    0.197
        65  -9.5865    223.5821    201.8152   9.5793554104e+01   1.5563322229e-01    0.1506864    0.1159601 -41.02 0.0006084283    1.671    0.401
        66 -10.7019    240.9839    210.8423   9.4361342643e+01  -3.7541917510e+00    0.1768528    0.1364644  56.06  0.001095452    1.979    0.495
        67  -9.0777    218.2714    201.6678   9.6710354809e+01   1.0689240476e+00    0.1075368    0.1004417  74.77 0.0002937591    1.591    0.371
        68  -9.6553     34.6689    201.0263   1.3235838196e+02   2.9749702113e+01    0.1482061    0.1125637  79.74 0.0004216419    1.069    0.064
        69  -9.7464    227.1364    196.8482   9.4287346484e+01   1.9897230106e-01    0.1808744    0.1262211  14.68 0.0006962013    1.355    0.262
        70 -10.3177    215.5354    194.3035   9.5900700279e+01   2.5260098279e+00    0.1684769     0.115349 -14.22 0.0009440943    1.605    0.377
        71  -9.4915    203.0106    195.9734   9.8495882431e+01   4.4924937507e+00    0.1595902    0.1309802  27.75 0.0005819465    1.026    0.025
        72  -9.4146    205.6029    190.8028   9.7094971961e+01   4.7729806785e+00    0.1640044    0.1234608 -44.51 0.0009438868    1.638    0.390
        73  -9.2350      1.6601    188.2782   1.3769946619e+02   3.5302089054e+01    0.1101403   0.05459435  63.96 0.0002994137    1.620    0.383
        74  -9.6452     61.6377    184.8468   1.2569634087e+02   2.9798116250e+01    0.1700558   0.09837271 -85.99 0.0009467207    1.745    0.427
        75  -9.8593      1.8915    180.1737   1.3724493616e+02   3.6853500101e+01    0.1656102    0.1045943  70.98 0.0006194446    1.225    0.184
        76 -10.3794    244.4169    178.2613   8.7829101903e+01  -3.1574081430e-01    0.2288973    0.1138933 -24.60  0.001037678    2.066    0.516
        77 -10.8504    224.3142    178.3164   9.1335625373e+01   3.1911021818e+00    0.2505758    0.2091837  33.57 0.0005366819    1.170    0.146
        78  -9.6292     70.0536    177.6715   1.2315225416e+02   3.0173340051e+01    0.1635868    0.1371712  54.64 0.0004875117    1.161    0.139
        79  -9.0113     36.4024    178.4893   1.3032336413e+02   3.4003455718e+01    0.1144267   0.08965261  81.08 0.0002146753    1.022    0.022
        80 -10.1959    200.1708    176.8185   9.5525451239e+01   7.8641148115e+00    0.1888525    0.1466069  11.40 0.0005787667    1.325    0.246
        81 -10.2449    167.1856    183.4063   1.0326412781e+02   1.2999555125e+01    0.1959152    0.1153897  50.87 0.0009436271    1.665    0.399
        82  -9.6545     74.9016    171.0986   1.2131364484e+02   3.0884907777e+01    0.1780596    0.1511033 -31.40  0.001105692    1.665    0.399
        83 -11.3137     15.9049    182.6174   1.3470755930e+02   3.5176383975e+01    0.3606848    0.1675999  79.00  0.002065207    1.971    0.493
        84  -9.5460    209.8506    166.1810   9.1593088733e+01   7.6695205835e+00    0.1942029    0.1477721  14.59 0.0005604806    1.328    0.247
        85 -10.6795     41.4305    165.6245   1.2810609920e+02   3.6140871819e+01     0.218836    0.1389255  79.41 0.0007028577    1.450    0.310
        86 -11.1177     36.9856    158.0201   1.2835010902e+02   3.8229263351e+01    0.2426868    0.1530038 -82.88  0.001480615    1.376    0.273
        87 -10.3356     36.0209    166.2248   1.2933950273e+02   3.6584124131e+01    0.2229271     0.156569  50.32 0.0008103476    1.364    0.267
        88 -10.6237     35.9583    162.9777   1.2905378638e+02   3.7276639864e+01    0.2123858    0.1722573 -75.68   0.00090807    1.200    0.167
        89  -9.6736     67.1676    165.1649   1.2231834962e+02   3.3175661148e+01    0.1809985    0.1276788  70.34 0.0008197988    1.347    0.258
        90 -10.8350     51.4763    164.2221   1.2574057104e+02   3.5314106177e+01    0.4273722    0.2045006 -44.76  0.001917704    3.250    0.692
        91 -10.8079     44.5714    162.2158   1.2707199170e+02   3.6523957122e+01    0.3101563    0.1456474 -69.25  0.001627399    1.895    0.472
        92 -10.5974     48.5097    159.6558   1.2591422682e+02   3.6633693080e+01    0.2578703    0.1473317  30.96  0.001422109    2.034    0.508
        93  -9.5379    246.3543    162.6784   8.4399601912e+01   1.4182646155e+00    0.1187785    0.1060468 -71.67 0.0007046681    1.756    0.431
        94  -9.3923    200.4606    162.5710   9.2653695697e+01   1.0066629702e+01    0.1384104    0.1252147  24.36 0.0002071011    1.035    0.034
        95  -9.7777    247.3293    158.6389   8.3407370442e+01   1.7952245972e+00    0.1226673    0.1044213 -62.41 0.0007040804    1.797    0.444
        96 -10.0195    238.4992    158.4992   8.4863411916e+01   3.4107440856e+00    0.1367866    0.1131644   7.18 0.0008095832    1.075    0.070
        97 -11.3118     22.5291    156.0635   1.3139416851e+02   4.0036910887e+01    0.3405484    0.2822125  60.76  0.002315114    1.216    0.178
        98  -9.3591    216.9256    155.0000   8.7959910737e+01   8.0276196372e+00    0.2290677   0.07460672  46.29 0.0008055361    2.964    0.663
        99  -9.0153    151.6865    153.3464   1.0094799497e+02   2.1480241210e+01    0.1460763     0.112816  82.97 0.0005688117    1.715    0.417
       100 -10.2029     11.4775    153.2735   1.3359813222e+02   4.1564888058e+01    0.2512352    0.1248503  34.89   0.00150587    2.152    0.535
       101 -10.3032    178.2117    151.5198   9.4837645128e+01   1.6443304825e+01    0.2443936    0.2035471 -38.12 0.0005092434    1.272    0.214
       102  -9.6808    205.5237    151.9790   8.9460382368e+01   1.0777608510e+01    0.1998826    0.1196367  -9.21 0.0008098011    2.517    0.603
       103  -9.0574    147.6678    156.3319   1.0243338388e+02   2.1689117106e+01    0.1464117    0.1107483  78.81 0.0007052154    1.725    0.420
       104 -10.6014     17.8381    146.6358   1.3163799421e+02   4.2461563681e+01    0.2185313    0.1558452 -30.35  0.001042271    2.156    0.536
       105 -10.2196    206.9948    146.0399   8.7891128831e+01   1.1449119808e+01     0.220884     0.198993  16.02  0.000640096    1.022    0.021
       106 -10.7490     11.6608    146.7520   1.3305076669e+02   4.2935389229e+01    0.2611771   0.06161873  34.58  0.001169866    3.688    0.729
       107 -10.1625      2.9615    144.0265   1.3479654839e+02   4.4161205429e+01    0.1705398    0.1090179 -55.16  0.001131372    1.711    0.415
       108 -10.1692    236.9039    138.6918   8.0882501023e+01   6.5880664617e+00     0.186744    0.1653702  24.39 0.0005931438    1.111    0.100
       109  -9.9243     55.1882    136.1824   1.2138565875e+02   4.1045974780e+01    0.1744282    0.1301695  76.11 0.0002484565    1.323    0.244
       110 -11.1558     21.4259    136.3852   1.2983609697e+02   4.4393201970e+01    0.3373314    0.2368226 -65.68  0.002234095    1.294    0.227
       111 -10.9969      3.0390    136.8315   1.3424073023e+02   4.5689694067e+01    0.3284717    0.1472577 -63.69   0.00187991    1.891    0.471
       112 -11.1008      9.1612    136.7673   1.3280458098e+02   4.5271619533e+01    0.1884092    0.1462395 -76.06 0.0002573392    1.138    0.121
       113  -9.4073    138.3426    135.3105   1.0026393398e+02   2.7769396399e+01    0.1487838    0.1173499   3.57 0.0007045316    1.698    0.411
       114 -10.3673    106.9933    133.2320   1.0756376911e+02   3.4120582116e+01    0.2423597    0.2055345 -57.12 0.0009915447    1.173    0.148
       115 -11.1524     36.8073    130.1267   1.2528424213e+02   4.4392241211e+01    0.4207032    0.2377125 -63.28  0.002362438    1.527    0.345
       116 -10.8757     74.3158    129.6503   1.1538714813e+02   4.0067105021e+01    0.2927966    0.2243941  49.74   0.00167575    1.332    0.249
       117 -10.2046     82.0263    125.2537   1.1254051051e+02   3.9952979217e+01    0.2239171    0.1796789 -61.23  0.000792447    1.174    0.148
       118 -10.9047      2.1795    124.7551   1.3346302937e+02   4.8352900787e+01    0.3360714     0.139132 -68.35  0.001161061    1.853    0.460
       119  -9.6513     30.1217    124.8353   1.2635836034e+02   4.6208788733e+01    0.1783624    0.1347332  83.49  0.000548987    1.218    0.179
       120 -10.1284    226.2347    124.3907   7.9457948129e+01   1.0932966620e+01    0.1891493    0.1373525  59.00 0.0009063883    1.615    0.381
       121  -9.4743    219.5309    124.5044   8.0663683946e+01   1.2330302049e+01    0.1436486    0.1332163  -0.35 0.0008098572    1.005    0.005
       122 -11.0075     10.5281    122.6673   1.3117923309e+02   4.8253560279e+01    0.2434309    0.1571816  65.99  0.001317845    1.541    0.351
       123 -10.6188     21.4888    121.1880   1.2818544914e+02   4.7759835039e+01    0.2155904    0.1733725   1.12  0.001080065    1.738    0.425
       124  -9.9791     33.3638    118.8606   1.2472151926e+02   4.7262241338e+01    0.1714249    0.1299201 -68.80 0.0005195571    1.122    0.109
       125 -10.3745      2.8940    105.2983   1.3142374568e+02   5.2569822393e+01    0.2499361    0.1315174 -78.83  0.001079699    1.516    0.340
       126 -10.0420      6.4461    107.2789   1.3065967383e+02   5.1921105357e+01    0.2023118    0.1479619  88.14     0.001171    1.204    0.169
       127 -11.8634     17.6823    115.5698   1.2854369242e+02   4.9310765509e+01    0.4662521     0.262724 -61.98  0.002672522    1.484    0.326
       128 -11.7682     16.5022    109.2313   1.2810722006e+02   5.0814964291e+01    0.4415996    0.2959084  63.43  0.002285561    1.597    0.374
       129  -9.9979     10.7192    109.3889   1.2972202935e+02   5.1180053794e+01     0.224907    0.1657539  17.27 0.0009886016    1.782    0.439
       130 -10.1747    249.6121    118.2445   7.4221744206e+01   7.0973129445e+00    0.1935453    0.1203862 -20.61 0.0008219483    1.595    0.373
       131 -10.6371     86.0350    116.4582   1.0971130474e+02   4.1336052905e+01    0.2568638    0.1914533 -58.09 0.0003358159    1.265    0.210
       132 -11.3178     51.0775    116.7778   1.1953022559e+02   4.5931124875e+01    0.2356407    0.1691916 -68.21            0    1.218    0.179
       133  -9.2296    166.3208    115.7062   8.9166500606e+01   2.5717980448e+01    0.1509295    0.1224158 -87.94 0.0002494815    1.611    0.379
       134  -9.2144     39.6614    114.7207   1.2239575504e+02   4.7602660098e+01    0.1215305   0.08682358 -39.81  0.000534635    1.620    0.383
       135 -11.4933     36.0075    110.3807   1.2277097066e+02   4.8941863839e+01    0.5000108    0.2078242 -64.04  0.002384372    1.963    0.490
       136 -10.7303    248.9910    111.9890   7.2877243793e+01   8.1310796529e+00    0.2131288    0.1898421 -19.48 0.0005567252    1.030    0.029
       137  -8.9049    212.5373    112.5052   7.9038064176e+01   1.5809196248e+01    0.1470754    0.1375483   0.30 0.0002116347    1.022    0.021
       138 -10.5169     55.7213    109.8107   1.1700995170e+02   4.6992293366e+01    0.2338703    0.1729247 -14.91 0.0009930321    1.920    0.479
       139 -11.5741     23.6067    107.7122   1.2591469778e+02   5.0618584712e+01    0.3461338    0.2202311  74.04  0.001222074    1.726    0.421
       140  -9.6706     91.2907    107.9867   1.0639893093e+02   4.2406475829e+01    0.1782377    0.1207255 -54.96  0.000875584    1.404    0.288
       141 -11.3733    243.6441    104.5240   7.1937964543e+01   1.0323003734e+01    0.2521442    0.2055493 -17.56 0.0005900222    1.162    0.139
       142 -10.2734    223.2580    103.9843   7.5065872577e+01   1.4799099693e+01    0.2293679    0.2112162  44.35 0.0004534233    1.133    0.117
       143 -10.7425     74.1239    102.3839   1.1011938341e+02   4.6297792875e+01    0.3273264    0.2417444  75.48  0.001383471    1.691    0.409
       144 -10.7812    247.8458    102.1685   7.0753026720e+01   9.7981321804e+00    0.2091103    0.1852444 -49.92 0.0007178642    1.228    0.185
       145 -10.0401     36.1552    101.7740   1.2136354099e+02   5.0885747449e+01     0.282043     0.143115  31.14  0.001463926    2.245    0.555
       146 -10.4256     27.9427    100.7988   1.2365382531e+02   5.1828523005e+01     0.246716    0.1387929 -43.57   0.00114947    1.885    0.469
       147 -10.2271     30.2445     98.0691   1.2253200234e+02   5.2252365919e+01    0.1798647     0.150485 -68.67  0.000294718    1.015    0.014
       148  -9.8822    119.7925    101.4082   9.6895958971e+01   3.8651973223e+01    0.2105608    0.1411793  31.62 0.0009428725    1.688    0.408
       149  -9.2241     91.6773    101.2946   1.0472075829e+02   4.3835677974e+01    0.1416171    0.1099434  80.76    0.0003701    1.617    0.381
       150 -11.3724      3.3277    100.4296   1.3077185257e+02   5.3617902287e+01     0.254535    0.2060563  75.79 0.0005377724    1.251    0.201
       151 -10.4668     63.2819     98.9387   1.1262789796e+02   4.8544679106e+01    0.4235119    0.2370376  24.28  0.002006549    2.268    0.559
       152  -9.5575     50.5241     99.0153   1.1652877856e+02   5.0051385386e+01    0.1829772     0.105157 -88.51 0.0006058222    2.486    0.598
       153 -11.1549     20.3130     97.0992   1.2537704994e+02   5.3259194220e+01    0.2657141    0.1846309 -76.21  0.001233919    1.215    0.177
       154 -10.0319     94.8820     96.6439   1.0264126973e+02   4.4321323539e+01    0.2001195    0.1293941  51.23 0.0007236121    1.720    0.419
       155 -10.1806      1.7789     94.0915   1.3049052995e+02   5.5098880735e+01    0.3099701   0.07677136 -61.47   0.00112077    2.649    0.622
       156  -9.7144     67.8951     93.1697   1.0993185613e+02   4.9239904646e+01    0.2103745    0.1522467  -7.26  0.001067732    1.952    0.488
       157 -10.8455     95.5725     90.7527   1.0090991322e+02   4.5484716972e+01    0.4071772    0.2629667   1.35  0.001599618    2.931    0.659
       158 -11.4541     25.7148     91.6039   1.2286438605e+02   5.4082507179e+01     0.259533    0.1931296 -49.07 0.0004357691    1.269    0.212
       159 -12.0984     11.2310     91.0316   1.2726112549e+02   5.5231018421e+01    0.3411629    0.2223862  18.85  0.002183654    1.959    0.490
       160 -10.3080    157.6687     90.0888   8.4312251096e+01   3.2600612803e+01    0.2705146    0.2530307  -6.67 0.0009507734    1.100    0.091
       161 -10.2284    171.3319     90.6597   8.1439696734e+01   2.9241025230e+01    0.1605611    0.1227376 -75.12  0.000705155    1.747    0.427
       162 -11.5073     48.2878     86.0740   1.1457650560e+02   5.3221202815e+01    0.5480012     0.364968  78.91   0.00264804    2.124    0.529
       163  -9.7411     31.5210     91.9072   1.2109723888e+02   5.3534877135e+01    0.1959682    0.1020522 -64.41  0.001027263    1.578    0.366
       164 -10.9035    112.7559     85.7427   9.4551682368e+01   4.3335306025e+01    0.4358995    0.2864948 -58.23  0.001959468    1.749    0.428
       165 -10.2957     22.9098     87.0377   1.2298660823e+02   5.5322083251e+01    0.1870852    0.1456468 -62.13 0.0004688737    1.052    0.050
       166 -10.5139      4.2575     86.0752   1.2873392180e+02   5.6730460772e+01    0.2637103    0.1950389  74.40    0.0018112    1.447    0.309
       167 -10.4507     67.0135     85.3708   1.0834451836e+02   5.1097274825e+01    0.2718998    0.1647156 -42.31  0.000797637    1.599    0.375
       168 -10.3746     16.1807     83.9665   1.2464146079e+02   5.6482312386e+01    0.2265155    0.1577744  33.91 0.0009898962    1.726    0.421
       169 -10.1243    117.7250     83.4600   9.2502492215e+01   4.2797412259e+01    0.2537506    0.1861648  35.20 0.0006785843    1.434    0.303
       170  -9.9511    184.0637     82.1670   7.6449703326e+01   2.7634126575e+01    0.2245402    0.1985278  16.52 0.0004425022    1.210    0.173
       171 -11.1296     73.8407     80.8220   1.0497458529e+02   5.1131453313e+01    0.4359449    0.2435265  51.60  0.001344652    2.294    0.564
       172 -10.2515     39.9570     81.1347   1.1626178667e+02   5.5179698852e+01    0.2192403    0.1659376  56.97  0.001248665    1.601    0.375
       173  -9.4743     29.9872     81.5214   1.1967297002e+02   5.5993019152e+01    0.1563115    0.1238369  19.82 0.0009757587    1.532    0.347
       174 -11.6511     22.4842     79.5587   1.2180796409e+02   5.7018697406e+01    0.4390706     0.278433 -70.93  0.001451104    1.370    0.270
       175  -9.7256     18.6420     79.6939   1.2311500298e+02   5.7262711825e+01    0.1666949     0.123468 -58.11 0.0009222263    1.101    0.092
       176 -10.0792      2.4438     72.3150   1.2734383056e+02   5.9830797671e+01    0.2385249    0.1043754 -64.35  0.001231693    1.664    0.399
       177 -10.9355     11.8082     79.6114   1.2536462605e+02   5.7723523055e+01    0.2970066    0.1800621 -45.09  0.001004657    1.552    0.356
       178 -11.3167      3.4788     78.7680   1.2796409266e+02   5.8373814518e+01    0.3231266    0.2826467  39.82  0.001002725    1.428    0.300
       179 -11.0456      7.3456     73.9706   1.2594383445e+02   5.9217555567e+01    0.2994301    0.2190744  19.34  0.001647995    1.728    0.421
       180 -10.4872     91.8831     78.2067   9.8535633260e+01   4.8796413126e+01    0.3376731    0.2257619  -0.34  0.001444882    2.421    0.587
       181  -9.5192     81.3635     78.8975   1.0203466514e+02   5.0398523030e+01    0.1931514    0.1179179 -40.04 0.0003610666    1.594    0.373
       182 -10.6267    150.1965     77.6195   8.2422711531e+01   3.6678562869e+01    0.2861614    0.2151039 -31.97 0.0006355424    1.356    0.262
       183 -11.6750     58.5376     74.7871   1.0845109512e+02   5.4518847506e+01    0.4798587    0.3295687  70.87   0.00145765    2.256    0.557
       184 -10.9433     62.5570     72.2910   1.0640909584e+02   5.4540293535e+01    0.3857493    0.3067923  88.27  0.001501497    1.674    0.403
       185  -9.7144    121.9406     76.4701   8.9251642433e+01   4.3301344356e+01    0.2253194    0.1476647  47.85 0.0009079868    1.555    0.357
       186 -11.7152     44.8022     75.2357   1.1327983717e+02   5.5995732825e+01    0.2150378     0.190052 -58.98 0.0002622366    1.066    0.062
       187 -11.0617     37.7899     69.6051   1.1439817599e+02   5.7922859306e+01    0.6046418    0.3887123  63.80  0.003156877    2.349    0.574
       188 -11.1136     27.3309     70.3099   1.1829111617e+02   5.8682206950e+01    0.2604023    0.1774459 -57.32 0.0002793043    1.186    0.157
       189 -10.8914     31.0400     66.1724   1.1602141227e+02   5.9273797664e+01    0.3306779    0.1570992 -62.16 0.0008932141    1.821    0.451
       190 -11.8509    102.5717     72.1131   9.3446257291e+01   4.8087467515e+01    0.5190449    0.2544862 -41.12  0.001474741    1.976    0.494
       191 -10.0205     16.8179     72.5720   1.2244664412e+02   5.8953103845e+01    0.2144924    0.1357498 -64.65  0.000627497    1.265    0.209
       192  -9.7740    157.9958     72.3148   7.9034126202e+01   3.5742823150e+01    0.2346262    0.2018532  19.19  0.000323861    1.256    0.204
       193 -10.1492    160.1172     69.6148   7.7745386221e+01   3.5687480919e+01    0.3576688    0.2433927  76.75  0.001460835    1.968    0.492
       194 -10.1154    152.2278     71.3785   8.0056317066e+01   3.7308690434e+01    0.2970416    0.1978282 -20.39  0.001276832    1.762    0.433
       195 -10.0233    137.3595     72.2622   8.3908750759e+01   4.0667214451e+01    0.2104133    0.1393545 -45.48 0.0004905145    1.565    0.361
       196 -11.5789     76.6659     71.2527   1.0136273352e+02   5.2744727037e+01    0.5266672    0.2910887  49.82   0.00168182    2.260    0.558
       197 -11.5040     49.9136     69.0384   1.0993563998e+02   5.6785635041e+01    0.3969246    0.2513675 -30.57  0.002098511    1.737    0.424
       198 -10.7359    143.9641     69.7268   8.1492458465e+01   3.9579882313e+01    0.3148755    0.2377744 -81.14  0.001404682    1.870    0.465
       199 -11.0610     94.4400     67.1328   9.4366804518e+01   5.0594366687e+01    0.4552036    0.2968238 -46.47  0.002207191    1.494    0.331
       200 -10.5312     99.3845     65.2068   9.2217414234e+01   5.0050524630e+01    0.3446874    0.2116793 -31.40  0.001567574    1.706    0.414
       201 -11.1723     68.6076     67.2415   1.0289179988e+02   5.4775628948e+01    0.3117421     0.201206 -44.81  0.001058586    1.390    0.281
       202 -10.7351     19.2422     61.3265   1.1928211512e+02   6.1225071956e+01    0.4085495    0.2556728  67.38  0.002226426    2.448    0.592
       203 -11.0176     16.6525     67.9423   1.2161556904e+02   5.9973031233e+01    0.2122218    0.1827064 -76.22 0.0003969812    1.174    0.148
       204 -11.1101     20.2222     65.6645   1.1985889332e+02   6.0224201325e+01    0.3098421    0.2229496  19.06  0.002022773    1.694    0.410
       205 -11.6959      3.9775     64.9154   1.2559725887e+02   6.1353689893e+01    0.4543919    0.2660216  74.36  0.001834222    2.324    0.570
       206  -9.6423    146.4888     66.0353   7.9730786276e+01   3.9624287865e+01    0.2190411    0.1501961 -35.21 -3.442932e-05    1.468    0.319
       207 -10.3289    138.8495     65.8084   8.1501775889e+01   4.1480001723e+01    0.2029953    0.1820067 -79.22 0.0003340491    1.298    0.230
       208 -10.6053     77.2785     64.0534   9.8964311437e+01   5.4126947484e+01    0.3735702    0.2311692 -44.97  0.001762789    1.486    0.327
       209  -9.6991    209.9181     63.4657   6.6695708223e+01   2.4207164981e+01    0.2054297    0.1447481  62.20 0.0002981468    1.455    0.313
       210  -9.0506    150.3087     63.7202   7.8111042061e+01   3.9094610236e+01    0.1499022    0.1210897 -76.98 0.0002378103    1.560    0.359
       211 -11.5367     58.0522     61.7725   1.0497725181e+02   5.7337871056e+01    0.4139598    0.1987572 -41.02 0.0007606313    1.943    0.485
       212 -11.7361     64.1039     59.9341   1.0224281793e+02   5.6909044286e+01     0.727683    0.2925276  28.57  0.002870501    3.169    0.684
       213 -10.1964     51.5074     62.7077   1.0762398782e+02   5.7945034567e+01    0.2931246    0.1705196 -30.52  0.001349635    1.930    0.482
       214 -11.7408     10.4556     62.0863   1.2271466110e+02   6.1616130455e+01    0.3288194    0.2199003  62.60 0.0008069864    2.011    0.503
       215 -11.8092      5.4564     52.5305   1.2267704350e+02   6.3910908603e+01     0.583464    0.2422837 -67.19  0.002487348    1.978    0.494
       216 -11.0142     83.7673     61.5897   9.6007664336e+01   5.3558839541e+01    0.3504541    0.2514032  41.77  0.001840971    1.501    0.334
       217 -10.4070     86.4406     57.2738   9.3688898717e+01   5.3933738150e+01      0.27588    0.2376378  -9.01  0.001575512    1.160    0.138
       218 -11.3477     86.8294     51.9549   9.1717088789e+01   5.4857927020e+01    0.4018219     0.310842  79.28  0.002003415    2.081    0.519
       219 -11.4378     29.9971     60.7372   1.1509415765e+02   6.0526566660e+01     0.568635    0.2651895   9.65  0.002518591    3.259    0.693
       220 -12.4021     38.1098     51.1498   1.0933500070e+02   6.1780269482e+01    0.7291583    0.4730519 -28.63  0.004198752    1.559    0.359
       221 -10.2829     46.8231     56.6783   1.0760919690e+02   5.9731923370e+01    0.3248787    0.2191676 -76.65  0.001680411    2.138    0.532
       222  -9.8731     43.5756     57.4700   1.0907089000e+02   5.9921696540e+01    0.2361236      0.18243 -66.15 0.0008665444    1.394    0.282
       223 -10.5756     45.0589     51.3581   1.0666956677e+02   6.1009968662e+01    0.3439065    0.1804815 -40.70 0.0005196542    1.681    0.405
       224 -11.1588    123.2052     56.2794   8.2375015544e+01   4.6731996139e+01    0.3040768     0.247201 -39.46 0.0008932004    1.249    0.200
       225 -10.4590    114.7897     57.1907   8.4997195348e+01   4.8417613233e+01    0.2674707    0.2022492  37.28 0.0003621955    1.330    0.248
       226 -10.9149    117.6341     54.8163   8.3387184223e+01   4.8216468658e+01    0.4410428     0.245184  26.70  0.001686359    2.553    0.608
       227 -10.6100    100.7786     55.8821   8.8660444274e+01   5.1529739388e+01    0.3983781    0.1902341  47.24  0.001635626    2.196    0.545
       228 -10.7623     75.1851     56.0601   9.7080985631e+01   5.6038050419e+01    0.2014839    0.1892443   2.51 0.0003228156    1.097    0.089
       229  -9.6584     62.3300     54.6536   1.0119536773e+02   5.8211268225e+01    0.1276074    0.1051481 -88.16 0.0003348831    1.758    0.431
       230 -10.8929     12.4802     51.6387   1.1969884298e+02   6.3709399573e+01    0.2555057     0.176765 -63.46 0.0006799946    1.227    0.185
       231  -9.9477    157.0344     51.5396   7.2730219087e+01   3.9384099898e+01    0.3131708    0.2189754  75.37  0.001401863    1.719    0.418
       232 -11.1264    153.2567     47.9784   7.2367053343e+01   4.0872369868e+01     0.461368    0.3225229  89.57  0.001619149    2.005    0.501
       233 -11.7257    127.8408     51.4254   7.9492593993e+01   4.6489644034e+01    0.3184958    0.2829671  11.14 0.0003159814    1.140    0.123
       234 -10.6966    129.9980     47.4834   7.7574249836e+01   4.6618510110e+01    0.2636211    0.2120024 -28.40 0.0004636981    1.254    0.202
       235 -11.1467     77.4122     50.1466   9.4266173850e+01   5.6801672107e+01    0.4158314    0.2054954 -31.77  0.001227643    2.187    0.543
       236 -10.2163     51.5986     50.4026   1.0383193645e+02   6.0442198040e+01    0.2900957    0.1861297 -23.48   0.00154081    1.722    0.419
       237  -9.7205    147.2053     48.5977   7.3889691400e+01   4.2288980838e+01    0.2115632     0.133145  45.26 0.0003912725    1.553    0.356
       238  -9.8621    113.9924     48.4374   8.2155893076e+01   5.0085750151e+01     0.226225    0.1412108  50.68  0.001034307    1.635    0.388
       239  -9.7485     95.9973     47.9745   8.7330594537e+01   5.3864216848e+01    0.2252375    0.1636917  -0.15 0.0005848784    1.646    0.392
       240  -9.8178     25.9496     48.3244   1.1340498822e+02   6.3449438060e+01    0.1533595    0.1361265 -39.91 0.0005543026    1.110    0.099
       241 -10.3955     61.7111     46.5454   9.8668282675e+01   5.9864971683e+01    0.2624021    0.2128353 -65.08   0.00100585    1.580    0.367
       242 -10.4939      7.0452     41.1274   1.1940068824e+02   6.6181075287e+01     0.236317    0.1187144 -56.81 0.0007061035    1.487    0.328
       243 -10.6117      4.4074     46.8542   1.2186746869e+02   6.5144410228e+01    0.3376893    0.1495666 -30.78  0.001777228    2.469    0.595
       244  -9.9273      1.3692     44.7096   1.2264074988e+02   6.5729685204e+01    0.1677349   0.08661672 -63.41 0.0003387366    1.498    0.332
       245 -10.5645    142.7548     45.7252   7.3920811419e+01   4.3820844337e+01    0.3019924    0.2436902 -69.90 0.0008566578    1.538    0.350
       246 -10.2495    104.0104     46.4586   8.4323570930e+01   5.2523597465e+01    0.2174038    0.1374782  44.76 0.0007944889    1.587    0.370
       247 -11.0965     12.2484     43.7544   1.1785948840e+02   6.5350028021e+01    0.3388234    0.2131915 -26.31  0.002043277    1.630    0.386
       248  -9.1834    233.2831     45.3225   5.8682694878e+01   2.1064013940e+01    0.1350352    0.1061566  21.36 0.0003678933    1.593    0.372
       249  -9.9632    163.5651     45.4716   6.9449755741e+01   3.8622386143e+01    0.1498773    0.1421095  33.48 -8.087081e-05    1.047    0.045
       250 -10.5708     86.0075     44.8867   8.9423454787e+01   5.6267075001e+01    0.2415456     0.190694 -17.78  0.000759798    1.236    0.191
       251 -10.0479     51.1937     44.8999   1.0214211066e+02   6.1563419832e+01    0.1825753     0.160372 -44.11 0.0003867965    1.166    0.142
       252 -10.3811    121.7476     42.8163   7.8025389955e+01   4.9253690434e+01    0.4171382    0.1461586 -40.98  0.001421436    3.014    0.668
       253 -10.8682     70.9374     50.9814   9.6840954708e+01   5.7672262962e+01    0.3061871     0.235461  53.31  0.000382992    1.662    0.398
       254 -11.0302     66.8668     41.1092   9.4753466358e+01   6.0112145915e+01    0.4442547    0.2597372 -12.07  0.001945963    2.562    0.610
       255 -10.2838    110.6292     41.7605   8.0664038393e+01   5.1889380274e+01    0.2496243    0.2252896  72.53 0.0004701557    1.330    0.248
       256 -12.3683    225.8214    246.1763   1.0247082062e+02  -5.3184552870e+00    0.4517347    0.3124001  10.22   0.00317996    1.350    0.259
       257 -12.2018     20.7233     37.6912   1.1249183311e+02   6.5988994264e+01    0.3967063    0.2854259 -76.50  0.002209581    1.811    0.448
       258 -11.9592     25.7984     36.4114   1.0985650019e+02   6.5833487693e+01    0.4929267    0.3484547 -63.19  0.002402436    1.543    0.352
       259 -11.7993    100.9714     28.6720   7.8375161200e+01   5.5893892960e+01    0.5434923    0.3498528  13.07 0.0004598519    1.932    0.482
       260 -10.9258     97.6005     40.8713   8.4182628162e+01   5.4739229875e+01    0.4593402    0.2637191  43.42  0.001466293    1.741    0.426
       261 -10.9505    105.1364     34.1493   7.9334834590e+01   5.4225431902e+01     0.343697    0.2343733 -50.41 0.0002483004    1.825    0.452
       262 -11.1756    101.6586     36.9440   8.1441758025e+01   5.4534361564e+01    0.2966105    0.2524652  28.73 0.0006323215    1.129    0.115
       263 -11.8505     97.0672     36.9637   8.2842343864e+01   5.5466701712e+01    0.4012979    0.2684084 -39.98 0.0003595197    1.542    0.351
       264 -11.2322     89.4814     39.3250   8.6165605794e+01   5.6565360747e+01    0.3640319    0.2058146 -41.07  0.001708945    1.776    0.437
       265 -11.2863     52.5928     39.3527   9.9606959423e+01   6.2430101364e+01    0.4325697    0.1602123 -39.33  0.001808451    2.483    0.597
       266  -9.9399     70.5361     34.9342   9.0999833962e+01   6.0607978251e+01    0.2494428    0.1179549 -36.40  0.001129049    1.967    0.492
       267 -11.7594     80.3584     37.4317   8.8488367057e+01   5.8537759756e+01    0.4571309    0.2970559 -54.25  0.002220435    2.062    0.515
       268 -11.4098     77.3044     33.1612   8.7849393475e+01   5.9767210918e+01     0.429889    0.2674753 -11.78  0.002059978    1.966    0.491
       269  -9.7537     73.6991     31.6432   8.8515707817e+01   6.0626537240e+01    0.2245061    0.1726123  21.09 0.0006112838    1.295    0.228
       270 -10.0479     43.6636     38.8668   1.0306430138e+02   6.3600193096e+01    0.3579944    0.1757576 -56.63  0.001443339    2.318    0.569
       271  -9.3223    149.3364     38.3223   6.9959066830e+01   4.3247327398e+01    0.1595661    0.1085442  27.04 0.0007050579    1.712    0.416
       272 -10.6336    163.4780     36.9818   6.6719599259e+01   3.9818453238e+01    0.4467825    0.1980893  60.71  0.001706892    2.161    0.537
       273 -10.7893    128.3367     35.1594   7.3570400933e+01   4.8840323287e+01    0.4526511    0.2466052   6.27  0.001519012    3.612    0.723
       274 -10.2125      3.5175     35.5987   1.1952369298e+02   6.7473632783e+01    0.2660294    0.1258529 -54.97  0.001167889    1.531    0.347
       275 -10.7190     10.5984     34.3181   1.1598969153e+02   6.7339542122e+01    0.3193317    0.2204102   2.42  0.001432187    1.670    0.401
       276 -10.6002      7.2872     29.9890   1.1623300482e+02   6.8378423039e+01    0.3128684    0.1213221 -50.44  0.001124432    1.823    0.451
       277 -11.0885     10.3050     25.3128   1.1332470271e+02   6.9093080391e+01    0.2803106    0.1692171 -21.01  0.001772973    1.670    0.401
       278 -10.3336    151.4381     33.8057   6.7988974716e+01   4.3323333358e+01    0.3741964    0.1749592  34.01  0.001294186    2.965    0.663
       279 -10.3063    139.9670     34.0293   7.0477107593e+01   4.6172157070e+01    0.2174711    0.2075856  42.47 0.0003361236    1.032    0.031
       280 -10.2937    123.8710     32.9996   7.3867630779e+01   5.0193794975e+01    0.2786318     0.190903  51.21 0.0007830412    1.402    0.287
       281  -9.9021    226.0944     40.4728   5.8298824125e+01   2.3407937244e+01    0.2110084    0.1816603 -35.93  0.000693219    1.134    0.118
       282  -9.7790    178.8720     31.9066   6.2445650824e+01   3.6474424354e+01    0.2014163    0.1670104 -72.68 0.0003887497    1.306    0.234
       283 -10.3492    118.0534     32.0692   7.4993751490e+01   5.1669095347e+01    0.2026828     0.196581  -6.31 0.0003182123    1.096    0.088
       284 -11.2157     56.3732     31.0737   9.4888412441e+01   6.3391761300e+01    0.3244452    0.1694218 -31.50  0.001601205    1.824    0.452
       285  -9.3306     90.1777     31.6222   8.2888007014e+01   5.7644110140e+01    0.1832264    0.1197373  34.03 0.0004031757    1.529    0.346
       286 -10.6794     49.9631     29.4166   9.6838380931e+01   6.4538582332e+01     0.409229    0.1944661 -34.44  0.001726421    1.941    0.485
       287 -10.6944     82.7029     29.9418   8.4665245111e+01   5.9308237702e+01    0.3164376    0.2098388 -63.54  0.001391246    2.887    0.654
       288 -10.6084    221.5014     28.5076   5.5701108973e+01   2.6004766314e+01    0.2570425    0.1330341 -27.80 0.0005899711    1.940    0.484
       289  -9.8842    163.0373     28.8509   6.4138806914e+01   4.0972046026e+01    0.2150992    0.1886704 -74.96 0.0002667396    1.241    0.194
       290  -9.8421    140.1665     28.1272   6.8331200955e+01   4.6889996658e+01    0.2587184    0.1755589 -11.92  0.001173166    1.665    0.399
       291  -9.9783    124.7343     28.0520   7.1797372485e+01   5.0652589286e+01    0.2770041    0.1864604  21.04  0.001053259    1.714    0.416
       292 -11.6050     70.7953     26.3075   8.7339845334e+01   6.1950396853e+01    0.4485874    0.3247799  23.05  0.001452983    1.380    0.275
       293 -11.0933     63.8322     25.8207   8.9755581233e+01   6.3149683243e+01    0.2902246    0.2345141  54.74   0.00109735    1.710    0.415
       294 -10.8034     59.6351     21.8167   8.9655524504e+01   6.4415334164e+01     0.312106     0.159242 -45.17  0.001291195    2.193    0.544
       295 -10.7840    214.6904     27.4370   5.6206376084e+01   2.7819840258e+01    0.2281066    0.2164487 -27.78 0.0001715662    1.127    0.113
       296  -9.7228     24.7673     26.8060   1.0697737809e+02   6.7732000512e+01    0.1827366    0.1342926 -63.83 0.0006802847    1.684    0.406
       297 -10.3210    181.2104    248.1812   1.1029747565e+02   1.1959774269e+00    0.2082362   0.08788671 -34.19  0.001040398    3.472    0.712
       298  -9.8611    137.0384    247.5060   1.1790095588e+02   8.0750356915e+00    0.1742263   0.08717551  42.49 -0.0002079287    1.517    0.341
       299 -10.8120      2.1020     24.1856   1.1695043249e+02   6.9770010544e+01      0.35452     0.141989 -49.05  0.001506406    1.741    0.426
       300  -9.3570     11.6926     19.2407   1.1050896297e+02   7.0125742985e+01    0.1380829   0.07921916 -49.88 0.0002011039    1.405    0.288
       301  -9.6978    156.6526    245.7344   1.1426922714e+02   5.3108526758e+00    0.1126175   0.07596412  24.82 0.0003171994    1.611    0.379
       302 -10.2820    147.7410    245.2889   1.1578178255e+02   6.7481250751e+00    0.1486359   0.09365749 -34.37 0.0008991476    2.376    0.579
       303  -9.5328    115.4261    244.7501   1.2139442837e+02   1.1691659484e+01    0.1254712    0.1072231 -49.07 0.0007721282    1.612    0.380
       304 -10.8115    134.7628     22.7906   6.7546376721e+01   4.8880879794e+01    0.2756713    0.2250139   5.52  0.000710632    1.300    0.231
       305  -9.8836     88.1834     25.3429   8.0933057371e+01   5.8948025116e+01    0.2980665    0.2180252 -85.73  0.001368108    2.792    0.642
       306 -11.4864     84.1901     20.8912   8.0324948280e+01   6.0333098498e+01    0.3562208    0.2722116  52.17  0.001169623    1.490    0.329
       307  -9.8313     28.7713     40.9636   1.1003629192e+02   6.4689912687e+01    0.1778208    0.1021355 -50.30            0    1.420    0.296
       308 -10.3034    112.1109     24.8420   7.3736731881e+01   5.3984339998e+01    0.2008784      0.19421 -59.78 0.0005276633    1.225    0.183
       309 -10.9470     94.5667     24.3968   7.8535388579e+01   5.7809345814e+01    0.3712642     0.224912  41.36  0.001245445    1.582    0.368
       310  -9.7055    173.9893     24.4925   6.0903913211e+01   3.8641309483e+01    0.2211537    0.1363035  64.90 0.0003944138    1.534    0.348
       311 -10.7604    120.6902     22.4823   7.0640307206e+01   5.2307204415e+01    0.4182414    0.2886467 -32.35  0.001283191    1.509    0.337
       312  -9.1884    197.9587     22.0231   5.6757827840e+01   3.2693932079e+01    0.1656713    0.1541381  86.39 0.0003223523    1.013    0.013
       313  -9.3357     35.7762     22.0247   9.9987401797e+01   6.7498138300e+01    0.2090744    0.1446257  -8.75  0.001289641    1.454    0.312
       314 -12.1088     74.2396    238.4594   1.2799991048e+02   1.8384258136e+01    0.5119224    0.3311281 -69.01  0.003614733    1.756    0.431
       315 -10.7837     47.2558     20.5317   9.4225942151e+01   6.6364834431e+01    0.4408375    0.1579648  39.45  0.001919887    3.138    0.681
       316  -9.5846    162.0053     20.0083   6.1396429161e+01   4.2273786654e+01    0.1709214    0.1585714  59.21 0.0003264296    1.009    0.009
       317 -10.3572     88.8937    241.2130   1.2569176797e+02   1.5991466027e+01    0.1720618    0.1395007 -35.28   0.00122094    2.084    0.520
       318 -12.1029     35.6936    241.4613   1.3460207771e+02   2.2496077988e+01    0.3821971     0.186681  51.36  0.002632681    1.496    0.331
       319 -10.9004     29.1759    232.8784   1.3520956356e+02   2.4621022431e+01    0.2406045    0.1728592  43.04   0.00186263    1.485    0.327
       320 -11.3216     31.5058    237.4633   1.3506758932e+02   2.3606511978e+01    0.2438811    0.1571522  81.83  0.001255696    1.286    0.223
       321  -9.5248     85.5478     10.4858   7.5243485840e+01   6.1375701417e+01    0.2132553    0.1219007  49.32 0.0006089191    1.708    0.414
       322  -9.4947     50.3214    240.3207   1.3215893106e+02   2.1029709837e+01   0.08273506   0.08240929  88.82 0.0006599267    1.672    0.402
       323 -10.3241    195.7020    238.3533   1.0647215008e+02   1.2760112280e-01    0.2303437    0.1623034  25.21  0.001527567    1.228    0.186
       324  -9.3828    243.4720    237.4810   9.8277862732e+01  -6.9910464767e+00    0.1133937   0.08337733  20.20 8.732802e-05    1.021    0.021
       325 -10.2410    159.9196    235.8647   1.1248410037e+02   6.1377627429e+00    0.1834102      0.13635  29.86   0.00067479    1.262    0.208
       326 -10.0235    217.3515     16.4443   5.2969536840e+01   2.8403687737e+01     0.256926    0.1185367  64.60 0.0009520241    2.028    0.507
       327 -10.6958    131.3227     15.0267   6.5378808490e+01   5.0604746257e+01    0.1982396    0.1829372  14.00 0.0006730849    1.081    0.075
       328 -12.1579    232.8154    246.7390   1.0140270468e+02  -6.3879418038e+00    0.4020421    0.2540346   6.30  0.002679377    1.606    0.377
       329 -10.1430     26.3680     13.9064   1.0096104529e+02   6.9833674310e+01    0.1913614    0.1238082 -18.60  0.000366292    1.425    0.298
       330 -10.4760    177.7383    234.8067   1.0915164656e+02   3.4272622530e+00    0.2122352    0.1558936  16.28 0.0008529955    1.482    0.325
       331 -10.7034    153.4637    234.0189   1.1341818696e+02   7.4269975068e+00    0.2167334    0.1762168   5.27   0.00146664    1.586    0.370
       332 -10.2056    109.6930    242.9211   1.2222146650e+02   1.2800672411e+01    0.2248518     0.125139  50.45 0.0007565746    1.387    0.279
       333  -9.8305    167.1347    233.8509   1.1092579263e+02   5.2590515866e+00    0.1771289    0.1405194  50.98 0.0007663755    1.221    0.181
       334 -10.1038    127.4840    233.5035   1.1807758729e+02   1.1583507929e+01    0.1178869   0.09311124  47.59 8.455545e-05    1.042    0.040
       335 -10.4232    156.4969    241.4960   1.1379094421e+02   5.9057561150e+00    0.1179203   0.09058551  40.59 0.0003129099    1.025    0.025
       336  -9.9899     79.9048    231.4969   1.2645513738e+02   1.8787350140e+01    0.1664589   0.08713446  45.31 0.0004897068    1.525    0.344
       337  -9.5655     12.8526    231.1859   1.3775702590e+02   2.6551154345e+01     0.121377   0.09931546  80.97  0.001063423    1.314    0.239
       338  -9.7863     58.4829    230.4527   1.3013083893e+02   2.1703360785e+01    0.1086723   0.08092839  63.85 0.0001315384    1.019    0.018
       339 -10.1786    190.5188    227.2969   1.0580860661e+02   2.3401448196e+00     0.312988    0.1200715 -40.34  0.001480117    3.213    0.689
       340 -10.1233    129.5743    226.5487   1.1690137609e+02   1.2339068169e+01    0.2871788    0.1265245  58.34  0.001259068    2.906    0.656
       341 -10.0377     87.9958    227.0218   1.2461241006e+02   1.8437622544e+01     0.153602    0.1403719   9.61  0.001132643    1.650    0.394
       342  -9.6366    144.2987    226.6380   1.1417750789e+02   9.9821898514e+00     0.120444   0.08307697  67.14  0.000703431    1.717    0.418
       343 -10.5241    115.7589    225.7256   1.1937551805e+02   1.4608099302e+01     0.161439   0.09421702 -77.83 0.0005500152    2.374    0.579
       344 -10.4154     66.4524    226.4238   1.2843513794e+02   2.1402356260e+01    0.2570353    0.1031575  44.47 0.0008776577    1.958    0.489
       345 -10.2598     10.5578    226.5237   1.3792491404e+02   2.7562188960e+01    0.1020786   0.06751899  69.12 4.033859e-05    1.045    0.043
       346 -10.0655      5.0835    226.1591   1.3878416659e+02   2.8132819051e+01     0.243396   0.02802133  52.03  0.001072305    4.033    0.752
       347  -9.8159    181.0000    224.9077   1.0718200846e+02   4.2186746618e+00    0.1671546   0.07055014 -42.52 0.0008011207    2.933    0.659
