#   1 NUMBER                 Running object number                                     
#   2 MAG_AUTO               Kron-like elliptical aperture magnitude                    [mag]
#   3 X_IMAGE                Object position along x                                    [pixel]
#   4 Y_IMAGE                Object position along y                                    [pixel]
#   5 X_WORLD                Barycenter position along world x axis                     [deg]
#   6 Y_WORLD                Barycenter position along world y axis                     [deg]
#   7 A_WORLD                Profile RMS along major axis (world units)                 [deg]
#   8 B_WORLD                Profile RMS along minor axis (world units)                 [deg]
#   9 THETA_WORLD            Position angle (CCW/world-x)                               [deg]
#  10 FWHM_WORLD             FWHM assuming a gaussian core                              [deg]
#  11 ELONGATION             A_IMAGE/B_IMAGE                                           
#  12 ELLIPTICITY            1 - B_IMAGE/A_IMAGE                                       
         1 -11.9675    213.9021      2.6793   5.8784623302e+01   3.1500302077e+01    0.7511097    0.3985085  74.18  0.002956416    1.610    0.379
         2 -12.1267    189.9827     26.8085   6.7193072821e+01   3.4546832848e+01    0.7177236    0.5659222  21.60  0.002621477    1.736    0.424
         3 -13.5872    200.3335     17.2232   6.3531617142e+01   3.3146906343e+01     2.497363     1.599911  23.11    0.0118874    2.756    0.637
         4 -10.7210     32.8349     12.8114   1.0118815190e+02   6.7906823770e+01    0.4955432    0.0888939 -35.96  0.001776388    5.110    0.804
         5 -11.3428     32.6696      3.3266   9.6981716245e+01   6.9001772519e+01    0.3479671    0.2728936 -11.05  0.002674036    1.226    0.184
         6 -11.3573     20.5204     35.2645   1.1526673221e+02   6.5976078158e+01     0.343607    0.1671023 -31.45  0.001963969    1.756    0.431
         7 -10.0019    148.6671    248.8680   1.2535870032e+02   1.9987338256e+00     0.287647    0.1834854  86.50  0.001370213    2.747    0.636
         8 -11.2757    139.4849    249.5490   1.2719939738e+02   3.4443919321e+00    0.3478909    0.3037672  56.93  0.002320607    1.065    0.061
         9 -11.6913    108.3049    245.4160   1.3260162633e+02   9.3543041242e+00    0.3868313    0.3452537  57.78  0.001865635    1.172    0.147
        10 -11.0664     99.9702    238.0076   1.3332887257e+02   1.2085897031e+01    0.3140879    0.2113942  72.77 0.0007397613    1.467    0.318
        11 -12.3723     95.1674    248.0995   1.3534697228e+02   1.0940197940e+01    0.7903483    0.4532312  46.54  0.002091704    1.484    0.326
        12 -11.2847     63.9163    249.3465   1.4107626742e+02   1.5300008810e+01    0.5801685    0.2632869  47.77  0.003171901    1.821    0.451
        13 -11.3668     71.7632    245.1479   1.3931147909e+02   1.4990653273e+01    0.4649221    0.2883283  79.99  0.002780675    1.535    0.348
        14 -12.3950     57.0389    224.7867   1.4009792761e+02   2.1086696790e+01    0.9468858    0.5109446 -50.64  0.002282798    2.556    0.609
        15 -15.1674     21.0512    172.6886   1.4217490616e+02   3.6722790343e+01     10.42604     2.925674 -80.84   0.03095118    5.672    0.824
        16 -14.7484     55.8011    211.2292   1.3899011294e+02   2.4112699516e+01     7.689777    0.8324934  45.47   0.02289135    5.760    0.826
        17 -15.3401      4.5081    239.0266   1.5025115783e+02   2.4406227719e+01     20.65828    0.4587246 -74.26   0.03186095   12.746    0.922
        18 -10.2813     71.7149    230.2541   1.3786819876e+02   1.7923290119e+01    0.2459163    0.1552278  76.54 0.0009152365    1.499    0.333
        19 -11.5549    151.7684    228.5614   1.2182062032e+02   5.0012230131e+00    0.7418346    0.2217704  40.25  0.002624912    3.078    0.675
        20  -9.3297    225.9390    200.5124   1.0211992697e+02  -3.5856795904e+00    0.2342358    0.1826964 -51.29 0.0007291675    1.570    0.363
        21  -9.7816    193.2149    195.1334   1.0747593752e+02   3.4191823384e+00    0.7634493    0.3879923 -65.24  0.002025511    6.643    0.849
        22 -10.9664     71.0123    190.9588   1.3345482093e+02   2.6510873102e+01    0.4485595    0.2637014 -44.86  0.001407354    2.254    0.556
        23 -10.9687     75.5100    184.3667   1.3155773471e+02   2.7369176601e+01    0.2882248    0.2477117 -56.49 0.0007912311    1.300    0.231
        24 -10.1374    114.1643    173.9135   1.2089759831e+02   2.3390413775e+01    0.3768225    0.2059855  39.07  0.001609688    1.900    0.474
        25 -10.2998    102.5384    171.8554   1.2328681390e+02   2.5945380775e+01    0.5512555    0.2275649  52.41  0.001983518    2.797    0.642
        26  -9.8569    126.3356    174.3352   1.1811458964e+02   2.1012422617e+01    0.3449554    0.1804911  49.44  0.001414079    1.918    0.479
        27 -10.4886     83.9052    172.9602   1.2790072637e+02   2.8761539283e+01    0.2658355    0.2301368 -64.86 0.0003612032    1.147    0.128
        28  -9.0102    134.3381    173.3176   1.1605160179e+02   1.9689209051e+01     0.149554    0.1219688  -5.63 0.0007048861    1.704    0.413
        29 -12.5535     71.7984    170.0753   1.3031527582e+02   3.1264544276e+01    0.5017361    0.3260221 -40.09  0.001473488    2.013    0.503
        30 -11.5994     89.5173    165.0990   1.2524132119e+02   2.9733415114e+01    0.8459409    0.5979065  54.40  0.001206088    1.441    0.306
        31 -12.7279     68.3752    145.5857   1.2711837428e+02   3.7610341359e+01     1.440799    0.7769672 -89.76  0.005286226    3.245    0.692
        32  -9.1690    102.1241    148.8384   1.1902320491e+02   3.1481321030e+01     0.284184    0.2597732 -41.15 0.0008870126    1.187    0.157
        33  -8.8212    104.9457    144.7456   1.1745054427e+02   3.1951997845e+01    0.3602198    0.2197561 -34.93  0.001494333    2.110    0.526
        34 -11.2680     91.1298    147.9919   1.2167565468e+02   3.3565183916e+01    0.2926733    0.2535762 -42.85 0.0004386895    1.241    0.194
        35  -8.4812    133.6292    143.8302   1.0999954448e+02   2.6594136250e+01    0.2291455    0.1432657 -60.10 0.0007386287    1.739    0.425
        36 -11.8202     58.4830    132.8333   1.2742200250e+02   4.1974307260e+01    0.9472916    0.3632252 -69.30  0.003294247    3.281    0.695
        37 -11.9353     55.0261    120.4662   1.2599690266e+02   4.5316332199e+01     1.093963    0.4073362 -70.08  0.003357041    4.444    0.775
        38  -9.2246    112.4158    134.7808   1.1331864052e+02   3.2921393185e+01    0.3220125    0.2353398 -19.59  0.001007049    1.927    0.481
        39 -13.7227     11.1902    206.7892   1.4707500839e+02   3.0207121849e+01     1.309893    0.8743711  62.11  0.006175017    1.321    0.243
        40 -14.2817     46.6383    225.0137   1.4205483015e+02   2.2399098132e+01     3.242201     1.574273 -50.91   0.01427546    3.002    0.667
        41  -9.8245    100.0008    131.7258   1.1591170504e+02   3.5922256443e+01    0.3003137    0.2418588 -17.05  0.000706939    1.590    0.371
        42 -11.5226     44.1919    128.2700   1.3049494114e+02   4.4735328311e+01    0.4192635    0.2744325 -85.33  0.002194501    1.708    0.415
        43 -10.6801     58.2724    240.2739   1.4128548900e+02   1.7810569610e+01    0.3495807    0.1486054  49.36  0.001823996    1.956    0.489
        44  -8.7663    108.7776    122.4902   1.1138227286e+02   3.6466873634e+01    0.2005176    0.1511799  40.19 0.0004440624    1.399    0.285
        45 -10.9220     40.8703    114.8900   1.2897195987e+02   4.8197114033e+01    0.5925575   0.08145244 -56.23  0.001790621    4.302    0.768
        46 -10.1350    168.1425    113.0854   9.4244451934e+01   2.5677798093e+01    0.3732044    0.2911737 -80.85 0.0007241897    1.583    0.368
        47 -10.5940     33.4098    108.8573   1.2999717447e+02   5.0305241940e+01    0.5521091    0.1254123 -61.10  0.001897068    3.515    0.716
        48  -9.7829     64.8803    232.8908   1.3940897057e+02   1.8362641593e+01    0.1757732    0.1548619  82.24 0.0007647465    1.231    0.188
        49  -8.9493    204.9239    110.7135   8.6178631053e+01   1.7495218796e+01    0.4062438    0.1656932  40.08  0.001285209    3.432    0.709
        50 -11.3226    125.4726    243.8211   1.2913978811e+02   6.8122734504e+00    0.2821586    0.2626427 -37.17  0.001730066    1.402    0.287
        51  -9.0850    244.3281    248.9981   1.0757642314e+02  -1.3524697313e+01     0.186953   0.08245225 -15.31 0.0007050276    4.316    0.768
        52 -10.2918    104.4714    236.9759   1.3234264887e+02   1.1560138841e+01    0.2121935    0.1791996  27.55 0.0007829632    1.534    0.348
        53 -11.4633     83.2697    244.1132   1.3712189005e+02   1.3502202775e+01    0.3552605    0.2860492 -80.74  0.002400562    1.270    0.212
        54  -8.3292    169.4700    215.4615   1.1609047579e+02   4.1625989797e+00    0.1380923     0.125108  42.75 0.0001748636    1.020    0.019
