#   1 NUMBER                 Running object number                                     
#   2 MAG_AUTO               Kron-like elliptical aperture magnitude                    [mag]
#   3 X_IMAGE                Object position along x                                    [pixel]
#   4 Y_IMAGE                Object position along y                                    [pixel]
#   5 X_WORLD                Barycenter position along world x axis                     [deg]
#   6 Y_WORLD                Barycenter position along world y axis                     [deg]
#   7 A_WORLD                Profile RMS along major axis (world units)                 [deg]
#   8 B_WORLD                Profile RMS along minor axis (world units)                 [deg]
#   9 THETA_WORLD            Position angle (CCW/world-x)                               [deg]
#  10 FWHM_WORLD             FWHM assuming a gaussian core                              [deg]
#  11 ELONGATION             A_IMAGE/B_IMAGE                                           
#  12 ELLIPTICITY            1 - B_IMAGE/A_IMAGE                                       
         1 -14.8231    198.8107     69.9689   3.0489289037e+01  -4.3238624094e+01    0.1131911   0.05752713  -8.96   0.00851886    3.451    0.710
         2 -14.7833    100.8541     49.8250   3.1829267756e+01  -4.4083155305e+01    0.0690285   0.05025546   4.98  0.005598452    1.665    0.399
         3 -14.7450    119.5807     54.3439   3.1575990263e+01  -4.3915674568e+01   0.04830845   0.03628622  -9.23    0.0019739    1.461    0.316
         4 -13.2097    135.8126     51.1580   3.1295011119e+01  -4.3846635211e+01   0.05996992   0.02245792  60.39  0.004763848    2.827    0.646
         5 -13.0557    140.3623     21.2053   3.0958278981e+01  -4.4139856454e+01   0.02958074   0.01768127 -29.10  0.001117028    1.625    0.385
         6 -14.5532    166.8723     29.5511   3.0620891906e+01  -4.3879063767e+01   0.04969916   0.04021718 -23.75  0.003612871    1.216    0.177
         7 -15.0748    147.6715     29.6454   3.0919734963e+01  -4.4002089110e+01    0.1482255   0.03514057 -33.49  0.009970363    3.645    0.726
         8 -15.2478     62.7069     56.3991   3.2486909263e+01  -4.4251170570e+01     0.164766   0.09349923  20.17   0.01382343    2.852    0.649
         9 -14.7413    124.5495     35.8569   3.1335352906e+01  -4.4083503208e+01   0.06834719   0.03738613  -6.93  0.005326635    2.838    0.648
        10 -14.1290    111.8663     40.0536   3.1570812150e+01  -4.4119002748e+01   0.05842538   0.02609502  36.39  0.002376519    3.186    0.686
        11 -15.0264      6.7307     71.4787   3.3504920867e+01  -4.4431377688e+01   0.05562961    0.0450907  49.22  0.005318535    1.253    0.202
        12 -14.2493     41.5313      5.1111   3.2375269230e+01  -4.4940257969e+01   0.05493311   0.03369716  32.58  0.004447761    1.967    0.492
        13 -12.9371      7.8732      2.4739   3.2891578034e+01  -4.5177762915e+01   0.03325866    0.0270032 -50.78  0.003903796    1.297    0.229
        14 -16.0265     11.8657     22.5331   3.3002110910e+01  -4.4934592280e+01     0.108061   0.06874089  30.99   0.01080055    1.887    0.470
        15 -14.1791     26.4532     13.1777   3.2686994788e+01  -4.4946384274e+01   0.04045348   0.02760256   9.09  0.004053222    1.894    0.472
        16 -15.3470    217.9865     17.1697   2.9721874010e+01  -4.3677168565e+01    0.1093805   0.05712929  56.26   0.01042264    1.943    0.485
        17 -12.1339    232.6143      2.1101   2.9360817875e+01  -4.3740472012e+01   0.02444223   0.01565322  -8.09  0.001870341    2.016    0.504
        18 -14.8012    190.3373     24.5225   3.0213242525e+01  -4.3780230144e+01   0.09720621    0.0548864  72.63   0.00889061    2.344    0.573
        19 -13.9191    242.4631     34.4697   2.9504928684e+01  -4.3331291385e+01   0.04457839   0.03258264 -35.89  0.003177002    1.321    0.243
        20 -15.6008     98.4031     12.1722   3.1535577882e+01  -4.4505553017e+01   0.08495574   0.05144988 -20.57  0.004945788    1.755    0.430
        21 -11.9983     71.0896     16.1652   3.2002475895e+01  -4.4635166043e+01   0.02172741   0.01198983  51.61  0.001628335    1.814    0.449
        22 -12.5172     74.6789     10.2037   3.1892973985e+01  -4.4677073538e+01   0.02049857   0.01228974  56.25  0.001867404    1.688    0.408
        23 -12.6521     59.9065     15.5580   3.2174531713e+01  -4.4711993366e+01   0.02810456   0.01894998  -5.96  0.002876437    1.788    0.441
        24 -13.6375     58.0417     26.7050   3.2301976480e+01  -4.4602766510e+01   0.05226431   0.02147122 -21.91  0.002921601    2.861    0.651
        25 -12.2256     46.7409     12.8776   3.2360419528e+01  -4.4823440506e+01   0.01953075   0.01236664 -43.67  0.001401311    1.606    0.377
        26 -11.7087    153.0048      8.2496   3.0645201419e+01  -4.4197322019e+01   0.01245993  0.009515037  45.96 0.0007960494    1.339    0.253
        27 -12.3984    120.0934      3.1638   3.1114143139e+01  -4.4464102350e+01    0.0278115   0.01277901 -49.67  0.002269993    2.723    0.633
        28 -11.5063     67.8991      2.7042   3.1934157501e+01  -4.4800966910e+01   0.01510134   0.01145932  10.60   0.00166184    1.549    0.354
        29 -12.6120     80.1785      1.7740   3.1731156420e+01  -4.4733461601e+01   0.03398341   0.01020193 -25.11  0.002222275    3.981    0.749
        30 -11.7265     61.1548      1.4872   3.2030577988e+01  -4.4856601053e+01   0.02348049  0.006255926 -29.08  0.001577927    3.639    0.725
        31 -15.3350     15.7240    175.1489   3.4229467877e+01  -4.3239600196e+01    0.1135432   0.06395528 -57.26   0.01022146    2.382    0.580
        32 -12.7568    108.1339    243.9347   3.3361893627e+01  -4.1926299777e+01   0.02829403    0.0216327  13.43  0.003154461    1.511    0.338
        33 -13.1435     57.0626    246.8421   3.4170165167e+01  -4.2203611397e+01    0.0305674    0.0185261 -23.48  0.003092107    1.650    0.394
        34 -12.2061     41.2699    249.7663   3.4437822638e+01  -4.2265917858e+01   0.01389262    0.0122326 -70.99  0.001686308    1.260    0.206
        35 -13.6484     28.0584    246.5971   3.4617084469e+01  -4.2379443501e+01   0.03933886   0.02903605  -6.45  0.004335556    1.492    0.330
        36 -12.2159      2.8617    249.6132   3.5033051151e+01  -4.2495086664e+01   0.02092809   0.01593431 -39.32  0.001791406    1.292    0.226
        37 -14.1527      9.2886    245.5198   3.4900263398e+01  -4.2502432638e+01   0.05152888   0.03154447 -48.13  0.003600542    1.771    0.435
        38 -12.1108    201.0798    191.2332   3.1509018473e+01  -4.1919733562e+01   0.01617653   0.01290946  16.88  0.001351788    1.410    0.291
        39 -11.8084    180.5214    197.0406   3.1869280511e+01  -4.1987055982e+01   0.01012288  0.006463243  59.77  0.001042332    1.621    0.383
        40 -12.5619     48.5755    181.3481   3.3766491447e+01  -4.2973667883e+01   0.02698613   0.01545557  41.35   0.00261651    1.903    0.475
        41 -11.5405    109.7962    183.3845   3.2834749404e+01  -4.2576872754e+01  0.009648379  0.006170275 -14.29 0.0009584981    1.750    0.429
        42 -12.4587     89.6816    169.8765   3.3032250916e+01  -4.2848212317e+01    0.0158963  0.009727658 -21.81  0.001544237    1.678    0.404
        43 -13.8593     84.9664    179.8996   3.3189039275e+01  -4.2767757171e+01   0.04911153     0.016449 -43.50  0.003559817    3.283    0.695
        44 -13.4530    197.3459    179.3441   3.1464043924e+01  -4.2071763017e+01   0.03553821   0.02100729 -73.01  0.002963393    3.034    0.670
        45 -11.3869    122.2176    180.9208   3.2623001788e+01  -4.2526758037e+01   0.01998468   0.01034086 -64.83  0.001437413    3.916    0.745
        46 -13.2421    124.6752    167.3463   3.2470807688e+01  -4.2659098156e+01   0.02368987    0.0156496  78.57    0.0023953    1.918    0.479
        47 -11.1434    101.8074    160.6364   3.2766926148e+01  -4.2874106211e+01  0.009842796  0.005554538 -37.76 0.0009539432    1.705    0.414
        48 -12.0059     27.7689    158.8750   3.3906074306e+01  -4.3345971994e+01   0.01306513  0.007582904 -51.30  0.001095261    2.004    0.501
        49 -12.5673     77.1859    156.9986   3.3118210207e+01  -4.3065605734e+01   0.02451375   0.01628409 -21.97  0.001439777    1.521    0.343
        50 -13.8866     74.0183    153.4869   3.3138022252e+01  -4.3123404459e+01   0.03512046   0.02799631 -19.86  0.002247386    1.248    0.199
        51 -11.0516    155.6551    157.3276   3.1910385153e+01  -4.2573664734e+01  0.006944092  0.004866382 -61.18 0.0007050553    1.747    0.428
        52 -12.9290    122.5223    154.3303   3.2393738850e+01  -4.2813965293e+01    0.0285576   0.01503733  47.68  0.002708731    1.940    0.484
        53 -12.7765    111.7704    155.4707   3.2569304147e+01  -4.2868531419e+01   0.02540439   0.01559464 -66.95   0.00231724    2.437    0.590
        54 -12.8842    208.5168    154.0020   3.1077285237e+01  -4.2273542573e+01   0.03302249   0.02234391 -23.79  0.003534126    1.485    0.327
        55 -12.4148     55.6184    155.4642   3.3441534092e+01  -4.3214388350e+01   0.02043541    0.0127133  17.97  0.001903252    2.254    0.556
        56 -12.0653     13.9630    152.4628   3.4070107725e+01  -4.3499544077e+01   0.01560833  0.009332502 -40.99  0.001485151    1.660    0.397
        57 -12.6064      7.8809    148.6268   3.4134263020e+01  -4.3578236129e+01   0.02747967   0.02191911 -70.89  0.003141827    1.481    0.325
        58 -10.9971     12.6675    148.6716   3.4059126653e+01  -4.3548986323e+01   0.01047133  0.009137332  26.84  0.001092211    1.193    0.162
        59 -11.9976    103.5765    149.6037   3.2646364897e+01  -4.2983264562e+01   0.01796827   0.01225016  30.14  0.001531539    1.707    0.414
        60 -12.3582     85.7073    152.6636   3.2949321030e+01  -4.3060467450e+01   0.02437224   0.01372079  40.92  0.002332336    1.958    0.489
        61 -12.3853     62.7877    145.8881   3.3249343914e+01  -4.3275287989e+01   0.01246044  0.009562988 -84.72  0.001369388    1.621    0.383
        62 -10.6969     38.2020    145.7787   3.3633367062e+01  -4.3426425268e+01  0.009133414  0.007425318  18.17 0.0005033452    1.351    0.260
        63 -12.0909     42.7324    138.9612   3.3505245454e+01  -4.3473538311e+01   0.01505494  0.009616575  -5.72   0.00147049    1.941    0.485
        64 -12.9673    246.6597    132.8548   3.0317714970e+01  -4.2254135642e+01   0.02362117   0.02108001  85.73  0.002903867    1.249    0.199
        65 -14.7327    232.5495    127.6826   3.0485077298e+01  -4.2401197858e+01   0.06111835   0.04261947  77.15  0.006443236    1.769    0.435
        66 -11.6413     47.4082    132.5681   3.3378209270e+01  -4.3514978191e+01   0.02160333   0.00989481  65.35  0.001848248    2.471    0.595
        67 -10.7862     11.0197    134.0056   3.3963301357e+01  -4.3719980410e+01  0.009741233  0.007308341 -55.70 0.0003949635    1.487    0.328
        68 -12.5812    136.5615    131.8530   3.1985580516e+01  -4.2969838073e+01   0.02984868   0.01422567 -26.49  0.002664153    2.108    0.526
        69 -14.6932    104.8131    121.7551   3.2390258950e+01  -4.3278401234e+01   0.08238512   0.05127117 -22.58  0.008418671    1.640    0.390
        70 -15.0034    105.9354    105.3089   3.2231749294e+01  -4.3449966949e+01   0.06649832   0.05548247 -37.10  0.007965395    1.171    0.146
        71 -12.5158      4.3005    119.3407   3.3947303998e+01  -4.3921475694e+01   0.03017889    0.0154904 -20.16  0.002727847    2.122    0.529
        72 -12.0309     42.8191     90.1371   3.3091180801e+01  -4.4006727687e+01   0.01854992   0.01207495  60.65 0.0008726174    1.591    0.371
        73 -13.0936     21.4501     86.1369   3.3395426528e+01  -4.4181302161e+01   0.03969052   0.02267986 -17.02  0.003056697    1.962    0.490
        74 -14.4714     18.3493    110.8447   3.3653493843e+01  -4.3929693475e+01   0.04915749   0.03725618   1.48  0.004727537    1.502    0.334
        75 -14.3844     10.9412    102.4014   3.3699815184e+01  -4.4067144445e+01   0.04436296   0.04155296  39.55  0.005095513    1.085    0.078
        76 -13.7961      2.4243     97.0080   3.3789699280e+01  -4.4177836281e+01   0.04606463   0.02013973  60.40   0.00361818    2.339    0.572
        77 -14.6748     25.5246     93.7506   3.3395461321e+01  -4.4073161437e+01   0.07001391   0.04519798 -13.57  0.007137449    1.730    0.422
        78 -12.4528     78.9951    110.1764   3.2693677741e+01  -4.3564946876e+01   0.01841988   0.01134585  69.32  0.001683941    1.864    0.463
        79 -13.2283     84.9698    115.1395   3.2642701171e+01  -4.3473854638e+01   0.04366595   0.02278536 -12.54  0.003593461    2.583    0.613
        80 -12.1661     88.3558    109.4787   3.2541477520e+01  -4.3514400399e+01   0.02550895   0.01650728  80.84  0.002397827    2.044    0.511
        81 -11.3508    186.0391    116.0284   3.1089631055e+01  -4.2826358385e+01   0.01057046  0.007598581 -59.64 0.0006155258    1.653    0.395
        82 -12.8290    121.3895    111.9345   3.2048823163e+01  -4.3281130613e+01   0.01680079   0.01218388 -53.40  0.001220198    1.527    0.345
        83 -11.5906     45.9411    110.1475   3.3212048653e+01  -4.3769045092e+01   0.02516669   0.01403176  31.76  0.002260151    2.344    0.573
        84 -10.6908     42.9683    107.0300   3.3232452328e+01  -4.3821324218e+01  0.009376931  0.008798153 -34.23 0.0005067459    1.050    0.047
        85 -11.9123     62.9609    110.5792   3.2948241692e+01  -4.3659700457e+01   0.04604929   0.01933333  72.07  0.003298645    3.769    0.735
        86 -11.1195     64.5333    101.5297   3.2846459574e+01  -4.3748653732e+01   0.01398108   0.01137471 -25.12 0.0009907027    1.196    0.164
        87 -12.2163     62.0409     98.3043   3.2858068992e+01  -4.3799206104e+01   0.02469737   0.01538328 -51.86  0.001895441    1.837    0.456
        88 -11.9384    176.8452    110.2074   3.1179524737e+01  -4.2947940565e+01   0.01606545    0.0121531  45.18  0.001820957    1.354    0.261
        89 -12.9756    222.9956    128.1181   3.0633293364e+01  -4.2458418472e+01   0.03511073   0.02356652 -83.46  0.003411588    2.220    0.550
        90 -12.8111    135.0761    102.6316   3.1756568563e+01  -4.3295537263e+01   0.04006767   0.01411433 -30.94  0.002947105    2.661    0.624
        91 -13.4621    120.3744    102.2723   3.1981221719e+01  -4.3392217714e+01    0.0283723   0.01466558 -28.60  0.002666052    1.880    0.468
        92 -12.8341     50.1627     98.6528   3.3047927112e+01  -4.3868632176e+01   0.03690747   0.02387466  -1.69  0.003500804    1.993    0.498
        93 -11.8037     48.8988     92.8084   3.3018027138e+01  -4.3940182109e+01   0.01870971   0.01375176 -74.70  0.001055502    1.751    0.429
        94 -13.6068    248.3188     94.7834   2.9956924380e+01  -4.2650164452e+01   0.04320109    0.0249322  78.55  0.003814501    2.615    0.618
        95 -10.0659     75.2917    100.6927   3.2670572438e+01  -4.3691157310e+01   0.00658042  0.004930253 -62.42 0.0003946089    1.579    0.367
        96 -12.4000    163.6812     97.5262   3.1270944037e+01  -4.3168773899e+01   0.01703724   0.01239815 -30.65 0.0007944156    1.325    0.245
        97 -13.5790     32.2275    112.3762   3.3447050013e+01  -4.3828511214e+01   0.04368912   0.01720986  51.16  0.003648054    2.485    0.598
        98 -11.7120    129.0219     96.0179   3.1792969841e+01  -4.3405368492e+01   0.01078407  0.007709955 -61.13  0.001136016    1.690    0.408
        99 -13.5969    188.7008     83.9209   3.0767516081e+01  -4.3154426952e+01   0.03395102    0.0258858  -7.40  0.002297047    1.455    0.313
       100 -14.8817    214.2585     77.5312   3.0320446955e+01  -4.3057168325e+01    0.2359795   0.02910955 -38.30   0.01246195    5.964    0.832
       101 -11.7451    209.3361    249.3595   3.1875342465e+01  -4.1239543338e+01   0.01075823   0.00766289  21.86  0.001128522    1.690    0.408
       102 -14.6176    169.4711     76.9315   3.1001275433e+01  -4.3353420146e+01   0.04408792   0.03459057   8.16  0.003355191    1.465    0.317
       103 -13.1283    137.4094     95.2517   3.1656426501e+01  -4.3360552138e+01   0.02245541   0.01722161 -51.92   0.00127738    1.401    0.286
       104 -13.1395     28.3255    122.0588   3.3590136005e+01  -4.3746262539e+01   0.02198057   0.01633225  46.81  0.002476806    1.371    0.271
       105 -10.9246     59.0114    125.0223   3.3132632265e+01  -4.3526387014e+01  0.007861331   0.00734115  54.28 0.0004185671    1.102    0.093
       106 -10.3109     78.6721     87.2702   3.2502374872e+01  -4.3816166441e+01  0.006652414  0.004815777 -56.55 0.0002379206    1.580    0.367
       107 -12.6905     36.6668     92.8312   3.3211335401e+01  -4.4015065921e+01   0.02367867     0.012603 -21.96  0.001818525    1.978    0.494
       108 -14.7528    160.5156     80.8634   3.1173832126e+01  -4.3368555660e+01    0.1061224   0.05858364  31.97  0.005884094    2.414    0.586
       109 -12.4354    132.3530     85.9204   3.1653551635e+01  -4.3493465565e+01   0.01163792  0.008817881 -40.48 0.0008809872    1.302    0.232
       110 -13.9069    239.5227     81.3949   2.9970901338e+01  -4.2850742660e+01    0.0453734    0.0208387 -46.89  0.003846911    2.467    0.595
       111 -12.5181    180.8966    120.1520   3.1204092440e+01  -4.2814889839e+01   0.01254116    0.0104633 -49.59  0.001267211    1.245    0.197
       112 -14.6338    170.1162    241.9498   3.2403438382e+01  -4.1565505990e+01   0.05691716   0.04394513  -7.10  0.006451541    1.408    0.290
       113 -12.8486     25.3665    217.4195   3.4423553026e+01  -4.2716833638e+01   0.03745394   0.02124204 -51.62   0.00352113    2.081    0.520
       114 -14.1814     26.7155    225.9846   3.4471888355e+01  -4.2614487716e+01   0.06341097   0.02188273  42.47  0.004428762    3.704    0.730
       115 -14.3846     20.8673    224.4765   3.4550788263e+01  -4.2665913519e+01   0.05340958   0.03565536  83.93  0.005413375    1.941    0.485
       116 -14.4164     57.6227    201.8854   3.3794981901e+01  -4.2693715190e+01    0.1471281   0.03800176  65.58  0.008329589    5.722    0.825
       117 -14.1373     68.4764    221.1306   3.3784723562e+01  -4.2417026909e+01   0.04251463   0.02998189  41.19  0.004647343    1.488    0.328
       118 -13.3871    147.6015    238.8189   3.2718418416e+01  -4.1739383248e+01   0.03124077   0.01768445 -64.18   0.00263955    2.836    0.647
       119 -14.0911     87.3613     65.2459   3.2175544916e+01  -4.4001037729e+01   0.05403398   0.03249771  15.84   0.00423842    2.552    0.608
       120 -14.7248     95.3135    234.9635   3.3484753184e+01  -4.2102589978e+01   0.06606689   0.04506281 -71.79  0.006661388    1.999    0.500
       121 -13.1133     55.1122     81.0791   3.2819684541e+01  -4.4029730763e+01   0.02669438   0.01813383  33.75  0.002229715    1.659    0.397
       122 -13.9492     61.1198     75.9901   3.2681229072e+01  -4.4047949257e+01   0.04083152   0.02444681  40.85  0.002512957    1.816    0.449
       123 -12.0947    114.0988     80.1049   3.1886648070e+01  -4.3671834063e+01   0.01862158   0.01628283  73.37  0.001311794    1.240    0.193
       124 -13.0151    135.2798     79.1637   3.1549215011e+01  -4.3547883040e+01   0.03598419   0.01666777 -30.31  0.003219767    2.067    0.516
       125 -13.4068    236.9739    230.3582   3.1302424274e+01  -4.1269574688e+01    0.0249478   0.02375026 -14.80  0.003190168    1.020    0.020
       126 -11.7243     42.5101     79.4870   3.3005066062e+01  -4.4124842606e+01   0.01497992   0.01303486  35.39   0.00140071    1.183    0.155
       127 -11.4330     41.5438     75.9678   3.2990210314e+01  -4.4169178616e+01   0.01495037   0.01011274  60.15  0.001070988    1.527    0.345
       128 -13.4569     94.2121    218.4478   3.3365928371e+01  -4.2289923918e+01   0.01982472    0.0162306 -17.95  0.001646152    1.218    0.179
       129 -14.3206      5.9264     63.3745   3.3448671501e+01  -4.4524946284e+01   0.04291216     0.030111 -30.18  0.004151652    1.369    0.270
       130 -11.6346     27.4808     76.2412   3.3215420044e+01  -4.4252586946e+01   0.01674768   0.01189882 -77.31   0.00137118    1.884    0.469
       131 -12.8552    242.0734     71.2026   2.9841309940e+01  -4.2942726598e+01   0.02411658   0.01469103 -59.14   0.00227151    2.193    0.544
       132 -13.2220    133.8580     66.0519   3.1456472588e+01  -4.3698475590e+01   0.03896315   0.02934086  18.41  0.003228144    1.559    0.358
       133 -12.2257    100.4860     64.2208   3.1960899050e+01  -4.3929652206e+01   0.02041033   0.01380833  38.64  0.002162039    1.598    0.374
       134 -13.1387     79.0084     60.0993   3.2262065657e+01  -4.4109204277e+01   0.03228248   0.02427148  71.58   0.00362001    1.486    0.327
       135 -12.3070     83.4281     54.2320   3.2141458218e+01  -4.4145151308e+01   0.04126615   0.01214723  44.32   0.00268101    4.224    0.763
       136 -13.9819    177.9975     56.7247   3.0691291958e+01  -4.3515541769e+01   0.04031724   0.03125637  81.33  0.002941227    1.539    0.350
       137 -12.1157     39.0772     59.9184   3.2891392938e+01  -4.4359372081e+01   0.02000027   0.01104195 -48.45  0.001872986    2.028    0.507
       138 -11.7061     34.3834     60.7780   3.2973295378e+01  -4.4378943992e+01   0.01947399   0.01150985  46.64  0.001949395    1.738    0.424
       139 -12.6460     35.6448     54.6210   3.2900224499e+01  -4.4438288926e+01   0.01919229   0.01435094  18.95  0.001087899    1.561    0.359
       140 -12.1446     24.7768     59.4533   3.3114619743e+01  -4.4452481681e+01    0.0217626   0.01316589  44.25  0.001640929    1.729    0.422
       141 -13.3626    248.2164     52.1916   2.9577588012e+01  -4.3104720925e+01   0.03672748   0.02176618  55.34  0.003720399    1.712    0.416
       142 -13.6979     70.7011     75.5331   3.2526420405e+01  -4.3993397588e+01   0.05348457   0.02815464  -8.41  0.003810724    2.880    0.653
       143 -11.4333     17.5748     54.9693   3.3190841063e+01  -4.4545619681e+01   0.01576289   0.01106099  74.64  0.001679272    1.661    0.398
       144 -12.1641    230.9522     54.8128   2.9863422083e+01  -4.3190618155e+01   0.02121852   0.01119223 -31.68  0.002020346    1.819    0.450
       145 -10.5492     23.5419     49.9761   3.3052769154e+01  -4.4563484703e+01  0.009266398  0.006413443  59.04 0.0004290568    1.484    0.326
       146 -12.3774    154.5487     46.5002   3.0962842455e+01  -4.3776642662e+01   0.02118601   0.01232269 -25.89  0.001764902    1.725    0.420
       147 -13.1967    158.2618     43.1575   3.0875613455e+01  -4.3788660148e+01   0.02648264   0.02378229  16.36  0.002057287    1.161    0.139
       148 -11.8562     38.7832     46.2016   3.2777597563e+01  -4.4510616086e+01  0.009780855  0.008982501 -49.22  0.001212289    1.118    0.106
       149 -13.4500      6.2058     43.2703   3.3271941161e+01  -4.4743011189e+01   0.05144371    0.0280105 -25.09  0.002699413    1.835    0.455
       150 -14.1387     64.0584    214.5227   3.3798936929e+01  -4.2516208282e+01   0.02811849   0.02330541  -8.43   0.00245107    1.249    0.199
       151 -10.5022      5.4953    219.4933   3.4750579068e+01  -4.2812062971e+01  0.006468673  0.006243355 -11.19 -2.75056e-05    1.006    0.006
       152 -12.4567     85.6067    215.6000   3.3474960325e+01  -4.2373569262e+01    0.0130501   0.01155626 -55.17  0.001467069    1.192    0.161
       153 -12.7916     27.8956    235.3401   3.4529059629e+01  -4.2504428703e+01   0.04814051   0.03314399  12.93  0.004954864    1.821    0.451
       154 -11.7787    136.7780    211.0958   3.2652713197e+01  -4.2108098204e+01   0.01007262  0.008963212 -69.93  0.001089451    1.242    0.195
       155 -11.9386     39.6085    210.6576   3.4146771401e+01  -4.2705986576e+01    0.0202604  0.009659273 -36.47  0.001843995    1.981    0.495
       156 -14.8731    212.6485     40.9145   3.0017991828e+01  -4.3459088818e+01    0.1188864   0.02298394 -34.98  0.007426012    4.230    0.764
       157 -12.8550     46.6693    208.8562   3.4022261124e+01  -4.2683329674e+01   0.02578854   0.01532137 -78.44  0.002189889    2.904    0.656
       158 -12.7294     36.4854     34.4048   3.2711826885e+01  -4.4653260569e+01   0.02882536   0.01546371   2.03  0.002153413    3.586    0.721
       159 -12.4502     40.5658     40.3254   3.2698319085e+01  -4.4563544016e+01   0.02863701   0.01365843 -29.79  0.002599486    2.003    0.501
       160 -12.9771     32.7833     40.2961   3.2821907471e+01  -4.4612030439e+01   0.01841436   0.01480286 -14.01 0.0007893533    1.274    0.215
       161 -13.0188     76.0026     37.1030   3.2108772359e+01  -4.4377454226e+01   0.02863965   0.01703208 -29.62  0.001101485    1.619    0.382
       162 -11.8421     70.9605     36.0000   3.2178762781e+01  -4.4421050380e+01   0.01611712  0.009187257 -24.97  0.001191568    1.765    0.433
       163 -11.4129     50.4340     38.9794   3.2529866809e+01  -4.4516905991e+01   0.01108436  0.008425598 -44.56 0.0003017862    1.335    0.251
       164 -12.2728      5.3588    209.4771   3.4671838075e+01  -4.2923342924e+01   0.01524452  0.009972752  17.97   0.00149546    1.987    0.497
       165 -11.6688     98.1724     26.8357   3.1669085090e+01  -4.4348677994e+01   0.01457008   0.01031641 -30.64 0.0009002975    1.360    0.264
       166 -12.5612     30.9346     25.1749   3.2720031984e+01  -4.4788088821e+01    0.0213904   0.01303312 -15.21  0.001463029    1.859    0.462
       167 -11.9694     36.0074     22.8756   3.2619043442e+01  -4.4781645461e+01   0.01585425   0.01151401  44.46  0.001261471    1.417    0.294
       168 -12.0785     80.6242    208.4650   3.3493035137e+01  -4.2481995737e+01   0.01411268   0.01097535 -65.86  0.001369065    1.516    0.340
       169 -12.6851     48.4302     19.8626   3.2394779165e+01  -4.4737070564e+01   0.03905875    0.0108334 -30.49   0.00275463    3.313    0.698
       170 -12.4939    104.8742     35.7962   3.1642875512e+01  -4.4209372668e+01   0.04204864   0.01445466  43.28  0.002984653    3.565    0.719
       171 -13.4833     59.4714    212.5444   3.3853768407e+01  -4.2565639325e+01   0.02719568   0.01613328  16.85   0.00132701    2.541    0.606
       172 -13.4604     16.2000    197.2546   3.4402845125e+01  -4.2993515441e+01   0.04064729    0.0153786  43.71  0.002813842    3.056    0.673
       173 -11.0292    151.4895    206.1627   3.2387150082e+01  -4.2070220864e+01   0.01243876   0.00776873   2.47  0.001144591    2.264    0.558
       174 -13.9110     40.7471    196.3300   3.4011852515e+01  -4.2856538345e+01   0.04101542    0.0268584 -58.97  0.004137545    1.887    0.470
       175 -11.3815    212.9618    199.9994   3.1404559510e+01  -4.1749633683e+01   0.01093828  0.007751829  22.61  0.001143497    1.705    0.413
       176 -10.9423    124.2760     11.4000   3.1122173921e+01  -4.4348657457e+01  0.009481156  0.005700882 -39.49 0.0009458023    1.621    0.383
       177 -13.3583    164.4545    194.3259   3.2090245635e+01  -4.2117521652e+01   0.03255699   0.01960806  83.55  0.002951866    2.493    0.599
       178 -11.3059     25.8550     44.1007   3.2965214608e+01  -4.4613324454e+01   0.01042058   0.00894717 -60.49  0.001241816    1.271    0.213
       179 -14.2976     30.2366    169.0218   3.3951325575e+01  -4.3219706965e+01    0.0553317   0.03816644 -18.28   0.00488036    1.495    0.331
       180 -10.3400    169.6526     42.7065   3.0695336892e+01  -4.3719947698e+01  0.006780846  0.004950912  16.72 0.0006150263    1.669    0.401
       181 -14.1431     22.2389    180.9466   3.4174872062e+01  -4.3136795472e+01   0.04980837   0.02648642  35.84  0.004349156    2.321    0.569
       182 -12.9473     46.2675     33.1412   3.2545194847e+01  -4.4606284058e+01   0.02763231   0.02041595  36.18  0.003076382    1.453    0.312
       183 -15.2290      8.6388    183.0969   3.4405869957e+01  -4.3194500451e+01   0.06489313    0.0592219   2.27  0.008114306    1.110    0.099
