#   1 NUMBER                 Running object number                                     
#   2 MAG_AUTO               Kron-like elliptical aperture magnitude                    [mag]
#   3 X_IMAGE                Object position along x                                    [pixel]
#   4 Y_IMAGE                Object position along y                                    [pixel]
#   5 X_WORLD                Barycenter position along world x axis                     [deg]
#   6 Y_WORLD                Barycenter position along world y axis                     [deg]
#   7 A_WORLD                Profile RMS along major axis (world units)                 [deg]
#   8 B_WORLD                Profile RMS along minor axis (world units)                 [deg]
#   9 THETA_WORLD            Position angle (CCW/world-x)                               [deg]
#  10 FWHM_WORLD             FWHM assuming a gaussian core                              [deg]
#  11 ELONGATION             A_IMAGE/B_IMAGE                                           
#  12 ELLIPTICITY            1 - B_IMAGE/A_IMAGE                                       
         1 -12.0781    177.1979     48.8722   5.9198606963e+01   3.4660175866e+01     1.571074    0.8791667  30.60  0.004946097    2.570    0.611
         2 -12.3265    190.3616     37.1046   5.3396274368e+01   3.2849388747e+01     1.061324    0.9210826 -38.20  0.003850331    1.112    0.101
         3 -12.3933    195.9955     30.0885   5.0469025751e+01   3.2270672075e+01    0.8694469    0.7406165 -11.27  0.001812156    1.274    0.215
         4 -11.7431    217.2767      5.4139   4.1084161518e+01   2.9569325285e+01    0.8619343    0.4565323 -86.39  0.003913667    2.057    0.514
         5 -11.1004    220.0760      2.4937   4.0068015042e+01   2.9164943589e+01    0.7933704    0.2680076  82.30  0.002844335    3.366    0.703
         6 -10.8136    168.6588    220.8779   1.0093601242e+02   6.6447125373e+00    0.3226532    0.2514203  24.78  0.002148785    1.216    0.177
         7 -10.0189    140.6075    249.7654   1.0943169129e+02   6.9635578078e+00    0.3517458    0.1512795  44.60  0.001498722    1.757    0.431
         8  -8.0363    102.4674    250.4848   1.1600754663e+02   1.2256400278e+01    0.1329562   0.09399545  86.31 0.0003955683    1.610    0.379
         9  -8.4076    101.6970    246.3559   1.1578913806e+02   1.2972585707e+01    0.1478823   0.09967301 -80.10  0.001031715    1.777    0.437
        10 -19.4977     14.4472    141.9020   1.2450250424e+02   4.3756372946e+01     18.14075     2.773442 -77.29   0.05205706    6.171    0.838
        11  -8.6586     99.5982    180.8078   1.0916690267e+02   2.4808794482e+01    0.2071443    0.1653786  39.54 0.0006615167    1.290    0.225
        12  -8.1069    204.4974    177.4796   8.7092560857e+01   6.8625042154e+00    0.1318359     0.116251  17.86  0.000810057    1.037    0.035
        13 -10.8998     59.4065    184.4857   1.1820365677e+02   2.9712662935e+01    0.4664813    0.2434884 -59.39  0.002533289    2.047    0.511
        14  -9.9948    113.8191    172.4381   1.0484109991e+02   2.4208824887e+01    0.2716376    0.2009991  77.04  0.001370356    1.494    0.331
        15 -10.1356    103.3973    172.1919   1.0712554884e+02   2.5973566938e+01    0.3904644    0.1692154  58.31  0.001478415    3.057    0.673
        16  -9.2201    156.8486    218.1990   1.0274160064e+02   8.9351137385e+00    0.1660906    0.1286303  21.27  0.000564741    1.370    0.270
        17 -10.2430     58.9463    163.7573   1.1614647102e+02   3.4201604657e+01    0.3237903    0.1913358  69.14  0.001327164    1.693    0.409
        18 -10.7547    182.7624    216.7890   9.7781689439e+01   4.9384162970e+00    0.5493362    0.1908183  33.21  0.002184924    3.134    0.681
        19 -10.7032     95.5972    153.7324   1.0609729910e+02   3.1196655473e+01    0.5784654    0.4432464 -22.46  0.002550815    1.998    0.500
        20  -8.1357    131.1069    214.1122   1.0706629606e+02   1.3701590717e+01    0.1613744    0.1235914  61.30 0.0003583853    1.265    0.210
        21  -8.8218    174.8424    148.8203   8.7083374521e+01   1.7338417154e+01    0.1910411    0.1745966  88.54 0.0005203781    1.310    0.237
        22  -9.8005    134.0000    144.9706   9.5312888185e+01   2.6279657884e+01    0.9926637     0.255295 -55.79  0.002275742    7.033    0.858
        23 -10.1797    107.7778    139.1152   1.0050490034e+02   3.2420075643e+01    0.4463648    0.3424584 -20.20  0.002194891    1.886    0.470
        24 -10.7079     95.3906    139.0819   1.0362992655e+02   3.4537915324e+01    0.2796239     0.277373  24.85 0.0004528598    1.191    0.160
        25  -9.4225    113.8547    207.6185   1.0961660915e+02   1.7510624478e+01     0.254975    0.1306545 -44.22  0.001255198    2.733    0.634
        26  -8.4724     77.4991    134.4764   1.0745379717e+02   3.8392214586e+01    0.1407394      0.12063  86.52 9.418045e-05    1.076    0.071
        27 -10.0713    114.5520    130.2722   9.6992067859e+01   3.3183829567e+01    0.3571588    0.2469212 -39.19 0.0008798858    1.625    0.385
        28  -9.5137    135.8632    128.1743   9.1224910548e+01   2.9481514923e+01    0.5287026    0.1008031 -49.77  0.001213857    6.032    0.834
        29  -9.4899    106.0158    130.7489   9.9282337979e+01   3.4628875385e+01    0.3489987    0.2869861 -87.79  0.001433098    1.282    0.220
        30  -9.4962    102.1810    125.8703   9.9269291985e+01   3.6426989781e+01     0.310161    0.2441446 -30.59 0.0006494403    1.568    0.362
        31  -8.4855    109.9776    118.9404   9.5671675793e+01   3.6607375740e+01    0.2224714    0.2034986 -81.61 0.0003558756    1.076    0.071
        32  -9.0040    168.1396    112.6320   7.9916754401e+01   2.5669851201e+01    0.3398748     0.241845 -68.78   0.00145748    1.944    0.486
        33 -10.0423    119.7474    110.9524   9.1155266353e+01   3.6524090213e+01    0.3722633    0.2421666 -55.45  0.001413705    1.550    0.355
        34  -8.5891    205.8370    110.1363   7.1765935660e+01   1.7559069275e+01    0.2219277    0.2034485 -56.65 0.0005058826    1.216    0.178
        35  -8.2391    134.7670    104.9611   8.5710057879e+01   3.4701641283e+01    0.2161677    0.1268255 -43.63 0.0008883178    1.667    0.400
        36  -9.1040    107.7488    203.6378   1.1035016683e+02   1.9162745022e+01    0.1607555    0.1427951  66.69 0.0005066797    1.087    0.080
        37  -8.2743     87.0234    202.9520   1.1440389941e+02   2.2351314823e+01    0.1663231    0.1504381 -10.54  0.001086885    1.677    0.404
        38  -9.5236     96.7912    200.5093   1.1218243076e+02   2.1392638675e+01    0.3047591    0.2485844  -5.44 0.0009889422    2.032    0.508
        39 -10.0088    193.2116    195.2544   9.2411619461e+01   6.2317107361e+00    0.7280723    0.3938147 -61.46  0.002574529    5.437    0.816
        40  -8.6904    185.4630     85.2318   6.8799855381e+01   2.6644998757e+01    0.2989537    0.2251775  54.14  0.001410116    1.382    0.277
        41  -8.0932    159.8224    197.1366   9.9095690084e+01   1.1726117795e+01    0.1667127    0.1394386  16.38 0.0003837005    1.279    0.218
        42  -9.5981    114.1402    195.0986   1.0799229162e+02   1.9735407632e+01    0.3326698     0.225972 -22.51  0.001619934    2.852    0.649
        43  -9.9862    161.9106     63.0977   6.6710133119e+01   3.6369834784e+01    0.4037387    0.3016143 -76.64 0.0005780078    1.728    0.421
        44  -9.6213     80.0654    194.3088   1.1490282475e+02   2.4991929793e+01    0.3972532    0.1758703  49.58  0.001204838    1.950    0.487
        45  -9.5297    163.1058     56.1270   6.4180110047e+01   3.7210736705e+01     0.235417    0.2073558  15.63 0.0003072264    1.237    0.192
        46  -8.1261     93.6515    249.2056   1.1739548460e+02   1.3635889609e+01    0.1253574   0.09536538 -59.34 0.0009432097    1.747    0.428
        47  -9.1712    125.7289    249.6849   1.1197106447e+02   9.1198551424e+00    0.3118579    0.1221644  50.81  0.001616149    2.230    0.552
        48  -8.5585    169.1455    236.1096   1.0288627453e+02   4.5007129372e+00    0.1640891    0.1312197  24.53 0.0004156179    1.180    0.153
        49 -12.5486     68.3215    188.5417   1.1673593136e+02   2.7736042998e+01    0.8933802    0.6969192 -67.89  0.005905129    1.380    0.275
        50  -8.7807    208.0000    194.0268   8.9499817787e+01   3.8779606041e+00    0.1861848   0.07009862 -36.46 0.0004820858    2.884    0.653
        51  -8.4089    189.8110     14.2340   4.6334282338e+01   3.5698672100e+01    0.2010291    0.1654852  36.40  0.001074133    1.358    0.264
        52  -8.5218     97.1456    192.7173   1.1119909091e+02   2.2825280970e+01    0.2617916    0.1975808  -2.00   0.00140281    2.449    0.592
        53  -8.2366    109.6503    182.6751   1.0725406723e+02   2.2840721847e+01    0.1241407    0.1040692  -4.41 0.0007048879    1.753    0.430
