#   1 NUMBER                 Running object number                                     
#   2 MAG_AUTO               Kron-like elliptical aperture magnitude                    [mag]
#   3 X_IMAGE                Object position along x                                    [pixel]
#   4 Y_IMAGE                Object position along y                                    [pixel]
#   5 X_WORLD                Barycenter position along world x axis                     [deg]
#   6 Y_WORLD                Barycenter position along world y axis                     [deg]
#   7 A_WORLD                Profile RMS along major axis (world units)                 [deg]
#   8 B_WORLD                Profile RMS along minor axis (world units)                 [deg]
#   9 THETA_WORLD            Position angle (CCW/world-x)                               [deg]
#  10 FWHM_WORLD             FWHM assuming a gaussian core                              [deg]
#  11 ELONGATION             A_IMAGE/B_IMAGE                                           
#  12 ELLIPTICITY            1 - B_IMAGE/A_IMAGE                                       
         1 -16.5747    242.3267     95.1098   4.6298345584e+01   1.3291294019e+01     7.629172     1.295061 -39.34   0.02223624    4.949    0.798
         2 -12.6890     24.3622     77.6300   9.7725596267e+01   5.8722098610e+01    0.8326957     0.196968 -55.69  0.003000606    3.212    0.689
         3 -10.0475     40.8010     14.3729   6.7856450630e+01   6.7847614121e+01    0.1644511    0.0924415  28.68 0.0002573749    1.596    0.374
         4 -10.8757    144.8606    232.5079   9.1905588706e+01   5.0871399879e+00     0.246104    0.1847606 -79.45  0.001317615    1.960    0.490
         5 -10.5589     92.3303    230.6648   1.0325243757e+02   1.3573326314e+01    0.1417382     0.089826  63.12 0.0007052119    1.729    0.422
         6 -10.3749     72.4762    227.9854   1.0736266185e+02   1.6975918675e+01    0.1880289    0.1009009  79.85 0.0008101414    2.616    0.618
         7 -10.7726    191.4814    226.9189   8.1263405984e+01  -1.1604334324e+00    0.1820861    0.1225056 -38.28 0.0006639563    1.542    0.352
         8 -10.9570    162.7551    224.7379   8.6851664042e+01   3.6716734368e+00    0.2792526    0.1903502 -36.28  0.001498953    1.577    0.366
         9  -9.9234     99.4696    225.4662   1.0101206827e+02   1.3582417548e+01    0.1355192    0.1184992  51.98 0.0003510963    1.023    0.022
        10 -10.4953    183.0202    222.9834   8.2316982183e+01   7.9309221668e-01    0.1914646    0.1653715  67.82  0.001075331    1.666    0.400
        11 -11.0620    148.7728    222.5680   8.9534363602e+01   6.3262717408e+00    0.2702409    0.1750748 -66.37  0.001297205    2.194    0.544
        12 -10.2836    114.5057    223.4928   9.7341365117e+01   1.1659286015e+01    0.1373457    0.1215139  47.21 0.0008103878    1.034    0.033
        13  -9.9685    174.3167    222.6604   8.4066092777e+01   2.2102633061e+00    0.1268453    0.1057892  67.92 0.0004504753    1.706    0.414
        14 -10.9376    193.4090    221.2050   7.9910185726e+01  -4.9694904771e-01    0.1733035    0.1232846 -50.46 0.0009518131    1.728    0.421
        15 -10.6704    126.0030    220.5061   9.4304929358e+01   1.0430365224e+01    0.2089394    0.1236471  37.53 0.0004932695    1.518    0.341
        16 -10.5298     74.3250    219.6561   1.0603499556e+02   1.8516281614e+01    0.1447304   0.08897847  64.77 0.0007050663    1.738    0.425
        17 -11.1886    211.4930    217.9490   7.5814820937e+01  -2.6461427522e+00    0.1890126    0.1162779 -36.25 0.0009403743    1.576    0.365
        18 -11.7116    204.8464    218.0468   7.7108959709e+01  -1.6875788924e+00    0.1837774    0.1759816  -7.94 0.0008288077    1.279    0.218
        19 -10.7092    143.8168    216.4806   8.9666169544e+01   8.3191496527e+00    0.2476645     0.197855 -46.87  0.001383894    1.361    0.265
        20 -10.3998    111.8011    216.3416   9.6954776892e+01   1.3579056877e+01    0.1900341    0.1718908  71.63 0.0008254052    1.140    0.123
        21 -10.8963    199.1293    214.8595   7.7669527975e+01  -2.9557995264e-01    0.1869779    0.1801643  12.09 0.0008655456    1.262    0.208
        22 -11.6988    185.9293    214.1830   8.0210248554e+01   1.8753693945e+00    0.3033118    0.1990283 -45.67 0.0009854394    1.654    0.395
        23 -10.2439    154.4960    214.5010   8.6968825545e+01   6.9366914229e+00    0.1380685    0.1258996  24.74 -0.0001082486    1.026    0.026
        24 -10.4000    132.0000    212.9985   9.1791019329e+01   1.0981352167e+01    0.2192889   0.08073375 -53.06 0.0008046847    2.958    0.662
        25 -12.0702    217.8563    210.7157   7.3333875628e+01  -2.3998597156e+00    0.3208362    0.1809093 -50.34   0.00156932    2.291    0.563
        26 -11.0816    193.2050    210.1583   7.8018297026e+01   1.4341933307e+00    0.1699432    0.1656638  77.48 0.0009195562    1.369    0.270
        27 -10.8396    177.1345    209.7385   8.1259629631e+01   4.0961587288e+00    0.2342184    0.1877043 -51.27  0.001315478    1.447    0.309
        28 -11.3957    116.3784    209.1556   9.4827167087e+01   1.4373423079e+01      0.35189    0.2228094 -67.30  0.001667876    1.884    0.469
        29 -10.9782    206.0018    207.9743   7.5094134035e+01  -1.7714981784e-01      0.18883    0.1699255 -85.94  0.001135314    1.714    0.417
        30 -12.8826    186.2506    204.1989   7.8363458096e+01   3.6199840189e+00      0.55844    0.3222907 -53.72  0.002579764    2.183    0.542
        31 -11.5271    198.6453    204.0205   7.5818979506e+01   1.6527336922e+00    0.2952543    0.2271445 -55.20  0.001201315    1.660    0.398
        32 -13.1716    164.6052    201.0741   8.2413720908e+01   7.8530323680e+00    0.9791346    0.5809876 -26.91  0.004333626    2.123    0.529
        33 -11.8205    162.2363    193.3434   8.1524611869e+01   9.8106877893e+00    0.4374755     0.324186 -53.14  0.001630216    1.487    0.327
        34 -10.7371    211.8591    201.7826   7.2838165276e+01  -2.0832944482e-02    0.1636303    0.1620882  56.49 0.0007326864    1.366    0.268
        35 -11.1533    148.8790    197.3589   8.5281522359e+01   1.1337891851e+01    0.3978493    0.2114742 -62.38  0.001563531    2.682    0.627
        36 -10.8229     88.4141    198.6169   1.0001525196e+02   2.1199012584e+01    0.2722092     0.132217 -79.27 0.0009562158    3.337    0.700
        37 -10.7604    177.5928    197.8130   7.9006468490e+01   6.2624315860e+00    0.1933319     0.133123 -55.23 0.0009503121    1.741    0.426
        38 -11.6971    124.2332    197.0896   9.1031869832e+01   1.5686031039e+01    0.3319679    0.2676907 -82.47  0.001464032    1.486    0.327
        39 -11.0202    112.8373    197.7123   9.3890457438e+01   1.7479432762e+01    0.2826087    0.1901447  84.54  0.001243071    2.168    0.539
        40 -10.5047    202.9509    197.1535   7.3697079992e+01   2.1799519898e+00    0.1930564    0.1880496 -67.13  0.001012754    1.339    0.253
        41 -10.4559    193.4818    195.9539   7.5358651026e+01   3.9393440664e+00    0.2063363      0.12949 -41.64 0.0008427197    1.580    0.367
        42 -10.6441    209.4813    194.9778   7.2023158715e+01   1.5231367845e+00    0.2027437    0.1223357 -39.11 0.0008826703    1.577    0.366
        43 -10.5691    215.4329    193.7239   7.0660355284e+01   8.0725457297e-01    0.2472716    0.1196133 -44.72  0.001122783    2.089    0.521
        44 -11.1062    186.2091    192.9188   7.6276850962e+01   5.7255872484e+00    0.2898387    0.1890866 -53.18  0.001406537    1.800    0.445
        45 -11.8761    172.4362    190.4477   7.8733435088e+01   8.5917927786e+00    0.3621324    0.2415074 -53.11  0.001307986    1.688    0.408
        46 -11.1149    205.9970    190.8711   7.1914937683e+01   2.8073823118e+00    0.3060431    0.1775143 -40.26  0.001197939    1.647    0.393
        47 -11.2123    203.9850    184.2137   7.1020727730e+01   4.3422326324e+00     0.452708    0.1936312 -48.70  0.001797428    2.611    0.617
        48 -10.7112    199.6185    190.7587   7.3143220830e+01   3.8734949684e+00    0.2659064    0.1216381 -38.58  0.001132199    2.121    0.528
        49 -10.2824    179.4854    190.4817   7.7225365392e+01   7.3504256246e+00    0.2329311    0.1354292 -54.94 0.0009720469    2.112    0.526
        50 -11.3218    138.9400    188.0367   8.5921123420e+01   1.5089540648e+01    0.4499799    0.2159848 -51.05   0.00180668    2.171    0.539
        51 -10.5025    210.5116    188.9773   7.0686045890e+01   2.4147099775e+00    0.2036117    0.1233292 -40.63 0.0008612616    1.573    0.364
        52 -10.4867    192.5475    187.3599   7.3908576010e+01   5.6927040916e+00    0.2580337    0.1316415 -47.28  0.001121282    2.045    0.511
        53 -10.8118    128.9312    187.4030   8.8217052336e+01   1.7017408886e+01     0.344974    0.2011939 -62.92  0.001456572    2.062    0.515
        54 -10.5577    217.5044    187.0438   6.9003747496e+01   1.6390620599e+00    0.2040683    0.1197908 -38.28 0.0009960673    1.571    0.363
        55 -11.3818    165.3335    185.9320   7.9432337822e+01   1.0768135437e+01    0.3904378    0.2671598 -57.17  0.001718584    1.709    0.415
        56 -10.6437    155.5890    185.8161   8.1612360909e+01   1.2556064958e+01    0.3569163    0.1438913 -51.16  0.001292223    2.685    0.628
        57 -11.7464    120.1607    183.7224   8.9719958097e+01   1.9403705300e+01    0.6589746    0.2211042 -58.89   0.00202252    3.736    0.732
        58 -11.3735     95.3952    185.2987   9.6253809740e+01   2.3230274506e+01    0.5350243    0.2525712 -67.53   0.00203071    2.564    0.610
        59 -10.5183    183.0279    183.7365   7.5171581261e+01   8.0425197609e+00    0.2639248    0.1806738 -54.77  0.001278847    1.704    0.413
        60 -12.3502    174.2038    182.3600   7.6786907417e+01   9.8921264890e+00    0.4880855    0.3082808 -46.76  0.001719625    1.614    0.380
        61 -12.2489    243.8892    180.9426   6.3234096605e+01  -1.3293029277e+00    0.2929035    0.1829712 -44.78  0.001231632    1.594    0.373
        62 -10.6335     83.3180    181.6647   9.8799867524e+01   2.6007579239e+01    0.1540512    0.1055136  69.55 0.0005681937    1.698    0.411
        63 -12.0918    147.4311    178.7555   8.2152250542e+01   1.5566245980e+01    0.4360031     0.273272 -55.57  0.001943627    1.748    0.428
        64 -11.5341    137.9669    178.0507   8.4282959893e+01   1.7473476418e+01    0.3826758    0.2309079 -50.45  0.001413454    1.700    0.412
        65  -9.9267    205.6774    178.3129   6.9532786681e+01   5.1395823535e+00    0.1293923     0.111771 -82.92 0.0007039799    1.657    0.396
        66 -11.0021    192.1518    176.9913   7.1946595820e+01   7.7347517475e+00    0.3448064    0.1954364 -42.58  0.001498813    1.706    0.414
        67 -11.5145    183.1594    175.0424   7.3413832005e+01   9.7306880742e+00    0.4527183    0.2571632 -43.45   0.00200921    1.722    0.419
        68 -10.1144    218.4902    176.0090   6.6675413562e+01   3.4211588476e+00    0.2092559    0.1213064 -41.11  0.001028233    1.595    0.373
        69 -11.5414     77.7899    175.3357   9.9274022748e+01   2.8393301402e+01    0.3952077    0.2376908  81.53  0.001609539    2.386    0.581
        70 -11.6300    177.4093    170.4242   7.3695465030e+01   1.1718332393e+01    0.4288567    0.2860873 -45.48  0.001359138    1.488    0.328
        71 -10.6971    134.4760    170.5718   8.3679482524e+01   1.9810855528e+01    0.3216565     0.150271 -51.86  0.001216685    2.202    0.546
        72 -11.1049    205.9359    168.9393   6.7601417394e+01   6.8334278871e+00    0.3296099    0.1917711 -49.20  0.001187859    1.808    0.447
        73 -11.7828    121.7082    168.1571   8.6423513062e+01   2.2743221192e+01    0.5749308    0.3417211 -65.13  0.002354439    2.042    0.510
        74 -10.0995    199.3614    169.2113   6.8930347590e+01   7.9432318619e+00     0.197729    0.1255482 -48.80  0.000722512    1.630    0.387
        75 -10.9614    167.9844    167.9163   7.5240337120e+01   1.4014248566e+01    0.4081101    0.2095503 -50.44  0.001650408    2.050    0.512
        76 -10.9744    149.3967    168.6623   7.9673679450e+01   1.7408988279e+01    0.3045278     0.242275 -61.45  0.001255542    1.394    0.283
        77 -10.8664    185.1154    166.2150   7.1194440537e+01   1.1128251741e+01     0.321375     0.199285 -47.21  0.001115232    1.614    0.381
        78 -11.6400    192.2057    163.6689   6.9210562335e+01   1.0314548250e+01    0.5990421    0.2305098 -45.66  0.002211461    2.545    0.607
        79 -12.1050    138.8018    163.5708   8.1192661305e+01   2.0582151542e+01    0.5999326    0.3117742 -60.96  0.002218428    2.479    0.597
        80 -12.8622    213.1243    163.4052   6.5126412355e+01   6.6053100610e+00    0.5645276    0.2934204 -33.94  0.002528712    1.878    0.468
        81 -10.7011    159.5292    162.8035   7.6085776470e+01   1.6730293571e+01    0.3688243     0.147551 -49.08   0.00129291    2.566    0.610
        82 -10.8515     79.7919    163.7837   9.6843349693e+01   3.0955729835e+01    0.3522933    0.1833843  89.99  0.001060032    4.261    0.765
        83 -11.9134    205.6634    161.5464   6.6135991219e+01   8.2691616975e+00    0.4091783    0.2425974 -43.44  0.001183432    1.588    0.370
        84 -11.3193    177.5609    159.3018   7.1333275008e+01   1.3964097521e+01    0.4557189    0.2569719 -49.61  0.001951167    1.825    0.452
        85 -12.1772    154.8325    240.6561   9.0980515029e+01   2.0797774260e+00    0.3053619    0.1763099 -53.04  0.001562584    2.103    0.525
        86 -11.2106    106.4655    144.3342   8.5615760388e+01   3.1259703999e+01    0.4557579    0.2794908 -83.25    0.0016138    2.920    0.657
        87 -11.5591     55.4740    144.7915   1.0059621347e+02   3.9191328150e+01    0.4341976     0.260818  81.11  0.001802938    2.367    0.578
        88 -11.0700     93.0208    160.2077   9.2546727446e+01   2.9723824564e+01    0.2633765    0.1644325  62.31  0.001087339    2.040    0.510
        89 -10.4378    208.5835    143.7750   6.1843281871e+01   1.1085647421e+01     0.204357    0.1239183 -49.74 0.0009475476    1.651    0.394
        90 -11.2970    195.5280    143.1363   6.4152907339e+01   1.3710033373e+01    0.2880941    0.2296969   1.59  0.001470679    1.531    0.347
        91 -10.6573    165.5947    142.5032   7.0253814098e+01   1.9870634569e+01    0.4307357    0.1442648 -44.67  0.001383784    2.914    0.657
        92 -11.3880    124.5915    141.8796   8.0140070352e+01   2.8379486057e+01    0.6178465    0.3157234 -67.32  0.001949627    3.417    0.707
        93 -11.7274    196.4956    156.5490   6.6858041964e+01   1.0906858787e+01    0.4295309    0.2632083 -48.02  0.001421769    1.627    0.385
        94 -12.4192    189.9242    148.0715   6.6338454380e+01   1.3831739680e+01    0.8853279    0.3330723 -40.10  0.003159973    2.591    0.614
        95 -10.8154    181.9892    140.5469   6.6284947461e+01   1.6922935496e+01    0.3151779     0.218321 -43.26  0.001168164    1.380    0.275
        96 -11.2368    167.9609    155.9217   7.2703329492e+01   1.6546127295e+01    0.5112388    0.2262911 -46.17  0.001921466    2.227    0.551
        97 -10.1761    209.0000    137.9816   6.0519007901e+01   1.2095554275e+01    0.2362105   0.07448675 -41.45 0.0007952099    2.893    0.654
        98 -11.4640    197.9478    135.5269   6.2009690893e+01   1.4712791678e+01    0.6081358    0.2062535 -41.23  0.002104446    2.762    0.638
        99 -10.6606    172.0795    136.9658   6.7562042923e+01   1.9692954325e+01    0.3473558    0.1927836 -56.00  0.001372409    2.117    0.528
       100 -11.1409     22.7832    137.4530   1.0931405880e+02   4.4570389642e+01    0.3381195    0.1687336  87.16  0.001389462    2.630    0.620
       101 -10.2898    138.4008    137.2175   7.5498133034e+01   2.6660617027e+01    0.2253382    0.1474959 -58.29 0.0009503626    1.688    0.408
       102 -11.4113    219.5853    135.7828   5.8211296916e+01   1.0514416653e+01    0.2712229    0.1225858 -36.81  0.001123949    2.089    0.521
       103 -10.3790    128.0108    158.2081   8.2794685847e+01   2.3890680042e+01    0.2295362    0.1746779 -77.02  0.001045767    1.631    0.387
       104 -10.4245    187.6941    134.5347   6.3771434662e+01   1.6969783776e+01    0.2692156    0.1280285 -42.82  0.001065521    1.989    0.497
       105 -10.3614    162.4764    134.9756   6.9220704102e+01   2.2119354563e+01     0.245152    0.1479191 -44.73  0.001041709    1.620    0.383
       106 -10.6660    105.0096    157.0488   8.8649385310e+01   2.8431058102e+01    0.3580218     0.204203 -71.44  0.001353088    2.394    0.582
       107 -10.8972    179.3151    132.5332   6.5011921577e+01   1.9097833486e+01    0.3837945    0.2013877 -42.98  0.001580229    1.825    0.452
       108 -10.7429    151.4921    159.5666   7.7278052043e+01   1.9009108695e+01    0.3184507    0.1492214 -47.92  0.001202179    2.137    0.532
       109 -11.1176    142.7388    130.1008   7.2729583382e+01   2.7347614545e+01    0.5224877    0.2021971 -50.41  0.001718586    2.731    0.634
       110 -11.3981    131.6273    129.8525   7.5485967586e+01   2.9728798603e+01    0.6145553    0.2573648 -53.56   0.00205806    2.675    0.626
       111 -12.1205    221.1807    128.7121   5.6437567586e+01   1.1497165036e+01    0.3704891    0.1785384 -29.06  0.001463445    2.587    0.613
       112 -10.8458    192.9588    128.9810   6.1485385324e+01   1.6986717326e+01    0.3485815    0.2047241 -34.95  0.001297384    1.726    0.421
       113 -10.7815    168.4169    128.2772   6.6328012176e+01   2.2267262848e+01    0.4428395    0.1789181 -45.52  0.001565064    2.416    0.586
       114 -10.4980    212.0527    128.6721   5.7957186394e+01   1.3242326203e+01    0.2584462    0.1745485 -48.44  0.001300668    1.394    0.283
       115 -11.4762     98.5734    127.1835   8.4024869223e+01   3.6849938774e+01    0.6164138     0.342998 -72.22  0.002125004    2.984    0.665
       116 -10.5639     72.9874    128.9737   9.2208665070e+01   4.0714150075e+01    0.2696955    0.1642101 -85.39  0.001027474    2.617    0.618
       117 -11.1952     12.3405    128.2120   1.1126661969e+02   4.7701542805e+01     0.343192    0.1145301 -81.79  0.001097281    4.190    0.761
       118 -10.9480    188.1470    156.6959   6.8561812324e+01   1.2456781371e+01    0.2928423    0.2032564 -37.56  0.001160447    1.383    0.277
       119 -11.3724     59.2530    123.9369   9.5517800791e+01   4.3935701607e+01    0.4967257    0.2804217  89.48  0.001742545    3.412    0.707
       120 -10.1628    186.4815    128.9347   6.2733465441e+01   1.8329442757e+01    0.2301261    0.1394564 -42.53 0.0007680929    1.564    0.360
       121 -11.0309    179.7641    123.3334   6.2774793409e+01   2.0853869051e+01    0.4014197    0.2615734 -37.65  0.001837247    1.520    0.342
       122 -11.0876    117.3195    124.6537   7.8058263080e+01   3.3841043499e+01    0.3482768    0.2401752 -77.98  0.001418089    2.115    0.527
       123 -10.8638    204.7180    129.6249   5.9453971462e+01   1.4498936544e+01    0.2886339    0.2172555 -53.52  0.001001821    1.327    0.246
       124 -10.6124    188.5247    122.8267   6.0923322601e+01   1.9102818153e+01    0.3501156    0.1361333 -43.91  0.001262902    2.426    0.588
       125 -12.0674     43.0026    121.1942   1.0028784592e+02   4.6623292601e+01    0.7686094     0.343609 -80.37  0.002447664    4.106    0.756
       126 -11.5707     28.2106    122.0061   1.0529324595e+02   4.7930905682e+01    0.5621067    0.2645941  76.44  0.001699089    5.308    0.812
       127 -11.1306    152.5220    127.3922   6.9715158602e+01   2.5856533909e+01    0.5606561    0.2024561 -47.64   0.00182334    2.799    0.643
       128 -10.4462    194.8105    121.3687   5.9397749580e+01   1.8073695139e+01    0.3359709    0.1456271 -52.44  0.001202722    2.684    0.627
       129 -11.6654    204.3902    154.2407   6.4848605733e+01   9.8844692674e+00    0.3672574    0.1930525 -38.03  0.001189382    1.792    0.442
       130 -10.7064    158.3764    119.7939   6.6509043943e+01   2.6199331067e+01    0.3726387    0.1905949 -45.45   0.00146417    1.922    0.480
       131 -11.6272    141.1887    117.5127   7.0012062169e+01   3.0430719300e+01    0.7300877    0.2604962 -53.19  0.002125692    3.641    0.725
       132 -11.6975     83.0870    130.6905   8.9465837265e+01   3.8689996451e+01    0.5173042    0.2563583 -64.68  0.001921958    2.390    0.582
       133 -11.1096      2.7193    116.3518   1.1275394270e+02   5.1227735843e+01    0.4464088     0.165449 -87.91  0.001525251    4.134    0.758
       134 -10.1877    202.9872    121.2674   5.7893442145e+01   1.6415879601e+01    0.2002736    0.1862028 -49.07  0.001155923    1.014    0.014
       135 -10.6548     49.4843    154.9862   1.0397699360e+02   3.7355636445e+01    0.2059076    0.1137722  84.42  0.000810269    2.544    0.607
       136 -10.6580    185.6479    114.9294   5.9625758380e+01   2.1244363995e+01    0.3407137    0.1337193 -40.96  0.001227029    2.437    0.590
       137 -10.5473    172.3929    119.8275   6.3460163853e+01   2.3140065997e+01    0.3546419    0.1813579 -44.34  0.001423475    1.889    0.471
       138  -9.7398    203.2981    115.3198   5.6492814387e+01   1.7458751056e+01    0.1389675    0.1123223  -2.69 0.0004194907    1.618    0.382
       139 -10.7557    192.9082    114.3328   5.8120726874e+01   1.9810538120e+01    0.2953386    0.2045476 -37.14  0.001174338    1.410    0.291
       140 -11.3994    108.5036    112.9988   7.7622850465e+01   3.8268727810e+01     0.577561    0.2728765 -58.15  0.002006449    2.663    0.625
       141 -11.5892     78.6704    111.7237   8.6454044110e+01   4.3999948828e+01    0.6401872    0.3458987 -74.92  0.002085541    3.687    0.729
       142 -11.5150     92.0826    110.9966   8.2026024771e+01   4.1850437904e+01    0.6750861    0.2782182 -59.71  0.002138757    3.319    0.699
       143 -10.7172    174.5341    110.2544   6.0693356938e+01   2.4572300404e+01    0.3685113    0.1448396 -39.63  0.001293515    2.537    0.606
       144 -10.9032    159.0000    110.4923   6.4051493461e+01   2.7973621321e+01    0.3394328   0.08557416 -42.42 0.0009311986    3.906    0.744
       145 -11.1628     66.4104    110.1571   9.0109464836e+01   4.6282651485e+01    0.3443037    0.1442541 -64.53  0.001143869    3.195    0.687
       146 -11.3186     14.1297    109.8238   1.0801499240e+02   5.2062088131e+01    0.4037549    0.2162151 -84.04  0.001882004    2.152    0.535
       147 -10.4143    182.5931    108.3089   5.8629731181e+01   2.3176189223e+01    0.2925671    0.1335893 -45.02  0.001133422    2.098    0.523
       148 -10.5158    189.3297    106.9599   5.7041399814e+01   2.1963881435e+01    0.3403074    0.1286101 -41.09  0.001223872    2.502    0.600
       149 -12.5681     21.7912    100.0812   1.0360493210e+02   5.3806747230e+01    0.8939503    0.4453188 -85.94  0.003483589    3.282    0.695
       150  -9.9038    205.2829    104.3652   5.3659306883e+01   1.9041293908e+01    0.1387092    0.1111514  -5.24 0.0004536968    1.687    0.407
       151 -10.9516    139.4834    102.9274   6.6651798716e+01   3.3875031931e+01    0.4929643    0.1515092 -42.18  0.001492697    3.291    0.696
       152 -12.2453     44.6647    101.1656   9.5556154106e+01   5.1289078411e+01    0.6716118    0.3822771  82.83  0.002267622    4.372    0.771
       153 -10.1689    175.5085    100.9686   5.8207452130e+01   2.6139248462e+01     0.233516    0.1421656 -41.59  0.001035371    1.597    0.374
       154 -10.6017     81.7201     99.7100   8.2370869524e+01   4.6259134486e+01    0.2988621    0.1875351 -73.16  0.001179735    2.528    0.604
       155 -11.7071    108.0730     97.7545   7.3658587864e+01   4.1708122888e+01     0.499494    0.2802704 -59.95  0.001919003    2.355    0.575
       156 -11.2161     94.5887     95.5612   7.7109700880e+01   4.4838953038e+01    0.4324141    0.1435517 -47.35  0.001406699    2.996    0.666
       157 -11.9195     63.2965     94.9419   8.7371461149e+01   5.0277836806e+01    0.5043145    0.2801795 -71.62  0.001898292    2.994    0.666
       158 -11.2888    149.8394    101.3036   6.3758153940e+01   3.1877488363e+01    0.5404241    0.1902648 -49.84  0.001668462    3.298    0.697
       159 -10.6897    144.4997    154.0441   7.7773364349e+01   2.1622806150e+01    0.2406543    0.1509445 -48.76  0.001034347    1.597    0.374
       160 -10.8163     81.1844    154.0134   9.4717236680e+01   3.3183782958e+01    0.2565192    0.1706972  84.37  0.001086993    2.052    0.513
       161 -10.0982    176.6259     92.2075   5.5803031145e+01   2.7509553044e+01    0.2094283    0.1381198 -31.12 0.0009534379    1.685    0.406
       162 -10.8595    138.4811     91.0255   6.3668476651e+01   3.6474533966e+01    0.3584546    0.1396772 -47.19  0.001218532    2.724    0.633
       163 -11.8621    124.2141     89.1956   6.6757030426e+01   4.0028532188e+01    0.5674666    0.2396807 -46.64  0.002045615    2.475    0.596
       164 -11.4865     34.7148     87.4848   9.6039029486e+01   5.5541237209e+01    0.7451048    0.2135982 -59.33  0.002594858    3.286    0.696
       165 -11.6473      4.6131     90.2183   1.0813697189e+02   5.7297492139e+01    0.3527616     0.143688 -72.23  0.001551979    2.400    0.583
       166 -11.8033     48.1550     83.7638   8.9930869453e+01   5.4833009702e+01    0.4432878    0.2663983 -78.16  0.001788642    3.062    0.673
       167 -11.3256     86.4744     86.5024   7.7096727129e+01   4.8276222382e+01    0.3230845    0.2325727  84.27  0.001384253    2.407    0.585
       168 -11.4580    104.0185     81.1530   7.0037100543e+01   4.5925835747e+01    0.5482304    0.2051191 -46.09  0.001907462    2.804    0.643
       169 -12.4886    160.2072    239.3350   8.9658467654e+01   1.4867126201e+00    0.3042673     0.270429 -48.11   0.00169026    1.344    0.256
       170 -11.1503    132.9998    151.8842   8.0172208667e+01   2.4391571571e+01    0.4990121    0.2620226 -61.30  0.001824031    2.434    0.589
       171 -10.6381     67.5011    153.0270   9.8470891057e+01   3.5478670181e+01    0.2136135    0.1238652  88.70 0.0008101103    2.600    0.615
       172 -10.6312    157.5428    155.2603   7.4930138885e+01   1.8755920205e+01    0.2935576    0.1478016 -50.77  0.001134134    2.064    0.515
       173 -10.9417    127.7146     73.7978   6.1377993533e+01   4.2123724994e+01     0.449902    0.1691914 -43.08  0.001588482    2.752    0.637
       174 -11.7244     62.6458     69.9015   8.0342858563e+01   5.5683208873e+01    0.5685521    0.1003115 -43.80  0.001501557    5.479    0.817
       175 -10.7125    140.5026     82.0162   6.0674940059e+01   3.7709342792e+01    0.2339411    0.1472302 -40.77 0.0008685888    1.621    0.383
       176 -11.6562     50.9657     67.6509   8.4126422292e+01   5.7833576879e+01    0.6551126    0.1950243 -54.90  0.002003469    4.646    0.785
       177 -11.2154     16.5443     69.0579   9.8844268255e+01   6.1214957521e+01    0.3979409   0.09133874 -57.07  0.001451842    3.327    0.699
       178 -12.3712    200.2622    147.9952   6.4299605690e+01   1.1853896243e+01    0.6984408    0.2377657 -41.92  0.002457352    2.736    0.635
       179 -10.3233    147.0000     66.9952   5.4979266521e+01   3.8794506360e+01    0.2389117   0.08283458 -36.84 0.0008113942    3.005    0.667
       180 -10.3674    203.4947     65.9662   4.5043563654e+01   2.5846132300e+01    0.2081661    0.1251703 -40.03  0.001035783    1.598    0.374
       181 -10.3657    138.3377     65.6647   5.6472666515e+01   4.1050814152e+01    0.1519009    0.1119807 -78.79 0.0006487591    1.749    0.428
       182 -11.4502     81.7608     70.7437   7.3818791686e+01   5.2276341103e+01    0.5834204    0.1923192 -48.58  0.001925407    3.509    0.715
       183 -11.0529     36.9941     63.4871   8.8542450524e+01   6.0416264873e+01    0.2660106    0.1690411 -69.94  0.001270514    2.440    0.590
       184 -10.9075    192.7341    137.0877   6.3355677119e+01   1.5447573540e+01    0.4080881    0.1848456 -50.65   0.00154135    2.381    0.580
       185 -10.9458     72.9531     58.3595   7.2742304451e+01   5.6115648808e+01    0.4664308    0.1781683 -47.63  0.001737362    3.069    0.674
       186 -10.7421    182.1434    149.9592   6.8343046222e+01   1.4979630989e+01     0.363244    0.2034555 -43.62  0.001246204    1.713    0.416
       187 -11.0058    128.2389    101.0679   6.9001920390e+01   3.6740679385e+01    0.4806845    0.1845395 -44.41  0.001635473    2.616    0.618
       188 -12.0126      7.5533     54.2299   9.8947270635e+01   6.4911759655e+01     0.603683   0.08323673 -53.97  0.002125827    3.927    0.745
       189 -10.9636     45.0489     49.7530   8.0541804684e+01   6.1991670954e+01    0.2163905     0.140984 -13.08 0.0007745791    1.694    0.410
       190 -10.8510     53.5067     52.0125   7.7861855688e+01   6.0392693122e+01    0.4527927    0.1263542 -51.22  0.001226572    6.495    0.846
       191 -11.0315     30.6176     49.9747   8.6946820535e+01   6.3719917533e+01    0.3593924    0.1605286 -59.20  0.001469623    3.336    0.700
       192 -10.9677     92.0000     48.5210   6.3026496868e+01   5.4066827454e+01     0.293324     0.078146 -36.19 0.0009404797    3.981    0.749
       193 -10.3364    162.3918    149.6718   7.2587075713e+01   1.8991943997e+01    0.3025013    0.1433704 -50.06  0.001132617    2.184    0.542
       194 -10.3602    142.4934    148.4909   7.7045345930e+01   2.3276593890e+01    0.2822887    0.1483542 -58.98    0.0010323    2.351    0.575
       195 -11.2808      4.8458     40.2261   9.6112998813e+01   6.7787830567e+01    0.3983537    0.1489649 -61.85  0.001711325    3.337    0.700
       196 -10.3283    215.4389    147.7360   6.1457281114e+01   9.0832126063e+00    0.2694575    0.1221804 -45.26 0.0009908467    2.062    0.515
       197 -11.2290    119.2076    154.4460   8.4302243681e+01   2.6451829365e+01    0.4883845    0.2510479 -67.99  0.001630191    3.064    0.674
       198 -10.9128     39.0139    147.0378   1.0583730213e+02   4.0569795878e+01    0.2574406    0.1378518  83.50  0.001025926    2.630    0.620
       199 -10.5420    175.5600    145.3279   6.8709292545e+01   1.7244905755e+01    0.2914956    0.1413174 -47.92  0.001131744    2.060    0.515
       200 -11.1726     27.4944     30.0023   8.0942889933e+01   6.7477743201e+01    0.3033685   0.07916807 -35.35  0.001041804    4.482    0.777
       201 -11.9414    148.5287    142.6039   7.4244790274e+01   2.3366493166e+01    0.8281431    0.3231475 -52.37  0.002707011    2.869    0.651
