#   1 NUMBER                 Running object number                                     
#   2 MAG_AUTO               Kron-like elliptical aperture magnitude                    [mag]
#   3 X_IMAGE                Object position along x                                    [pixel]
#   4 Y_IMAGE                Object position along y                                    [pixel]
#   5 X_WORLD                Barycenter position along world x axis                     [deg]
#   6 Y_WORLD                Barycenter position along world y axis                     [deg]
#   7 A_WORLD                Profile RMS along major axis (world units)                 [deg]
#   8 B_WORLD                Profile RMS along minor axis (world units)                 [deg]
#   9 THETA_WORLD            Position angle (CCW/world-x)                               [deg]
#  10 FWHM_WORLD             FWHM assuming a gaussian core                              [deg]
#  11 ELONGATION             A_IMAGE/B_IMAGE                                           
#  12 ELLIPTICITY            1 - B_IMAGE/A_IMAGE                                       
         1  -9.7673    187.7414     32.2361   3.1940879277e+01   3.3697168241e+01    0.2391182    0.1264906  -7.49 0.0008926339    2.479    0.597
         2 -11.4386     14.3103     16.0174   7.8594404831e+01   7.3103119564e+01    0.4273054    0.2744849 -77.28  0.001583669    2.535    0.606
         3 -10.4877    122.3088      2.1542   3.0373535030e+01   5.4268337428e+01    0.2821996    0.2430996  32.95 0.0009330923    1.125    0.111
         4 -11.7541    125.1116     17.2052   3.6473781723e+01   5.2045305479e+01    0.3740604    0.2709693  24.68 0.0002924587    1.501    0.334
         5 -11.3054    126.0428     11.0789   3.3641132713e+01   5.2462667389e+01    0.3806638    0.2581781 -61.21            0    1.802    0.445
         6 -10.5362    123.7683      6.7470   3.2159780075e+01   5.3477818479e+01    0.2995773    0.1972867 -28.56 0.0009399431    1.506    0.336
         7 -10.5724     68.4650     17.6531   5.2475047867e+01   6.5048235986e+01    0.4014286    0.2961167 -76.25  0.001931287    2.408    0.585
         8 -10.5867     60.6952     16.4690   5.4871531565e+01   6.6684349551e+01    0.3999803    0.3074172  10.67  0.002260922    1.356    0.263
         9 -12.0440    235.6837     14.8202   2.2021067030e+01   2.3722650151e+01    0.3924221    0.2932222 -74.49   0.00121372    1.382    0.276
        10  -9.8090    108.7374     11.6961   3.7482582958e+01   5.6802060192e+01    0.1916939    0.1642038 -56.24 0.0001765973    1.331    0.249
        11 -10.0256    103.7794     10.6031   3.8109766599e+01   5.8138642845e+01    0.2998926    0.2065095 -60.79  0.001170824    1.912    0.477
        12 -11.4578     83.2819     15.3956   4.6166150270e+01   6.2311180273e+01    0.4699393    0.2766687   1.89  0.001032526    2.259    0.557
        13 -10.7730     86.4145     10.4515   4.2610298754e+01   6.2230580208e+01    0.2479375    0.2111681  -6.33 0.0006287738    1.091    0.083
        14 -10.9506    208.0176     13.1522   2.3793635420e+01   3.0578318861e+01    0.2440721    0.1903209 -29.60  0.000421751    1.202    0.168
        15 -11.5352     35.0513     12.2382   6.4475917707e+01   7.1468466927e+01    0.2573594    0.2506708  24.27 0.0004892019    1.354    0.261
        16 -11.5933     29.6455      7.8346   6.4802138436e+01   7.2930724031e+01    0.4025234     0.294997 -16.98  0.001343742    1.247    0.198
        17 -12.6371    116.9240      8.6658   3.4325474264e+01   5.5056415205e+01    0.3952704    0.3086008 -47.05 0.0004262302    1.398    0.285
        18 -11.4521    191.4420     10.1344   2.4413234768e+01   3.5128055546e+01    0.3210784    0.2216039 -62.15 0.0003885408    1.487    0.327
        19 -10.8182    182.8173     10.0208   2.5252806805e+01   3.7407102809e+01     0.259901    0.2069158  79.94 0.0009070114    1.265    0.209
        20 -10.2676     97.4773      8.9976   3.8855196391e+01   5.9830246968e+01     0.415756    0.1977168 -16.42  0.001699148    2.197    0.545
        21 -10.7232     56.1775      8.3457   5.2020920145e+01   6.8679145865e+01    0.3225164    0.1883231 -24.32 0.0009746057    1.568    0.362
        22 -10.6950     53.5272      3.0007   4.9788583939e+01   6.9863553213e+01    0.2266793    0.1993652 -39.12 0.0004391109    1.354    0.261
        23 -11.1385     45.3165      9.7901   5.7783384999e+01   7.0332581626e+01    0.2273306      0.18927 -11.43 0.0002802259    1.037    0.036
        24 -10.0405     22.4601      9.2966   6.9945585948e+01   7.3555674773e+01    0.2635723    0.1676026  -0.14  0.001466097    1.949    0.487
        25 -10.5911     15.1845      8.6722   7.4171198448e+01   7.4433050335e+01    0.2931553    0.1840086  -0.20   0.00152199    1.946    0.486
        26 -10.4248    165.3073      7.5943   2.6382103562e+01   4.2314085583e+01    0.2422907    0.1692635  17.17 0.0005530706    1.679    0.404
        27 -10.1313      3.2929      6.3283   8.1016894117e+01   7.5876452120e+01    0.2326053    0.1691676   3.81 0.0009265179    1.563    0.360
        28 -10.4304     38.8479      5.4380   5.8256954919e+01   7.2000937524e+01    0.2617178    0.2179379 -28.05  0.001473993    1.166    0.142
        29 -10.5480    199.4667      4.1519   2.1817735051e+01   3.3607045716e+01    0.3806191    0.1323153 -20.07  0.001378111    2.820    0.645
        30 -10.9090    104.7574      3.8931   3.4597584134e+01   5.8573215004e+01    0.2955009     0.234409   2.58 0.0005547786    1.250    0.200
        31 -12.1141     19.1774      2.5478   6.7788829939e+01   7.5093491500e+01    0.4111767     0.228061  23.05  0.001090789    2.101    0.524
        32  -9.9225     59.6813      3.2796   4.7471176674e+01   6.8673332345e+01    0.2148478    0.1629341  61.67 0.0006587725    1.682    0.406
        33 -10.5655    162.9506      2.5239   2.4830920383e+01   4.3397000081e+01    0.2240655    0.1384506  74.70  0.001034149    1.598    0.374
        34 -10.5339    237.5969      1.8227   1.8459154403e+01   2.4528488092e+01    0.2284877   0.09146984  73.49 0.0006793837    2.599    0.615
        35 -11.2403    115.4400      1.3850   3.1249859711e+01   5.6106103233e+01    0.6406416    0.1486016  70.16  0.001745902    4.928    0.797
        36  -9.6934     81.0017      1.4813   3.9250011817e+01   6.4413045819e+01    0.1892647    0.1336493  60.09 0.0005236301    1.512    0.338
        37  -9.9281     29.9787      1.2740   6.0291599578e+01   7.3921113185e+01    0.2104001    0.1073511  44.56  0.001068111    2.436    0.589
        38  -9.5516      1.0000    190.8667   1.0877197127e+02   3.5024204016e+01     0.158219    0.0477233 -83.07 0.0007888495    2.849    0.649
        39  -9.6010    109.9996    250.7948   9.3034099623e+01   1.2726793707e+01    0.1421202   0.06217303  40.68 0.0004712332    1.686    0.407
        40 -11.2415     28.7408    250.4696   1.0625441443e+02   2.2298740341e+01    0.2729355   0.06375117  37.76   0.00142907    3.059    0.673
        41 -12.0302     18.2804    248.8438   1.0783142761e+02   2.3577888291e+01    0.2286733    0.2044432 -76.38  0.002177984    1.697    0.411
        42 -11.7961      3.3915    247.9395   1.1009886496e+02   2.5105443985e+01    0.6556328    0.1807047  47.92  0.004196401    2.073    0.518
        43 -13.2687     11.4473    244.0144   1.0874488773e+02   2.4964693621e+01    0.5796181    0.3261793 -88.48  0.004629593    1.680    0.405
        44  -9.9238     53.0903    141.8870   9.3570305548e+01   4.0060237796e+01    0.1914289    0.1426631  74.18  0.001147555    1.220    0.180
        45  -9.6062    236.0520    138.4762   5.3378444363e+01   7.9615745459e+00    0.1856924    0.1224407  41.28  0.001018519    1.552    0.356
        46 -10.2767     96.0571    133.7209   8.1280843513e+01   3.5734525481e+01    0.2496304    0.1813731 -50.86 0.0007799701    1.419    0.295
        47  -9.5526    212.8330    133.6273   5.6084576571e+01   1.2996792226e+01    0.1818182    0.1300116  56.66 0.0007817182    1.695    0.410
        48  -9.7475     61.8731    130.6570   8.9723099519e+01   4.1528527025e+01    0.1800134    0.1534865  65.40 0.0004700618    1.127    0.112
        49  -9.6121     44.9621    129.7205   9.4145837135e+01   4.3811224567e+01    0.1701436    0.1437606  75.59 0.0002019195    1.082    0.076
        50 -11.8917     28.4721    128.0360   9.8399196646e+01   4.5916934186e+01     0.216975    0.1859379  75.57  0.001473141    1.115    0.103
        51 -10.5216     40.1493    127.1991   9.5129422562e+01   4.4930729806e+01    0.3193235    0.1911502  56.29  0.001226275    1.655    0.396
        52 -11.2208     10.6868    121.4169   1.0258944952e+02   4.8970716747e+01    0.3370777    0.1958965  48.95  0.001348236    1.694    0.410
        53  -9.9748     12.5253    128.9727   1.0273829330e+02   4.7086554302e+01    0.1887171   0.09556368 -79.04  0.001033376    1.596    0.374
        54  -9.4650     64.0206    118.9729   8.7228089906e+01   4.3977231113e+01    0.1633681    0.1395205 -79.68 0.0003147331    1.036    0.034
        55 -10.0265     69.1512    116.8633   8.5390277943e+01   4.3762968265e+01    0.2069237    0.1688447  83.28 0.0002671127    1.197    0.165
        56 -10.1424      1.5512    113.9718   1.0450740310e+02   5.1335723527e+01      0.18309   0.09186502 -80.34 0.0004639845    1.548    0.354
        57 -10.2693     24.9997    111.7276   9.7498003533e+01   5.0081618535e+01    0.1392157    0.1095117  37.08 0.0004907125    1.471    0.320
        58 -11.9479     13.8276    107.5483   1.0033932293e+02   5.1992396027e+01    0.4545492    0.1724344 -53.53  0.002066951    2.613    0.617
        59 -10.5147      4.3221    109.3604   1.0332802210e+02   5.2232232507e+01    0.3051129    0.1480285 -35.38  0.001437561    3.334    0.700
        60 -11.2110      1.5250    105.2534   1.0379010621e+02   5.3373057670e+01    0.4448314    0.1214997 -79.99  0.001240419    2.976    0.664
        61  -9.2483     44.6892    105.2546   9.0584700485e+01   4.9660873179e+01    0.1298959   0.09042998  70.96 0.0002323695    1.521    0.343
        62  -9.9409     39.3150    105.3205   9.2256809474e+01   5.0231581295e+01    0.1310166   0.08994473 -44.33 0.0006816433    1.656    0.396
        63 -10.1774     22.0941    102.9405   9.7260453250e+01   5.2436713340e+01    0.2010511    0.1285732 -47.53  0.001019766    1.718    0.418
        64 -10.7248    246.9984    101.6839   4.3309080777e+01   1.0745984770e+01    0.1836495     0.163661   1.22 0.0005229376    1.097    0.088
        65  -9.0564    187.2609    102.3371   5.2994093220e+01   2.3325059776e+01    0.1501929    0.1126337   3.96 0.0002796814    1.582    0.368
        66  -9.5284    197.1437     97.8683   5.0014224195e+01   2.1822951153e+01    0.1992851    0.1838734 -38.31 0.0002843099    1.115    0.103
        67 -12.1872     20.4517     92.6289   9.6359537256e+01   5.5057128648e+01     0.409136    0.3317024 -27.54  0.002618074    1.585    0.369
        68 -12.2982     10.7835     93.4638   9.9665774169e+01   5.5574571002e+01    0.4889791    0.2186022 -54.21 0.0003982416    2.062    0.515
        69 -10.8451      7.0754     90.8858   1.0057620557e+02   5.6436195012e+01    0.2580084    0.1781795 -68.03  0.000695453    1.197    0.165
        70  -9.6112     99.8080     94.7656   7.1507248397e+01   4.3841027410e+01    0.2393906    0.1695616 -89.83  0.001052284    1.997    0.499
        71 -11.2061    125.1637     93.1284   6.4135860411e+01   3.9073054057e+01    0.2481367    0.2342472 -76.29            0    1.093    0.085
        72  -9.6538    160.9814     92.7292   5.5595878348e+01   3.1062007445e+01    0.2007663    0.1959161  16.48 0.0002678259    1.038    0.037
        73 -11.5816     57.9583     91.4568   8.3631157653e+01   5.1364806989e+01     0.315879    0.2416049 -31.75 0.0009426654    1.587    0.370
        74  -9.7012     29.8394     91.6500   9.3062029183e+01   5.4482222943e+01    0.1665148     0.148092 -88.04 0.0005569113    1.105    0.095
        75 -11.3571     11.8106     87.6960   9.8577842246e+01   5.6889455396e+01    0.4130383    0.1786009 -85.28  0.001887678    2.227    0.551
        76 -12.4090      7.0397     84.8718   9.9844990467e+01   5.7878459096e+01    0.5930796    0.2167544 -66.19 0.0007723736    2.019    0.505
        77  -9.8476      2.7131     84.3512   1.0127581520e+02   5.8258831022e+01     0.260587    0.1245287 -89.79  0.001047992    1.908    0.476
        78  -8.9977    104.3130     87.2915   6.8126992709e+01   4.4627630830e+01    0.1468925    0.1193042  -7.59 0.0002376492    1.590    0.371
        79  -9.4109     35.4638     84.0051   8.9714537814e+01   5.5791742086e+01    0.1953101   0.07941553 -47.92 0.0007698021    2.445    0.591
        80 -10.1968    250.2585     80.7505   3.7770519342e+01   1.2802562658e+01    0.1853355    0.1432228   0.30 0.0008235276    1.329    0.247
        81  -9.2572    179.7020     81.2994   4.8538165213e+01   2.8602339788e+01    0.1528637    0.1173179 -63.73 0.0002166435    1.576    0.365
        82  -9.6534     89.4297     80.5646   7.0600026915e+01   4.8944903053e+01    0.2577124    0.1773057 -61.81 7.593417e-05    1.520    0.342
        83  -9.5628     86.4768     78.5186   7.0916658944e+01   4.9936115572e+01    0.2445822    0.1470105  42.96 0.0007768446    1.802    0.445
        84  -9.2120     64.8580     81.3823   7.8856000773e+01   5.2798899246e+01    0.1788869    0.1377872  16.52  0.000932384    1.673    0.402
        85  -9.6239     80.4612     79.9350   7.3265513852e+01   5.0667439106e+01    0.2146142    0.1330603 -52.19 0.0002771685    1.473    0.321
        86  -9.3154    124.5016     79.1021   6.0100301030e+01   4.2089584248e+01    0.2266933    0.1470483 -42.78 0.0004414739    1.478    0.323
        87 -11.3956     55.1343     75.0411   8.0566884624e+01   5.5647583985e+01    0.4303487    0.3358357  43.19  0.001234908    1.449    0.310
        88 -10.7178     48.0267     78.9968   8.4132654073e+01   5.5609293972e+01    0.2016641    0.1708218 -57.67  0.001200101    1.061    0.057
        89 -10.2776     51.2896     77.3957   8.2565242260e+01   5.5588484415e+01    0.3092385    0.1898977 -50.07   0.00060963    1.460    0.315
        90  -9.3017    135.2200     78.6457   5.7251044588e+01   3.9737584324e+01    0.2126373    0.1426946  41.24 0.0004327972    1.592    0.372
        91 -11.2088     16.0179     77.7728   9.5588642934e+01   5.8983398098e+01    0.2582192    0.1771075  87.65 0.0009434226    1.404    0.288
        92 -10.5653     22.2254     76.1535   9.2996602334e+01   5.8895825213e+01    0.3489171    0.1863246  59.63  0.001251983    2.398    0.583
        93  -9.9080     19.4532     72.0343   9.3264822526e+01   6.0107041014e+01    0.1865889    0.1384925 -71.76 0.0004025693    1.096    0.088
        94  -9.6701    177.0103     76.4987   4.7616812751e+01   3.0048352225e+01    0.2325119    0.1529526  55.00  0.001031393    1.587    0.370
        95  -9.4075    165.4002     75.2905   4.9495818389e+01   3.3098163367e+01    0.2021688    0.1406104 -41.91 0.0003193821    1.402    0.287
        96 -10.1123     69.8659     74.2928   7.5154508198e+01   5.3687801915e+01    0.3843481    0.2262029  43.70  0.001794069    1.889    0.471
        97  -9.6893     43.0099     74.1650   8.4785246168e+01   5.7350696153e+01    0.2657637    0.1667667  87.31  0.001244945    2.152    0.535
        98 -10.0265     34.0393     73.2960   8.7949930564e+01   5.8515318410e+01    0.2951166    0.1459862  36.06   0.00123983    2.290    0.563
        99 -11.3566     10.8734     72.5207   9.6643266360e+01   6.0599306268e+01    0.2163081     0.134641 -58.46  0.001229679    1.337    0.252
       100  -9.3790    174.8259     72.2077   4.6723522045e+01   3.1288587672e+01    0.2001332    0.1735575   4.16 0.0003528422    1.240    0.194
       101  -9.8087    118.0451     71.0262   5.9193812791e+01   4.5141809871e+01    0.2166249    0.2079299  -1.46 0.0003084693    1.082    0.076
       102  -9.6394     93.1080     71.6378   6.6666924837e+01   5.0212006107e+01    0.2951258    0.1372601  52.65  0.001094214    2.628    0.620
       103  -9.3156    158.3447     70.2826   4.9361620245e+01   3.5696364664e+01    0.1600933    0.1194045  20.92 0.0004880645    1.640    0.390
       104 -13.4548     80.7852     67.1096   6.9171568063e+01   5.3472378310e+01    0.3964998    0.3299574 -37.30 0.0007057796    1.154    0.134
       105  -9.3758     70.0143     69.9693   7.3794451390e+01   5.4648678262e+01    0.1670986    0.1482822 -52.10            0    1.008    0.008
       106  -9.5677     38.9824     70.1799   8.5318302928e+01   5.8745917290e+01    0.2085368    0.1377725  63.14 0.0009291646    1.946    0.486
       107  -9.6253     45.0138     69.3366   8.2789961288e+01   5.8263084600e+01    0.1844169    0.1574233 -62.78 0.0004864211    1.030    0.029
       108 -10.8841      3.1570     58.6185   9.7358493925e+01   6.4359569856e+01    0.4689415    0.2298463 -82.25  0.002394281    1.872    0.466
       109 -12.0972      5.2084     66.2024   9.7811748751e+01   6.2451043525e+01    0.4809555    0.1736884 -71.63  0.002197127    2.114    0.527
       110 -11.5322      8.2257     63.0299   9.6039255738e+01   6.3030289853e+01    0.2892033    0.2123442 -86.89 0.0007923394    1.265    0.209
       111 -10.3132     59.3675     67.2838   7.6802508938e+01   5.6867352141e+01    0.2319392    0.1912516 -36.11 0.0006060554    1.225    0.183
       112 -10.7971     51.7305     65.9297   7.9266821186e+01   5.8223497365e+01    0.3029281    0.1964407 -45.44 0.0008003119    1.407    0.289
       113 -11.7713     15.1560     63.3947   9.3259922898e+01   6.2490450302e+01    0.4919815    0.3118341 -84.85  0.002763642    1.547    0.354
       114 -13.6655     20.7187     58.2397   8.9775195930e+01   6.3291831018e+01    0.3957352    0.2666092 -65.78 0.0008662519    1.210    0.174
       115 -10.5819     39.9202     65.1936   8.3654009933e+01   5.9821389604e+01     0.238147    0.1688846 -69.50 0.0002613543    1.318    0.241
       116  -9.5488     38.7232     61.6803   8.3163710404e+01   6.0775555843e+01    0.1786893    0.1397879  19.00 0.0002699435    1.561    0.360
       117  -9.4347    104.3351     64.3353   6.0772072752e+01   4.9457945321e+01    0.1567144    0.1193914  -0.18 0.0007052057    1.742    0.426
       118 -10.4335     63.2174     62.5777   7.3889136257e+01   5.7365893937e+01    0.4688825    0.2387466 -58.79  0.001996406    1.998    0.499
       119  -9.2056    138.7054     62.7197   5.1163132276e+01   4.1858017598e+01    0.1537126    0.1207119  15.19 0.0001708061    1.534    0.348
       120  -9.8916    145.6283     59.1248   4.8361975875e+01   4.0765191262e+01    0.2623867    0.2127946  69.27 0.0006102327    1.361    0.265
       121  -9.6179     90.9621     58.9835   6.2973791857e+01   5.3276868314e+01    0.1948896    0.1722036 -72.62  0.001035239    1.283    0.221
       122 -12.9953     86.4457     54.1041   6.2631815198e+01   5.5143724871e+01    0.3934422    0.3490118 -23.90 0.0004931437    1.105    0.095
       123 -10.7494     57.9472     59.0066   7.4702146858e+01   5.8942767163e+01    0.2057601    0.1812069 -47.80  0.001208064    1.010    0.010
       124 -10.1615     49.0715     59.1456   7.8233886064e+01   6.0124426428e+01    0.2140446    0.1855869 -66.56  0.001277371    1.141    0.123
       125  -9.1869    177.9812     58.7132   4.1943020192e+01   3.2616556745e+01    0.1799291    0.1384187  59.04 0.0003343438    1.360    0.265
       126 -10.1956     71.8734     56.3958   6.8565702531e+01   5.7323813072e+01    0.2305272    0.1727289 -51.17 0.0005032695    1.244    0.196
       127 -10.4411     32.9275     55.9359   8.3935198197e+01   6.2721925654e+01    0.2935671    0.1462128 -53.44  0.001256103    1.618    0.382
       128  -9.0821    127.7040     54.7257   5.0958551384e+01   4.5935904884e+01    0.1522063    0.1190185  15.94 0.0006939754    1.526    0.345
       129 -12.6398    114.5789     53.0643   5.3736960551e+01   4.9334122384e+01    0.3060574    0.2956364  20.08 0.0003851219    1.065    0.061
       130  -9.6631      1.4092     54.4522   9.7357309125e+01   6.5428511734e+01    0.1226181   0.09338876 -70.26 -2.584852e-05    1.025    0.024
       131 -12.0477    106.1830     50.5182   5.5107326418e+01   5.1700079907e+01    0.3619603     0.255703 -37.73  0.000277652    1.337    0.252
       132 -12.0186     66.9109     52.3728   6.8918684404e+01   5.9000845438e+01    0.4632072    0.2757552  27.50  0.001477182    2.131    0.531
       133 -10.0439    148.9608     52.2274   4.5244756437e+01   4.1050658325e+01    0.2402642    0.2047433 -64.95 0.0008898405    1.295    0.228
       134 -11.0130     75.4639     48.1345   6.4110680777e+01   5.8394522152e+01      0.36205    0.2635231  74.76   0.00169793    2.138    0.532
       135 -10.0313      4.2747     51.2413   9.5449122851e+01   6.6032649233e+01    0.2802806   0.09487043 -60.05 0.0008427523    2.049    0.512
       136 -11.9315     38.5569     48.5305   7.9156964062e+01   6.3794885625e+01    0.3243124    0.2558942 -60.31 0.0001322625    1.171    0.146
       137 -11.1187    137.1413     46.8387   4.5825933725e+01   4.4907563689e+01    0.4961235    0.3625936 -67.57  0.002002428    1.731    0.422
       138 -10.4534     51.5078     48.4852   7.3582733558e+01   6.2161468873e+01    0.3958884    0.2798772  51.89  0.002098626    1.793    0.442
       139  -9.9020     54.5486     46.4907   7.1566074851e+01   6.2154147079e+01    0.2471859    0.1859849 -34.10 0.0006693415    1.249    0.199
       140  -9.0878    189.3143     49.2765   3.7145299470e+01   3.1085693077e+01    0.1510342     0.112974  26.41 0.0001934353    1.564    0.361
       141 -10.5447    119.3614     48.3589   5.0667249476e+01   4.9034487616e+01    0.3015362    0.1786905 -35.99 0.0008378461    1.604    0.377
       142  -9.5005    102.2769     48.3679   5.5401417272e+01   5.2954676697e+01    0.1546548    0.1153894  -0.93 0.0005859553    1.680    0.405
       143 -11.2696     10.6655     47.4115   9.1621469355e+01   6.6545455144e+01    0.4567575    0.2612423  25.75  0.002595667    2.138    0.532
       144  -9.4482    155.1989     47.2299   4.2238098552e+01   4.0213537805e+01    0.2188802    0.1772151 -58.03  0.001056576    1.336    0.251
       145  -9.1674    147.2691     47.6781   4.3971799292e+01   4.2194285547e+01    0.1578188      0.11513 -58.03 0.0006968441    1.566    0.361
       146 -10.2886     79.3796     45.3742   6.1592136260e+01   5.8209636888e+01    0.2352617    0.2139474  21.12 0.0002843382    1.171    0.146
       147 -10.0038     68.9146     46.4078   6.5839715980e+01   5.9893325602e+01     0.184091    0.1695607   7.44 0.0004846571    1.161    0.139
       148 -10.0989     25.6222     44.4310   8.3697826117e+01   6.6054092477e+01    0.2433417    0.2067427 -79.60  0.001555392    1.290    0.225
       149 -11.0185     16.3698     42.6389   8.7585478694e+01   6.7238146297e+01    0.4330489    0.2201223 -61.45  0.001164662    1.562    0.360
       150  -9.7286     94.4418     43.3802   5.5753856218e+01   5.5546036063e+01    0.2914182    0.1166743  37.29 0.0009445066    3.407    0.706
       151 -10.2869    184.0495     40.7775   3.5213132174e+01   3.3583094770e+01    0.3919097    0.2526179 -60.16   0.00171255    1.804    0.446
       152 -10.5415     37.0351     40.8502   7.7084612037e+01   6.5652321157e+01    0.3971625    0.2816424 -87.23  0.002034176    2.169    0.539
       153 -11.0005      5.2468     41.6932   9.2805294151e+01   6.8187142847e+01    0.1727616    0.1493938  17.60 0.0006787589    1.464    0.317
       154 -10.0653    140.2977     40.3081   4.2692292559e+01   4.5096071656e+01      0.39388    0.2211855 -62.62  0.001407621    2.759    0.638
       155 -10.0220    170.9036     40.1909   3.7030999922e+01   3.7100750962e+01    0.2179131    0.1935313 -63.49  0.001131337    1.171    0.146
       156 -11.0408    133.6258     39.6937   4.3887416917e+01   4.6894646939e+01    0.2995968    0.2432943 -60.11 0.0001852955    1.381    0.276
       157 -10.1113     44.6035     40.0997   7.3333182688e+01   6.4874906388e+01    0.1942834    0.1812048  37.84 0.0004902419    1.279    0.218
       158 -11.9384    121.3465     36.8219   4.5579022052e+01   5.0403430197e+01    0.5226099    0.3926753 -38.38  0.002375519    1.307    0.235
       159 -10.3634     21.6014     37.6544   8.3391089769e+01   6.7924431885e+01     0.204295    0.1559362  28.28  0.001277073    1.589    0.371
       160  -9.5192     47.7246     36.2710   7.0339557145e+01   6.5238399613e+01    0.1845292    0.1388085 -26.58 0.0001889626    1.299    0.230
       161 -10.1048     49.9540     33.3156   6.8039258353e+01   6.5505293942e+01    0.2359024    0.1661025 -39.95 0.0003532433    1.222    0.182
       162 -11.0665     91.3672     32.4381   5.1946879724e+01   5.8064292144e+01    0.3944062     0.268829 -17.51  0.001080346    1.556    0.357
       163  -9.5190     38.7439     34.6943   7.3818806139e+01   6.6744498382e+01    0.3869343    0.1123872  36.13  0.001437906    3.893    0.743
       164 -10.1628     28.2824     33.3598   7.8413719389e+01   6.8212955396e+01    0.2388041    0.1420678 -37.90 0.0007752378    1.526    0.345
       165 -11.1412      2.2401     33.7825   9.2264462257e+01   7.0141345534e+01    0.2266299    0.1646813 -89.14  0.001435519    1.522    0.343
       166 -11.2268    144.4158     31.4197   3.8484593927e+01   4.5260398827e+01    0.3519429    0.2351741 -40.38 0.0008569505    1.486    0.327
       167 -12.0351      6.6729    240.4866   1.0939085522e+02   2.5954054074e+01    0.3262224    0.1688356 -67.90  0.002395124    2.397    0.583
       168 -12.4424     10.2557     29.5303   8.6556127075e+01   7.0596266938e+01    0.5198587    0.2521659  43.51  0.002577858    2.912    0.657
       169  -9.3796    227.4074     31.1720   2.7179460528e+01   2.3914293784e+01    0.1906679    0.1120343 -36.71 0.0009117551    1.471    0.320
       170  -9.9778    128.8988     31.1104   4.1511845063e+01   4.9327547410e+01    0.2816893    0.2256505  76.44  0.001393239    1.403    0.287
       171  -9.8597     44.4814     30.9488   6.9460806726e+01   6.6746930733e+01    0.2546431    0.1444557 -39.44  0.001003904    1.528    0.346
       172 -10.4093     46.1353     26.3023   6.6480452822e+01   6.7400942070e+01    0.2382924     0.164933 -39.90 0.0003678265    1.245    0.197
       173 -10.5789     38.8643     30.6301   7.1993159695e+01   6.7554483185e+01    0.2361316    0.1766855 -39.52 0.0003344283    1.117    0.105
       174 -11.0030    135.7990     29.1018   3.9257844391e+01   4.7818328113e+01    0.2611401    0.2346774  22.83 0.0003284529    1.137    0.120
       175 -10.7377     69.2800     26.0022   5.6504599504e+01   6.3585976911e+01    0.4075139    0.2559779 -25.87  0.001998291    1.539    0.350
       176 -10.0972    112.7201     27.4535   4.3727724347e+01   5.3875226747e+01    0.2128036    0.1325614  45.06 0.0009491785    1.621    0.383
       177 -10.2003     93.2896     27.0175   4.8848033767e+01   5.8482244701e+01    0.3934172    0.1861352  62.29  0.001492387    2.744    0.636
       178 -10.4599    217.0153     25.8097   2.6663244926e+01   2.7012736576e+01    0.2183605    0.1700441 -53.62 0.0004381429    1.229    0.187
       179 -11.1862     81.0866     27.8713   5.3166875791e+01   6.0962374174e+01     0.386118    0.3046601 -48.77  0.001374779    1.401    0.286
       180  -9.4880     18.5306     26.0078   8.0599526829e+01   7.0696290198e+01    0.1932211   0.06946314 -40.81 0.0008084736    2.557    0.609
       181 -10.7510     60.1306     23.9908   5.9123987556e+01   6.5576464935e+01    0.3386682     0.290595 -34.83  0.002023893    1.136    0.120
       182  -9.4037    177.8837     32.1959   3.3272490145e+01   3.6289562083e+01    0.1916259    0.1192909  71.02 0.0005169916    1.700    0.412
       183  -9.4676     51.5717     24.5007   6.3083285245e+01   6.6906072916e+01    0.1356703    0.1144741 -25.53 0.0001213221    1.013    0.013
       184 -10.3913     35.1536     22.7654   7.0132246424e+01   6.9558901689e+01    0.3443397    0.1993342 -14.25  0.001581587    2.541    0.606
       185 -10.4337    102.2107     22.2205   4.4062109392e+01   5.7111014617e+01    0.3434751    0.2778081 -48.20  0.001798165    1.364    0.267
       186  -9.8931    109.2213     21.9212   4.2121218965e+01   5.5468121504e+01    0.2794095    0.1591562  35.85 0.0009850123    1.951    0.488
       187  -9.3640     92.3275     22.7149   4.7083609788e+01   5.9320146236e+01    0.1399697     0.111872 -63.71 0.0002128588    1.608    0.378
       188 -10.4121     74.5198     21.5342   5.2302445910e+01   6.3276605675e+01    0.2299001    0.1873545  65.11 0.0006063605    1.560    0.359
       189 -11.3397     76.6521     18.0081   4.9719223479e+01   6.3360021852e+01    0.4065156    0.2993871  45.73  0.001368442    1.418    0.295
       190 -11.3303     15.2634     20.8168   8.0245749224e+01   7.2053626123e+01    0.4131854    0.2407677  33.25  0.002361759    2.111    0.526
       191  -9.5707    224.8241    247.2084   7.4103979813e+01  -2.4077180966e+00    0.1456543   0.09049498  17.70 0.0007950966    1.317    0.241
       192 -11.1947      2.1373     20.4867   8.8060345861e+01   7.3057719984e+01     0.274327     0.186499 -62.76 0.0009735761    1.245    0.197
       193 -10.5197      6.6249     19.6909   8.4982873204e+01   7.2946538833e+01     0.309641    0.1450719 -31.77  0.001561274    2.255    0.556
       194  -9.6971    132.0207     20.7889   3.6624027803e+01   4.9837425913e+01    0.2522376     0.146214  38.28 0.0006718292    1.880    0.468
       195 -10.3708     85.0952     21.0812   4.8503921984e+01   6.1142756496e+01    0.2239884    0.1805506  10.84  0.000537093    1.267    0.211
       196  -9.1764     26.6847     21.2622   7.3917343326e+01   7.0849126153e+01     0.109194   0.09756482 -84.85 0.0002582204    1.542    0.351
       197  -9.8642     88.9581     18.7362   4.6131269467e+01   6.0619848804e+01    0.1886047    0.1757484  19.31 0.0002776984    1.068    0.063
       198 -10.1262    213.1546     18.1522   2.4803910311e+01   2.8785146355e+01    0.2016665    0.1443294 -52.86            0    1.333    0.250
       199  -9.4994    154.4549     18.0543   3.1692234001e+01   4.4188568701e+01    0.2195053    0.1448402 -20.73 0.0006260006    1.522    0.343
       200  -9.7498    171.0646    246.6444   8.2507533760e+01   4.9208020739e+00    0.1583261    0.1039942  33.36  0.001141912    1.150    0.130
       201  -9.3134    116.3697    246.4694   9.1594625627e+01   1.2461746802e+01    0.1035515   0.07800823  48.83 -7.246224e-05    1.043    0.041
       202  -9.6310     51.9588    244.5467   1.0224608768e+02   2.0716921600e+01    0.1224805   0.08332164  17.66 0.0008087871    2.598    0.615
       203 -11.1201     30.1921    241.1737   1.0564965792e+02   2.3567760987e+01    0.2122876   0.09549069  35.49 0.0009558892    2.075    0.518
       204  -9.4607     61.1532    240.6532   1.0049257575e+02   2.0259197162e+01    0.1370145   0.08036838  34.21 0.0005178436    1.735    0.424
       205 -10.3513     35.6237    240.0091   1.0471067930e+02   2.3186150357e+01    0.1696582   0.09395022  53.37 0.0004754995    1.256    0.204
       206  -9.6496    118.5175    239.4834   9.0586273931e+01   1.3120144716e+01    0.1096255   0.08090329  48.86 0.0003930525    1.056    0.053
       207 -10.9630    203.3805     16.4200   2.5206201512e+01   3.1422193732e+01    0.3235424    0.2028641 -65.73  0.001515624    1.730    0.422
       208  -9.7076     30.5770     16.7167   6.9435292007e+01   7.1258696413e+01    0.1747089    0.1074926 -50.33 0.0007425315    1.580    0.367
       209 -11.2976     24.6154    235.7882   1.0634152397e+02   2.4980411882e+01    0.2245113   0.09876569  53.05  0.000945164    1.558    0.358
       210 -10.0020    105.8105     13.8114   3.9170947085e+01   5.7286876337e+01    0.2059851    0.1964008  -0.36   0.00118628    1.040    0.038
       211  -9.4053    204.2818    235.3046   7.5703664304e+01   1.4975020043e+00    0.1066026   0.06669243  15.59  0.000301584    1.555    0.357
       212 -11.2806      3.1167    241.1529   1.0996645778e+02   2.6172337854e+01    0.3067472    0.1552061  68.15  0.002370462    1.413    0.292
       213 -12.0144      4.0638    232.6682   1.0958425700e+02   2.7432249238e+01    0.2678689    0.1617555  59.13 0.0005919361    1.106    0.096
       214 -10.0706     39.5143     15.0261   6.3755806717e+01   7.0369199243e+01    0.1947852    0.1101054 -38.37 0.0003835845    1.517    0.341
       215  -9.4323    249.5081    233.4566   6.8498083763e+01  -4.3926272179e+00    0.1053108   0.07309174  16.53  0.000121764    1.004    0.004
       216 -11.0631    175.1212     13.0669   2.7136076789e+01   3.9157172218e+01    0.4402629    0.2203673  85.56  0.001724509    2.368    0.578
       217  -8.8107     89.6662     13.2797   4.3147289700e+01   6.1158632069e+01    0.1367129    0.1090178 -61.68 0.0002988925    1.610    0.379
       218 -10.0692     32.2376    233.4017   1.0497296959e+02   2.4586689859e+01    0.1428867   0.06333813  48.12 0.0005980534    1.584    0.369
       219  -9.1061     88.6651    230.2733   9.4989214706e+01   1.8463406747e+01    0.1128603   0.06247341  58.48 0.0005191921    1.600    0.375
       220  -9.6303     47.5812    229.9859   1.0218472166e+02   2.3487540907e+01    0.1688622    0.1111203  20.65  0.001098432    2.424    0.587
       221 -10.3803    220.2967     11.3409   2.2238823743e+01   2.7717435338e+01    0.1365459    0.1012754  27.61 0.0003350553    1.662    0.398
       222  -9.7888    209.7607    229.4140   7.4013013239e+01   1.3360882767e+00    0.1517456   0.07982719  30.98 0.0005831228    1.508    0.337
       223 -10.7821    140.2359    227.4813   8.5539633834e+01   1.1704876506e+01    0.2288513    0.1636548 -73.57  0.001530009    2.032    0.508
       224 -10.2785      3.2361    153.4094   1.0664665384e+02   4.2395503301e+01    0.3288005   0.04944462  33.87  0.001364317    4.184    0.761
       225 -11.1100     12.9475    226.0411   1.0791221984e+02   2.7700830751e+01    0.1274968    0.1159426 -66.23  0.001136807    1.714    0.416
       226 -11.8745      2.3775    224.9644   1.0963844801e+02   2.8844811927e+01    0.4003801    0.1229948  60.33  0.001834228    2.275    0.561
       227 -10.6671      2.4512    219.4411   1.0946261346e+02   2.9767219650e+01    0.1866031    0.0907658  76.98  0.000693387    1.614    0.381
       228  -9.7502    223.4298    226.5290   7.1432435305e+01  -2.8665064347e-01    0.1096515   0.08040843  19.42 7.468891e-05    1.017    0.017
       229 -10.1613     26.7741    223.8139   1.0546903540e+02   2.6723516491e+01    0.1467329   0.08163109  63.21 0.0004427807    1.332    0.249
       230  -9.4651    167.3717    221.2171   7.9990921987e+01   8.5071947369e+00    0.1293906    0.1098227 -58.13 0.0005236769    1.617    0.382
       231 -11.3245      8.0560    218.9435   1.0849399258e+02   2.9349792372e+01    0.2026727    0.1140912 -83.37  0.001007986    1.669    0.401
       232  -9.0753     85.7521    215.0238   9.4204983053e+01   2.1294517514e+01    0.1194787   0.09025059 -81.17 0.0001987104    1.440    0.305
       233  -9.6260    205.4969    212.0679   7.2160073381e+01   3.8506548212e+00    0.1508731    0.1073756 -23.83 0.0008021038    1.546    0.353
       234  -9.4482     20.4929    209.5158   1.0593186544e+02   2.9822940332e+01    0.1083559   0.07272676  64.77  3.90273e-05    1.068    0.063
       235 -10.8141      3.1552    206.0405   1.0891087451e+02   3.2045172817e+01    0.1977255   0.09941281 -88.03  0.001345555    1.707    0.414
       236 -10.0628    193.9126    202.0879   7.2575508457e+01   6.8445794518e+00    0.1855576    0.1485539  21.71  0.000860224    1.044    0.042
       237 -10.7388      4.1498    201.1917   1.0856185561e+02   3.2835630874e+01    0.1467845    0.1158741  75.29 0.0006793662    1.189    0.159
       238  -9.6250     22.1672    199.4561   1.0513909717e+02   3.1488561962e+01    0.2818648    0.1071461  89.82  0.001487853    2.578    0.612
       239  -9.4352     14.5529    192.7723   1.0626489855e+02   3.3468747266e+01    0.1424873    0.0761039  77.78 0.0004373543    1.523    0.343
       240  -9.3821      6.2609    191.9365   1.0781473788e+02   3.4372351643e+01     0.132502   0.07185122  88.57 0.0008793378    1.521    0.343
