#   1 NUMBER                 Running object number                                     
#   2 MAG_AUTO               Kron-like elliptical aperture magnitude                    [mag]
#   3 X_IMAGE                Object position along x                                    [pixel]
#   4 Y_IMAGE                Object position along y                                    [pixel]
#   5 X_WORLD                Barycenter position along world x axis                     [deg]
#   6 Y_WORLD                Barycenter position along world y axis                     [deg]
#   7 A_WORLD                Profile RMS along major axis (world units)                 [deg]
#   8 B_WORLD                Profile RMS along minor axis (world units)                 [deg]
#   9 THETA_WORLD            Position angle (CCW/world-x)                               [deg]
#  10 FWHM_WORLD             FWHM assuming a gaussian core                              [deg]
#  11 ELONGATION             A_IMAGE/B_IMAGE                                           
#  12 ELLIPTICITY            1 - B_IMAGE/A_IMAGE                                       
         1 -16.0279    196.3790     73.6020   6.8910013871e+01   2.6077536767e+01     4.314905     1.880753  43.21   0.01546017    2.523    0.604
         2 -17.1175    125.6099    107.7241   9.3823477351e+01   3.6247003048e+01     4.411916     3.603032  33.39   0.02310169    1.319    0.242
         3 -16.7287    203.7628    113.7969   7.8187845191e+01   1.7906030789e+01     3.236026     1.680776 -58.44   0.01061424    3.971    0.748
         4 -19.0691    191.6593    127.7475   8.3809269784e+01   1.8296055025e+01     6.663242     5.708997  56.83   0.03658666    1.241    0.194
         5 -17.0287    215.9767    100.8690   7.2792931593e+01   1.7169883096e+01     7.614081     3.917749 -57.84   0.02531844    3.817    0.738
         6 -11.8214    120.1797     29.4483   7.0288269919e+01   5.2034679350e+01    0.2742872    0.2491315  28.39 0.0004450785    1.063    0.060
         7 -12.2134    201.3141     22.7999   5.3045983544e+01   3.1731996308e+01    0.4804032    0.2615608 -19.16  0.002000489    1.987    0.497
         8 -12.1392     15.9774     20.0975   1.0668775594e+02   7.0308441537e+01    0.2585841    0.1760569 -42.09 0.0003548269    1.157    0.136
         9 -12.1195     13.3161     14.0322   1.0580826185e+02   7.1664708948e+01    0.2814792     0.263581 -56.89  0.002195864    1.305    0.233
        10 -11.8581    248.5451     18.5328   4.6920409886e+01   2.0362366608e+01    0.4390637    0.1491358 -35.61  0.001760744    2.392    0.582
        11 -10.9960     50.4028     17.4577   8.8860648864e+01   6.7193579284e+01    0.3193184    0.1078674 -46.54  0.001257515    2.995    0.666
        12 -12.8338    238.9459     15.8946   4.7081891963e+01   2.2923433764e+01    0.3204642    0.2950404  59.69  0.001966538    1.178    0.151
        13 -11.2360    192.0332     13.3541   5.1294533985e+01   3.5232738991e+01    0.2596669    0.1916588  26.63 0.0006661252    1.577    0.366
        14 -12.9433    228.5484      6.6644   4.5541692477e+01   2.6420512380e+01    0.4775993    0.2612247 -68.97  0.002041792    2.064    0.515
        15 -14.0336    238.9513      4.4789   4.4105308747e+01   2.4082491841e+01    0.9156585    0.6644306  39.90  0.005008728    1.652    0.395
        16 -12.6693    244.4871      9.4792   4.4952256892e+01   2.2260308800e+01    0.3748563    0.2521543 -23.87  0.001463356    1.471    0.320
        17 -12.6842    248.4778      4.5733   4.3406745003e+01   2.1809203028e+01    0.6942077    0.3763172 -30.78  0.003311709    1.664    0.399
        18 -11.9830    100.9612      9.1714   6.6680880140e+01   5.9094818449e+01    0.2537002    0.2197688   2.66  0.000283586    1.084    0.077
        19 -11.1527     89.8434      9.2866   6.9980217668e+01   6.1484348066e+01    0.3628651    0.1439213 -43.77  0.001321786    3.365    0.703
        20 -11.6525    178.7472      5.6063   5.0464960339e+01   3.9582821508e+01    0.2686466    0.2391737 -34.85 0.0002942662    1.162    0.139
        21 -11.1586    214.4981      5.5355   4.6505170681e+01   3.0096779657e+01    0.1388042    0.1286501 -72.24 8.321153e-05    1.007    0.007
        22 -11.0723    202.7962      4.4969   4.7360309845e+01   3.3251527404e+01    0.2962367    0.1425949 -54.90  0.001007529    2.319    0.569
        23 -10.0444     17.6737      5.3050   9.9580981099e+01   7.2927955917e+01   0.09880605     0.088935 -80.00 0.0003769931    1.647    0.393
        24 -11.4960    208.1911      1.7454   4.6013621820e+01   3.2094285572e+01    0.2537936    0.1893115  72.19 0.0005965137    1.286    0.223
        25 -10.1529     94.0097      2.2257   6.5306125995e+01   6.1401862297e+01    0.1876474    0.1642556  26.00 0.0005145344    1.045    0.043
        26 -10.3065     69.0742    230.3049   1.2311949967e+02   2.1622284206e+01    0.1509145   0.09851155  53.37 0.0004212871    1.135    0.119
        27 -13.4162    246.0258    245.0867   9.5386794268e+01  -5.8439446522e+00    0.7996579    0.3751316  32.26  0.005142306    1.553    0.356
        28 -12.2863    222.6520    250.1613   9.9644899467e+01  -3.0144765740e+00     0.360115     0.121579  42.52 0.0008621386    2.247    0.555
        29 -12.0206    218.0006    248.0028   1.0008888066e+02  -2.1512918533e+00    0.1708643    0.1368751  13.85 0.0005443649    1.233    0.189
        30 -13.3087    233.7599    249.3341   9.7827531618e+01  -4.5055922696e+00    0.7180006    0.2060063  42.37  0.003560829    2.678    0.627
        31 -12.8322    234.6325    243.1397   9.6855032121e+01  -4.0876564181e+00    0.3171299    0.1934221  18.24  0.001631364    1.445    0.308
        32 -12.1613    197.1822    226.1063   1.0053577664e+02   3.2526959867e+00    0.2549347      0.22172  49.23   0.00110125    1.351    0.260
        33 -11.7709    203.0847    225.3722   9.9445103444e+01   2.4058497263e+00    0.2841009    0.1726468  31.84 0.0009722459    1.320    0.242
        34 -12.4837    233.7719    225.4990   9.4463479717e+01  -2.3253483164e+00    0.2133079    0.1654854  26.11 0.0004872254    1.112    0.101
        35 -10.6784    218.8224    226.6561   9.7034955034e+01  -1.7720704913e-01    0.1539253    0.1157692  19.10 0.0005544086    1.144    0.126
        36 -13.2768    247.4258    220.7061   9.1589608685e+01  -3.8904714855e+00      0.29822    0.2042706   7.82 0.0006443572    1.297    0.229
        37 -10.4541    223.0819    223.8995   9.5940910823e+01  -5.4620884916e-01    0.1841806    0.1085718  19.22  0.001123912    1.676    0.403
        38 -12.6942    176.0115    222.0819   1.0361059090e+02   7.1155891580e+00    0.2973352    0.2021759 -39.71  0.001964022    1.893    0.472
        39 -10.0536     15.2312    223.7756   1.3164596359e+02   2.8592414286e+01    0.1151334   0.09250832  70.53 0.0004656373    1.284    0.221
        40 -11.4787    182.0809    222.5565   1.0262307472e+02   6.0800942387e+00    0.2962507    0.1645839  29.19  0.001688013    1.771    0.435
        41 -10.1561     30.4928    222.0095   1.2909058854e+02   2.7364882290e+01    0.1341138   0.07990862 -89.60  0.000372202    1.502    0.334
        42 -12.0705    130.6224    219.1241   1.1130477778e+02   1.4735006366e+01    0.2549666     0.176125 -33.31  0.001581962    2.298    0.565
        43 -10.8508    232.4948    220.5093   9.3915132289e+01  -1.6404357544e+00    0.3641122   0.08867531  42.80  0.001501164    3.298    0.697
        44 -11.6517     91.0344    219.0939   1.1842795994e+02   2.0538547159e+01    0.1736292    0.1401066  76.14            0    1.181    0.154
        45 -12.0497     92.4272    214.3428   1.1775029364e+02   2.1119067347e+01    0.3132432    0.2175734  35.66  0.002095759    1.550    0.355
        46 -10.6057    211.3032    218.0148   9.7008606833e+01   1.9261614882e+00    0.1497408    0.1282415  17.43 0.0003971686    1.166    0.142
        47 -10.9379    170.7485    217.6553   1.0394384592e+02   8.5404640629e+00    0.2018605    0.1692799  45.84 0.0006482428    1.127    0.113
        48 -11.1901    121.2856    217.6562   1.1283153496e+02   1.6385512044e+01    0.2337676    0.1531753  58.12 0.0008079871    1.336    0.252
        49 -12.5033    124.5226    215.2535   1.1197980061e+02   1.6260793201e+01     0.360975    0.2486736  54.39  0.001669962    1.192    0.161
        50 -10.0238     73.2885    218.3248   1.2152376901e+02   2.3020579452e+01   0.08740167   0.08556341  15.58 0.0002859712    1.609    0.378
        51 -11.8014    235.0627    215.2070   9.2684154270e+01  -1.4980349709e+00    0.3047162    0.1911967  12.06  0.001247716    1.575    0.365
        52 -11.6350    214.7921    216.8427   9.6251334788e+01   1.5011781555e+00     0.196566    0.1594603 -36.75  0.001174062    1.644    0.392
        53 -16.9856    148.4080    194.8207   1.0491562568e+02   1.5584468542e+01     5.138872     3.039649  65.47   0.02573773    2.279    0.561
        54 -10.8203     45.6772    201.6992   1.2530043515e+02   2.9213450123e+01     0.172881    0.1465115  67.29 0.0009480511    1.236    0.191
        55 -16.3208    194.9709    200.0170   9.7067975333e+01   6.8005063311e+00     3.589746     1.289317 -43.23   0.01580901    3.532    0.717
        56 -11.3797    227.2163    198.6446   9.1283839202e+01   1.5319039114e+00    0.2552046    0.1807832  40.80 0.0008226417    1.310    0.237
        57 -15.6502    224.7190    175.3421   8.7586721039e+01   4.7616662491e+00     2.444299      1.91399  60.95   0.01429618    1.757    0.431
        58  -9.8333     78.8146    213.5730   1.2015483215e+02   2.3092569702e+01    0.1573826   0.07674056  51.52 0.0005297067    1.594    0.373
        59 -11.5433    212.0941    196.3489   9.3468856038e+01   4.3362951114e+00    0.4080747    0.2601197 -47.20  0.002322769    2.232    0.552
        60 -11.8587    215.5136    194.0415   9.2492327270e+01   4.0364311695e+00    0.4642034    0.2480847 -37.95  0.002518481    2.225    0.551
        61 -10.7872    233.2924    195.5299   8.9749102821e+01   8.8594121666e-01    0.2414338    0.1556986  25.52  0.001021926    1.316    0.240
        62 -11.7852    100.8578    194.4349   1.1413791743e+02   2.3300401865e+01    0.3689156    0.1307898  48.46  0.001678799    2.365    0.577
        63 -12.8559    117.7477    191.2339   1.1042410781e+02   2.1256997040e+01    0.4433608     0.307629 -62.29  0.002289349    1.647    0.393
        64  -9.9722     83.9673    192.4896   1.1725080877e+02   2.6079428034e+01    0.1765549   0.07075614  56.57 0.0008094198    2.484    0.597
        65 -10.0389     87.6812    191.6774   1.1643543361e+02   2.5707400464e+01    0.1026425   0.09423341  -6.81 0.0007044196    1.670    0.401
        66 -12.0513    247.1183    185.6973   8.5774035129e+01  -2.8230848490e-01    0.4792721    0.1943266  33.57  0.002276028    2.275    0.560
        67 -10.5997    227.0170    191.3161   9.0067853668e+01   2.4125202746e+00    0.2164074    0.1704575 -28.63  0.001428912    1.476    0.322
        68 -10.2893     92.3131    183.3329   1.1459232147e+02   2.6579876719e+01    0.1074378   0.09685124 -12.70 0.0003294923    1.681    0.405
        69 -11.8440     85.5921    181.0964   1.1571759356e+02   2.7968562621e+01    0.3955669    0.1914455 -67.87  0.002065571    2.195    0.545
        70 -11.6036     88.0000    175.9717   1.1463076576e+02   2.8603994085e+01    0.2098428    0.1856249 -82.52 0.0004459677    1.204    0.169
        71 -12.4915     87.5043    172.5084   1.1432316846e+02   2.9347684695e+01    0.3110247    0.2567413  47.14  0.001565364    1.219    0.180
        72 -11.9731     31.7702    180.1026   1.2649485635e+02   3.4709134578e+01     0.192452    0.1438747  76.39 0.0002468329    1.031    0.030
        73 -11.1807     22.1625    176.1819   1.2812773519e+02   3.6403398775e+01    0.1842267    0.1287168  64.81 0.0002553806    1.127    0.112
        74 -11.4591    100.9200    172.0548   1.1140667611e+02   2.7424096208e+01     0.323408    0.2039979  89.15  0.001369085    1.947    0.486
        75 -11.1236     62.3469    173.3816   1.1973861503e+02   3.2568028292e+01    0.2053665    0.1545909  68.82 0.0003077388    1.091    0.083
        76 -10.7681     78.8690    171.8925   1.1608985835e+02   3.0690273615e+01    0.1673314    0.1581054  86.97 0.0003493892    1.258    0.205
        77 -11.7486    184.5307    211.2926   1.0062339699e+02   7.1015588871e+00    0.2277946    0.2113186 -67.14  0.001384531    1.473    0.321
        78 -10.3788     71.5487    167.4784   1.1716407271e+02   3.2559787206e+01    0.1205513    0.1009646  73.97 8.987213e-06    1.032    0.031
        79 -10.9407     97.9496    166.4649   1.1129993149e+02   2.8971805702e+01    0.1862511    0.1112358  45.26 0.0003703698    1.508    0.337
        80 -10.3772     38.0184    165.9575   1.2418725907e+02   3.6845266544e+01    0.1382418    0.1067478  76.23 0.0003285336    1.003    0.003
        81  -9.8758    244.2384    165.7005   8.2485534336e+01   2.5056780748e+00    0.1053107   0.09689525 -38.06 0.0002359403    1.478    0.323
        82 -12.6276    220.2503    207.4424   9.3884890828e+01   1.6737587750e+00    0.3693781    0.2401973  -1.02  0.001596113    1.787    0.441
        83 -10.2322     48.6515    165.2962   1.2187299100e+02   3.5818665444e+01    0.1254015   0.06910278  65.50  0.000468407    1.678    0.404
        84 -10.2559    250.1621    160.1206   8.0435314635e+01   2.1405482910e+00    0.2063907    0.1374196  19.08 0.0008033324    1.416    0.294
        85 -11.4757     66.9686    158.5773   1.1716487800e+02   3.4973323014e+01    0.3515089    0.1125372 -56.38  0.001469194    3.203    0.688
        86 -10.4842    225.1112    210.0458   9.3490668794e+01   6.0336590250e-01     0.256255    0.1709929  53.92  0.001242534    1.929    0.482
        87 -11.6238     85.8748    158.9747   1.1296797790e+02   3.2289036718e+01    0.2779123    0.1775947  33.19 0.0007714885    1.772    0.436
        88  -9.9216      2.1965    159.3664   1.3117478077e+02   4.1395682217e+01    0.1325614   0.07659135  50.91  0.000281889    1.523    0.343
        89 -12.6303    103.4332    155.8095   1.0855345097e+02   3.0232720138e+01    0.3535047    0.2354645 -61.14  0.001468076    1.559    0.358
        90 -11.4894     81.8327    156.1109   1.1350259284e+02   3.3461097937e+01    0.3037939    0.1734911 -46.28 0.0008684323    2.285    0.562
        91 -13.7700     80.2276    149.7732   1.1301764257e+02   3.5011850048e+01    0.4534356    0.3027974 -62.75   0.00131377    1.488    0.328
        92 -13.5990     96.8792    150.1727   1.0919606400e+02   3.2431473939e+01    0.6512402    0.3131401 -62.36  0.003023682    2.160    0.537
        93 -14.5421    248.0890    137.5342   7.6075580071e+01   5.3179524935e+00    0.9875684    0.4730802  33.31  0.003469635    2.229    0.551
        94 -11.9155     90.2846    150.7815   1.1081824247e+02   3.3323621368e+01    0.3414865    0.2032161 -42.34  0.001674422    2.297    0.565
        95 -10.9041     72.0171    152.0148   1.1522210135e+02   3.5675708117e+01     0.172307      0.14676 -40.52 0.0003621129    1.574    0.365
        96 -10.7437     13.6093    147.7173   1.2807828344e+02   4.2853474351e+01    0.1621657     0.081867  88.31 0.0007887294    1.658    0.397
        97 -11.5208     57.5693    145.9469   1.1785064535e+02   3.8806822066e+01    0.4352436    0.1787547  54.47  0.001659791    2.524    0.604
        98 -10.6701     20.7910    145.4440   1.2631349422e+02   4.2721050519e+01    0.2208422   0.09824425  34.41 0.0008775367    2.334    0.572
        99 -10.6394     30.1304    249.1050   1.3032845566e+02   2.3169780180e+01    0.1306802    0.1004404  66.33 0.0004994755    1.244    0.196
       100 -11.6722    100.3624    140.3289   1.0678886203e+02   3.3931048690e+01    0.2581931     0.154126  45.74 0.0006684536    1.594    0.373
       101 -11.6962     71.2184    137.7688   1.1349265513e+02   3.8830603385e+01    0.3586134     0.166726  57.42  0.001593732    2.443    0.591
       102 -10.0811     41.8537    138.3901   1.2074279139e+02   4.2208618331e+01     0.144321    0.1161545  16.44 0.0009391045    1.747    0.427
       103  -9.8701     32.8354    136.1571   1.2268556717e+02   4.3597568914e+01    0.1467475    0.1209282 -68.65  0.000293697    1.267    0.211
       104 -12.0179    143.0002    215.8550   1.0868562695e+02   1.3275285121e+01     0.236254    0.1876607  49.70 0.0006217061    1.039    0.037
       105 -11.6165     69.1141    128.8796   1.1270809645e+02   4.1062688809e+01    0.3853464    0.1612981 -60.78  0.001153639    2.186    0.543
       106 -11.0792    172.5559    247.0291   1.0725771103e+02   4.6602014039e+00    0.2493847    0.1053704  52.56  0.001278904    2.529    0.605
       107 -11.2581     93.0641    128.8781   1.0659718524e+02   3.7563077634e+01     0.206465    0.1836678  86.93 0.0005144062    1.038    0.037
       108 -12.3684     94.0910    123.9753   1.0543651015e+02   3.8467852247e+01    0.3401796     0.302141 -17.07  0.001578492    1.466    0.318
       109 -11.1792     87.8665    127.5263   1.0767947436e+02   3.8671398271e+01    0.2411078    0.1853221 -63.10 0.0009803127    1.256    0.204
       110 -10.8983     78.1112    128.0994   1.1027638978e+02   3.9993310727e+01    0.1841093     0.176395 -69.06 0.0003855336    1.186    0.157
       111 -10.4713      6.6527    127.9611   1.2828107923e+02   4.7532602588e+01    0.1545325    0.1083429 -87.93 0.0004988106    1.094    0.086
       112 -10.3948     24.5001    123.9097   1.2352207594e+02   4.7022086155e+01    0.1636916     0.135617  79.45 0.0003988091    1.093    0.085
       113 -10.2939     63.6873    122.1233   1.1307982151e+02   4.3272961159e+01    0.1752346    0.1441307 -73.63 0.0003946528    1.100    0.091
       114 -11.4668     34.4412    118.1878   1.2030642201e+02   4.7394038120e+01    0.2304163    0.1798175  72.38 0.0006645207    1.192    0.161
       115 -13.9046    248.4619    114.7078   7.0915215923e+01   8.2371428097e+00    0.4069963    0.3174711  11.17  0.001312732    1.269    0.212
       116 -16.0569    169.7813     92.1655   7.9351828927e+01   2.9483534592e+01     2.167264     1.480948  34.46  0.008358858    1.604    0.376
       117 -10.8897      5.5018    116.9991   1.2772436415e+02   4.9965007820e+01    0.1678169   0.08689862 -79.93 0.0004091716    1.504    0.335
       118 -11.2501     67.8134    114.7777   1.1076291772e+02   4.4387101668e+01    0.4817163    0.2631562  88.71   0.00204806    2.700    0.630
       119 -10.5077    239.5809    112.0945   7.1668194066e+01   1.0401200391e+01    0.3998615    0.1290729 -29.12  0.001410051    3.021    0.669
       120 -11.1944    157.8049    243.8117   1.0933136268e+02   7.2482471694e+00    0.1609896    0.1460286 -39.20 0.0009349149    1.513    0.339
       121 -16.7988    204.7836    143.3445   8.4762170341e+01   1.3046829265e+01     1.859859     1.251351 -12.34   0.00920743    1.775    0.437
       122  -9.8557     51.5110    245.4688   1.2688452953e+02   2.1388061029e+01    0.1005271   0.06747334  60.50 4.565475e-05    1.003    0.003
       123 -12.1567     86.2892     98.8846   1.0239516121e+02   4.5277671068e+01    0.4503495     0.254955 -35.40  0.001731089    2.402    0.584
       124 -17.4455    171.3786    141.6904   9.0986813909e+01   2.0210917606e+01     4.361936      2.39115  26.39   0.01714162    2.653    0.623
       125 -10.9528    241.3585    104.1780   6.9510225104e+01   1.1123176777e+01    0.2193285    0.1780861  -8.23 0.0004570666    1.173    0.148
       126 -11.7296    100.9521    103.1433   9.9248481823e+01   4.1881888371e+01    0.3061664     0.190202 -47.45 0.0008802419    1.596    0.374
       127 -10.9254     79.1080    103.2179   1.0539704699e+02   4.5409151858e+01    0.1899253    0.1774132 -46.27 0.0003622939    1.168    0.144
       128 -11.0033    246.0193    101.0397   6.8059978313e+01   1.0574278717e+01     0.199837    0.1816191 -28.55 0.0003306172    1.128    0.113
       129 -13.0269    242.7318     95.4650   6.7192658256e+01   1.2029703865e+01    0.4825677    0.3239118  46.06  0.001028114    1.535    0.349
       130 -11.0554     73.0054     97.0634   1.0587484000e+02   4.7680737050e+01    0.2050101    0.1881489 -77.43 0.0006348909    1.025    0.024
       131 -10.9064     17.0228     97.0373   1.2259417048e+02   5.3577270153e+01    0.1752793    0.1381257 -80.24 0.0003349161    1.002    0.002
       132 -10.4295     11.7593    207.9550   1.3159511537e+02   3.1568893612e+01    0.1372564   0.09388004  73.49 0.0003628064    1.061    0.057
       133 -10.1730     51.4647     90.5141   1.1108845319e+02   5.1909314963e+01    0.1290044     0.110678 -65.97 3.737176e-05    1.038    0.036
       134 -10.7931     87.5390     88.9774   9.9676584420e+01   4.7274601318e+01    0.2587332    0.2057202  11.43  0.001213508    1.648    0.393
       135 -10.2808    242.6352     86.6767   6.5036610194e+01   1.3252588712e+01    0.2005909    0.1184844 -35.20  0.000496036    1.577    0.366
       136 -11.1278    230.9167     85.0638   6.6348957795e+01   1.6092445815e+01    0.2428584    0.1978335  43.11 0.0003359475    1.260    0.206
       137 -11.3905    232.6112     81.1781   6.5096959450e+01   1.6254107719e+01    0.2899276    0.2498144  39.71 0.0007488829    1.196    0.164
       138 -11.0238    107.3453     82.9332   9.2282090143e+01   4.5054948420e+01    0.2041895    0.1762019 -45.71 0.0003846532    1.122    0.109
       139 -10.6438     52.3628     81.1329   1.0886651463e+02   5.3934631479e+01    0.1866602    0.1705148 -34.19 0.0004409793    1.216    0.178
       140 -10.2097    250.7043     80.2637   6.2334694485e+01   1.2360469909e+01    0.1754398    0.1154705 -21.86 0.0003740816    1.431    0.301
       141 -13.1144    111.3009     77.2112   8.9507659693e+01   4.5466590046e+01    0.6326644    0.3831815  50.65  0.002837236    1.753    0.429
       142 -12.1525    107.5876     70.1751   8.8441175311e+01   4.7636567258e+01    0.3885565    0.3197654 -72.20  0.001233327    1.427    0.299
       143 -13.5890    121.2390     72.5888   8.5344040637e+01   4.4334470394e+01     1.153026    0.5163699  59.22  0.003846762    3.240    0.691
       144 -10.0135    229.3437     77.7144   6.4681429749e+01   1.7493402524e+01    0.1922065    0.1301405 -18.09 0.0002613407    1.514    0.340
       145 -10.5257     70.1770     77.9098   1.0227886137e+02   5.2373442863e+01    0.1927827    0.1685375 -79.07 0.0003341352    1.174    0.148
       146 -10.6799     94.5524     77.4687   9.4496403064e+01   4.8576757610e+01    0.1415667    0.1331259 -49.29 1.917676e-05    1.010    0.010
       147  -9.9607    240.6489     72.7928   6.1802700284e+01   1.5576745576e+01    0.1911455    0.1703536   9.44 0.0009523071    1.152    0.132
       148 -10.5529    225.9690     71.3035   6.3487009800e+01   1.9187332030e+01    0.2859569    0.2083333 -12.01  0.001252386    1.466    0.318
       149 -16.2663    230.2871    122.1365   7.5512962155e+01   1.0919238210e+01     2.148986     1.439255  46.48   0.01108607    1.491    0.329
       150 -10.9300    221.5149     66.2211   6.2773627976e+01   2.0968370712e+01    0.3517452    0.2747938  -7.65  0.001768184    1.378    0.274
       151 -11.0664     88.6900     72.0585   9.4741643653e+01   5.0747267932e+01    0.2015621    0.1680661 -46.46 0.0003826626    1.120    0.107
       152 -12.0697    138.0418    215.8211   1.0958147786e+02   1.4067046570e+01    0.2336898    0.1947882  68.02 0.0008564667    1.239    0.193
       153 -12.5667    175.2957    196.5103   1.0009147431e+02   1.0683857574e+01     0.561234    0.2068881  37.32  0.002364245    2.552    0.608
       154  -9.8656     43.7122     69.3224   1.0914624085e+02   5.7531056909e+01    0.1238298   0.09209371  84.04 0.0002931335    1.602    0.376
       155 -12.0350    126.6803     65.9642   8.1784877949e+01   4.4414185893e+01    0.4234279    0.2972235 -77.55  0.001680164    2.215    0.548
       156 -12.7428    243.2015     65.0203   5.9469863856e+01   1.6028959009e+01     1.044908    0.5075128  77.98  0.003837991    3.423    0.708
       157 -10.4643    236.6657     56.8824   5.8185144341e+01   1.8606022440e+01    0.2369694    0.2215636   1.24 0.0004952965    1.101    0.091
       158 -10.6635     52.3623     65.9748   1.0525043280e+02   5.7317405277e+01    0.1858508    0.1463001 -58.24 0.0004131609    1.109    0.099
       159 -10.6703     11.1467     65.8227   1.2008975463e+02   6.0932771728e+01    0.1626043    0.1080591 -52.16 0.0004626853    1.332    0.249
       160 -11.8609    110.9602     64.1662   8.5546858863e+01   4.8143481384e+01    0.4601271    0.2596218  36.30   0.00194004    2.014    0.504
       161 -11.7166    100.5976     61.8966   8.7877057514e+01   5.0659940639e+01    0.3260422    0.2492755  12.37  0.001145311    1.650    0.394
       162 -10.2066     75.3660     62.2246   9.6138758972e+01   5.4995772941e+01    0.1895892    0.1210589 -57.20 0.0003241171    1.567    0.362
       163 -11.5210    131.0944     60.7250   7.8911621600e+01   4.4372729764e+01    0.2891743    0.2322036 -12.55 0.0001940113    1.398    0.285
       164 -10.3442    220.1510     59.5206   6.1134842057e+01   2.2231292363e+01    0.2108362    0.1454822  62.64   0.00100656    1.516    0.340
       165 -11.7640    138.5226     57.7309   7.6047068985e+01   4.3150706567e+01    0.4927666    0.2857912  14.40  0.001578795    3.676    0.728
       166 -10.1240    127.2877     59.3111   7.9427035220e+01   4.5502382325e+01    0.1511684    0.1176892   8.43 0.0005012836    1.579    0.367
       167 -10.4110     97.7068     57.9566   8.7451930827e+01   5.1989562798e+01    0.2131427    0.1755009 -41.22  0.001143636    1.153    0.133
       168  -9.9618     67.0685     57.7097   9.7626425138e+01   5.7180377932e+01    0.1727674    0.1649391 -21.97 0.0003852797    1.095    0.086
       169  -9.8236     32.3078     58.6575   1.1080388060e+02   6.0981766325e+01    0.1213399   0.08873329  81.85 0.0005332673    1.691    0.409
       170 -10.8214     11.4529     58.1484   1.1863881226e+02   6.2607945299e+01    0.1722801    0.1389792 -44.33  0.000424407    1.247    0.198
       171  -9.8053    231.3446     57.2249   5.8966736413e+01   1.9824491851e+01    0.1408516    0.1030976  33.93  0.000265908    1.543    0.352
       172 -10.1586    241.5173     56.5770   5.7496709075e+01   1.7511653258e+01    0.1392274    0.1285089 -39.93 3.531831e-05    1.041    0.039
       173 -10.7727    115.6106     56.0814   8.1499500330e+01   4.8688565891e+01    0.3087558    0.1837972  33.19 0.0008313727    1.996    0.499
       174 -11.5840    129.2504     54.9442   7.7426577332e+01   4.5826166933e+01    0.2878118    0.2121103 -12.11   0.00133218    1.608    0.378
       175 -10.3498     51.7819     54.7960   1.0235221658e+02   5.9805416700e+01    0.1639157    0.1418131 -77.02 0.0003035385    1.282    0.220
       176 -11.6335    249.4764     53.2245   5.5685392674e+01   1.6111473314e+01    0.2329121    0.2108067 -46.16 0.0003511366    1.074    0.069
       177 -11.1150    121.6795    243.2245   1.1529978997e+02   1.2635500159e+01    0.2062386    0.1441935  54.55 0.0009145274    1.120    0.107
       178 -11.4848    120.8293     53.2835   7.9079470964e+01   4.8042760194e+01    0.2600732     0.197993 -47.21 0.0007242946    1.361    0.265
       179 -11.3463    131.5138     44.9626   7.3321609963e+01   4.6968357170e+01    0.3619902    0.2235374  62.11  0.001181426    1.801    0.445
       180 -13.0598    140.2656     48.2390   7.2369349535e+01   4.4313074683e+01    0.6854244    0.3585223 -32.48  0.002749287    1.912    0.477
       181 -12.2621    136.1961     44.1489   7.1884522525e+01   4.5963394819e+01    0.4263637    0.3376875  49.53  0.001504452    1.247    0.198
       182 -11.1086     57.1333     52.9611   9.9774488986e+01   5.9527909012e+01    0.1917094    0.1840275  -9.69  0.000373856    1.138    0.122
       183  -9.9590     30.6582     52.9868   1.1004271397e+02   6.2361657675e+01    0.2252545   0.04271977 -46.96 0.0006283383    4.586    0.782
       184 -10.2733    157.9157     50.7071   6.9284599185e+01   3.9481916736e+01    0.2103912    0.1959701  65.47 0.0003279892    1.096    0.088
       185 -10.9695    161.3418     48.2483   6.7757401061e+01   3.8977564532e+01    0.2482094     0.186799  40.67 0.0007917073    1.357    0.263
       186 -13.3948    170.2777    203.7152   1.0208916316e+02   1.0522774221e+01    0.3413883    0.3055214 -60.32 0.0006614265    1.432    0.301
       187 -11.2031    243.4455     47.8077   5.4983381452e+01   1.8169999635e+01    0.4490854    0.2010746  47.35  0.001834033    2.503    0.601
       188 -10.7689    237.0672     45.9321   5.5233626341e+01   1.9906717324e+01    0.2813474    0.2448945  19.82  0.001589829    1.276    0.216
       189 -11.0147    230.5479     46.9807   5.6305530947e+01   2.1344732816e+01    0.2466495    0.2102243  67.29  0.000393046    1.231    0.188
       190 -11.5035    213.7439     45.2874   5.8032161424e+01   2.5744136256e+01    0.4755487    0.2529198  23.25  0.001139289    3.318    0.699
       191 -12.4162    155.8087     43.8606   6.7407889231e+01   4.1065745039e+01    0.5466388    0.3355987 -26.11  0.002358594    1.689    0.408
       192 -10.3273     76.0361     46.9404   9.0801514402e+01   5.7983032025e+01    0.2002062    0.1773107 -28.13  0.001190699    1.040    0.038
       193 -10.5254     63.7671     47.5860   9.5511973726e+01   5.9731586859e+01    0.1723445    0.1261625  47.69 0.0005761408    1.630    0.386
       194 -10.9948    202.7268     45.0328   5.9532809570e+01   2.8606907679e+01     0.277597    0.2207313  83.27 0.0006809692    1.371    0.270
       195 -12.0109    150.6750     43.9284   6.8515457334e+01   4.2373450648e+01    0.3980764    0.2469522 -44.04  0.001100781    1.698    0.411
       196 -11.6668    146.1250     43.3191   6.9296941354e+01   4.3621468826e+01    0.2859173    0.2422421  -4.00 0.0003372479    1.264    0.209
       197 -12.3147    117.3996     41.9352   7.5882773387e+01   5.0754828767e+01    0.4904943    0.4182005 -65.64  0.002574469    1.403    0.287
       198 -12.1066     90.4115     44.5891   8.5013795685e+01   5.5902371505e+01    0.2557298    0.2351669 -20.16 0.0002851982    1.011    0.010
       199 -11.7685    124.6877     43.0613   7.4360846452e+01   4.8893337355e+01    0.3708488    0.2157531 -31.73  0.001220938    1.712    0.416
       200 -12.0102    175.7766    202.6998   1.0093604736e+02   9.7281809869e+00    0.3698233    0.2291457  24.52  0.001087726    1.824    0.452
       201 -11.5826    191.5665     39.5368   5.9558473342e+01   3.2258570109e+01    0.2621674    0.2223045  -9.89 0.0006191062    1.258    0.205
       202 -11.4019    193.2204     36.0041   5.8211807150e+01   3.2280228486e+01    0.2477408    0.1775674  30.38 0.0006038274    1.614    0.380
       203 -12.4668    183.9772     38.9327   6.0576849069e+01   3.4348230333e+01    0.5710971    0.3718993 -74.37  0.001668951    2.061    0.515
       204 -10.4216     61.8680     40.1371   9.3569706525e+01   6.1473137142e+01    0.1778355    0.1417684 -18.90  0.001040663    1.275    0.216
       205 -10.3258    208.2957     38.9922   5.6955493963e+01   2.7952126480e+01    0.2058568    0.1830737 -27.27 0.0003225243    1.118    0.105
       206 -11.1879     92.9784     38.3997   8.1787411133e+01   5.6512389122e+01    0.2780286    0.1853181 -49.38  0.000959626    1.647    0.393
       207 -10.7776    196.1687     38.1900   5.8445013988e+01   3.1220766455e+01    0.2263818    0.1953693  31.62 0.0006330202    1.238    0.192
       208 -10.0480    131.6500     37.2652   7.0451580905e+01   4.8133843033e+01    0.2101802    0.1708738  15.44 0.0003682694    1.336    0.252
       209 -11.9591    133.5533     34.0169   6.8774969277e+01   4.8145501259e+01    0.5421776    0.2703764  36.81 0.0006378797    2.385    0.581
       210 -11.7474    233.2026     35.5200   5.2889843996e+01   2.2110365826e+01    0.2560866     0.235984 -29.18 0.0004292267    1.064    0.060
       211 -12.4746    199.5667     33.2041   5.6435653633e+01   3.0957259666e+01    0.3591294    0.3101844 -54.94 0.0008567483    1.169    0.144
       212 -11.8855    145.6812     34.0579   6.6072021051e+01   4.5086105687e+01    0.4514535    0.2784252 -47.55  0.001649762    1.815    0.449
       213 -10.1058    171.3800     33.6645   6.0978880309e+01   3.8396802375e+01    0.2313315    0.1693239 -64.46 0.0006058448    1.606    0.377
       214 -11.2866    166.7313     32.4698   6.1394257504e+01   3.9790405958e+01    0.2836249    0.2666252  88.33  0.000455013    1.099    0.090
       215 -10.4180     99.6927     32.9798   7.7488334868e+01   5.6060254446e+01    0.2111895    0.1710545 -27.25  0.001140676    1.180    0.153
       216 -10.8041     55.2461     33.5527   9.3698680820e+01   6.3653924934e+01    0.1664215    0.1206238  13.00 0.0009401765    1.607    0.378
       217 -12.0715    182.2747     27.8581   5.7284441790e+01   3.6215292392e+01     0.334323    0.2618701 -52.88 0.0003861034    1.339    0.253
       218 -10.0515    178.2924     26.6274   5.7497321996e+01   3.7432915227e+01    0.1615119    0.1072035 -57.68 0.0007024505    1.728    0.421
       219 -11.0586    148.0724     29.1870   6.3792845112e+01   4.5131035050e+01    0.3736633    0.2380256  83.39  0.001557268    2.094    0.522
       220 -12.3741    189.2018    241.7946   1.0391132658e+02   2.7368558051e+00     0.440201    0.1315327  35.88    0.0019139    3.076    0.675
       221 -10.8077    187.5106     32.5142   5.7979585561e+01   3.4239554952e+01    0.2539765    0.1471739  81.21  0.001020763    2.092    0.522
       222 -11.8178    203.4778     28.5187   5.4492385125e+01   3.0497200891e+01    0.2871517    0.2521184 -55.70 0.0008245721    1.133    0.118
       223 -10.9384     32.9070    242.6673   1.2964106692e+02   2.3844377351e+01    0.1393629   0.08782823  57.65 0.0007226444    1.091    0.084
       224 -11.5444     59.3867    215.6943   1.2378762968e+02   2.5186521563e+01    0.2503785    0.2431058  79.03  0.002127713    1.541    0.351
       225 -11.7710    188.4317     27.4901   5.6248418820e+01   3.4611259407e+01    0.2892957    0.2837884  58.41 0.0006023279    1.026    0.026
       226 -10.7263    161.8556     27.3457   6.0496131704e+01   4.1743276858e+01    0.2311971    0.1871132 -89.30 0.0004570076    1.383    0.277
       227 -11.8247     76.7951    201.1486   1.1945781160e+02   2.5498714027e+01    0.3194183    0.1743012 -69.25   0.00137154    1.949    0.487
       228 -10.5070    236.6339     25.6854   4.9888873610e+01   2.2415593530e+01    0.1441968    0.1003842  32.74 0.0007038841    1.769    0.435
       229 -11.2359    210.2636     25.4195   5.2720108020e+01   2.9086406277e+01    0.2824333    0.1285366  62.62  0.001135322    2.102    0.524
       230 -12.4140    226.2405     23.9269   5.0484711751e+01   2.5175953333e+01     0.486324    0.1504076  59.07  0.001736317    2.969    0.663
       231  -9.5710    101.7098     24.6917   7.3406609607e+01   5.6898431952e+01    0.1444313    0.1039335  13.73 0.0002292492    1.579    0.367
       232 -10.8783    106.9080     22.4498   7.0951431946e+01   5.6072893412e+01    0.2511995    0.1928759 -14.22 0.0003020567    1.304    0.233
       233 -11.7026    235.1469     21.9617   4.9043384133e+01   2.3191771039e+01    0.2156949    0.1935409  86.73  0.000291917    1.128    0.114
       234 -10.3540    175.0600     22.5452   5.6643040768e+01   3.8786493311e+01     0.224486    0.1428392  66.37 0.0004726557    1.530    0.347
       235 -11.8890    214.9942     31.9841   5.4046953457e+01   2.7092737245e+01    0.4198961    0.2138279  76.35  0.001169748    2.242    0.554
       236 -10.7221     21.7190    243.1521   1.3136505307e+02   2.4914051148e+01    0.1531766   0.08371736  56.43 0.0003261358    1.220    0.180
       237 -10.1191      2.3904    242.7476   1.3421843357e+02   2.6807643890e+01    0.1093015   0.06752077 -84.50 0.0008074028    1.607    0.378
       238 -10.6917     13.5214    242.0265   1.3255554353e+02   2.5883677556e+01    0.1287856   0.07132407  88.93 0.0008581906    1.589    0.371
       239 -10.4068    194.0108     19.7222   5.3036032810e+01   3.4017955324e+01    0.2000967    0.1802443  68.48 0.0002127295    1.084    0.078
       240 -10.2547     92.0228    241.0352   1.2005584448e+02   1.7041976931e+01    0.1575841    0.1119411  55.17 0.0003079882    1.010    0.010
       241  -9.9708     56.9250    241.4980   1.2581215244e+02   2.1359685616e+01    0.1426567   0.07384688  45.62 0.0003395903    1.472    0.321
       242 -10.5769    182.6306     16.1267   5.3411065972e+01   3.7466209943e+01     0.267084    0.2004345  88.40  0.001318265    1.408    0.290
       243 -10.9489    126.9877    238.2751   1.1393930627e+02   1.2543136862e+01    0.2586467    0.1345287  42.11 0.0009911563    1.471    0.320
       244 -10.5948    222.3272     13.2979   4.7936227989e+01   2.7312479632e+01    0.1416028     0.101663  36.77 0.0003171985    1.634    0.388
       245 -11.1772    205.9866     12.9653   4.9541917211e+01   3.1568769856e+01    0.2190858    0.2037183 -66.59 0.0005037157    1.034    0.033
       246 -10.8086    103.1948    236.6111   1.1782535879e+02   1.6170544354e+01    0.2177869    0.1021211  76.62 0.0009574377    4.334    0.769
       247 -12.0765    234.9515    235.2609   9.5701915311e+01  -3.4222464603e+00    0.2563864    0.1529805  40.51  0.001531329    1.423    0.297
       248 -10.0288     53.0205    236.0031   1.2613128346e+02   2.2653617870e+01    0.1229709   0.08366631  59.66 0.0009710956    1.029    0.029
       249  -9.8654    223.2878    235.3062   9.7545447389e+01  -1.7169667558e+00    0.1099423   0.06609671  19.41 0.0002212217    1.570    0.363
       250  -9.6547     76.6758     11.6856   7.5519491825e+01   6.3785080225e+01    0.1390652   0.09392463  11.04  0.000557446    1.663    0.399
       251 -12.2160    192.7365    233.1609   1.0222773292e+02   3.1499871392e+00    0.2845897     0.189912 -12.60  0.001410312    2.061    0.515
       252 -10.5237     31.9945    234.4976   1.2942554221e+02   2.5200209903e+01    0.2186876   0.06310961  65.46  0.001051679    3.544    0.718
       253 -11.4980    245.7787    233.5497   9.3779442572e+01  -4.8205100339e+00    0.2047008    0.1241733  16.13 0.0007738216    1.442    0.307
       254 -10.7469    249.8538    232.3442   9.2979013894e+01  -5.2907835972e+00    0.1580563    0.1317021   0.12 0.0006758702    1.354    0.261
       255 -12.7983    176.0637    230.7809   1.0472632533e+02   6.0286618321e+00    0.4123684    0.2947844  31.84  0.002879948    1.196    0.164
       256 -11.2634    144.7565    231.0541   1.1013900106e+02   1.0864441512e+01    0.2030724    0.1406046  51.71 0.0003030711    1.189    0.159
       257 -10.8570     81.7284    230.2699   1.2096821845e+02   2.0016757118e+01    0.1727546    0.1422499  50.60 0.0003419263    1.270    0.213
