#   1 NUMBER                 Running object number                                     
#   2 MAG_AUTO               Kron-like elliptical aperture magnitude                    [mag]
#   3 X_IMAGE                Object position along x                                    [pixel]
#   4 Y_IMAGE                Object position along y                                    [pixel]
#   5 X_WORLD                Barycenter position along world x axis                     [deg]
#   6 Y_WORLD                Barycenter position along world y axis                     [deg]
#   7 A_WORLD                Profile RMS along major axis (world units)                 [deg]
#   8 B_WORLD                Profile RMS along minor axis (world units)                 [deg]
#   9 THETA_WORLD            Position angle (CCW/world-x)                               [deg]
#  10 FWHM_WORLD             FWHM assuming a gaussian core                              [deg]
#  11 ELONGATION             A_IMAGE/B_IMAGE                                           
#  12 ELLIPTICITY            1 - B_IMAGE/A_IMAGE                                       
         1  -8.7767    111.9468     34.4024   8.8857355856e+01   5.2711836342e+01    0.3198398    0.1910109 -38.65  0.000777798    1.689    0.408
         2  -8.9012     12.8798     30.4457   1.2644804226e+02   6.7243996302e+01    0.2879874    0.1441635 -68.96 0.0009202342    1.812    0.448
         3  -7.7780     17.1914     14.1788   1.1908905726e+02   7.0364907422e+01    0.1469703    0.1277518 -62.74 0.0004384546    1.340    0.253
         4  -7.9283     47.6293      9.8900   1.0167126614e+02   6.8123705259e+01    0.1794889     0.105628 -45.69  0.000933394    1.729    0.422
         5  -7.9417     27.8522      9.8905   1.1162631419e+02   7.0340822684e+01    0.1594638    0.1285039 -50.73 0.0006420193    1.339    0.253
         6  -7.9314     90.8420      9.0392   8.4017280770e+01   6.0858771998e+01    0.2212205    0.1492742 -47.86 0.0006810105    1.994    0.499
         7  -8.4597     55.6689     10.2761   9.8172334753e+01   6.6941277694e+01    0.2102186    0.1754071 -33.28 0.0007000632    1.264    0.209
         8  -7.6709    101.4630      8.4126   8.0439596098e+01   5.8656729478e+01     0.143162    0.1263665   9.32 8.600189e-05    1.043    0.042
         9  -7.5557     68.7497      7.6586   9.1282704381e+01   6.5252043557e+01    0.1380767   0.09072132  -2.96 0.0002909892    1.572    0.364
        10  -8.4574     33.6521      5.5386   1.0645097040e+02   7.0549997415e+01    0.2427061     0.173503 -67.72  0.001295752    2.551    0.608
        11  -8.8167    235.3809      4.4746   5.7047536910e+01   2.4644661146e+01    0.2998615    0.1940242   6.21  0.001478212    1.795    0.443
        12  -8.5412     79.0326      3.6435   8.5269935884e+01   6.3910685453e+01    0.2642125     0.166302 -36.50  0.001258067    1.701    0.412
        13  -7.5530     44.6707      3.3274   9.9650812332e+01   6.9595413047e+01    0.1137824    0.0993475 -55.41 0.0007050961    1.707    0.414
        14  -8.1641     16.2944      3.6160   1.1515435952e+02   7.2484024339e+01    0.1070837   0.08866289 -75.72 0.0007017155    1.763    0.433
        15  -7.7347    115.4871      2.4909   7.3894749401e+01   5.6043860021e+01    0.1468085     0.129596  18.33 -5.669417e-05    1.022    0.022
        16  -8.1616     62.1180      1.4629   9.0640330755e+01   6.7253361689e+01    0.1724901    0.1252239  37.71 0.0004971194    1.496    0.331
        17  -7.4070     39.4704      1.4882   1.0125667189e+02   7.0558585675e+01    0.1277566   0.09909072 -20.30 7.267913e-05    1.014    0.014
        18  -8.1580     67.7012    245.2202   1.3768767034e+02   2.0191091600e+01    0.1643817   0.09076069  77.37  0.001165464    1.917    0.478
        19  -9.1358    211.1935    247.2356   1.1493921186e+02   1.0301942485e+00    0.2395901    0.1774908 -52.84  0.001704199    2.699    0.630
        20  -8.4743     94.0064    249.4799   1.3386899374e+02   1.6590720827e+01    0.2104253    0.1007698  62.98  0.001348926    2.254    0.556
        21  -9.1964      9.4747    244.2326   1.4626170996e+02   2.6014145415e+01    0.1917169   0.06738444 -88.69  0.001315056    2.741    0.635
        22  -8.9954    201.9903    243.4653   1.1592598227e+02   2.6727869774e+00    0.1511242    0.1497218 -89.46 0.0008088436    1.692    0.409
        23  -8.7760    169.1802    243.2449   1.2120292363e+02   7.3666972212e+00    0.1883689    0.1332825  49.91 0.0006495834    1.383    0.277
        24  -9.5252    160.4740    240.6977   1.2234955592e+02   8.8814882974e+00    0.2953291    0.2095318  88.98  0.001823893    2.782    0.641
        25  -8.5771     77.6735    243.3408   1.3602144918e+02   1.9322350077e+01    0.1552233   0.07750279  59.88 0.0009552377    1.739    0.425
        26  -9.1639    194.4689    240.1955   1.1672998577e+02   4.0647907365e+00    0.2050108    0.1853434 -72.79  0.001046706    1.931    0.482
        27  -9.2293    183.0328    240.1122   1.1858079019e+02   5.7195966553e+00    0.2938458    0.1828099  57.38  0.001527974    2.209    0.547
        28  -8.0328    113.4264    248.5494   1.3073385805e+02   1.4302536953e+01    0.1388463   0.08879193 -86.69 0.0009441532    2.242    0.554
        29  -8.5140    147.2926    241.0559   1.2455817611e+02   1.0690925156e+01    0.2659429    0.1558732  70.05  0.001480286    3.253    0.693
        30  -8.2532     88.1731    242.1716   1.3428135345e+02   1.8249222594e+01    0.1372541    0.1070132  52.62 0.0007019361    1.108    0.097
        31  -8.8409    135.5565    239.0470   1.2629645174e+02   1.2553247756e+01    0.2245512    0.1102133  51.94  0.001350472    1.835    0.455
        32  -8.4354    129.0184    238.9437   1.2736847818e+02   1.3455554584e+01    0.1665589    0.0985634  58.44 0.0008100951    1.723    0.420
        33  -9.0427    230.9506    236.9464   1.1047418507e+02  -8.4976764265e-01    0.1870837     0.179984  33.87 0.0009859811    1.824    0.452
        34  -8.1381    209.0408    238.3107   1.1413832626e+02   2.1496138222e+00     0.151604    0.1082367  29.85 0.0006677699    1.054    0.051
        35  -8.5397     25.5363    236.8981   1.4369711186e+02   2.5628381206e+01    0.2445854   0.07225764  75.54  0.001174269    4.703    0.787
        36  -9.0090    217.0309    235.5371   1.1248755447e+02   1.2574816263e+00    0.2137109    0.1588516  43.95   0.00115569    1.528    0.346
        37  -9.2645    213.9124    231.9457   1.1250080691e+02   2.0439971853e+00    0.2234076    0.1840434  52.73  0.001680923    1.770    0.435
        38  -8.9844    203.2002    234.8027   1.1462388569e+02   3.3314227879e+00    0.2048232    0.1687412 -44.78  0.001202749    1.928    0.481
        39  -9.6214    175.9100    233.5854   1.1897440167e+02   7.4531193098e+00    0.3285041    0.2132234 -58.91  0.002132296    2.731    0.634
        40  -8.2403    170.4616    236.0282   1.2017155859e+02   7.9749766368e+00    0.1225082     0.108962 -38.55 0.0005382707    1.557    0.358
        41  -9.3965    109.2496    234.5468   1.3025515364e+02   1.6646964647e+01    0.4097888    0.1473731  50.67  0.001788783    2.381    0.580
        42  -8.6247     79.0502    234.5462   1.3522404816e+02   2.0376217852e+01    0.2053283    0.1088247  66.31  0.001201787    1.883    0.469
        43  -8.8782      8.1409    235.1911   1.4619743711e+02   2.7403150683e+01    0.1296759   0.06636015  61.80 0.0008140613    1.337    0.252
        44  -8.3232    122.8669    234.1854   1.2794803618e+02   1.4894088598e+01    0.1656312    0.1085574  56.19 0.0009482939    1.376    0.273
        45  -8.2141     99.5747    234.2879   1.3183934875e+02   1.7918590851e+01     0.157593   0.09172522  63.11  0.001084872    1.699    0.412
        46  -9.2639     68.3068    232.4840   1.3682892664e+02   2.1901061958e+01    0.3669438     0.138431  62.26   0.00199167    2.961    0.662
        47  -8.3114    194.8011    233.0979   1.1577844689e+02   4.7319264786e+00    0.1614932    0.1213307  44.04 0.0008641887    1.356    0.263
        48  -8.0570    144.7875    233.2138   1.2416222660e+02   1.1987531269e+01    0.2439889     0.100794  53.79  0.001206485    2.860    0.650
        49  -8.6713    140.0255    230.1850   1.2465037234e+02   1.3040089330e+01    0.1973123    0.1136217  51.20 0.0007218431    1.523    0.344
        50  -7.8880    132.9227    233.0023   1.2614269230e+02   1.3674069846e+01     0.169021    0.1033367  60.21 0.0009782909    1.781    0.439
        51  -7.6486     37.5284    233.5143   1.4174256660e+02   2.4980832743e+01   0.09484882   0.06323481  60.67 0.0002980755    1.049    0.047
        52  -9.2948    186.5650    230.8370   1.1685493019e+02   6.1841466003e+00    0.2369357    0.1934057  76.38   0.00136269    2.111    0.526
        53  -8.3010     92.1962    231.2230   1.3282244237e+02   1.9263469740e+01    0.2149437    0.1017046  63.12  0.001264301    2.381    0.580
        54  -8.9632      1.8254    231.3026   1.4700647761e+02   2.8486146607e+01    0.1529054   0.07867025  71.29  0.001274807    1.428    0.300
        55  -9.1282    236.2851    230.8119   1.0876670010e+02  -1.0803169327e+00    0.1988146    0.1436102  21.56 0.0007057207    1.086    0.079
        56  -9.1881    229.9579    229.0874   1.0951988477e+02  -2.3403649306e-02    0.1765861    0.1476734 -24.17 0.0009054805    1.706    0.414
        57  -9.2164    151.3091    228.6399   1.2255663755e+02   1.1619562315e+01    0.2263374    0.1699956  70.70  0.001500313    1.780    0.438
        58  -9.3050    148.6367    224.4878   1.2254789427e+02   1.2528739809e+01    0.2919531    0.1993424  72.84  0.001732563    2.229    0.551
        59  -8.7296    162.4377    228.0853   1.2059166539e+02   1.0062886577e+01    0.2411781    0.1221999  51.74  0.001087298    2.011    0.503
        60  -8.7332    127.9779    227.2862   1.2641338464e+02   1.5104772969e+01    0.2109634    0.1452959  68.97 0.0009657044    1.727    0.421
        61  -8.3266    120.2965    227.9937   1.2779906364e+02   1.6063833336e+01    0.2247231   0.09472257  55.65  0.001158109    2.649    0.623
        62  -7.8351    223.3656    227.1419   1.1029788735e+02   1.1120917570e+00    0.1415731    0.1012714 -13.52 0.0005051487    1.564    0.361
        63  -9.3886    225.3477    221.8253   1.0920181084e+02   1.3173978187e+00    0.2474621    0.1772413  -2.09 0.0006993375    1.405    0.288
        64  -8.8245    206.1890    225.8677   1.1292840349e+02   3.7797192430e+00    0.2117316    0.1535229 -31.60  0.001406727    1.806    0.446
        65  -8.0442     49.3811    226.6512   1.3953993544e+02   2.4799575917e+01    0.1657982   0.06815492  83.97 0.0009409516    3.078    0.675
        66  -8.3941    199.9374    226.1708   1.1400891994e+02   4.6844221346e+00    0.1624261    0.1257072  40.87   0.00073324    1.309    0.236
        67  -8.8616     94.3446    224.6643   1.3193828766e+02   1.9929723815e+01    0.2927781    0.1327468  60.15  0.001655982    2.396    0.583
        68  -8.9853    216.5805    223.7355   1.1091333122e+02   2.4391092394e+00    0.2042979    0.1867515  58.47  0.001110588    1.799    0.444
        69  -9.0044    180.6898    224.1944   1.1699344291e+02   7.7959009234e+00    0.2208903     0.183193  65.15  0.001051992    1.700    0.412
        70  -8.9089    104.7593    223.7953   1.3007882297e+02   1.8718431194e+01    0.2625162    0.1588934  74.09  0.001702809    2.066    0.516
        71  -8.6699    172.9603    223.1420   1.1818274489e+02   9.0827147441e+00    0.1810212    0.1538464  81.51 0.0008494495    1.800    0.445
        72  -8.0303    113.8326    224.0560   1.2853681643e+02   1.7478599834e+01    0.1670216    0.1014264  69.01 0.0008373709    2.006    0.502
        73  -8.0501     59.9633    223.9686   1.3766243623e+02   2.4075917215e+01    0.1693552   0.08179983  61.30  0.001122079    1.798    0.444
        74  -7.6032     38.2938    224.6354   1.4121133398e+02   2.6219860215e+01    0.1024055    0.0485329  63.21 0.0004909323    1.711    0.416
        75  -9.3702    192.5236    221.3586   1.1460021990e+02   6.3184929977e+00     0.260644    0.2180848  67.29  0.001279668    1.858    0.462
        76  -9.3776    160.2186    221.1649   1.2014325241e+02   1.1236213341e+01    0.4773724    0.1853144  52.87  0.001591107    3.457    0.711
        77  -9.4302    239.3034    220.8699   1.0681241744e+02  -6.4767249628e-01    0.2917108    0.1769069  -9.53  0.001240451    1.721    0.419
        78  -8.4726     82.5153    220.4539   1.3362580038e+02   2.2009117165e+01    0.2254912    0.1067048  62.99 0.0008347534    2.253    0.556
        79  -8.1961     73.0088    220.5244   1.3525238658e+02   2.3125687294e+01    0.1991966   0.08344658  68.36  0.001000946    3.314    0.698
        80  -7.7042     27.5236    221.5364   1.4277945227e+02   2.7717115792e+01    0.0936424   0.06610429  63.29 2.148627e-05    1.012    0.012
        81  -8.3138    202.6568    220.1429   1.1271603092e+02   4.9047034265e+00    0.1449984    0.1351567  21.40 0.0007716478    1.406    0.289
        82  -9.1039    120.2305    219.1879   1.2694472114e+02   1.7289329452e+01    0.3000496     0.161424  63.42  0.001697196    2.372    0.578
        83  -7.9140      5.7994    219.4224   1.4607844411e+02   2.9933393099e+01    0.1620012   0.05661358 -87.74  0.001035062    2.620    0.618
        84  -9.5093    248.5278    216.6185   1.0469297550e+02  -1.6136116150e+00    0.4745322    0.3374449 -20.43  0.003461203    1.655    0.396
        85  -8.4128    209.9490    219.1894   1.1135528343e+02   3.8931841742e+00    0.1630713    0.1267152  35.56 0.0005332145    1.246    0.197
        86  -9.1189    132.9695    216.3992   1.2439220010e+02   1.5878206135e+01    0.3740476    0.2094759  69.18   0.00190924    3.124    0.680
        87  -8.5809     62.5082    217.5290   1.3682822470e+02   2.4775813146e+01    0.2730189   0.09841619  58.62  0.001450032    2.743    0.635
        88  -8.9553     51.5293    216.9832   1.3864273852e+02   2.6047046944e+01    0.2033996    0.1172603  87.42  0.001110711    1.720    0.418
        89  -8.7195    169.2199    216.4250   1.1796978164e+02   1.0460745507e+01    0.2035908    0.1600832  83.15   0.00089936    2.108    0.526
        90  -8.6450    143.0644    216.6240   1.2262149194e+02   1.4375159521e+01    0.2163581    0.1541533  69.83  0.001427373    1.831    0.454
        91  -7.8580    112.0386    217.5058   1.2822320406e+02   1.8652687139e+01    0.1570776   0.06693038  54.64  0.000807609    2.400    0.583
        92  -8.3025     18.3470    216.8655   1.4404061045e+02   2.9263861602e+01    0.1751611   0.06686037  87.45  0.001094337    2.550    0.608
        93  -8.7587    232.5078    214.9584   1.0699612746e+02   8.9690314306e-01    0.2117882    0.1815405 -32.64  0.001173057    1.816    0.449
        94  -8.5794    185.8263    214.3439   1.1478305767e+02   8.1442322456e+00    0.2057387    0.1517269 -47.28  0.001050711    1.940    0.484
        95  -8.3161    154.4692    215.1169   1.2041213576e+02   1.2872748627e+01     0.136123    0.1149711 -49.09 0.0005868615    1.549    0.354
        96  -8.7370     93.3838    214.3389   1.3123017566e+02   2.1579912243e+01    0.3021914    0.1350878  57.97  0.001298733    2.310    0.567
        97  -9.7546    214.0452    211.3135   1.0949454244e+02   4.0800261939e+00    0.3622806    0.2948522 -27.75   0.00176039    1.603    0.376
        98  -9.3920     73.3215    212.1373   1.3458430650e+02   2.4379576469e+01    0.4913579    0.1632744  58.06  0.002234856    3.590    0.721
        99  -8.6216    224.7554    212.5695   1.0789733708e+02   2.3012805667e+00    0.1912405    0.1489807 -28.90  0.001369791    1.704    0.413
       100  -8.9054    161.8835    212.4856   1.1875715192e+02   1.2084537122e+01    0.1798409     0.153095  70.02 0.0007893068    1.521    0.343
       101  -9.0444    204.4033    211.1762   1.1111403153e+02   5.5991758428e+00    0.2098632    0.1897226 -26.99 0.0008822498    1.524    0.344
       102  -9.5786    175.6851    210.3802   1.1601605900e+02   1.0206178979e+01    0.3476186    0.2344713  65.34  0.001343362    2.392    0.582
       103  -7.7996    106.4791    212.5291   1.2872927325e+02   2.0136440914e+01    0.1103364   0.08436828  52.83 7.687758e-05    1.049    0.046
       104  -9.1685      6.1478    208.4898   1.4567514762e+02   3.1609112877e+01    0.2599862   0.08511556  73.60  0.001496108    2.835    0.647
       105  -8.2580    192.2987    210.4636   1.1310210714e+02   7.5818704130e+00     0.157928    0.1435884 -76.25 0.0008298202    1.789    0.441
       106  -8.9336    147.7725    210.5020   1.2104247073e+02   1.4502185393e+01    0.2576918    0.1616654  57.47  0.001411978    1.759    0.432
       107  -8.9360    116.4916    210.4635   1.2671381192e+02   1.9071622140e+01    0.2978991    0.1491463  58.66  0.001074024    2.259    0.557
       108  -8.1255     32.7475    211.1303   1.4145646064e+02   2.8850428419e+01    0.1794345   0.05809472  61.56 0.0009545541    2.890    0.654
       109  -9.2832    236.5964    208.2060   1.0526170591e+02   9.2054578835e-01    0.2438868    0.2267084 -29.09  0.001241883    1.784    0.439
       110  -8.5582     85.6086    209.6319   1.3220698367e+02   2.3285927457e+01    0.2637286    0.1181176  61.26  0.001143898    2.512    0.602
       111  -7.6635    179.3184    217.6830   1.1637158675e+02   8.7587648925e+00    0.1071694   0.07966579  56.91 0.0007040089    1.656    0.396
       112  -9.4929    246.3505    207.3184   1.0354234558e+02  -4.6589639219e-01    0.2396255    0.1709929   2.93  0.000552049    1.232    0.188
       113  -9.5458    250.1151    202.0399   1.0206251436e+02  -5.4571079675e-01    0.3559006    0.1636984 -22.52  0.001252261    2.284    0.562
       114  -8.0626    156.4172    208.1955   1.1918308386e+02   1.3492478293e+01    0.1323838    0.1119441 -74.21 0.0005693447    1.656    0.396
       115  -8.1947    139.0493    208.0545   1.2232996290e+02   1.6155353851e+01    0.1724418    0.1215375  65.49 0.0005733932    1.687    0.407
       116  -8.1858    126.2068    208.3201   1.2471040367e+02   1.8006525486e+01    0.1532037    0.1103985  60.83 0.0008205299    1.394    0.283
       117  -9.1892     99.3744    206.1288   1.2939608257e+02   2.2064291429e+01     0.284824    0.1619529  68.28  0.001439985    2.093    0.522
       118  -8.7198     56.6497    205.8553   1.3706214948e+02   2.7269016061e+01    0.3117906    0.1176442  59.34  0.001570301    2.607    0.616
       119  -9.3844    194.9070    203.7260   1.1164200017e+02   7.9547446929e+00    0.3303785    0.2599327  45.96  0.001599447    1.377    0.274
       120  -9.3532    192.4272    197.5090   1.1112377230e+02   9.1069977638e+00    0.3586836    0.2591623  60.57  0.001400814    2.006    0.501
       121  -9.1919    183.7789    204.0918   1.1367502064e+02   9.7000641906e+00    0.2753477    0.2001833  56.14  0.001071759    1.697    0.411
       122  -8.6678    131.3904    204.0105   1.2325547525e+02   1.7881152262e+01     0.239913     0.160896  70.54  0.001013364    1.950    0.487
       123  -8.1536    109.0683    205.2914   1.2753104014e+02   2.0883715727e+01     0.185283    0.0971344  58.19 0.0008810813    1.984    0.496
       124  -7.7041     92.3441    205.6358   1.3063470668e+02   2.3061144917e+01     0.117993   0.06639584  63.90 0.0001128698    1.851    0.460
       125  -7.9573     25.3035    205.6649   1.4243581962e+02   3.0422216737e+01    0.1039948   0.04979148  63.19 0.0007037803    1.664    0.399
       126  -9.5414    163.7907    203.0316   1.1714437759e+02   1.3031150546e+01    0.3399172     0.194642  54.87 0.0009482626    2.011    0.503
       127  -8.6208    210.9621    201.8327   1.0854163375e+02   5.5889510409e+00    0.2178854    0.1606511 -49.57 0.0009032461    2.256    0.557
       128  -8.7128     48.8271    202.7031   1.3823257740e+02   2.8617865245e+01    0.2041629   0.09624097  70.23  0.001111273    2.141    0.533
       129  -9.2929    243.0413    200.8323   1.0299703231e+02   6.4178395388e-01     0.244291     0.153521 -23.27 0.0007591331    1.743    0.426
       130  -8.2375    228.4531    201.5166   1.0551549702e+02   2.8407665646e+00     0.193407    0.1001475 -12.43  0.001032754    2.338    0.572
       131  -8.8737    140.7113    201.2572   1.2118044103e+02   1.6881081054e+01    0.2872728    0.1788673  63.13  0.001188683    2.051    0.512
       132  -8.5340     79.8031    201.1805   1.3253467054e+02   2.5356254594e+01     0.281656    0.1370207  69.07  0.001502815    2.611    0.617
       133  -8.0762    221.7565    201.1799   1.0658820710e+02   3.9347027382e+00    0.1562385    0.1468341  -4.94 0.0009840212    1.503    0.335
       134  -9.2962    236.9721    197.9203   1.0349827625e+02   1.8671570003e+00    0.3269712    0.1942516 -24.87  0.001665242    1.844    0.458
       135  -9.4158    149.4775    198.3664   1.1916007668e+02   1.5940543781e+01    0.3444084    0.2437949 -79.14  0.001253084    2.330    0.571
       136  -8.8789    123.8074    199.1175   1.2409324380e+02   1.9737251954e+01    0.2594257    0.1805669  75.91  0.001327562    1.845    0.458
       137  -9.2849    113.0988    198.5767   1.2605473914e+02   2.1367170159e+01     0.378162    0.2014369  66.88  0.001797676    2.743    0.635
       138  -9.0507     88.6462    198.6213   1.3066277945e+02   2.4665687803e+01    0.2791009    0.1654395  71.54  0.001710756    1.903    0.474
       139  -8.4829    177.1101    199.1622   1.1415152476e+02   1.1402387041e+01    0.2108132    0.1415861  51.61 0.0006197492    1.578    0.366
       140  -8.5986    202.1305    197.7200   1.0942787782e+02   7.4906933603e+00    0.1745242     0.160364 -18.59 0.0004975611    1.410    0.291
       141  -9.3101     61.5505    197.0902   1.3555576227e+02   2.8179257961e+01    0.3330002    0.1504173  67.78  0.001505444    2.536    0.606
       142  -8.8702     12.7765    197.4742   1.4418378774e+02   3.2859924577e+01    0.2381527   0.08717819  75.92  0.001373504    2.611    0.617
       143  -8.2032    133.0203    196.0228   1.2196569529e+02   1.8834142734e+01    0.1798812    0.1252769  64.58 0.0006420814    1.650    0.394
       144  -7.8268     36.3015    196.6898   1.4008009731e+02   3.0880598044e+01    0.1060089   0.05508404  63.41 0.0003057188    1.605    0.377
       145  -8.4153    230.8861    194.5809   1.0394318760e+02   3.1717296886e+00    0.1759761    0.1298742 -19.04 0.0007004609    1.485    0.327
       146  -8.9829    224.4434    193.9622   1.0492832963e+02   4.2748922718e+00    0.3126583    0.1771371 -32.83  0.001323365    2.099    0.524
       147  -7.3911    209.3136    195.6829   1.0783290759e+02   6.5509021228e+00    0.1071695   0.09190565  55.22 0.0005536664    1.646    0.392
       148  -8.7264    185.3089    194.9368   1.1201057138e+02   1.0602845729e+01    0.2145237    0.1708992  43.64 0.0006301101    1.255    0.203
       149  -8.9872    160.9389    194.4149   1.1645293345e+02   1.4673176865e+01    0.2667337    0.1779407  60.30 0.0008515382    1.887    0.470
       150  -8.9875     43.9750    193.5600   1.3851496328e+02   3.0654292930e+01    0.3825386    0.1587811  67.69  0.002090583    2.578    0.612
       151  -9.7122    245.7673    192.1944   1.0106762893e+02   1.0571503573e+00    0.3896864     0.205086 -14.48  0.002028192    1.975    0.494
       152  -8.7937     76.9997    193.8672   1.3241492688e+02   2.6915719874e+01    0.1768707    0.1370572  82.50 0.0006477089    1.237    0.191
       153  -8.0186    198.9146    191.9787   1.0907067977e+02   8.7112395348e+00    0.1694713    0.1437427  60.67 0.0005470827    1.672    0.402
       154  -8.0336    179.0072    191.9601   1.1270559804e+02   1.2037382737e+01    0.1733529    0.1415824  63.36 0.0005024822    1.627    0.385
       155  -8.5660    172.5771    191.8347   1.1388408858e+02   1.3122542223e+01    0.2083446    0.1753464  72.59  0.000989156    1.659    0.397
       156  -9.1763    139.5753    190.6146   1.1999618717e+02   1.8647941999e+01    0.3147018    0.2165617  75.70  0.001077335    2.159    0.537
       157  -8.3927     21.4672    191.1494   1.4240435129e+02   3.3189127599e+01    0.3303138   0.07839547  62.65  0.001260243    5.539    0.819
       158 -10.4031     91.9793    188.6153   1.2903221105e+02   2.5903040870e+01    0.7483473    0.2010415  48.96   0.00300204    3.560    0.719
       159  -8.7546    215.8383    195.7923   1.0671461584e+02   5.4722590399e+00     0.215671    0.1659749 -42.20 0.0009576317    1.913    0.477
       160  -8.6622    148.7053    189.2625   1.1804333182e+02   1.7400924454e+01    0.2366013    0.1634489 -71.30  0.001005862    2.234    0.552
       161  -8.3672    237.2030    188.4889   1.0182431067e+02   2.7916117333e+00    0.2036311    0.1450953 -11.03 0.0007089002    1.380    0.275
       162  -9.1220    216.6107    188.0013   1.0525814291e+02   6.2266459213e+00     0.266984    0.1960816 -30.00  0.001139079    1.628    0.386
       163  -9.3527    155.9986    187.4074   1.1636536627e+02   1.6490819880e+01     0.290062     0.199706 -58.88 0.0008858411    1.987    0.497
       164  -8.9710    129.2818    188.6403   1.2173419960e+02   2.0553868797e+01    0.2468048    0.1681789  67.20 0.0009791245    1.780    0.438
       165  -9.9475    120.9601    186.8401   1.2313573298e+02   2.2105358717e+01     0.450442    0.2599389 -79.42  0.002236899    2.976    0.664
       166  -8.8162     34.2776    188.2066   1.3994768287e+02   3.2531588330e+01    0.2703783    0.1204935  74.21  0.001069382    2.271    0.560
       167  -8.7176    191.4623    187.2374   1.0964387200e+02   1.0561758351e+01    0.2404468    0.2019144 -72.46  0.001125745    2.020    0.505
       168  -9.1595     54.9505    187.0798   1.3602427604e+02   3.0629646279e+01    0.3453911    0.1543091  67.81  0.001717107    2.530    0.605
       169  -8.6147    249.3072    185.8253   9.9356196449e+01   1.1289628538e+00    0.2287939    0.1734695 -36.99  0.001001536    1.991    0.498
       170  -7.7807    230.5073    187.5303   1.0278080317e+02   3.9808640356e+00    0.1212652   0.09668526  22.13 0.0002529346    1.132    0.117
       171  -8.8331    164.9340    186.8751   1.1456805519e+02   1.5088561599e+01     0.223148    0.1897289  73.10  0.001007031    1.560    0.359
       172  -9.2202    109.5026    186.1165   1.2530968847e+02   2.3906771381e+01    0.3191737      0.20302  72.67  0.001200222    1.987    0.497
       173  -8.6543    182.8146    185.0717   1.1089218038e+02   1.2319393272e+01    0.2030569    0.1944945 -10.40 0.0007761764    1.288    0.224
       174  -8.8034    210.3696    184.2937   1.0571511348e+02   7.7131180493e+00    0.2160911    0.1739878 -20.81 0.0004888292    1.399    0.285
       175  -8.6505    202.8605    184.6347   1.0712346758e+02   8.9504767157e+00    0.2003489    0.1667586 -52.31 0.0008235318    1.837    0.456
       176  -8.9787     66.8569    184.6223   1.3353940507e+02   2.9725518094e+01    0.3191841    0.1477867  59.77   0.00122238    2.179    0.541
       177  -8.1250     11.7645    184.5252   1.4381162463e+02   3.5150803914e+01    0.2509788   0.06154507  68.41 0.0009032547    6.194    0.839
       178  -8.8725    224.1055    183.7043   1.0319715738e+02   5.4630269074e+00    0.1850289    0.1585565 -11.67 0.0005026437    1.341    0.254
       179  -8.4842    197.2466    183.4308   1.0793933758e+02   1.0063240516e+01    0.1863973    0.1561079 -57.37 0.0009920031    1.854    0.461
       180  -8.9691    174.2352    183.6589   1.1228338333e+02   1.3976865491e+01    0.2360163     0.217911 -89.25 0.0009701127    1.499    0.333
       181  -9.1638    241.3060    181.9338   9.9959274499e+01   2.8103922714e+00    0.3294637    0.2493848 -56.01  0.001817583    2.961    0.662
       182  -9.1369     44.3181    182.4364   1.3770110906e+02   3.2567181454e+01    0.2783355    0.1397686  68.84  0.001092148    1.928    0.481
       183  -9.2480    147.6268    180.7465   1.1700549610e+02   1.8880360499e+01    0.3087823    0.2313616  82.16  0.001072091    1.980    0.495
       184  -9.4449     25.6542    178.8338   1.4099320962e+02   3.4984621824e+01    0.5539345    0.1776831  74.91  0.002258082    4.722    0.788
       185  -7.9974     19.3316    182.6443   1.4236396952e+02   3.4854014401e+01    0.1113898   0.05205699  63.79   0.00070444    1.788    0.441
       186  -8.6296    137.6897    179.4845   1.1880117599e+02   2.0700087387e+01    0.2349377    0.1752858  78.03  0.001262226    1.805    0.446
       187  -9.3431    191.3706    178.4064   1.0815943460e+02   1.1738485978e+01    0.2518987    0.1987457  48.69 0.0005916613    1.394    0.282
       188  -8.0681      1.8508    183.8552   1.4552661654e+02   3.6038189589e+01    0.1396288   0.07810596  61.48  0.001062037    1.351    0.260
       189  -9.1158     36.0120    176.9769   1.3891421995e+02   3.4368893320e+01    0.4054445    0.1512729  78.58  0.001820404    3.738    0.732
       190  -9.4695    248.5265    176.7675   9.7809898284e+01   2.1709946717e+00    0.3667744    0.2439193 -32.95  0.002211901    1.893    0.472
       191  -8.5903    250.5240    172.8766   9.6745391374e+01   2.2475549280e+00    0.2099175    0.1305273 -22.36 0.0006527742    1.617    0.382
       192  -9.0195    231.2482    177.0116   1.0074569811e+02   5.0139079061e+00    0.2165997    0.1541587 -32.24 0.0006558235    1.718    0.418
       193  -8.6947    217.6367    177.4439   1.0319675289e+02   7.2891260281e+00       0.2047    0.1923075 -60.35 0.0009076772    1.722    0.419
       194  -8.6461    205.0250    177.5553   1.0548426451e+02   9.4639248908e+00    0.2109257    0.1781086 -45.91 0.0008994242    1.683    0.406
       195  -8.6036    129.1694    177.5561   1.2024409405e+02   2.2374931878e+01    0.2474952    0.1774521  79.91 0.0009970339    1.902    0.474
       196  -7.9064     97.4436    177.7531   1.2673745746e+02   2.7049381475e+01    0.1442619    0.1081747 -50.74 0.0009352945    1.583    0.368
       197  -8.7919     89.0259    176.9642   1.2836261943e+02   2.8331075824e+01    0.2473482    0.1590319  77.73 0.0007653512    1.792    0.442
       198  -9.1452    183.1740    176.2564   1.0933613562e+02   1.3468396196e+01    0.2226349    0.2088805 -48.59 0.0005983221    1.410    0.291
       199  -9.3920    104.4280    174.9842   1.2496773893e+02   2.6554098551e+01    0.4294386      0.22003  63.63  0.001987646    2.696    0.629
       200  -9.3643     58.3238    174.9987   1.3438099162e+02   3.2432918736e+01    0.3893212    0.1580807  67.23  0.001711366    3.531    0.717
       201  -9.5002     56.0090    171.2650   1.3452121360e+02   3.3379807401e+01     0.584184    0.2295669  67.93  0.002410664    4.017    0.751
       202  -8.4583     12.8945    176.7892   1.4325264152e+02   3.6428353686e+01    0.1963418   0.08547897  69.53 0.0009127145    2.004    0.501
       203  -7.5924    211.4963    176.5359   1.0412715825e+02   8.4632538205e+00    0.1300896    0.1019505  21.74 0.0001803877    1.008    0.008
       204  -9.2527    158.9419    175.0512   1.1386323683e+02   1.7861301459e+01    0.3454784    0.2707993  89.11  0.001396079    1.973    0.493
       205 -10.7462     75.9921    170.4740   1.3033729859e+02   3.1193245060e+01    0.9462897    0.3661921 -79.34  0.003648018    4.542    0.780
       206  -8.6078     79.2209    158.6073   1.2830617605e+02   3.3037033154e+01    0.3227483    0.1141292  29.98   0.00127907    3.688    0.729
       207  -8.5809    224.5396    174.2706   1.0139411812e+02   6.4733613507e+00    0.2063254    0.1163121 -31.70 0.0008385272    1.974    0.493
       208  -9.5083    175.7076    172.2676   1.1008500675e+02   1.5355097416e+01     0.288157    0.2244244 -28.88 0.0009819834    1.450    0.310
       209  -8.3003    143.0004    172.9502   1.1674143179e+02   2.0892032375e+01    0.1939128    0.1452402  70.30 0.0007276181    1.705    0.413
       210  -8.8541    134.8864    171.8532   1.1823680947e+02   2.2411462337e+01    0.2096679    0.1797082  80.97 0.0007988454    1.363    0.267
       211  -9.6002    121.3867    170.3925   1.2082418823e+02   2.4817993513e+01    0.3300992    0.2281014 -86.67   0.00116378    2.030    0.507
       212  -9.1825     45.1316    171.1668   1.3670559255e+02   3.4543652887e+01    0.3021627    0.1506671  80.36  0.001372059    2.153    0.536
       213  -9.1260    230.5280    170.2030   9.9582333965e+01   5.9113672881e+00    0.2639616    0.1838976  -9.10 0.0008603357    1.381    0.276
       214  -8.2348    205.8804    170.7258   1.0407655325e+02   1.0186403779e+01    0.1970656    0.1682193 -64.57 0.0006539224    1.950    0.487
       215  -8.2689    237.1613    169.6508   9.8341956358e+01   4.8333722708e+00    0.1958258    0.1571408 -19.99 0.0007028224    1.400    0.286
       216  -8.3872    198.2917    170.1797   1.0538383033e+02   1.1615592519e+01    0.2155839    0.1642894  63.12  0.000822595    1.938    0.484
       217  -9.1250    167.3004    168.7826   1.1113857458e+02   1.7366103267e+01    0.3060071    0.2167419  66.04   0.00104589    2.030    0.507
       218  -8.2894    149.8174    169.7077   1.1483095703e+02   2.0268905999e+01    0.2124537    0.1627252  88.33 0.0007363508    1.962    0.490
       219  -7.4112     68.3489    170.6654   1.3193932152e+02   3.2085866023e+01    0.1236735   0.07082776  65.41 0.0007047683    1.778    0.437
       220  -8.3124    244.7854    169.2304   9.6983608377e+01   3.5866865743e+00    0.1794095    0.1517586  16.11 0.0008464647    1.229    0.186
       221  -8.6818    218.9643    168.5119   1.0128667753e+02   8.1379581387e+00    0.2046381    0.1754394 -31.04  0.000555716    1.492    0.330
       222  -8.5220     88.8030    168.6987   1.2745537451e+02   2.9866583255e+01    0.2219204    0.1356321  78.60  0.001020647    2.054    0.513
       223  -7.9595    211.1795    168.1799   1.0262647632e+02   9.5662495451e+00    0.1592234     0.152868  23.00 0.0005736533    1.377    0.274
       224  -8.7230    111.5764    167.5186   1.2248261390e+02   2.6833618326e+01    0.2687202    0.1636986  72.28  0.000942805    2.352    0.575
       225  -8.8816    191.9322    166.6166   1.0592527871e+02   1.3251088761e+01    0.2171943    0.1882472 -30.42 0.0006001803    1.359    0.264
       226  -8.8945    184.9900    166.7804   1.0729322418e+02   1.4487826655e+01    0.2106969    0.1830405 -25.35 0.0006387648    1.300    0.231
       227 -10.1093     94.9870    162.5607   1.2536797347e+02   3.0163214972e+01     0.735588    0.4303254  81.82  0.003214126    2.552    0.608
       228  -9.0998     20.5354    166.5174   1.4125796871e+02   3.7684756166e+01    0.2561314    0.1083908  54.18  0.001019006    2.007    0.502
       229  -9.8826    136.7483    164.5008   1.1669800241e+02   2.3351951636e+01    0.5599746    0.2504412  54.22  0.002310253    2.796    0.642
       230  -8.2974    239.8834    164.3320   9.6841507678e+01   4.9630684519e+00    0.1957304    0.1570933 -13.96 0.0006128214    1.300    0.231
       231  -8.2860    233.8625    165.0459   9.8005621844e+01   5.9275845465e+00    0.1786376    0.1611055  -3.89 0.0006293015    1.337    0.252
       232  -8.6265    159.7459    164.3672   1.1189423464e+02   1.9397494964e+01    0.2282411    0.1960827  76.21 0.0007814725    1.506    0.336
       233  -9.7022     33.6442    163.4535   1.3844171333e+02   3.7111873465e+01     0.502432    0.1417673  53.98  0.002236421    3.490    0.714
       234  -8.6796    212.8831    163.6643   1.0144506532e+02   9.8366360030e+00     0.222349    0.1808348 -28.02 0.0007134595    1.422    0.297
       235  -8.5256     57.3902    164.1461   1.3358780411e+02   3.4573754431e+01    0.3228131    0.1404878  22.25  0.001393128    4.056    0.753
       236  -9.0240    246.0292    162.9220   9.5536042876e+01   4.0637499733e+00    0.2565463    0.1580817 -21.65 0.0005913932    1.590    0.371
       237  -8.5617    204.9705    162.8495   1.0274450245e+02   1.1385800381e+01    0.2110503    0.1784191 -12.25 0.0005182312    1.232    0.188
       238  -9.3628      3.6187    162.4736   1.4432579918e+02   3.9749788164e+01    0.3367362    0.1190343  54.05  0.001860855    2.311    0.567
       239  -8.4040    222.1276    161.6163   9.9376376917e+01   8.4220483610e+00    0.2027003    0.1436276 -10.80 0.0006311188    1.383    0.277
       240  -8.8870    151.7222    161.1795   1.1299527091e+02   2.1337247303e+01     0.260096    0.1996676 -74.69 0.0009338961    1.875    0.467
       241  -9.0917    177.4725    160.5459   1.0761302667e+02   1.6782034781e+01    0.2469554    0.2241914  65.83 0.0007920358    1.399    0.285
       242  -8.7946     60.6641    160.3105   1.3251899482e+02   3.4946896095e+01    0.2974812     0.156326  70.42  0.001251897    2.188    0.543
       243  -8.1400    242.0432    159.9954   9.5611726632e+01   5.0780033564e+00     0.156246    0.1212736  10.15 0.0003179329    1.030    0.029
       244  -8.8017    227.4068    159.0992   9.7939525719e+01   7.7788955996e+00     0.272319    0.2019718 -49.40  0.001026912    2.174    0.540
       245  -9.6372    250.2099    157.7057   9.3798203362e+01   3.9202331149e+00    0.2984698     0.158665 -23.38 0.0008345501    1.815    0.449
       246  -7.9076    237.4359    159.0486   9.6197513652e+01   5.9947219114e+00    0.1848799    0.1152614 -21.11 0.0005921409    1.578    0.366
       247  -8.7115    196.6895    158.0235   1.0336383977e+02   1.3579811735e+01    0.2363893     0.214495 -66.66 0.0008981171    1.626    0.385
       248  -8.3942    128.1248    159.2073   1.1768496424e+02   2.5713620979e+01    0.2394817    0.1599676  56.72 0.0007410684    1.578    0.366
       249  -9.7267    105.6715    157.7643   1.2237126501e+02   2.9516861608e+01    0.3988632    0.2688261  79.23  0.001272467    1.925    0.481
       250  -8.0967    188.1215    157.8648   1.0499271095e+02   1.5204259477e+01    0.1880082     0.174543  36.37 0.0005488661    1.222    0.182
       251  -9.2407    167.5656    157.4193   1.0903121468e+02   1.9091997695e+01    0.2803437    0.2433785  85.13  0.001015816    1.592    0.372
       252  -8.6769    218.0049    156.5733   9.9102217372e+01   9.8096101059e+00    0.2307046     0.177972 -40.06 0.0009019394    1.686    0.407
       253  -9.1837    157.5883    156.1811   1.1087106151e+02   2.1116778906e+01    0.2645493    0.2183911 -88.74 0.0009263346    1.718    0.418
       254  -9.4556    119.5113    155.3118   1.1894190709e+02   2.7825317581e+01    0.3766612    0.2498841  88.88  0.001529887    2.338    0.572
       255  -9.4135     81.6900    154.6761   1.2727471056e+02   3.3482029456e+01    0.4330871    0.2397888  75.91  0.001463344    2.567    0.610
       256  -8.6445    144.6883    154.9713   1.1339126692e+02   2.3631764058e+01    0.2615111    0.2000331 -87.65  0.000904511    1.919    0.479
       257  -9.3259     49.7663    155.3657   1.3438445458e+02   3.7098562472e+01    0.3419836    0.1626764  59.84  0.001803751    2.156    0.536
       258  -9.8227    241.5522    154.4082   9.4553125215e+01   5.8029687607e+00    0.3830003    0.2933604  80.18  0.001859347    3.234    0.691
       259  -8.0860    204.6934    155.1714   1.0127345957e+02   1.2475892534e+01    0.1887423    0.1607127 -35.20 0.0008080662    1.437    0.304
       260  -9.6537    132.7838    153.0985   1.1564974676e+02   2.6029747919e+01    0.4051118    0.2818594  73.50  0.001321999    2.040    0.510
       261  -9.3549    133.5000    148.5030   1.1468435284e+02   2.6740714206e+01    0.3315012     0.223529 -42.02  0.001592276    1.640    0.390
       262  -9.8430     68.0302    153.7960   1.3021144030e+02   3.5366807749e+01    0.4130673    0.2155735  67.84  0.001509777    2.347    0.574
       263  -8.1765    232.9525    154.0094   9.5934317565e+01   7.3926366717e+00    0.1735196    0.1644262 -50.62 0.0004738904    1.643    0.391
       264  -8.2650    228.0000    152.9700   9.6581111149e+01   8.4229992567e+00    0.1942731   0.07092745 -29.15 0.0004863208    2.804    0.643
       265  -9.2954     20.1889    152.8391   1.4047663511e+02   4.0327014091e+01    0.1660085    0.1083053  69.36 0.0008843945    1.286    0.223
       266  -7.8495      8.4795    153.5071   1.4292240523e+02   4.1095831658e+01     0.103264    0.0781149  79.86 0.0001021528    1.008    0.007
       267  -8.3715    182.4559    151.2561   1.0480870290e+02   1.7262097752e+01    0.2208889    0.1971751 -75.18  0.001289857    1.601    0.375
       268  -9.7197     29.4807    150.9594   1.3837935676e+02   3.9914363125e+01    0.3821866    0.1639025  67.87  0.001905727    2.532    0.605
       269  -9.6079    248.8209    149.4933   9.2324497193e+01   5.0773504687e+00      0.29724    0.1880357 -18.22 0.0007204968    1.475    0.322
       270  -9.0652    243.1167    150.1051   9.3394740376e+01   6.0221631842e+00    0.2648394    0.1656324 -25.78 0.0008434395    1.599    0.375
       271  -8.9908    189.4959    150.3549   1.0322434204e+02   1.6051713978e+01    0.2764847    0.2130768 -53.18 0.0008605486    1.797    0.444
       272  -8.3461    162.7544    150.7131   1.0875427197e+02   2.1071119964e+01     0.240852    0.1880003 -52.09 0.0007085509    1.551    0.355
       273  -8.8081     98.3332    150.7043   1.2298076381e+02   3.1954163785e+01    0.2588778    0.1804108  73.78 0.0008719256    1.675    0.403
       274  -8.2438    212.8980    150.0712   9.8695037613e+01   1.1617390936e+01    0.1868111    0.1755052  20.06 0.0005156909    1.276    0.216
       275  -9.7826     39.8484    148.1180   1.3588698751e+02   3.9532297923e+01    0.4236032    0.1795647  62.39  0.002013558    2.659    0.624
       276  -7.7127    228.7486    148.9627   9.5610710217e+01   8.7823588280e+00     0.163153    0.1054431 -20.25 0.0004463314    1.519    0.342
       277  -8.6134    198.8373    149.0306   1.0112937490e+02   1.4450120576e+01    0.1896946    0.1850545  37.14 0.0006021442    1.321    0.243
       278 -10.1031     89.0664    145.8515   1.2440108606e+02   3.4232988079e+01    0.6767449    0.3764784 -82.89  0.003167376    2.565    0.610
       279  -8.4341    233.4793    147.6001   9.4499492224e+01   8.0743202902e+00    0.2451156    0.1212735 -26.65  0.000641297    2.007    0.502
       280  -9.2582     78.1534    147.0948   1.2709678206e+02   3.5446440059e+01    0.2563632    0.1719739  76.59 0.0008112072    1.652    0.395
       281 -10.7318     54.7916    143.6430   1.3206637807e+02   3.8919399131e+01    0.8326731    0.4401294 -87.83  0.002958471    2.103    0.525
       282  -8.4069    223.4243    147.0880   9.6154801806e+01   1.0016449630e+01    0.1951698    0.1777809  25.02 0.0003904365    1.268    0.211
       283  -8.1083    206.8010    146.5495   9.9090807004e+01   1.3265035214e+01    0.1973891    0.1587871 -25.75 0.0006551215    1.333    0.250
       284 -10.2734    148.7997    144.6742   1.1058447109e+02   2.4692539351e+01    0.5043572    0.3594961 -78.37  0.001485424    2.313    0.568
       285  -9.8799    138.9836    145.0359   1.1282699123e+02   2.6407997118e+01    0.4083966    0.2849672 -73.03  0.001399823    2.099    0.524
       286  -9.2245    139.3752    138.1971   1.1142489535e+02   2.7590149192e+01    0.3987304    0.2404395   9.88   0.00151291    3.382    0.704
       287 -10.2989    106.4923    143.9180   1.2005179189e+02   3.2055250000e+01    0.6722207    0.4126659  88.67  0.002288791    2.729    0.634
       288  -9.2677     13.4557    146.2903   1.4147053503e+02   4.2136436089e+01    0.2998159    0.1333923  60.66  0.001242987    2.068    0.517
       289  -9.4599    241.1371    137.1064   9.0921410033e+01   7.9272208636e+00    0.3843815    0.1778106 -18.35  0.001684011    2.256    0.557
       290  -8.9316    240.2123    145.2163   9.2843334369e+01   7.1235480007e+00    0.2136624    0.1640839 -11.71 0.0005189956    1.215    0.177
       291  -8.7874    242.6974    143.3167   9.2018445517e+01   6.8942237869e+00    0.1835371    0.1111959 -12.26 0.0006790795    1.584    0.369
       292  -8.4190    175.8117    146.1815   1.0513184588e+02   1.9328293533e+01    0.2007796    0.1843592  60.17 0.0006949824    1.312    0.238
       293  -9.9636    125.0672    142.9449   1.1559156029e+02   2.9223172763e+01    0.5656691    0.3466635 -67.55  0.002381815    2.214    0.548
       294 -11.1364     69.5393    141.1850   1.2833282968e+02   3.7728897274e+01     0.698517    0.4582213  86.58  0.003195299    1.661    0.398
       295  -9.4464     70.3453    133.9995   1.2717532934e+02   3.9121121035e+01       0.2894     0.179878  21.39  0.001478038    2.146    0.534
       296  -8.8730    247.0287    143.9988   9.1449386464e+01   6.0267834087e+00    0.2045647    0.1575707   5.42 0.0005462416    1.058    0.054
       297  -7.6577    218.2901    144.6396   9.6555790636e+01   1.1312563540e+01    0.1219806    0.1103135 -61.07 0.0007026686    1.692    0.409
       298  -7.8408    194.4199    144.1991   1.0097354887e+02   1.6010994689e+01    0.1737231    0.1296223 -42.76  0.000531033    1.622    0.384
       299  -8.7820    165.5510    144.0595   1.0684447073e+02   2.1647313862e+01    0.2435387    0.1836174  55.88 0.0006483216    1.489    0.328
       300  -9.7918      2.6340    141.4799   1.4348283253e+02   4.3844700998e+01    0.3971005    0.1476102  79.85  0.002060344    2.602    0.616
       301  -8.3514    250.5107    140.9977   9.0234416079e+01   5.7446080698e+00    0.1895987    0.1150734 -21.17  0.000604418    1.536    0.349
       302  -9.8541     23.4625    138.2635   1.3871278541e+02   4.2973350236e+01    0.4659607    0.1866147  63.97  0.002264011    2.771    0.639
       303  -8.6341    172.4549    138.3476   1.0419485343e+02   2.1251640114e+01    0.2717455    0.2196633 -78.98 0.0008148809    1.920    0.479
       304  -7.8025    218.5592    138.5128   9.5170873340e+01   1.2077795040e+01    0.1398326    0.1170421  12.72 6.285868e-05    1.015    0.014
       305  -8.3522    207.6490    138.1567   9.7114406159e+01   1.4276332228e+01    0.2000011     0.169632 -37.47 0.0006312914    1.430    0.301
       306  -8.7295    197.4989    137.5794   9.8937973099e+01   1.6382359545e+01    0.2453919    0.2174947 -41.78 0.0007302318    1.400    0.286
       307  -8.9378    162.6827    136.3863   1.0586706986e+02   2.3500290012e+01    0.2320148    0.1713714 -51.91 0.0006564288    1.628    0.386
       308 -10.3176     83.4311    132.8306   1.2379682450e+02   3.7668031108e+01    0.4888558    0.2906225 -77.44  0.001256123    1.978    0.494
       309  -8.8833     84.5363    123.1333   1.2193649581e+02   3.9556571421e+01    0.3628585    0.2595797  -4.26  0.001854041    2.260    0.558
       310  -9.4619     38.9030    136.1304   1.3497036472e+02   4.2071219913e+01    0.2668586    0.1617129  72.10 0.0009622708    1.629    0.386
       311  -8.9242    250.7211    130.2253   8.7818771303e+01   6.9583904303e+00    0.3679023    0.1151489 -23.90   0.00134294    3.189    0.686
       312  -8.8531    248.2025    135.2629   8.9350004957e+01   6.8327731915e+00    0.2820928    0.1820393 -22.32  0.000745778    1.459    0.315
       313  -8.5996    246.9823    130.3168   8.8440896043e+01   7.6469134811e+00    0.2401193    0.1753546 -22.42 0.0005805647    1.336    0.251
       314  -8.1582    187.7522    135.2134   1.0035310109e+02   1.8699612080e+01    0.3064014    0.1198606 -33.43   0.00116406    2.749    0.636
       315  -8.5742    151.1182    136.1218   1.0835763955e+02   2.5778281264e+01    0.2615913    0.1537373  35.54 0.0008857211    1.656    0.396
       316  -8.7282    179.5154    133.9592   1.0176373147e+02   2.0559187105e+01    0.2862236    0.1950469 -53.11 0.0008075448    1.986    0.496
       317  -8.3141    237.5032    133.9311   9.0824556247e+01   9.0036832404e+00     0.197012    0.1220527 -23.57  0.000661566    1.545    0.353
       318  -7.9033    231.4001    134.1937   9.1927677018e+01   1.0143809725e+01    0.1742692    0.1202977 -31.06 0.0002758502    1.542    0.351
       319  -9.4039    112.9557    133.3715   1.1669174293e+02   3.3112326973e+01    0.3185812    0.2241233  75.27 0.0009836782    1.904    0.475
       320  -9.1329    143.1944    131.9185   1.0927830111e+02   2.8043687944e+01    0.3017961    0.2329326 -76.89 0.0007787333    1.814    0.449
       321 -10.3124    132.4317    131.2241   1.1163714389e+02   3.0163774730e+01    0.6139681    0.4238259 -68.94  0.001910243    1.961    0.490
       322 -10.4311     98.2305    130.3609   1.1974081042e+02   3.6049880616e+01    0.5858825     0.258503 -59.28  0.001667747    2.381    0.580
       323  -9.0103     98.9988    120.9727   1.1783381017e+02   3.7882264095e+01     0.442233    0.2779301  -7.63  0.001708895    3.699    0.730
       324  -9.4495    152.8975    128.8054   1.0640189131e+02   2.6749237879e+01    0.4271857     0.247076 -50.24 0.0009834963    2.011    0.503
       325  -9.8024     73.0635    129.3710   1.2583895610e+02   3.9756350566e+01    0.4054513    0.2504067 -83.40  0.001229712    1.846    0.458
       326  -9.9741     71.7691    120.8013   1.2484986969e+02   4.1750121301e+01     0.622483    0.3316135  76.17  0.002233048    3.321    0.699
       327  -9.7244     12.7835    129.2762   1.4046610852e+02   4.5622557478e+01    0.4348796    0.1816505  67.71  0.002148608    2.528    0.605
       328 -10.3858    235.7798    128.0338   8.9777557592e+01   1.0074970343e+01    0.3827273    0.2977935 -29.46  0.000457764    1.405    0.288
       329  -8.0296    220.4863    130.0310   9.2910642597e+01   1.2840207842e+01    0.1975722    0.1293555 -23.63 0.0004341344    1.497    0.332
       330  -8.6788    211.5182    129.4538   9.4423128338e+01   1.4729621643e+01    0.2371685    0.1227112 -40.78 0.0008289358    2.273    0.560
       331  -8.0310    204.4908    130.2628   9.5937856365e+01   1.6044918704e+01    0.1823321    0.1313723 -39.93 0.0007502388    1.612    0.380
       332  -8.2408    192.8672    130.1755   9.8191315840e+01   1.8437688555e+01     0.198595    0.1953016  -4.59 0.0004567259    1.247    0.198
       333  -9.2478    168.3214    129.3815   1.0311769828e+02   2.3577948462e+01    0.2861531    0.2402541 -62.23 0.0007428974    1.552    0.356
       334  -8.6317    122.7044    129.9950   1.1370322292e+02   3.2131341538e+01    0.2586333    0.2151891 -68.51 0.0006778366    1.340    0.254
       335 -10.1574    117.6695    125.1924   1.1397028508e+02   3.3956829039e+01    0.5279251    0.4139559 -66.92  0.001833853    1.423    0.297
       336  -8.4512     25.3569    130.4145   1.3762057373e+02   4.4440564037e+01    0.1886259    0.1057043   0.23 0.0009533823    3.598    0.722
       337  -8.4179    182.2661    141.9494   1.0292736576e+02   1.8740033812e+01    0.2295539    0.1914796  65.06 0.0007516815    1.564    0.361
       338 -10.5919     59.9341    125.0202   1.2851937644e+02   4.2256233878e+01    0.7055048    0.3689476  79.00  0.002582672    2.851    0.649
       339 -10.7031     44.9877    123.7885   1.3214080076e+02   4.4097155672e+01    0.9490623    0.4238049  72.88  0.003863791    3.652    0.726
       340  -8.0715    228.5644    125.7664   9.0492700534e+01   1.1792194037e+01     0.187489    0.1229538 -34.14 0.0008717513    1.640    0.390
       341  -9.0075    179.2031    124.7826   9.9745167765e+01   2.2117185242e+01     0.259578    0.2437337  78.25 0.0007123178    1.360    0.265
       342 -10.2673     28.4434    122.4491   1.3612941241e+02   4.5869678720e+01    0.6497456     0.266937  73.19  0.002767771    3.496    0.714
       343  -8.8114     26.8535    114.1253   1.3567672492e+02   4.7785601670e+01    0.2033869    0.1516011 -12.88 0.0009654817    1.978    0.495
       344  -8.3139    188.5246    124.0476   9.7645122652e+01   2.0291456766e+01    0.2089918    0.1394701 -32.01 0.0005282997    1.544    0.352
       345  -9.4859    158.7679    121.6500   1.0346585999e+02   2.6862666946e+01    0.3526286    0.2800931 -78.02 0.0009839413    1.864    0.463
       346  -7.9566    202.9906    122.0196   9.4297472998e+01   1.7567657723e+01    0.2055538    0.1787685 -62.03 0.0005607972    1.631    0.387
       347  -7.9875    194.6631    121.8209   9.5881472427e+01   1.9349468251e+01    0.1971443    0.1283071 -39.37 0.0004825863    1.689    0.408
       348  -8.7589    171.9250    121.6193   1.0055432885e+02   2.4158991703e+01    0.2588912    0.2087695 -42.96 0.0005162392    1.382    0.277
       349 -10.0685    131.1042    118.8787   1.0933768375e+02   3.2799650185e+01    0.5209512    0.3466693  76.83  0.001841125    2.657    0.624
       350 -10.3432    141.5143    117.7043   1.0655754692e+02   3.1035823037e+01    0.6585725    0.3072483 -46.61   0.00135053    2.270    0.559
       351  -9.5322      3.2043    117.7763   1.4190562464e+02   4.8629795277e+01    0.4128969    0.1675696  65.35  0.002168421    2.556    0.609
       352  -7.6234    231.5010    117.4849   8.8030617388e+01   1.2285254933e+01    0.1411652    0.1224942   4.59 0.0002494162    1.069    0.064
       353  -9.9167    109.2975    114.2901   1.1383155565e+02   3.7609795285e+01    0.4942329    0.3144343 -73.81  0.001313588    2.239    0.553
       354  -8.8634    108.7954    107.8234   1.1255264765e+02   3.9041978159e+01    0.2847586    0.1997348  13.01   0.00135447    1.975    0.494
       355  -8.1988    185.6099    115.8431   9.6269307692e+01   2.2218298813e+01    0.1999028    0.1343391 -42.83 0.0006371823    1.681    0.405
       356  -8.5277    250.0511    115.0612   8.4424126983e+01   8.8932365066e+00    0.1903383    0.1691816 -53.03  0.001119769    1.635    0.388
       357  -8.4302    192.8753    115.0241   9.4588796312e+01   2.0785128610e+01    0.2582197    0.1960743 -47.92 0.0006033038    1.630    0.387
       358  -8.2978    167.1042    114.8914   9.9994078311e+01   2.6326529549e+01    0.2410489    0.1722474   9.54 0.0009979525    1.686    0.407
       359  -7.8158    153.3082    115.6521   1.0330232621e+02   2.9059980252e+01     0.143407    0.1182688 -86.30 0.0007043888    1.705    0.414
       360 -10.1147     92.7830    112.5526   1.1782131048e+02   4.0618097949e+01    0.5124517    0.3094519 -75.03  0.001194026    2.201    0.546
       361  -9.1710     93.0070    104.9981   1.1620502009e+02   4.2206416731e+01    0.3524781     0.225397 -18.44  0.001234704    2.677    0.626
       362  -9.9954     78.8758    112.6488   1.2157589013e+02   4.2588618249e+01    0.5053051    0.3240459  78.97  0.001798862    2.172    0.540
       363  -8.7158     78.0423    105.6984   1.2050019377e+02   4.4219570550e+01    0.3481502    0.2467791 -22.90  0.001808875    1.960    0.490
       364 -10.1035    121.8541    112.3372   1.1017733899e+02   3.5808382378e+01    0.4553756    0.3194817 -72.43 0.0008497039    1.955    0.489
       365  -8.1895    123.6543    107.6829   1.0864023579e+02   3.6416892590e+01    0.2398112    0.1604239  -5.87  0.000998672    2.483    0.597
       366  -8.7829    175.0085    112.3813   9.7648291305e+01   2.5070348792e+01    0.2779635    0.2007196 -49.96 0.0007655231    1.684    0.406
       367 -10.1697    133.4006    109.7009   1.0665770989e+02   3.4162498454e+01     0.674893    0.3419845 -45.53  0.002259807    2.016    0.504
       368 -10.1369     66.2704    110.3943   1.2460788176e+02   4.4696143827e+01    0.4654122    0.2819828 -84.99  0.001711638    2.004    0.501
       369  -9.8943     14.0095    111.0215   1.3868328225e+02   4.9386071445e+01    0.3796494    0.1804867  73.72  0.001514103    2.257    0.557
       370  -8.8516    159.1863    111.8846   1.0103577344e+02   2.8526012023e+01    0.2559921    0.2392653 -59.11 0.0007203143    1.254    0.202
       371 -10.9549    248.3187    106.3534   8.2606602342e+01   1.0293281566e+01    0.6412649    0.3214503 -25.82   0.00294736    1.814    0.449
       372  -8.5244     43.7277    109.5065   1.3063348531e+02   4.7328225358e+01    0.2096726    0.1248062  19.63  0.001154652    2.204    0.546
       373  -8.3043    189.1976    107.9539   9.3555666031e+01   2.2701450494e+01    0.2592838    0.1629315 -39.13 0.0006902967    1.697    0.411
       374  -9.5882    150.6629    103.2550   1.0084485246e+02   3.1895919824e+01    0.4463138    0.3058145 -64.00   0.00122205    2.162    0.537
       375  -9.4378    139.9224    104.6812   1.0381078626e+02   3.3846079259e+01    0.3630587    0.2886675 -81.41  0.001025764    1.780    0.438
       376  -8.9189    108.1312     92.5171   1.0907292043e+02   4.2363350677e+01    0.4788245     0.260921  21.66  0.001802015    2.983    0.665
       377 -10.6739    108.8391     98.8512   1.1045120321e+02   4.0912389952e+01    0.8420552    0.5242966  80.68   0.00119602    3.761    0.734
       378 -10.5412     45.5529    102.2804   1.2908223648e+02   4.8754581597e+01    0.7209291    0.3654156  72.45  0.003041796    3.060    0.673
       379  -8.9682     46.3826     92.6438   1.2728967131e+02   5.0832131951e+01    0.3493835    0.1805379  15.92   0.00167377    2.816    0.645
       380 -10.5964     23.1360    102.9585   1.3543989216e+02   5.0504904145e+01    0.6859605     0.307691  68.28  0.002926345    2.943    0.660
       381  -8.6178    166.7278    104.4424   9.7445331658e+01   2.8230012088e+01    0.2636849    0.2017581 -35.37 0.0006341693    1.338    0.253
       382  -9.7954    128.5823    102.0569   1.0600538252e+02   3.6608277694e+01    0.3481066    0.2831462  88.74 0.0008469848    1.657    0.396
       383  -8.7332      6.8706    103.1937   1.3984912710e+02   5.1513805389e+01    0.1751712    0.1215852  75.97  0.001213977    1.308    0.236
       384  -7.9483    175.5547    102.4821   9.4994061626e+01   2.6620588561e+01    0.1495057    0.1404929   9.75 0.0005128954    1.057    0.054
       385  -8.3997    159.8351    101.1613   9.8150194561e+01   3.0312416364e+01     0.217637    0.2057523 -67.52 0.0005160279    1.262    0.208
       386  -9.3292     82.1024    100.0004   1.1820390278e+02   4.4906425351e+01    0.3592428    0.2457334  83.60 0.0008399014    2.054    0.513
       387 -10.1399     63.8742     95.9022   1.2267139380e+02   4.8199503191e+01    0.4808809    0.2971142  78.94   0.00155985    2.375    0.579
       388  -8.6317    131.1360     97.1345   1.0408941068e+02   3.7081944896e+01    0.3843784     0.183365  29.18  0.001326532    3.055    0.673
       389  -7.9959    182.6616    109.2424   9.5232933600e+01   2.3929569440e+01    0.2053418    0.1350275 -22.77 0.0008992277    1.592    0.372
       390  -8.2341    151.7127     95.2451   9.8470844902e+01   3.3150624413e+01    0.2433498    0.1139094  36.47 0.0008853236    2.357    0.576
       391  -8.3480    176.6096     93.6270   9.2381812809e+01   2.7865054797e+01    0.2799937    0.2165541 -71.29 0.0008916451    1.969    0.492
       392  -8.3434    164.8516     94.1454   9.5113182782e+01   3.0444351540e+01    0.2212106    0.2062948 -59.88 0.0004950491    1.277    0.217
       393  -9.4295    138.9363     91.9193   1.0070080422e+02   3.6501101557e+01    0.4495325    0.2953718 -56.47  0.001322333    1.910    0.476
       394  -9.2985     95.0494     97.0715   1.1386968277e+02   4.3594858892e+01    0.2980774    0.2138274 -66.78 0.0006717495    1.533    0.348
       395  -7.6071    188.3395     93.6730   8.9950959437e+01   2.5164159254e+01    0.1491625    0.1228635 -70.30 0.0007051572    1.731    0.422
       396 -10.3445    123.6511     91.3219   1.0451245869e+02   3.9715980204e+01    0.5605227    0.4389815  16.58  0.001426817    1.457    0.314
       397  -8.1200    157.8528     91.5991   9.6014989712e+01   3.2460829980e+01    0.2455962    0.1759771 -38.59 0.0006421503    1.422    0.297
       398  -9.4436     34.7967     89.7909   1.3031853659e+02   5.2525942981e+01     0.438832    0.2212783 -89.89  0.001542219    2.522    0.604
       399  -9.0155     23.3711     90.1786   1.3380271832e+02   5.3321304104e+01    0.2415019    0.1974874  27.56  0.001232177    1.501    0.334
       400  -8.2917    150.6472     89.2116   9.7054009591e+01   3.4489763622e+01    0.2139734    0.1394868 -25.83 0.0004728158    1.640    0.390
       401  -9.9051     86.2897     86.5439   1.1391127044e+02   4.7237270469e+01    0.4269541    0.3044878 -83.71    0.0011596    1.940    0.484
       402  -8.7402     87.2371     80.6256   1.1212013262e+02   4.8375903132e+01    0.2645735    0.1880225  -2.23 0.0009707116    2.000    0.500
       403  -8.2317     63.8165     88.7725   1.2125942440e+02   4.9801165336e+01     0.219755    0.1226633 -28.78 0.0009446826    2.766    0.638
       404  -8.4954     68.4772     86.5008   1.1933774639e+02   4.9731114789e+01    0.3063587    0.1390373  25.25  0.001274808    2.925    0.658
       405  -7.9405    179.4525     85.9706   8.9631063781e+01   2.8464307646e+01    0.2125104    0.1245494 -52.62 0.0005946211    2.422    0.587
       406  -9.7747     48.5802     84.3780   1.2511802727e+02   5.2476679600e+01    0.4624687    0.2702713  75.19  0.001672368    2.596    0.615
       407  -9.8540    104.9255     83.3140   1.0755459663e+02   4.4856597014e+01    0.4518384      0.33492 -83.75  0.001130611    2.026    0.506
       408  -8.5970    105.0245     77.4588   1.0588154835e+02   4.6054419182e+01    0.2882482    0.1887204 -21.57  0.001133359    1.950    0.487
       409  -8.2645    157.8994     84.0659   9.3855138978e+01   3.3787276402e+01    0.2245251    0.2070698 -56.90 0.0004400403    1.267    0.211
       410  -9.3097    140.9081     82.7153   9.7590168068e+01   3.7822891084e+01    0.4027883    0.2109375 -44.17 0.0008472053    1.982    0.495
       411  -9.4103      5.1312     92.1386   1.3931579715e+02   5.4010856432e+01    0.2970762     0.147034  62.63  0.001022033    2.220    0.550
       412  -7.8279    185.3115     82.6593   8.7473553536e+01   2.7610125686e+01    0.1524266    0.1222603 -63.62 0.0004624581    1.696    0.410
       413  -9.5920     24.7504     80.5874   1.3201674318e+02   5.5374205806e+01     0.411266    0.2175605  83.83  0.001121846    2.352    0.575
       414  -9.2420      9.7797     80.9897   1.3675062297e+02   5.6219780725e+01     0.306062    0.1556035  62.85  0.001390785    2.351    0.575
       415  -8.4279    150.3121     80.6240   9.4644943869e+01   3.6122286140e+01     0.318291    0.2137711 -57.98 0.0007890407    2.045    0.511
       416  -8.7832    119.3314     80.5834   1.0269075909e+02   4.2714323548e+01    0.2959996    0.2355945 -78.25 0.0006746775    1.741    0.426
       417  -8.9963     74.4426     80.2566   1.1601629658e+02   5.0327690594e+01    0.3355021    0.2128702 -74.27  0.001208046    2.031    0.508
       418  -8.6042    166.8534     79.6635   9.0516775319e+01   3.2468677971e+01     0.260579    0.2010558 -13.83 0.0005427694    1.329    0.248
       419  -9.2602     65.3851     78.1770   1.1840981996e+02   5.1976002515e+01    0.2853834    0.2269299 -77.61  0.001008836    1.361    0.265
       420  -9.9630     63.4806     73.9765   1.1802044026e+02   5.3146436637e+01    0.5041497    0.2572303 -69.15  0.001531845    2.441    0.590
       421  -8.1943    184.2030     78.0637   8.6361666095e+01   2.8593833452e+01    0.2087522    0.1198114 -27.36 0.0007517693    1.725    0.420
       422  -7.7023    157.2634     76.6226   9.1788304126e+01   3.5233215914e+01    0.1542297    0.1205667 -60.90 0.0005471664    1.672    0.402
       423  -8.3304    140.4646     75.4513   9.5524178305e+01   3.9266126418e+01    0.2531762    0.2046013 -68.41 0.0006248518    1.655    0.396
       424  -9.3206    128.0186     75.1867   9.8703279968e+01   4.2003167740e+01     0.361864    0.2647899 -62.81 0.0007096319    1.822    0.451
       425  -8.3269    163.5045     73.2856   8.9337721188e+01   3.4329602400e+01    0.2886309      0.14353 -37.68  0.001107718    2.009    0.502
       426  -9.6465     82.3226     72.6374   1.1150934233e+02   5.0852633044e+01    0.3959941    0.2822425 -75.16  0.001011607    1.875    0.467
       427  -8.4884     82.8040     66.2156   1.0950735266e+02   5.2150237663e+01    0.5426314    0.3156688  -2.74  0.001882109    4.040    0.752
       428  -9.0845    115.6561     72.6128   1.0134831404e+02   4.5022721165e+01    0.3768194    0.1929768 -47.04  0.001134379    1.991    0.498
       429  -9.4105    105.8837     71.7207   1.0392962266e+02   4.7071599411e+01    0.4266051    0.2041166 -52.05  0.001007371    2.334    0.572
       430  -9.3118     95.0533     71.2279   1.0707916864e+02   4.9100979872e+01    0.3949725    0.2183968 -55.87 0.0009433801    2.012    0.503
       431  -8.2364     42.5407     73.0074   1.2482162156e+02   5.5629625075e+01    0.1955413    0.1074479 -64.32 0.0005140008    1.562    0.360
       432  -7.6930    175.5115     72.5169   8.6493274664e+01   3.1565174812e+01     0.157157    0.1447661   8.38  0.000297998    1.002    0.002
       433  -8.8404     28.1967     71.1961   1.2933103764e+02   5.7240726782e+01    0.3271921    0.1369677 -44.07  0.001517772    2.401    0.583
       434  -8.2127     32.0175     68.4665   1.2750817356e+02   5.7562712694e+01    0.2047581    0.1424617 -46.38 0.0008550725    1.324    0.245
       435  -9.4149     51.2745     69.6865   1.2111043321e+02   5.5504244559e+01    0.3749045    0.2268048 -76.34  0.001300466    1.961    0.490
       436  -9.0557    153.2062     69.8204   9.0635436938e+01   3.7353287574e+01    0.2163989    0.1734116   8.30 0.0003798171    1.322    0.244
       437  -7.9525    129.4882     69.9660   9.6681622622e+01   4.2679522373e+01    0.2143056    0.1301719 -12.51  0.000806995    2.420    0.587
       438  -8.9898    147.2786     68.5156   9.1648928598e+01   3.8962138527e+01    0.3099018     0.250655 -54.56 0.0007540821    1.476    0.322
       439  -9.0932    138.6167     66.1288   9.3049159197e+01   4.1366800066e+01    0.3327395    0.2400095 -55.75 0.0007908499    1.747    0.428
       440  -8.9253    121.5552     66.1129   9.7623168666e+01   4.5084140000e+01    0.3191835    0.2418074 -63.60  0.000809211    1.757    0.431
       441  -8.6236    190.8651     65.8817   8.1419551483e+01   2.8802051556e+01    0.2445062    0.1916744  16.69 0.0004618214    1.299    0.230
       442  -8.8571     37.1939     64.1709   1.2479397001e+02   5.8099655334e+01    0.3000221    0.1940092  87.64  0.001009736    2.024    0.506
       443  -7.5540     16.3043     65.3288   1.3240864614e+02   5.9352702682e+01    0.1244828   0.06865014 -47.20 0.0002754066    1.651    0.394
       444  -9.0496    110.1697     63.6421   1.0010467846e+02   4.7861681945e+01    0.3213556    0.2432941 -52.64 0.0009472095    1.458    0.314
       445  -8.7887     64.2348     63.7246   1.1508793387e+02   5.5310776080e+01    0.4009747    0.2188255 -22.44  0.001607767    3.082    0.676
       446  -8.1479    158.1291     62.1132   8.7013225456e+01   3.7462062105e+01    0.2071026    0.1827001 -50.34            0    1.301    0.231
       447  -8.7786     16.7698     70.2586   1.3303623658e+02   5.8218918918e+01    0.2606953    0.1505129  86.33 0.0009607943    1.902    0.474
       448  -9.5932     97.6597     60.4272   1.0288619618e+02   5.0850383226e+01    0.3404251    0.2834653 -44.76  0.001195485    1.182    0.154
       449  -9.5595     73.3425     59.5855   1.1070597157e+02   5.4968127603e+01    0.3885553    0.2247464 -59.22  0.001057031    1.888    0.470
       450  -7.7350    164.4075     60.1714   8.4980476401e+01   3.6233343958e+01    0.2187224    0.1397224 -39.85 0.0004833956    1.635    0.388
       451  -8.6565    147.1930     59.2305   8.8625996875e+01   4.0565390107e+01    0.2073141      0.18155 -53.45 0.0004098812    1.334    0.250
       452  -7.8898     88.8900     59.3898   1.0537804122e+02   5.2587173191e+01    0.1980932    0.1681034 -50.21 0.0006065589    1.199    0.166
       453  -9.8141     23.5405     56.6212   1.2818174384e+02   6.0846625594e+01    0.4471711    0.2415091  83.42  0.002076331    2.907    0.656
       454  -8.8171    130.7623     57.7876   9.2314274697e+01   4.4613149518e+01    0.3042896    0.1979709 -42.00 0.0007083192    1.581    0.367
       455  -9.4645      7.5185     57.3651   1.3424557983e+02   6.1598073057e+01    0.2831751    0.1779719  76.34  0.001111191    1.842    0.457
       456  -9.4207    119.0095     55.6752   9.4826252235e+01   4.7556757581e+01    0.3533163    0.2483343 -55.09  0.001020403    1.783    0.439
       457  -9.5341     54.3873     55.6562   1.1635565902e+02   5.8260852962e+01    0.3344019    0.2197375 -68.14 0.0009489626    1.699    0.412
       458  -8.5978    139.9005     55.6492   8.9206672367e+01   4.2885166565e+01    0.3194456     0.186746 -45.53 0.0008947119    1.926    0.481
       459  -8.6899     44.0355     55.5343   1.2019663455e+02   5.9390362722e+01    0.2417043    0.1638845 -73.19 0.0007906464    1.616    0.381
       460  -8.6542    105.7766     53.3769   9.7939910091e+01   5.0687602644e+01    0.2650105    0.2196457 -58.70 0.0007872966    1.462    0.316
       461  -9.3578    246.4133     52.9824   6.9132943524e+01   1.7113110728e+01     0.247993    0.2073921  48.04 0.0003969287    1.273    0.215
       462  -9.5768     92.2868     50.5799   1.0125333815e+02   5.3751270539e+01    0.4530059    0.2360727 -50.64  0.001390198    2.130    0.531
       463  -7.9422    149.7640     48.9575   8.4481171601e+01   4.1592166935e+01    0.2009932    0.1275483 -26.11 0.0003200023    1.554    0.356
       464  -8.2293    144.5729     48.9467   8.5706145297e+01   4.2861282797e+01    0.2380055     0.147583 -28.12 0.0006176478    1.580    0.367
       465  -8.5584    129.8425     49.1487   8.9509396472e+01   4.6303183551e+01    0.2243756    0.2059192 -46.07 0.0004671507    1.232    0.188
       466  -8.0823    249.9991     48.7445   6.7567589951e+01   1.6782719207e+01    0.1662978    0.1206551  59.69 0.0003900272    1.520    0.342
       467  -8.8352    120.9225     47.3341   9.1283644068e+01   4.8612662288e+01    0.2760019    0.2090398 -21.89 0.0005335604    1.278    0.217
       468  -8.4976    112.2062     46.9419   9.3656579896e+01   5.0553642115e+01    0.2243061    0.1950131 -49.17 0.0005388944    1.311    0.237
       469  -9.0246     82.1935     46.6234   1.0327338350e+02   5.6254775512e+01    0.2662587    0.2217036 -70.29 0.0007331655    1.606    0.378
       470  -8.4870     45.0753     44.7526   1.1671706465e+02   6.1627913456e+01    0.2160948    0.1558924 -62.64 0.0005588955    1.385    0.278
       471  -8.8854     16.7545     44.8951   1.2831182689e+02   6.3880032478e+01    0.2201408    0.1418514 -83.30 0.0008403313    1.681    0.405
       472  -8.7845    133.0007     43.6710   8.6671046022e+01   4.6460257788e+01    0.2916881    0.2144906 -37.79 0.0006767709    1.397    0.284
       473  -8.3696     75.2240     51.6158   1.0748548373e+02   5.6353754794e+01    0.2893801    0.1692884   7.22  0.001154865    3.004    0.667
       474  -9.3088     69.5714     41.4423   1.0597717954e+02   5.9245089879e+01    0.3619379    0.2481872 -61.42  0.001148395    1.870    0.465
       475  -8.7413     58.0834     42.3386   1.1073611506e+02   6.0637680025e+01    0.3055333    0.1733493 -63.90  0.001367011    2.377    0.579
       476  -9.5852      5.2544     42.1788   1.3245484041e+02   6.5061046154e+01    0.3122494    0.1706576 -87.49  0.001450398    2.016    0.504
       477  -9.2173    105.6968     40.0710   9.3002256677e+01   5.3098147133e+01    0.6963268     0.188689 -42.11  0.002045535    3.907    0.744
       478  -7.7941    140.4824     41.4953   8.3993022296e+01   4.5003175219e+01    0.1565128    0.1430047   8.25 2.189075e-05    1.005    0.005
       479  -8.6385     36.7794     40.9118   1.1894964073e+02   6.3256652712e+01    0.2252509    0.1595032 -70.47 0.0007450571    1.555    0.357
       480  -8.9162     95.3074     37.8483   9.5439850127e+01   5.5547623427e+01    0.2647696    0.2052047 -52.23  0.001035844    1.554    0.356
       481  -8.3809     80.9106     36.9733   1.0006555336e+02   5.8306686208e+01    0.2050762    0.1729082 -70.65 0.0005468166    1.685    0.407
       482  -9.4085     26.1684     35.4979   1.2188849105e+02   6.5297768040e+01    0.2936601    0.1832975 -69.95 0.0007833915    1.665    0.400
       483  -8.2393    133.3562     35.8726   8.3624588558e+01   4.7566460627e+01    0.3071161    0.1234791 -36.37   0.00108613    2.450    0.592
       484  -7.9793    125.9581     35.5378   8.5401822711e+01   4.9371078954e+01    0.2132155    0.1466764  48.52 5.194414e-05    1.466    0.318
       485  -8.9704    241.5097    238.4221   1.0903866478e+02  -2.4431885876e+00      0.42781    0.1878965   8.08  0.001995348    3.882    0.742
       486  -8.8389     48.5005     33.6146   1.1154499383e+02   6.3575064822e+01     0.231691    0.1886614 -56.09 0.0007270735    1.305    0.234
       487  -8.5423    119.2204     33.2023   8.6297686703e+01   5.1278609731e+01    0.2033494    0.1704978 -42.32 0.0005299411    1.334    0.251
       488  -8.3280     60.7437     32.7516   1.0611965932e+02   6.2201838277e+01    0.1678026    0.1502839 -54.88 0.0004664497    1.328    0.247
       489  -7.4782    159.2967     32.6996   7.6575604822e+01   4.1482972660e+01    0.1513183    0.1197388 -59.05 0.0002403771    1.575    0.365
       490  -7.6975    139.3696     32.1354   8.0717562373e+01   4.6629692436e+01    0.2141249    0.1332655 -36.19 0.0009065382    1.649    0.394
       491  -8.7512     71.9738     30.9707   1.0095220164e+02   6.0875417877e+01    0.2919841      0.17882 -50.80 0.0006900324    1.855    0.461
       492  -9.8342    248.5393    241.9593   1.0846118849e+02  -3.6776309278e+00    0.2735461    0.1747002 -21.79  0.001247909    1.894    0.472
       493  -8.3113    101.6117     29.3391   8.9893584429e+01   5.5710753155e+01    0.2046291    0.1707149 -59.69 0.0008500371    1.617    0.382
       494  -8.9385     81.6521     27.6947   9.5935515672e+01   5.9827884169e+01    0.2951467    0.2328268 -53.53 0.0009078394    1.617    0.382
       495  -8.9262      3.8123     27.9407   1.3000901471e+02   6.8216329291e+01    0.2172873    0.1606805  69.29  0.001038525    1.807    0.447
       496  -8.1352    152.0049     27.0049   7.5959241444e+01   4.4096181709e+01    0.3193823    0.1666954 -61.08 0.0009606268    4.147    0.759
       497  -8.8789     91.7926     26.4651   9.1848369670e+01   5.8142821547e+01    0.3148413    0.1878373 -40.48  0.001072053    1.709    0.415
       498  -7.7610     88.6895     34.3482   9.6256106949e+01   5.7405220327e+01    0.1377007    0.1133624 -64.91 0.0007045235    1.712    0.416
       499  -8.7655     63.5503     21.1646   1.0003998328e+02   6.3933083941e+01    0.2739932    0.1917278 -45.11  0.000792739    1.492    0.330
       500  -8.6792     48.3092     21.8206   1.0693007516e+02   6.5902007164e+01    0.2099403     0.171544 -44.21 0.0006045602    1.244    0.196
       501  -8.2594     19.5838     21.3407   1.2045936026e+02   6.8746125527e+01    0.2236107    0.1002973 -61.34 0.0006680961    2.009    0.502
       502  -7.7823     41.7121     30.3050   1.1327485279e+02   6.4990014984e+01    0.1142877    0.0976925 -78.27 0.0002144114    1.568    0.362
       503  -7.9499     87.9609     17.9339   8.9280199625e+01   6.0208322129e+01    0.2020828    0.1672377 -52.27 0.0005414546    1.602    0.376
       504  -7.9424     38.8335     18.6055   1.0995304483e+02   6.7598121594e+01    0.1485079    0.1173593  35.18 0.0005901558    1.611    0.379
       505  -8.2847    112.5682     16.9970   8.1264584659e+01   5.5081641468e+01    0.2158939     0.136266 -22.37 0.0004343298    1.519    0.342
       506  -8.0498     29.9828     16.0345   1.1321412882e+02   6.8972732204e+01    0.1717964    0.1447547 -75.30 0.0006173243    1.675    0.403
       507  -8.7857     74.0296     19.5822   9.5123950060e+01   6.2509323249e+01    0.2578173    0.1748751 -45.02 0.0008007581    1.652    0.395
       508  -7.8182      7.6901     15.3619   1.2453975205e+02   7.0690069514e+01    0.1077129   0.08401258  86.90 0.0007040511    1.745    0.427
       509  -8.9598    247.8473    234.7102   1.0753381295e+02  -3.0190666547e+00    0.2119073    0.1590391   6.88 0.0009082596    1.264    0.209
       510  -7.7107     83.3401     10.6989   8.7378508008e+01   6.2143550013e+01    0.1288486    0.1105985 -57.72 0.0005987337    1.670    0.401
       511  -9.5714    246.7657    228.5123   1.0679081317e+02  -2.3674280276e+00    0.3976049    0.1905802 -12.93  0.002316321    2.409    0.585
       512  -9.2946    232.9931    246.8910   1.1150709512e+02  -1.9553350805e+00    0.3041895    0.1831904  -7.49  0.001786562    1.852    0.460
       513  -8.8713    218.8140    247.4745   1.1377698466e+02  -5.1928731504e-02    0.2677929    0.1425855 -31.05  0.001839207    2.470    0.595
       514  -8.4780    191.4188    249.3293   1.1831723915e+02   3.6080922623e+00    0.1713423   0.09815946  48.20 0.0006194938    1.699    0.411
       515  -9.1419    175.6860    247.7132   1.2064615719e+02   5.9776466567e+00     0.230829    0.1818723  70.05  0.001216738    1.957    0.489
       516  -8.6592    156.5930    248.4367   1.2379577758e+02   8.5616800995e+00    0.1795474    0.1276988  61.18 0.0005494361    1.690    0.408
       517  -9.1535    103.9258    246.9262   1.3211868059e+02   1.5703485696e+01    0.2874126    0.1596476  86.74  0.001844859    2.856    0.650
       518  -9.0025    243.1494    246.7798   1.0994295367e+02  -3.3213034133e+00     0.283371    0.1479943 -12.48   0.00182064    2.201    0.546
       519 -10.1171    224.0607    244.2205   1.1253631230e+02  -5.0372273788e-01    0.3950791    0.2121906 -37.08  0.002621614    2.755    0.637
       520  -8.6351    131.9933    247.6039   1.2767966018e+02   1.1997892893e+01     0.161542    0.1222322  70.16 0.0005391486    1.555    0.357
       521  -7.9538     40.6740    248.3459   1.4191393275e+02   2.2586933783e+01   0.09874003   0.04312011  60.34 0.0007050232    1.746    0.427
       522  -8.8337    147.3317    246.3574   1.2508343794e+02   1.0069759723e+01    0.2251217    0.1267065  62.43  0.001366155    2.522    0.603
       523  -8.9991    120.3414    245.5162   1.2937446786e+02   1.3787730943e+01    0.2616394    0.1375924  61.16  0.001640431    2.174    0.540
