#   1 NUMBER                 Running object number                                     
#   2 MAG_AUTO               Kron-like elliptical aperture magnitude                    [mag]
#   3 X_IMAGE                Object position along x                                    [pixel]
#   4 Y_IMAGE                Object position along y                                    [pixel]
#   5 X_WORLD                Barycenter position along world x axis                     [deg]
#   6 Y_WORLD                Barycenter position along world y axis                     [deg]
#   7 A_WORLD                Profile RMS along major axis (world units)                 [deg]
#   8 B_WORLD                Profile RMS along minor axis (world units)                 [deg]
#   9 THETA_WORLD            Position angle (CCW/world-x)                               [deg]
#  10 FWHM_WORLD             FWHM assuming a gaussian core                              [deg]
#  11 ELONGATION             A_IMAGE/B_IMAGE                                           
#  12 ELLIPTICITY            1 - B_IMAGE/A_IMAGE                                       
         1 -15.1668      9.5113    156.7130   1.4650999272e+02   4.1536247473e+01     10.29634     3.926343  67.51   0.04731828    2.981    0.665
         2 -13.4453    194.4749     29.3503   6.9318740320e+01   3.2501764535e+01     1.421472     1.353079  67.52  0.007018063    1.078    0.072
         3 -13.6219    209.0101      9.5671   6.2189273215e+01   3.0914363312e+01     1.462615    0.9708074  43.81  0.007531838    1.753    0.430
         4 -11.6453      2.6193     10.4284   1.2276910642e+02   7.2880520315e+01    0.6532269   0.09940721 -47.16  0.002703196    3.454    0.710
         5  -9.7830     46.7716    249.0159   1.4549828367e+02   1.9782516591e+01    0.2294708    0.1047319  64.67  0.001314272    1.848    0.459
         6 -10.5799    249.7617    246.9972   1.0922486412e+02  -1.0357359595e+01    0.2336978    0.1471732  -3.96  0.001561664    1.540    0.351
         7 -11.4019    139.4194    250.1536   1.2926034257e+02   6.4514798763e+00    0.3737555    0.1596793  42.62  0.001938703    1.755    0.430
         8 -10.3067    107.9837    249.1991   1.3486948822e+02   1.1461497870e+01    0.3244761    0.1526589  70.28  0.001390895    3.774    0.735
         9 -11.3822     99.3796    249.0211   1.3639786212e+02   1.2763565562e+01    0.3675312    0.2869015  29.38  0.002553815    1.598    0.374
        10 -10.4095     29.4619    249.8968   1.4836448207e+02   2.1620384338e+01    0.2915067    0.1888763  84.37  0.001758371    1.324    0.245
        11 -10.9522     33.7359    248.5252   1.4760833529e+02   2.1373518839e+01     0.325502    0.1999457  57.43  0.002441847    1.161    0.139
        12 -11.0127     35.6160    244.1128   1.4706800540e+02   2.1902323874e+01    0.3861322    0.2204747  32.50  0.002200642    2.173    0.540
        13 -10.8168      2.3400    248.4142   1.5251794713e+02   2.4641252455e+01    0.3537258    0.1547607 -87.04  0.002432967    1.971    0.493
        14  -9.7994    238.3407    248.3141   1.1134291801e+02  -8.8636024876e+00    0.1209072   0.06775241  15.84 0.0007047351    1.702    0.413
        15 -10.3224    156.3099    250.0038   1.2615853671e+02   3.7682507294e+00     0.163794    0.1357307  40.26  0.001162698    1.103    0.093
        16 -10.6639     22.8068    245.4931   1.4921928032e+02   2.3072101389e+01    0.2120492    0.1124418  71.43 0.0008456846    1.453    0.312
        17 -10.8829    128.8533    245.2925   1.3065841630e+02   8.8471172586e+00    0.2069682    0.1196844  53.43  0.001208949    1.476    0.322
        18  -9.2269     82.6471    243.2982   1.3889669635e+02   1.6088159698e+01     0.123015   0.06481533  61.71  0.000703574    1.693    0.409
        19 -11.0507     13.2533    240.6239   1.5052830934e+02   2.4879452619e+01    0.2090157    0.1096696  86.89  0.001107543    1.592    0.372
        20 -10.0757    183.3891    238.7478   1.1968253833e+02   8.5438453294e-01    0.1463355    0.1124484 -15.67   0.00058459    1.605    0.377
        21 -11.2972    197.9606    245.3758   1.1796816183e+02  -2.3604362864e+00    0.4331805    0.2302787 -50.55  0.002280762    3.110    0.678
        22 -12.9172      8.9439    207.3712   1.4972795840e+02   3.1283443086e+01    0.6789396    0.6269986  43.55   0.00423703    1.557    0.358
        23  -8.9665    234.2923    237.3120   1.1031724665e+02  -7.1022619877e+00    0.1199746   0.07248651  13.69   0.00031069    1.590    0.371
        24 -10.5907      5.7102    241.0203   1.5173341069e+02   2.5551372626e+01    0.1564151    0.1166137  55.43 0.0003767068    1.308    0.236
        25  -8.9304    152.4914    212.9900   1.2192087107e+02   1.0031006175e+01    0.1605804     0.133463 -53.27 0.0003516328    1.459    0.315
        26 -11.5910     62.4757    198.9290   1.3880245795e+02   2.7015079575e+01    0.2739315    0.2380935 -38.95 0.0006354206    1.699    0.411
        27 -12.7039     36.1547    233.2310   1.4636552629e+02   2.3724380686e+01    0.2782279     0.226059  87.53 0.0007650487    1.295    0.228
        28 -11.0285     18.9825    199.1908   1.4743253360e+02   3.1912349426e+01    0.2071233    0.1453197  63.67 0.0003493947    1.141    0.124
        29 -10.3187     15.2882    197.0393   1.4800231512e+02   3.2690130101e+01    0.1826736    0.1439328  57.86 0.0003896863    1.240    0.193
        30  -9.6818    191.8759    192.9910   1.1062770334e+02   6.0269562434e+00    0.2909459    0.1790225 -63.29  0.001218891    3.199    0.687
        31 -14.1909     41.7828    225.4759   1.4489833723e+02   2.4471059031e+01     1.063793    0.8716494  53.12  0.005588485    1.304    0.233
        32 -11.2636    148.5368    229.4862   1.2501626420e+02   8.0591910443e+00    0.5791102    0.1093443  38.09    0.0015459    6.036    0.834
        33 -11.8570     68.4204    190.7603   1.3672519660e+02   2.7889888518e+01    0.2561871    0.2368071 -71.91 0.0005019667    1.308    0.236
        34  -9.2887      9.2863    229.6618   1.5070226979e+02   2.7169220536e+01    0.1098514   0.05083533  66.03 0.0002614753    1.633    0.388
        35 -10.9143     78.3617    177.9202   1.3302481256e+02   2.9200931110e+01    0.2390394    0.2122259 -86.19 0.0003976538    1.124    0.111
        36 -13.1231     65.1602    176.0645   1.3580059777e+02   3.1435710297e+01    0.4561687    0.2729689 -46.80  0.001543997    2.183    0.542
        37  -9.1551    100.1838    176.8772   1.2786967379e+02   2.6045840902e+01     0.206189     0.159891  70.39 0.0004208384    1.257    0.205
        38 -11.8151     85.9009    168.5051   1.2999351341e+02   3.0120059273e+01     0.606516    0.5686433  49.95  0.003842731    1.184    0.155
        39 -10.2369      6.0566    227.1938   1.5112783691e+02   2.7913495962e+01    0.2319748    0.1474119 -42.32  0.001428172    3.533    0.717
        40  -9.9584     98.2637    152.5492   1.2442315790e+02   3.1682445631e+01    0.2664658    0.2487299  87.76 0.0008483408    1.039    0.038
        41 -12.0513     86.8567    151.7705   1.2717778163e+02   3.3707529506e+01    0.2818086    0.2517053 -46.89 0.0005291973    1.272    0.214
        42 -12.3607     67.4272    143.7578   1.3090098118e+02   3.8373506033e+01    0.6755499    0.4817371  89.76  0.002498803    1.447    0.309
        43 -11.3194     64.6701    141.6929   1.3130510479e+02   3.9217692401e+01    0.3401428     0.318941 -64.38 0.0009018294    1.161    0.138
        44  -9.1192    101.0951    148.2245   1.2292971905e+02   3.2173810123e+01    0.2010891    0.1908679  -0.50 0.0004906362    1.258    0.205
        45  -9.6387      1.6100    227.1770   1.5185336597e+02   2.8329035239e+01    0.1349138   0.07361601 -76.45 0.0009597989    1.740    0.425
        46  -8.4493    192.2157    144.0496   1.0049901679e+02   1.4338045749e+01    0.1858788    0.1218199 -35.45 0.0003917368    1.584    0.369
        47  -8.6764    181.4368    144.5457   1.0289298445e+02   1.6613424889e+01    0.1491379    0.1431113  45.78 0.0004182578    1.081    0.075
        48  -9.8026    109.5728    137.4956   1.1864407257e+02   3.3085956894e+01     0.400262    0.2701723 -16.97  0.001634893    2.611    0.617
        49  -9.4116     81.0570    132.9485   1.2541319580e+02   3.8927450433e+01    0.2059783    0.1840986  81.70 0.0003297187    1.084    0.077
        50  -9.8299     34.5016    133.4913   1.3812927704e+02   4.4545957324e+01     0.208326    0.0968691  43.36  0.001034493    2.215    0.549
        51 -10.4838    173.6721    222.5446   1.1915292931e+02   4.7861246400e+00    0.3950744    0.2633331  60.50  0.002134373    1.887    0.470
        52 -10.8100     56.6055    131.4689   1.3187532608e+02   4.2612867494e+01      0.35742    0.2002127 -71.30   0.00176324    1.699    0.411
        53  -9.0867    106.7725    124.0364   1.1649907192e+02   3.6647889155e+01    0.1904112    0.1835055 -62.12  0.000256664    1.041    0.039
        54 -10.5444     97.0036    134.7020   1.2141921467e+02   3.5950626940e+01    0.2476137    0.2209252 -34.35 0.0003962435    1.270    0.213
        55  -9.9228    167.6605    112.7874   9.8199803708e+01   2.5894130267e+01     0.310089    0.2680452 -76.34 0.0008186948    1.367    0.268
        56  -9.3033    203.3139    111.5478   9.0406068113e+01   1.7628392824e+01     0.261201    0.1851046  -9.56 0.0007398635    1.760    0.432
        57 -10.6499    242.3444     90.6493   7.8642857091e+01   1.2081932855e+01     0.228964    0.1632986 -62.90  0.001129362    1.695    0.410
        58  -8.4281     69.6033     84.2797   1.1804278354e+02   5.1775770847e+01    0.1379445    0.1061591  71.64 0.0006993586    1.757    0.431
        59  -8.8695    184.5038     77.4968   8.4879356213e+01   2.8162389487e+01    0.1555865     0.149322  32.73 -0.0001468916    1.057    0.054
        60  -9.3356    157.4753     76.4976   9.0290133193e+01   3.5234598798e+01    0.1565932    0.1522553  44.11 0.0002044905    1.006    0.006
        61  -9.6878     34.1295     63.0427   1.2523632939e+02   6.0513566050e+01    0.2484281    0.1690969  39.38 0.0009801877    1.792    0.442
        62 -10.7972      1.7932     60.4040   1.3728829234e+02   6.3221323745e+01    0.4288391   0.04784436 -65.65  0.001399064    4.827    0.793
        63 -10.3741     24.6728     59.1755   1.2797036668e+02   6.2118072261e+01     0.449344    0.1275496  38.24  0.001710467    4.661    0.785
        64 -10.2261     17.1104     56.0809   1.3025251991e+02   6.3301683768e+01    0.1793245    0.1770353  45.78 0.0007668473    1.288    0.224
        65 -10.3724      2.7256     47.0043   1.3409561153e+02   6.5967877529e+01    0.1678713     0.120826 -53.18 0.0008035433    1.053    0.050
        66 -10.5376      2.6342     39.2057   1.3222028483e+02   6.7542273172e+01    0.2204612    0.1079021 -52.02  0.001312277    1.474    0.321
        67  -9.6501    152.0000    248.9401   1.2681820851e+02   4.6103251576e+00    0.1563734   0.07030968 -49.69 0.0008032133    2.948    0.661
        68 -11.1868    124.5992    250.1670   1.3196000973e+02   8.7776000391e+00    0.4465656    0.1254414  40.66  0.001878541    2.775    0.640
