#   1 NUMBER                 Running object number                                     
#   2 MAG_AUTO               Kron-like elliptical aperture magnitude                    [mag]
#   3 X_IMAGE                Object position along x                                    [pixel]
#   4 Y_IMAGE                Object position along y                                    [pixel]
#   5 X_WORLD                Barycenter position along world x axis                     [deg]
#   6 Y_WORLD                Barycenter position along world y axis                     [deg]
#   7 A_WORLD                Profile RMS along major axis (world units)                 [deg]
#   8 B_WORLD                Profile RMS along minor axis (world units)                 [deg]
#   9 THETA_WORLD            Position angle (CCW/world-x)                               [deg]
#  10 FWHM_WORLD             FWHM assuming a gaussian core                              [deg]
#  11 ELONGATION             A_IMAGE/B_IMAGE                                           
#  12 ELLIPTICITY            1 - B_IMAGE/A_IMAGE                                       
         1 -13.3309    227.8209      2.6937   3.7407455833e+01   2.5974524667e+01     2.110523    0.6266307  62.09  0.005577436    3.168    0.684
         2 -14.0025    194.9236     37.0331   5.1125616065e+01   3.0978313344e+01     1.544511      1.09785 -19.92  0.003565786    1.407    0.289
         3 -14.6732    204.3980     26.3339   4.6604196834e+01   2.9707049011e+01     2.058795     1.416777  24.79  0.001860118    1.731    0.422
         4 -13.0232     42.3893      6.5873   7.8241734912e+01   7.1604965558e+01     0.498516    0.3071553  32.88  0.002706607    1.859    0.462
         5 -12.5192     59.5266      3.1875   6.8027434525e+01   6.9242122939e+01    0.5536242    0.3356323  47.78  0.002866497    1.772    0.436
         6 -11.3918     29.3369      3.1396   8.3576335097e+01   7.4010557062e+01    0.2558746     0.138201 -47.58  0.001360977    1.620    0.383
         7 -10.6418     49.8592    224.1905   1.1592479254e+02   2.6659074027e+01    0.2187805    0.1466489  76.29  0.001155605    1.339    0.253
         8 -11.9303    139.7207    249.3270   1.0289813021e+02   1.2027652582e+01    0.3205044    0.2068303  59.06  0.002479831    1.580    0.367
         9 -13.8736     73.6504    157.4094   1.0612368766e+02   3.5123056493e+01     0.541016    0.4568233  46.63   0.00157695    1.253    0.202
        10 -15.5870     68.0966    144.0824   1.0587194998e+02   3.8514113578e+01     5.956151     2.366686  60.75   0.02434537    3.137    0.681
        11 -10.0433     97.3079    200.5271   1.0569625081e+02   2.4313260774e+01    0.2235758    0.1719901  14.15  0.001484085    2.081    0.519
        12  -9.9362    111.6716    217.9318   1.0471667972e+02   1.9749119264e+01    0.1421616    0.1107977  56.67 0.0003762762    1.112    0.101
        13 -11.3116    208.4806    196.9694   8.5667510857e+01   7.4851490264e+00    0.2046684    0.1839752  19.00  0.000710342    1.251    0.200
        14 -15.1956     51.8876    203.5246   1.1441866681e+02   2.9649397517e+01     3.496826     1.029198  50.56   0.01837724    2.376    0.579
        15 -10.0997     31.9130    195.6050   1.1771506652e+02   3.3153702055e+01    0.2176429   0.08822313  51.99  0.001342622    1.732    0.423
        16 -10.0008     82.0305    194.9182   1.0808518128e+02   2.7303689675e+01    0.2312112    0.1263732  48.55  0.001453099    1.388    0.279
        17 -10.3865     96.8697    190.2482   1.0477167200e+02   2.6006254142e+01    0.2470132    0.1902381  38.49   0.00133162    1.329    0.248
        18  -9.3463     99.5119    187.4422   1.0396424123e+02   2.6081438553e+01    0.1640767    0.1111078 -71.41  0.001071033    1.715    0.417
        19 -10.5052    150.2985    187.6238   9.4296475808e+01   1.8101889784e+01    0.2132876    0.1540484  83.21 0.0009974566    2.069    0.517
        20 -10.5210    147.4909    185.0282   9.4459753607e+01   1.8932533836e+01    0.1690833     0.142185  44.30 0.0006140686    1.054    0.051
        21  -9.9874    130.8017    213.2364   1.0089792843e+02   1.7633942234e+01    0.1605286    0.1295748  64.62 0.0003955835    1.273    0.215
        22 -10.3056     99.4558    180.7123   1.0324408295e+02   2.7206441128e+01    0.2176465    0.1682532  53.61  0.000551115    1.038    0.037
        23 -10.8421    144.4647    179.1281   9.4204962066e+01   2.0297435389e+01    0.2063806    0.1493386  31.25  0.000836982    1.392    0.282
        24  -9.4855     43.0699    179.5561   1.1461594506e+02   3.4765496340e+01    0.1577197   0.08464748  43.71 0.0004424565    1.528    0.346
        25 -12.0476     73.3261    176.3461   1.0813421271e+02   3.1647801837e+01    0.3223304    0.2550256 -37.07  0.001414053    2.064    0.515
        26 -12.1942     77.1467    171.3569   1.0684571297e+02   3.2032773597e+01     0.266346    0.2561287  55.23   0.00111258    1.367    0.269
        27  -9.7976    219.1686    177.5821   8.0894267050e+01   7.7795775058e+00    0.1673526   0.08719529  34.69 0.0004648262    1.609    0.379
        28 -10.4240     47.5470    173.6855   1.1328497624e+02   3.5330452490e+01    0.3479309    0.1635664 -65.70  0.002025704    2.272    0.560
        29 -13.8067     60.0138    191.2852   1.1205841800e+02   3.0728289193e+01    0.7331718    0.6349167  59.61   0.00544363    1.264    0.209
        30 -10.0698     53.7319    173.0588   1.1194066900e+02   3.4721417766e+01    0.1903014    0.1372057  48.95 0.0003960608    1.219    0.179
        31 -16.4625      1.9166    108.1891   1.1978261003e+02   5.2967441710e+01     14.31515    0.5609293 -79.98   0.02779757   15.166    0.934
        32  -9.2100    200.9149    168.4706   8.2321533995e+01   1.1920029578e+01    0.1837854    0.1025884  44.25  0.001009798    1.532    0.347
        33 -10.4104    113.7537    208.7279   1.0346766165e+02   2.0747756989e+01    0.1572192    0.1371851 -77.73 0.0006466262    1.422    0.297
        34  -9.9813    162.0116    167.0086   8.9031729576e+01   1.9042297511e+01    0.1880822    0.1612281  49.80 0.0004606459    1.103    0.094
        35  -9.4291    192.4631    164.9600   8.3159237973e+01   1.3854346289e+01    0.1635692     0.121005 -28.99 0.0004588144    1.540    0.351
        36  -9.2531    156.4842    159.5169   8.8851033327e+01   2.1157777554e+01     0.128447    0.1093662  46.24 0.0003198453    1.028    0.027
        37 -12.2804     91.6250    155.1422   1.0182097540e+02   3.2955764731e+01    0.5107036    0.4022496 -21.05  0.002985094    2.178    0.541
        38 -11.3099    133.6832    144.6950   9.0958564068e+01   2.7780966489e+01    0.9446238    0.2474293 -54.52  0.002791447    5.895    0.830
        39 -15.2330     11.0421    206.3862   1.2194318647e+02   3.3396901971e+01    0.5248462    0.4465922  46.14  0.002696319    1.492    0.330
        40 -11.0033    174.1753    148.7691   8.3541608330e+01   1.9464872798e+01    0.2911784    0.2589023  67.33  0.001474322    1.286    0.222
        41 -10.7385    143.8591    145.7790   8.9002797718e+01   2.5704648679e+01    0.3085713    0.1754777 -64.97  0.001382557    2.696    0.629
        42 -12.0708    193.1455    194.8630   8.7841610589e+01   1.0158508289e+01    0.7732117    0.4538555 -63.90  0.003163319    5.977    0.833
        43 -10.5189     87.5747    146.2799   1.0155924834e+02   3.5279189043e+01    0.2456877    0.1831365  71.21 0.0008921737    1.245    0.197
        44 -10.4644    103.5005    141.4948   9.7155765722e+01   3.3679519058e+01    0.3158045    0.2086003  55.81 0.0009977288    1.378    0.274
        45 -10.3409    106.1977    137.7973   9.5932351114e+01   3.3942265691e+01    0.2993217    0.2517928 -35.70  0.001798693    1.554    0.356
        46 -12.4766     92.2460    140.2180   9.9595108509e+01   3.5753933455e+01    0.2418232    0.2251538  79.98 0.0004783418    1.148    0.129
        47 -10.8960    107.8893    203.3632   1.0400436958e+02   2.2377562446e+01    0.1759166    0.1345486  76.29 0.0007531124    1.367    0.269
        48 -11.0904     17.5244    131.3048   1.1713212084e+02   4.6811130759e+01    0.3079181    0.1163272  86.81  0.001463996    2.571    0.611
        49 -10.8278    105.9335    130.5105   9.4753632998e+01   3.5417738041e+01    0.3476886    0.2723868 -67.52  0.002027334    1.329    0.247
        50 -11.2703    135.7556    128.0059   8.7378710946e+01   3.0378818952e+01    0.5460122    0.1672452 -50.03  0.001871249    3.740    0.733
        51 -11.1553    100.2668    126.8823   9.5490136495e+01   3.7118214264e+01    0.3092515    0.2220237 -40.56 0.0006915574    1.780    0.438
        52 -11.1874    119.1855    123.8931   9.0363391223e+01   3.4328231995e+01    0.5019001    0.3542982 -11.11  0.002252861    2.739    0.635
        53  -9.9688    160.6520    127.6467   8.1995719667e+01   2.5445229781e+01    0.2754098    0.2012689  87.61  0.001342773    2.051    0.512
        54 -10.5497    113.1190    130.4735   9.3039921924e+01   3.4158922885e+01    0.2762008    0.2338521  31.84  0.001042714    1.341    0.254
        55 -10.1460    108.9351    119.2391   9.1926639879e+01   3.7141340150e+01    0.2042605    0.1852357 -82.21 0.0003252065    1.096    0.087
        56 -10.4644    135.1326    113.1744   8.4377204593e+01   3.3251035939e+01    0.3407471   0.09367507 -47.49  0.001065047    3.930    0.746
        57  -9.9687    167.5241    112.3502   7.7197712634e+01   2.6518885858e+01    0.3008893    0.2209678 -77.03  0.001308926    2.006    0.502
        58 -11.8293    118.3895    109.5523   8.7563909995e+01   3.7306423690e+01    0.5434749    0.4466899  88.99  0.002986271    1.319    0.242
        59 -10.0647    205.5757    110.1149   6.9658981585e+01   1.8593023739e+01     0.258653    0.1843555  39.60  0.000643537    1.332    0.249
        60 -11.3947     58.9675    107.2579   1.0317164339e+02   4.7612055624e+01    0.4121409    0.2293108  83.16  0.001926653    2.224    0.550
        61  -9.9078    134.5181    105.4932   8.2747777690e+01   3.4827918924e+01    0.2915407    0.1419669 -45.07  0.001205892    2.150    0.535
        62  -9.5960     31.9755     96.0457   1.0964274359e+02   5.3248098985e+01    0.1815098    0.1487502  86.68 0.0003207272    1.016    0.015
        63 -11.0835     41.6235     92.0253   1.0599901600e+02   5.3167134917e+01    0.2005809    0.1877249  37.09 0.0004383085    1.307    0.235
        64 -10.4937     53.0673     90.6852   1.0211340172e+02   5.2124186326e+01    0.2580861     0.168741 -59.56  0.000999189    1.433    0.302
        65 -10.2397     39.3033     88.0459   1.0610980237e+02   5.4334997557e+01    0.2158453    0.1705788 -36.65  0.001316098    1.633    0.388
        66  -9.1887    156.6027     80.7853   7.1291600793e+01   3.4343538740e+01    0.2049999    0.1380326 -46.84 0.0004676803    1.555    0.357
        67  -8.8695    184.3586     77.3110   6.4899715276e+01   2.8176211072e+01    0.1589139    0.1101271  24.27  0.000704252    1.740    0.425
        68  -9.4800     62.5638     69.4649   9.4263950427e+01   5.5685106817e+01    0.1354371    0.1200212 -74.17  6.15901e-05    1.015    0.015
        69 -11.4618    153.5973     56.4756   6.4454492950e+01   3.9130871631e+01    0.4133262    0.3018725 -76.71 0.0007705985    1.766    0.434
        70 -10.6318    107.0042    210.2712   1.0483374103e+02   2.1488119013e+01    0.3292559    0.1079457  45.65  0.001656365    2.218    0.549
        71 -13.6996    184.7617     45.0251   5.5126487546e+01   3.2652317467e+01      1.26328    0.9532753   3.01 0.0009779381    1.532    0.347
        72  -9.6324    172.4178    238.5885   9.6729191864e+01   8.6349956933e+00     0.146056    0.1017517 -51.74  0.001125525    2.209    0.547
        73 -10.1709     73.6805    230.7684   1.1225326931e+02   2.2926238729e+01    0.3234555   0.07443756  44.88  0.001630803    2.639    0.621
        74 -11.0216    156.1966     50.6693   6.1993312477e+01   3.9368583801e+01    0.3400367    0.2783135 -83.28 0.0009240649    1.402    0.287
        75 -16.6307     61.8612    247.4876   1.1511953581e+02   2.2033329066e+01     7.337204     2.188149  31.83   0.02122735    6.850    0.854
        76 -11.5285     33.3388     16.1388   8.8303787907e+01   7.1055963588e+01    0.2042279     0.171227  -0.54 0.0008955676    1.361    0.265
        77  -9.8965    189.5238     15.0112   4.4660382648e+01   3.4883948535e+01    0.2289456      0.20185  78.48 0.0005985307    1.143    0.125
        78 -17.7224      7.4139    240.1190   1.2340732297e+02   2.8616698421e+01     4.393814     1.475536 -76.13   0.02941659    3.243    0.692
        79  -9.7853     58.0224    226.6835   1.1466493710e+02   2.5365616407e+01    0.1504417    0.1077455  69.34  0.001251707    1.202    0.168
