#   1 NUMBER                 Running object number                                     
#   2 MAG_AUTO               Kron-like elliptical aperture magnitude                    [mag]
#   3 X_IMAGE                Object position along x                                    [pixel]
#   4 Y_IMAGE                Object position along y                                    [pixel]
#   5 X_WORLD                Barycenter position along world x axis                     [deg]
#   6 Y_WORLD                Barycenter position along world y axis                     [deg]
#   7 A_WORLD                Profile RMS along major axis (world units)                 [deg]
#   8 B_WORLD                Profile RMS along minor axis (world units)                 [deg]
#   9 THETA_WORLD            Position angle (CCW/world-x)                               [deg]
#  10 FWHM_WORLD             FWHM assuming a gaussian core                              [deg]
#  11 ELONGATION             A_IMAGE/B_IMAGE                                           
#  12 ELLIPTICITY            1 - B_IMAGE/A_IMAGE                                       
         1 -14.8841    214.9120      9.8155   3.7946286141e+01   3.0282793815e+01     2.321958     1.419884  44.12   0.01195274    2.104    0.525
         2 -14.0282    175.2518     54.3612   5.5294502133e+01   3.4358211655e+01     1.936968     1.256251  30.06  0.005244413    2.054    0.513
         3 -14.2065    190.1726     40.9562   4.9023474668e+01   3.2550502802e+01     1.019787    0.9553623  77.15  0.003503608    1.061    0.057
         4 -13.6101    195.1711     34.9712   4.6666658738e+01   3.2102367173e+01    0.6354058    0.5852382  83.50   0.00139543    1.054    0.051
         5 -12.4641     59.2196      3.5070   6.4838684102e+01   6.6709131012e+01    0.6122854    0.1731214  35.78  0.002181475    4.054    0.753
         6 -10.8490    248.8127      1.8118   3.3536177037e+01   2.3568056775e+01    0.3120688    0.1155207  76.53  0.001449305    2.621    0.618
         7 -13.0039     59.5344    194.2334   1.1518097402e+02   2.6646142966e+01    0.4181685    0.3182158 -50.86  0.001360195    1.607    0.378
         8 -13.2972    247.1458    246.6567   8.5584234549e+01  -1.1168794666e+01    0.8814688    0.5049894 -18.77  0.005584957    1.693    0.409
         9 -18.3848     37.8397    236.4831   1.2293366709e+02   2.0675513769e+01     8.079016     7.163602  86.16   0.05840584    1.340    0.254
        10 -10.5463     44.3636    199.0642   1.1884279944e+02   2.7455931501e+01     0.245425    0.1856776 -35.78   0.00147666    2.086    0.521
        11 -11.6317    184.6741    211.8676   9.1186038784e+01   2.9990841041e+00    0.3151131    0.1923039  17.98   0.00147582    1.978    0.494
        12 -10.8854     81.9763    194.7549   1.1036366803e+02   2.3454396389e+01    0.2711408     0.225147  61.34 0.0008090063    1.085    0.078
        13 -12.0196     66.1833    204.9141   1.1489572680e+02   2.3473971352e+01    0.5165445    0.2357063 -48.72   0.00110924    3.034    0.670
        14  -9.3025    186.6655    186.3044   8.6125594092e+01   7.0376434983e+00    0.1429959    0.1306695  14.14 0.0005311181    1.007    0.007
        15  -9.7773     70.8017    200.1235   1.1341154661e+02   2.3871261610e+01    0.2571146     0.170469  75.73  0.001080739    1.491    0.329
        16 -10.7343     75.6512    247.1408   1.1699328343e+02   1.4012155039e+01    0.4295866    0.1169153 -58.46  0.001858174    4.044    0.753
        17 -11.8612     95.0793    188.1585   1.0656282703e+02   2.2921005885e+01    0.5140467    0.5015553  54.16  0.001947938    1.182    0.154
        18 -11.8422     99.3741    180.8741   1.0450489437e+02   2.3857471602e+01    0.3663604    0.3223632  -5.99 0.0006310409    1.511    0.338
        19 -13.0898    149.9530    188.8003   9.4374364589e+01   1.3347634439e+01    0.8099845    0.4628052 -69.08  0.002884307    2.951    0.661
        20 -12.4739    204.5270    200.1306   8.5206125597e+01   1.5117768882e+00    0.5872281    0.2413053  30.25  0.002282006    2.835    0.647
        21 -10.7354    238.6118    186.2253   7.6224730428e+01  -2.0156959894e+00    0.1846572    0.1094299 -22.95 0.0004739083    1.627    0.385
        22 -12.5652    143.6098    177.9876   9.3816923471e+01   1.6724831538e+01    0.5077275     0.310562 -51.53   0.00143589    1.718    0.418
        23 -12.2592    241.1655    178.4122   7.4212508478e+01  -1.2456067054e+00    0.2815006    0.2124194  39.75  0.001646238    1.473    0.321
        24 -11.4783    149.4551    177.1368   9.2340714850e+01   1.5803503245e+01     0.278951    0.2390902  82.67 0.0004048121    1.377    0.274
        25 -11.2391    187.7918    176.1675   8.3881683670e+01   8.6753868367e+00    0.3671086    0.3358299 -64.11  0.001449507    1.326    0.246
        26 -10.4642    185.3145    169.6668   8.3055426630e+01   1.0368773332e+01     0.298808    0.2588507 -72.66 0.0007264997    1.483    0.326
        27 -11.8343    240.6739    170.0424   7.2579297624e+01   1.3516783622e-01    0.2622417    0.1607486 -33.31  0.001361384    1.484    0.326
        28 -12.4565    234.0056    173.9898   7.4563273377e+01   6.4431144538e-01    0.3812072    0.2370961  25.37  0.001936621    1.714    0.417
        29 -10.1417    193.9518    171.2102   8.1601310106e+01   8.4149147999e+00    0.2407778    0.2076205 -31.46 0.0008004042    1.154    0.133
        30 -11.9195    139.3211    170.9454   9.3467743686e+01   1.9023164491e+01    0.4004518    0.3481823  50.83  0.001243747    1.127    0.113
        31 -12.0970    193.4925    195.8161   8.6561443409e+01   4.1438056937e+00      1.37994    0.7109498 -60.00  0.004738119    4.551    0.780
        32 -11.2992    229.9895    166.2778   7.3667957799e+01   2.5924659057e+00    0.1944208    0.1713151   4.80 0.0004670247    1.070    0.065
        33  -9.8938     93.7382    205.4187   1.0915447885e+02   1.9437082821e+01    0.2644281     0.198608  20.51 0.0009431044    1.774    0.436
        34 -10.2586    187.8238    162.5661   8.1025857045e+01   1.1229218655e+01    0.2868584    0.1897731 -56.37 0.0008665058    1.894    0.472
        35 -11.8755     90.7276    157.3176   1.0276805998e+02   3.0702822619e+01     0.259755    0.2434326 -70.05 0.0002675999    1.081    0.075
        36 -10.9965    187.5440    151.8704   7.8725019094e+01   1.3352777783e+01    0.3123539    0.2876943 -56.94  0.001569681    1.208    0.172
        37 -11.8107    133.9185    145.8637   8.9608834223e+01   2.5628624189e+01     1.321281    0.3416368 -54.81   0.00307587    5.855    0.829
        38 -10.3857    113.2169    151.2053   9.5917791231e+01   2.8325599377e+01    0.3077484    0.2103907  80.79  0.001134324    2.058    0.514
        39 -12.4075     96.6202    150.8539   1.0009647986e+02   3.1289884573e+01    0.6073902    0.5053727 -18.96  0.003169876    1.554    0.357
        40 -10.7326    174.5309    149.0547   8.0864429353e+01   1.6602978498e+01    0.2740227    0.2629251  65.26 0.0008615163    1.139    0.122
        41 -10.5592    108.7494    147.0231   9.6217541152e+01   3.0113233781e+01    0.2915568    0.2106609  76.44 0.0002758696    1.748    0.428
        42 -11.8731    108.1210    137.3486   9.4357035970e+01   3.2524110952e+01    0.7361521    0.3950432 -45.80  0.003032521    1.865    0.464
        43 -11.8316    105.6529    130.9855   9.3618519847e+01   3.4487333954e+01    0.4806801    0.4159168 -12.97  0.002478654    1.385    0.278
        44 -10.6863    143.5745    145.3074   8.7129888238e+01   2.3813220869e+01    0.3127983    0.1480599 -52.40  0.001150962    2.238    0.553
        45 -10.8505     96.4974    202.0456   1.0813450837e+02   1.9717844655e+01    0.2489968    0.2169092 -68.73 0.0008677202    1.215    0.177
        46 -12.4628     96.1841    136.8667   9.7455189524e+01   3.4728811693e+01    0.3335975     0.273441 -66.93 0.0005465488    1.178    0.151
        47 -11.1691    135.9955    128.8450   8.5148666184e+01   2.9066898684e+01    0.6548958    0.2088836 -51.94  0.001876732    3.577    0.720
        48 -10.5231    135.0000    121.2891   8.3523047778e+01   3.0977602398e+01    0.5147599    0.1722496 -48.86  0.001573852    3.029    0.670
        49 -11.1751    115.0407    128.7692   9.0580673362e+01   3.3268976248e+01    0.3462997    0.2974881  -7.48 0.0007726197    1.402    0.287
        50 -10.1711    160.8674    128.1015   7.8950519338e+01   2.3902479443e+01    0.2498336    0.2217843 -78.86  0.001246324    1.289    0.224
        51 -11.2805    102.5855    124.3913   9.2955197252e+01   3.6613256660e+01     0.286041    0.2418756 -22.70 0.0007602695    1.362    0.266
        52 -10.8310    120.4524    122.7744   8.7694959247e+01   3.3615754762e+01    0.5012081    0.2821993 -25.98  0.001719862    2.973    0.664
        53 -10.2301    110.1894    118.0198   8.9310829925e+01   3.6715670536e+01     0.232823    0.2190308  43.54 0.0003176585    1.115    0.103
        54 -10.8315    231.1530    113.7785   6.1600281210e+01   1.1335409159e+01    0.2769624    0.2682117 -44.33 0.0007441036    1.109    0.098
        55 -10.0050    167.7040    112.6626   7.3431657117e+01   2.5597102500e+01    0.3197394    0.2277079 -77.28    0.0013074    2.096    0.523
        56 -10.0613    135.0000    112.0920   8.1130684800e+01   3.3026834003e+01    0.4434491   0.08787728 -44.75  0.001046867    4.894    0.796
        57 -11.8598    118.6645    110.6225   8.5076522373e+01   3.6764028775e+01    0.6383528    0.4555908  73.41  0.002593747    1.983    0.496
        58 -10.4645    205.4589    110.2038   6.5141812005e+01   1.7483769580e+01    0.3158146    0.2164819  42.25 0.0009417204    1.581    0.367
        59 -10.0095    134.5761    105.7646   7.9525416203e+01   3.4504818698e+01    0.3945428    0.1489892 -46.28  0.001286035    2.607    0.616
        60 -11.8992     43.2483    209.6224   1.1997172259e+02   2.5352994227e+01    0.4934229    0.2054595  69.70  0.002169452    2.912    0.657
        61  -9.1971    154.4831     82.4815   6.7937394111e+01   3.4683627238e+01    0.1549418     0.151258 -12.29 9.313886e-05    1.030    0.029
        62  -9.2819    184.3747     77.2804   6.0261884934e+01   2.8363927771e+01    0.1566582    0.1173581  23.87 0.0007011046    1.704    0.413
        63 -11.7151     71.9494    244.4607   1.1743772093e+02   1.4981441638e+01      0.24887    0.1514142 -74.51  0.001140879    1.735    0.424
        64 -11.0097     37.2453    211.5311   1.2129184772e+02   2.5647961687e+01    0.2486755    0.1350219  85.00  0.001152495    1.716    0.417
        65 -11.0001    159.7757    205.5810   9.5169699223e+01   8.3967908220e+00    0.2707957    0.1211575  36.54  0.001142028    2.114    0.527
        66 -19.1330     15.0462    100.1641   1.1456200779e+02   5.3421661955e+01      15.8596    0.8534374 -68.24   0.02728629   14.490    0.931
        67 -10.9152     43.5592    205.4731   1.1956417699e+02   2.6184653397e+01    0.2353926    0.1578916 -78.01 0.0005412574    1.351    0.260
        68 -12.0031     56.5881    201.3586   1.1653065541e+02   2.5476107463e+01    0.3294093    0.2339336 -39.56  0.001873062    2.138    0.532
