#   1 NUMBER                 Running object number                                     
#   2 MAG_AUTO               Kron-like elliptical aperture magnitude                    [mag]
#   3 X_IMAGE                Object position along x                                    [pixel]
#   4 Y_IMAGE                Object position along y                                    [pixel]
#   5 X_WORLD                Barycenter position along world x axis                     [deg]
#   6 Y_WORLD                Barycenter position along world y axis                     [deg]
#   7 A_WORLD                Profile RMS along major axis (world units)                 [deg]
#   8 B_WORLD                Profile RMS along minor axis (world units)                 [deg]
#   9 THETA_WORLD            Position angle (CCW/world-x)                               [deg]
#  10 FWHM_WORLD             FWHM assuming a gaussian core                              [deg]
#  11 ELONGATION             A_IMAGE/B_IMAGE                                           
#  12 ELLIPTICITY            1 - B_IMAGE/A_IMAGE                                       
         1 -12.6883      2.6466     25.9064   9.5303685885e+01   7.0673248108e+01     1.577646     0.212607 -53.11  0.005494926    4.987    0.799
         2 -13.3136     25.1528     81.4286   1.0085671292e+02   5.7866780166e+01     2.013256    0.6170337 -54.38   0.00816201    2.485    0.598
         3 -14.1172      8.8648     64.3292   1.0356573947e+02   6.2822297658e+01      2.12538    0.9847631 -64.28   0.01069886    1.979    0.495
         4 -14.2309      6.6925     92.3141   1.0998634578e+02   5.6683612573e+01       1.8992    0.8445128 -66.82  0.008987762    1.837    0.456
         5 -14.6718      4.8764    119.8517   1.1451907613e+02   5.0214883140e+01     7.080738    0.2215003 -71.07   0.01475338    9.787    0.898
         6 -12.9033     70.1914     29.7981   6.5822004229e+01   6.1488337174e+01    0.9338259    0.8029151  41.86  0.004892083    1.209    0.173
         7 -12.9128    230.9452     29.2906   3.5972492746e+01   2.5288434705e+01    0.7234713    0.6384642  48.53   0.00490604    1.569    0.363
         8 -12.2617     36.7749      9.6925   7.0323669770e+01   6.9487926017e+01    0.6622511    0.3927171  36.33  0.004041599    1.579    0.367
         9 -12.2231     31.1894     21.4046   7.8456687200e+01   6.8679680584e+01    0.6926492    0.4392067 -12.60   0.00414872    1.579    0.367
        10 -13.3045     20.7527     16.3668   8.1470482570e+01   7.0625294672e+01     1.035684    0.7287424 -16.54  0.007041641    1.200    0.167
        11 -12.1175     48.0320     19.8828   7.0129148822e+01   6.6537581722e+01    0.7699487    0.4142679  16.68  0.003750169    2.380    0.580
        12 -11.7146     46.8297     13.8232   6.7866221203e+01   6.7483330075e+01    0.5537631     0.328563   4.35  0.002982751    2.038    0.509
        13 -12.6353    184.9730     18.3952   3.8078738478e+01   3.6865264743e+01     0.554487    0.4710266  67.44  0.003558126    1.213    0.175
        14 -12.4886    186.0666     10.3888   3.5986458930e+01   3.7477270767e+01    0.7869035    0.2522026 -48.56  0.003199953    3.066    0.674
        15 -11.5301    217.6378     14.1146   3.3900380207e+01   2.9958496949e+01    0.4810044    0.2240949 -28.22  0.002339624    2.627    0.619
        16 -12.8207    199.1066      8.6741   3.4313390993e+01   3.4667658893e+01    0.7582011    0.3306108 -80.25   0.00323602    2.821    0.646
        17 -12.1291     95.7011     12.1295   5.1144388174e+01   5.8389499569e+01    0.7220125    0.3218386  38.00  0.003226855    2.368    0.578
        18 -12.3181     87.0723      9.5531   5.2348464988e+01   6.0471049876e+01    0.8063711    0.4750492  30.26   0.00430402    1.773    0.436
        19 -13.3181    171.6688      5.0832   3.6187866298e+01   4.1374804617e+01     1.199179    0.4515677  69.57  0.005366972    2.229    0.551
        20 -11.8591    112.5177      6.0245   4.5195075730e+01   5.5202806431e+01    0.4042439    0.2737267 -85.71  0.002200949    1.848    0.459
        21 -11.8760    102.5504      3.0041   4.6138427222e+01   5.7699368320e+01    0.5859045    0.2262656  52.26   0.00270594    2.057    0.514
        22 -11.9866    156.9813      2.5321   3.7206943573e+01   4.5078864360e+01    0.6359692    0.2067743  67.70  0.002659976    2.483    0.597
        23 -10.8364    130.5052      1.7524   4.0625147892e+01   5.1398721451e+01    0.3684456   0.09249754  67.62  0.001306241    3.367    0.703
        24 -15.1353     35.9776    190.2325   1.1371670702e+02   3.0203043467e+01     3.116924     1.162017  54.16   0.01079971    2.803    0.643
        25 -10.9761    183.7259    250.2970   8.8883490980e+01  -3.7083396321e+00    0.4147915    0.1365638  34.76  0.001761391    2.634    0.620
        26  -9.5804     12.4960    249.4339   1.2268664404e+02   1.9921481445e+01    0.1916456   0.08170874  83.07  0.001015839    2.237    0.553
        27 -11.0641    144.6498    150.7058   7.9629388525e+01   2.2373036700e+01    0.5510674    0.2097915  44.51  0.001865573    2.647    0.622
        28 -12.5162     67.8172    143.4633   9.8995295858e+01   3.7834881143e+01    0.7482597    0.4412219  61.44  0.003189549    2.126    0.530
        29  -9.7171     90.0790    144.1610   9.2700529531e+01   3.4205959098e+01    0.2285129    0.2093022 -28.01 0.0007413691    1.223    0.182
        30 -11.7749     77.4063    142.0756   9.5941728879e+01   3.6765761961e+01    0.3282637    0.3042492  80.32 0.0006230824    1.066    0.062
        31 -12.6081     65.7916    104.4305   9.1522676170e+01   4.7808268516e+01     1.070682    0.6865397  54.39  0.004924996    1.934    0.483
        32 -13.0100     59.5528    134.0610   9.9761031203e+01   4.1354585444e+01    0.8217493    0.6171944 -57.34  0.004311019    1.229    0.186
        33 -13.0397     63.7785    124.4596   9.6606223606e+01   4.3195758088e+01     1.213899    0.6334016  32.44  0.005248134    2.056    0.514
        34 -13.4446     62.4107    115.2688   9.5118674031e+01   4.5663862221e+01     1.056587    0.8885687 -32.77  0.005413343    1.253    0.202
        35 -11.1218    237.1241    134.8830   5.7767043152e+01   7.3886399510e+00    0.2141056    0.1739319 -55.77  0.001256252    1.259    0.206
        36 -10.4563    105.1623    131.6730   8.5752944823e+01   3.4617627111e+01    0.3816645    0.3015065  -2.00  0.001363613    1.701    0.412
        37 -10.1817     90.7312    128.3314   8.9183322813e+01   3.8024863806e+01    0.2597077    0.2441051 -34.50 0.0004133395    1.118    0.105
        38 -10.0150    103.0382    120.0138   8.3630790399e+01   3.7818715173e+01    0.2256817    0.2224717 -69.09 0.0003670766    1.019    0.019
        39 -12.3134     49.8635    110.5645   9.8272613680e+01   4.8444170216e+01    0.7578028    0.3743552 -59.01  0.002908798    1.804    0.446
        40  -9.3304    115.6734    101.6830   7.5285454090e+01   3.9513734718e+01    0.1561664    0.1233403  -2.85 0.0003410038    1.675    0.403
        41 -12.3879     50.7112     97.3794   9.5048647310e+01   5.1507122650e+01    0.6435369    0.5088118 -45.30  0.003598269    1.156    0.135
        42 -10.3298     52.1745     89.8817   9.2683421553e+01   5.3062707293e+01    0.2770772    0.2248257  69.10  0.001180269    1.576    0.365
        43 -11.9312     38.9032     92.2230   9.8114506165e+01   5.4071763419e+01    0.4700407    0.4067715  50.10  0.002838416    1.344    0.256
        44 -10.5911     78.0034     84.8197   8.2167642078e+01   5.0350563680e+01    0.2760424    0.2098904 -45.99  0.001424812    1.268    0.211
        45 -10.5284     40.1285     84.7671   9.5876178488e+01   5.5652457816e+01    0.2563792    0.1800671 -42.11  0.001046829    1.285    0.221
        46 -12.0835     58.2742     78.9482   8.7475068514e+01   5.4673833871e+01    0.5323957    0.2442092 -43.10  0.002256302    2.071    0.517
        47 -11.2527     38.8275     75.1390   9.3883618546e+01   5.7929410789e+01    0.4360175    0.3050639  21.14  0.002442535    1.545    0.353
        48 -11.3631     61.6250     68.5333   8.3080501559e+01   5.6355042460e+01    0.6826692    0.3505409 -62.69  0.002635763    3.119    0.679
        49 -14.8569     15.6227    134.0210   1.1300712401e+02   4.5978827003e+01     3.288585     1.009171 -64.97   0.01242451    2.467    0.595
        50 -11.9755    103.3875     42.6913   6.0362405120e+01   5.3045520754e+01    0.4499164    0.3418097   5.74  0.002389437    1.588    0.370
        51 -12.1862    126.9939    230.7469   9.7734795889e+01   8.3022479222e+00    0.4441445    0.2384555  56.22  0.002011342    2.228    0.551
        52 -12.8883    146.2990    239.7704   9.4892331837e+01   3.6145221119e+00    0.7682769    0.4978711  -4.84  0.003675248    2.541    0.606
        53 -11.8748     18.5003     33.6657   8.9812176808e+01   6.8081978709e+01     0.629923    0.3715975  29.71   0.00342041    1.851    0.460
        54 -12.8168    134.7906    246.3565   9.8148819557e+01   4.2256549294e+00    0.7714464    0.2947233  36.90  0.003380851    2.210    0.548
        55 -12.7723    137.8117    241.4539   9.6883546786e+01   4.6295605175e+00    0.4522197      0.30807  27.29  0.002550881    1.410    0.291
        56 -11.8841     77.9110    244.1592   1.0965186771e+02   1.3012583372e+01    0.5014251    0.2471501  46.23  0.001846125    1.668    0.400
        57 -10.7431     39.2134     21.3284   7.4644954847e+01   6.7636216625e+01    0.3356882    0.2139764  -0.77  0.001930114    1.703    0.413
        58 -12.1325     68.0217    240.1386   1.1130704925e+02   1.5158455129e+01    0.7081742    0.4449787  62.65  0.002776456    1.452    0.311
        59 -15.1166     74.4229    215.7290   1.0748641991e+02   1.9412792651e+01     2.926553     2.117635  43.33   0.01296357    1.272    0.214
        60 -13.0526     11.6580    208.0050   1.2054346900e+02   2.8631733117e+01    0.4011735    0.3461761  52.96 0.0009901316    1.269    0.212
        61 -14.5500     19.0336    201.3618   1.1851140247e+02   2.9403919843e+01     1.486088     1.165004  44.25   0.00655255    1.330    0.248
        62 -14.2394     57.5198    214.0057   1.1108792226e+02   2.2092237634e+01     1.872283     1.074137  89.77  0.009464004    1.865    0.464
        63 -14.2478     39.6860    205.8913   1.1430737569e+02   2.6130424151e+01     1.428737    0.9938657 -75.42  0.008101281    1.346    0.257
        64 -11.3492     44.5797    181.1672   1.1069118729e+02   3.1393607109e+01    0.2810137    0.2564969 -51.44  0.000498547    1.303    0.233
        65 -11.4552     52.2511    174.6031   1.0797244685e+02   3.2069547348e+01    0.2680822    0.2443223 -57.80 0.0004689593    1.225    0.184
        66 -10.6143     64.8580    164.3997   1.0324591856e+02   3.2955945608e+01    0.2502582    0.2200176 -74.88 0.0003498824    1.069    0.065
        67 -10.3485    134.9932    162.8740   8.4548232845e+01   2.1482052651e+01    0.2551707    0.2169628 -66.33 0.0003614629    1.232    0.189
        68 -12.9312     50.4372    160.7084   1.0662859653e+02   3.5762140000e+01    0.5304578    0.3088511 -40.24   0.00173663    2.205    0.546
        69 -11.7094     73.8134    157.4206   9.9695459589e+01   3.3433544634e+01     0.511673    0.4613664 -22.29  0.002230129    1.334    0.250
