#   1 NUMBER                 Running object number                                     
#   2 MAG_AUTO               Kron-like elliptical aperture magnitude                    [mag]
#   3 X_IMAGE                Object position along x                                    [pixel]
#   4 Y_IMAGE                Object position along y                                    [pixel]
#   5 X_WORLD                Barycenter position along world x axis                     [deg]
#   6 Y_WORLD                Barycenter position along world y axis                     [deg]
#   7 A_WORLD                Profile RMS along major axis (world units)                 [deg]
#   8 B_WORLD                Profile RMS along minor axis (world units)                 [deg]
#   9 THETA_WORLD            Position angle (CCW/world-x)                               [deg]
#  10 FWHM_WORLD             FWHM assuming a gaussian core                              [deg]
#  11 ELONGATION             A_IMAGE/B_IMAGE                                           
#  12 ELLIPTICITY            1 - B_IMAGE/A_IMAGE                                       
         1 -10.2204     41.1392     13.8015   3.1541051782e+01   7.2504377489e+01    0.2353674    0.1914516  18.23 0.0002569854    1.149    0.129
         2  -9.1726     97.5113     11.9717   8.3510939602e+00   5.9453213730e+01    0.2011785    0.1159464  18.78 0.0008102477    2.570    0.611
         3  -9.0525     80.3930     12.1883   1.3046163216e+01   6.3887872044e+01     0.192142    0.1277393 -40.47 0.0009217097    1.681    0.405
         4  -8.2536     65.2833      4.7294   1.3875804651e+01   6.8415417751e+01    0.1269027    0.1049577 -77.00 0.0001752796    1.497    0.332
         5  -9.2043     67.7022      1.3488   1.0967784826e+01   6.8150120140e+01    0.2347462    0.1199906  66.05 0.0004635257    1.840    0.457
         6  -9.4591    107.5090    247.9865   6.3249947624e+01   1.0341218274e+01    0.2484097    0.1928013  57.69  0.001469361    1.507    0.336
         7 -10.5756    161.1316    247.5805   5.2114725497e+01   3.6617062300e+00    0.3555517    0.1619851 -54.07  0.001758707    3.784    0.736
         8  -9.8306    169.8546    225.0117   4.7389110224e+01   5.6723466712e+00    0.3727629    0.1999706  45.65  0.001899514    2.402    0.584
         9 -11.0141    166.9270    248.1323   5.1050874214e+01   2.8802215471e+00    0.4154004    0.2052989  29.22  0.001879833    1.543    0.352
        10 -11.0967    173.6363    244.7323   4.9323318617e+01   2.5057679404e+00    0.5124218    0.3873484 -37.05  0.003660156    1.682    0.406
        11 -11.6671    166.7914    242.1300   5.0314981736e+01   3.6898166334e+00     0.468606    0.2447075  32.84   0.00191597    1.557    0.358
        12 -10.9782    169.7538    234.2141   4.8685718749e+01   4.3919909474e+00      0.61558    0.4064705  45.43  0.003492498    1.943    0.485
        13 -10.5767    162.4586    230.9284   4.9698741891e+01   5.7974577694e+00    0.3222558    0.2484194   7.05  0.001451378    1.127    0.113
        14 -11.1674    162.3021    225.6520   4.9006818287e+01   6.5850756657e+00     0.588741    0.3548633 -11.49  0.003197947    2.056    0.514
        15 -10.7816     53.4495    249.5143   7.5074381684e+01   1.6509224325e+01    0.3764798     0.231964  22.66  0.001651667    1.530    0.347
        16  -9.3541     56.6709    246.6731   7.4210933269e+01   1.6645442852e+01     0.181058    0.1377068  32.78  0.000808976    1.133    0.118
        17  -9.6500     39.3378    249.7892   7.8111306279e+01   1.7966053288e+01     0.297536   0.06479067  52.53  0.001143679    3.910    0.744
        18 -12.2001     19.4022    247.8908   8.2245253600e+01   2.0269715368e+01     1.104307    0.2175599  50.30   0.00481203    3.081    0.675
        19 -11.3128      7.5938    242.9013   8.4575256603e+01   2.2236812795e+01    0.3138552    0.2013858  47.24  0.002189795    1.093    0.085
        20 -10.3372      4.3775    249.3470   8.5373924921e+01   2.1367059136e+01     0.228049    0.1300734  48.83  0.000865396    1.212    0.175
        21  -9.3932    106.3884    243.7602   6.3084489246e+01   1.1155115773e+01    0.2025584    0.1399174 -38.49 0.0008950958    1.890    0.471
        22 -10.6496     12.7201    249.9268   8.3686334295e+01   2.0527129687e+01    0.3654724    0.1561744  39.13  0.002177087    1.546    0.353
        23 -10.6409     73.6559    244.4813   7.0336567005e+01   1.5069790769e+01    0.2295772    0.1957759  31.82 0.0005757593    1.161    0.139
        24 -10.8171     98.2047    241.5927   6.4670761888e+01   1.2546588682e+01    0.3576105    0.2322684  21.48  0.001038086    1.382    0.276
        25  -8.7452    250.5040    241.5226   3.5686244490e+01  -5.5085682419e+00    0.1026032   0.06858614   0.35 -4.127291e-06    1.015    0.014
        26  -9.6078    236.0578    240.1349   3.7721088235e+01  -3.9541297207e+00    0.2647316   0.09310043  22.68  0.001382247    2.688    0.628
        27  -9.4867    221.0042    239.7662   4.0120774050e+01  -2.3456496453e+00    0.1728513    0.1228785  -5.35 0.0005594888    1.140    0.122
        28 -10.6308     12.3923    244.0679   8.3601464704e+01   2.1599034612e+01    0.2678449    0.1584997  37.01 0.0009399583    1.253    0.202
        29 -10.6507    231.2368    234.4596   3.7673239548e+01  -2.8491750988e+00    0.2533499    0.1815551 -10.80 0.0008765468    1.200    0.167
        30  -9.8659    101.1306    233.4994   6.3234404575e+01   1.3539230802e+01    0.4091119    0.2285467  59.65  0.001674553    2.410    0.585
        31 -11.2522     98.8872    225.4928   6.2927716542e+01   1.5242005446e+01    0.4051228    0.3052152  28.56  0.001637079    1.097    0.088
        32 -10.8575     99.6997    218.1826   6.1952666412e+01   1.6468083751e+01    0.4304895    0.2825313 -45.90  0.002419696    1.881    0.468
        33 -11.6005     95.1109    217.7615   6.2998467889e+01   1.7170537169e+01    0.6505783    0.4228094  11.52  0.002734452    1.787    0.440
        34 -10.5082     90.9157    231.1690   6.5330768592e+01   1.5269617947e+01    0.3123132    0.2710862 -88.44  0.001410445    1.442    0.307
        35  -9.6052     87.4912    227.9528   6.5817648706e+01   1.6289152534e+01    0.2039492    0.1398599  35.19  0.000817978    1.132    0.117
        36 -11.4094    238.5204    230.2065   3.5885283488e+01  -3.1477024019e+00    0.3752862    0.2015397  10.20  0.002380961    1.629    0.386
        37 -10.0177    117.7708    227.7401   5.8862542228e+01   1.2307997688e+01    0.3705949    0.1721918  39.82   0.00135873    1.787    0.441
        38  -8.8766    191.6825    226.9734   4.3452664499e+01   2.5959182329e+00     0.154979    0.1211147   3.60 0.0003614551    1.080    0.074
        39  -8.8398    144.5717    227.5108   5.2960666213e+01   8.6971024152e+00      0.12567   0.09858899  19.86 7.475274e-05    1.021    0.021
        40  -8.7103    181.3815    226.2211   4.5296992563e+01   3.9993471267e+00    0.1389412    0.1110425 -39.53 0.0009414303    1.639    0.390
        41 -11.1581    126.5303    221.2575   5.6110309705e+01   1.2201610719e+01    0.3509297    0.2606366  66.10 0.0007877539    1.929    0.482
        42  -9.6220    121.7660    222.6023   5.7351773060e+01   1.2634842170e+01    0.2517359    0.1059077  28.38   0.00112691    2.024    0.506
        43 -10.2694    107.7112    223.0210   6.0616373259e+01   1.4495065411e+01    0.4682926    0.1858379  27.80  0.002028747    2.202    0.546
        44  -9.7290     27.2280    224.8148   7.9674431763e+01   2.3829167717e+01    0.2299853   0.06479487  53.09 0.0009605573    2.856    0.650
        45  -8.8319     66.4474    223.2289   7.0357537464e+01   1.9813243267e+01    0.1645307    0.1111228  76.06 0.0009503994    1.705    0.413
        46  -9.2171    157.6239    221.6911   4.9418963176e+01   7.8119303978e+00    0.2143524    0.1572926   5.94 0.0006545182    1.269    0.212
        47  -9.4462    115.0969    220.7042   5.8644444104e+01   1.3889479105e+01    0.1871126    0.1421033  27.98 0.0006691219    1.066    0.062
        48  -9.3308     74.9171    219.1967   6.7988646967e+01   1.9544513846e+01    0.2072671    0.1403575  44.81 0.0006887479    1.220    0.181
        49 -10.5168    130.9736    214.6505   5.4249645835e+01   1.2704438230e+01    0.4310376    0.3149754  79.60  0.002299968    2.366    0.577
        50 -10.0432     56.0136    216.9089   7.2382054974e+01   2.2303730640e+01    0.1821223    0.1562667  58.89  0.001204249    1.138    0.121
        51 -10.5751     24.2279    216.3819   8.0007098389e+01   2.5812494393e+01    0.3814158    0.1172203  38.77  0.001749876    2.164    0.538
        52  -9.2101    190.2405    215.1228   4.1945162781e+01   4.3754243299e+00    0.2851177      0.14867  -4.77  0.001310658    2.832    0.647
        53 -10.0667    170.7254    215.2470   4.5789427199e+01   6.9837407469e+00    0.2421958    0.1710243  15.43 0.0006863574    1.192    0.161
        54  -9.2844    151.4907    216.0698   4.9920629283e+01   9.5426282339e+00    0.2529556    0.1494055  17.83   0.00100594    1.632    0.387
        55  -9.7485     64.7826    213.6284   6.9975815260e+01   2.1913841516e+01    0.5108433    0.1311627  43.55  0.001903158    2.965    0.663
        56  -8.6762    228.4937    214.4592   3.5089824050e+01  -2.5951658184e-01    0.1127149   0.08284502   0.40 0.0001187754    1.012    0.012
        57 -10.0068    113.6979    212.3264   5.7947640786e+01   1.5594738491e+01    0.5732744    0.2903383  13.93  0.002328812    2.853    0.649
        58 -10.1356    238.1542    210.2908   3.2881074422e+01  -8.6428731390e-01    0.1753253    0.1403828 -43.60  0.001239293    2.099    0.524
        59  -9.5833     78.1616    211.2943   6.6456686845e+01   2.0686872937e+01    0.2710715    0.1098202  23.70  0.001083522    2.566    0.610
        60  -8.3875    149.2928    210.7098   4.9622872069e+01   1.0726749579e+01    0.1196903   0.09316506  49.33 0.0002747691    1.549    0.354
        61 -10.3804     21.0463    211.4730   8.0556368551e+01   2.7128132421e+01    0.3249484    0.1012354  25.55  0.001370174    2.764    0.638
        62  -9.2444    210.7681    207.7238   3.7024215304e+01   2.7241446494e+00     0.258695    0.1689067 -41.22   0.00160254    1.905    0.475
        63  -9.1767    213.9612    208.0000   3.6510853248e+01   2.2867117723e+00    0.2101572     0.140353  22.19 0.0008521143    1.306    0.234
        64 -10.7929     12.7385    205.0891   8.2320291927e+01   2.9227491895e+01    0.4072545    0.1873728 -72.05  0.002096182    2.344    0.573
        65 -11.5973     16.2437    196.7411   8.1121045609e+01   3.0726546741e+01     0.521295    0.2825464 -41.42  0.001647202    2.891    0.654
        66  -9.6409    124.0559    205.9519   5.4668341526e+01   1.5259933263e+01    0.1924531    0.1608809  25.89            0    1.014    0.014
        67  -8.1844    224.2879    205.3038   3.4319210312e+01   1.3589209652e+00     0.116552   0.07064662  -1.91 0.0002306945    1.565    0.361
        68  -9.7952    130.5998    202.7961   5.2691298166e+01   1.4860677362e+01    0.4296392     0.267128  67.19  0.001840114    3.141    0.682
        69  -9.0357    132.9831    198.9992   5.1579227724e+01   1.5192961914e+01    0.1952598    0.1556028  11.76            0    1.209    0.173
        70 -10.2708    171.1664    201.1650   4.3511693903e+01   9.0818514065e+00    0.2824788    0.2449404   8.90 0.0009492477    1.100    0.091
        71 -11.6311    178.5618    196.8358   4.1298184417e+01   8.6792529238e+00    0.8344853    0.4595339 -18.38  0.002263235    2.307    0.567
        72  -9.0673    139.3841    199.5073   5.0172797692e+01   1.4124139704e+01    0.2373481    0.1793106  72.42 0.0005283644    2.120    0.528
        73  -9.3792    166.3354    199.1462   4.4190373105e+01   1.0115612520e+01    0.1748915     0.154196  -1.88    0.0011307    1.128    0.113
        74 -10.5537    126.1376    197.0190   5.2906534872e+01   1.6609686354e+01    0.3464912    0.2435316  -0.20  0.001224685    1.743    0.426
        75  -9.0974    112.7477    198.0152   5.6302687696e+01   1.8453502540e+01    0.3473356    0.1666289  55.59   0.00131057    3.175    0.685
        76  -9.0578    113.0433    194.3097   5.5714381875e+01   1.9140697624e+01    0.2123079    0.1799543  -3.15 0.0003671822    1.303    0.233
        77  -9.3105    105.1281    197.4853   5.8126238631e+01   1.9697048179e+01    0.2344212    0.1820091 -30.88 0.0009181362    1.558    0.358
        78  -8.8720     43.9534    198.4818   7.4069997980e+01   2.7563903761e+01    0.2079876    0.1067791  33.03  0.001027006    1.606    0.377
        79 -10.4522     93.9273    181.6177   5.8891230649e+01   2.4714091729e+01    0.4006902    0.3126156 -54.95  0.001330728    1.450    0.310
        80 -11.9100     98.0996    189.1778   5.8816875200e+01   2.2457014813e+01    0.5860546    0.3895694  61.84  0.001899315    1.790    0.441
        81 -10.1730    104.0280    189.4858   5.7322224760e+01   2.1496692838e+01    0.3203376    0.2208226  32.10  0.001128119    1.255    0.203
        82  -9.2176    138.8588    189.5824   4.8746775019e+01   1.6017698550e+01    0.2086271    0.1667946 -52.98 0.0008223255    1.503    0.335
        83  -9.1883    204.3392    188.0988   3.4877624957e+01   6.2837955935e+00    0.2253185    0.1553332  46.55  0.001301642    1.949    0.487
        84  -9.1498    129.0171    188.5286   5.0925218219e+01   1.7783501962e+01     0.217596    0.1211307  33.86 0.0006439918    1.556    0.357
        85 -11.0800     11.0520    187.2871   8.2074693332e+01   3.3289596199e+01    0.4139805    0.2295766  51.42 0.0006833485    1.454    0.312
        86 -11.9762     12.8958    180.2889   8.1286602639e+01   3.4746396266e+01     1.181193    0.5075145  26.99  0.005594277    2.073    0.518
        87 -11.5073      4.8017    166.3845   8.2962120329e+01   3.8673547747e+01    0.5095174    0.3234494  -3.40  0.000383029    2.119    0.528
        88  -9.7748    155.5226    187.0541   4.4523989317e+01   1.3823572214e+01    0.1903013    0.1318745 -40.76 0.0009280557    1.573    0.364
        89 -10.9585    249.8817    183.5804   2.6679308078e+01   9.7783824564e-01    0.4730521    0.1242842 -33.97  0.002068085    3.244    0.692
        90 -10.0675    226.6981    183.0838   3.0158615619e+01   3.9354729875e+00    0.3253755    0.2119798  39.74 0.0009319119    1.816    0.449
        91  -9.7997    109.5037    184.9637   5.5262343729e+01   2.1591231346e+01     0.404307    0.2642641  32.54  0.002030745    1.335    0.251
        92 -11.1206    172.7519    195.5503   4.2266552538e+01   9.7395565496e+00    0.3852511    0.3246542 -20.48  0.001222175    1.217    0.178
        93  -9.3016    176.3577    185.1015   3.9740325644e+01   1.0881451024e+01    0.1644204    0.1208633 -48.75 0.0006176046    1.701    0.412
        94  -8.8435    120.1682    184.6001   5.2493543957e+01   1.9973776854e+01     0.240223    0.1095299 -57.05 0.0009776056    2.661    0.624
        95  -9.7030     46.9764    182.2431   7.1967650432e+01   3.0901169330e+01    0.2791971    0.1970958 -58.22 0.0008050966    1.616    0.381
        96  -9.5284     48.0000    177.4476   7.1250572647e+01   3.1911340292e+01    0.3662885    0.1817748 -75.42  0.001651903    2.157    0.536
        97  -8.8961    214.5210    181.6324   3.1938113043e+01   5.7815739881e+00    0.1954379    0.1049406  32.81  0.001065133    1.819    0.450
        98 -11.8565    152.0109    174.7027   4.3154715289e+01   1.6637373424e+01    0.8105947    0.3962502 -27.46  0.003085782    3.078    0.675
        99 -11.1651    148.4922    174.4971   4.3928410829e+01   1.7269375589e+01     0.351056    0.2906907 -64.92  0.001903836    1.588    0.370
       100  -9.6995    139.3375    180.3367   4.7104453875e+01   1.7688092495e+01     0.304177    0.1529435  40.85  0.001023816    1.841    0.457
       101  -9.0233    104.3265    179.6739   5.5829445304e+01   2.3526505526e+01    0.1495889    0.1020904  59.31 0.0007049728    1.697    0.411
       102  -9.5586     70.2863    177.7193   6.4928592586e+01   2.9017793352e+01     0.290764    0.2243184 -46.31  0.001124639    1.531    0.347
       103  -9.9922    158.6527    176.6204   4.2004044132e+01   1.5176432776e+01    0.3778795    0.2498826 -18.93  0.001840928    1.788    0.441
       104  -8.8369    240.5447    177.5157   2.7006438482e+01   2.8775696356e+00    0.1169321   0.08828314  -9.02 0.0002118808    1.027    0.026
       105  -9.9462    204.7364    175.5219   3.2552960783e+01   8.0713205110e+00    0.2725369    0.1904494 -21.09  0.001628398    1.309    0.236
       106  -9.2038    101.0870    176.2959   5.6189126959e+01   2.4773194988e+01    0.2169573    0.1907534 -43.39            0    1.284    0.221
       107  -8.8695    118.1296    176.1207   5.1659656833e+01   2.2048777938e+01    0.1875762    0.1641915  65.16 0.0006310443    1.301    0.232
       108  -9.2477    105.0315    174.5197   5.4853936300e+01   2.4532074055e+01    0.2935767    0.1896327 -89.88  0.001249985    2.491    0.599
       109  -9.4386     93.0453    173.5297   5.7978985318e+01   2.6650959127e+01    0.3717072    0.2517537 -82.76  0.001756521    1.921    0.479
       110  -8.3227     77.3082    175.6554   6.2686365119e+01   2.8514268450e+01    0.1534543   0.09737594  59.76  0.000604261    1.697    0.411
       111 -12.6267      4.8617    173.7581   8.3224762009e+01   3.6910973816e+01    0.6933353    0.3556995  77.71 0.0003675062    1.788    0.441
       112 -10.1477     29.6262    171.1974   7.6044431468e+01   3.5393573346e+01    0.3887145    0.2499453  75.47  0.002044254    1.506    0.336
       113  -9.3366    135.0499    171.0627   4.6525476819e+01   2.0230321331e+01    0.2230407     0.173863  65.40  0.001131113    1.678    0.404
       114 -10.2613    121.7955    168.5737   4.9435300325e+01   2.3019780363e+01    0.5081875     0.310301 -55.18  0.001848176    1.862    0.463
       115  -8.5186    168.3489    169.6564   3.8603618235e+01   1.4798883323e+01    0.1317376     0.110734  74.24 0.0007043319    1.803    0.446
       116  -8.5493     50.3162    169.3131   6.9789746665e+01   3.3593322818e+01    0.1354993    0.1066583 -28.36  0.000703492    1.642    0.391
       117  -9.7448    160.2586    166.2569   3.9722633251e+01   1.6792639851e+01    0.3938696    0.2289408 -58.54   0.00169194    2.574    0.611
       118  -8.8975    206.9972    167.2402   3.0605503474e+01   8.9746281099e+00    0.1604917   0.09987383  34.53 0.0008828419    1.611    0.379
       119  -8.6843    200.2188    166.9756   3.1774081502e+01   1.0058602315e+01    0.1722585    0.1434869  -7.13  0.000315726    1.035    0.033
       120 -11.7994    247.0766    162.3397   2.3321540807e+01   3.9954565086e+00    0.6503439    0.2771522 -33.60   0.00345725    1.962    0.490
       121  -9.8261    218.6509    165.1927   2.8222117266e+01   7.5380043581e+00    0.3385364    0.2806574  20.03  0.002267637    1.218    0.179
       122  -9.7809    139.5749    165.3961   4.4382024365e+01   2.0578724287e+01    0.3513172    0.2644559  73.83  0.001664229    2.009    0.502
       123 -11.3252    150.4163    163.4051   4.1417975494e+01   1.9053960100e+01    0.4650455    0.3401282   6.74  0.001912895    1.567    0.362
       124  -8.7687     98.3377    165.6759   5.5292291382e+01   2.7594816860e+01    0.1567451    0.1061197  60.96 0.0007051143    1.720    0.418
       125  -9.9543     99.8407    158.9836   5.3755618031e+01   2.8886269620e+01    0.3440453     0.246887 -63.85  0.001667959    1.563    0.360
       126  -8.9599     92.6581    159.7332   5.5951946300e+01   2.9897508600e+01    0.2825465    0.1794098  86.23  0.001077203    2.377    0.579
       127  -9.8268     23.0615    159.6578   7.7184633162e+01   3.8855083283e+01    0.2824717    0.2246412  39.94  0.001072226    1.169    0.144
       128  -9.0928    127.8467    157.4988   4.5837384838e+01   2.4305907374e+01    0.2842718    0.2020682 -71.58  0.001124589    1.938    0.484
       129  -9.3711    105.0809    157.4782   5.2004916896e+01   2.8342707610e+01    0.2607515    0.2096517  88.80 0.0006514191    1.525    0.344
       130 -10.5586    142.9814    158.6246   4.2258618701e+01   2.1327544927e+01    0.5197447    0.2343646  43.79   0.00204932    2.177    0.541
       131 -10.0545    208.3600    154.8279   2.7965038477e+01   1.0653175284e+01    0.3966357     0.265837 -39.98   0.00224171    1.505    0.335
       132  -9.4116    204.8039    148.9735   2.7411644561e+01   1.2140415455e+01    0.3438788    0.2239047   1.64  0.001744371    1.921    0.479
       133  -8.4955    158.2737    156.6425   3.8284118443e+01   1.8940431097e+01    0.1344709    0.1154059  89.83 0.0006903532    1.649    0.394
       134  -9.7523    135.4681    154.2450   4.3252706919e+01   2.3598503082e+01      0.33692    0.2435444  29.77  0.000989629    1.330    0.248
       135  -9.4722    132.3183    151.6752   4.3540921495e+01   2.4722334725e+01    0.2788674    0.2339235  77.08  0.001068834    1.515    0.340
       136  -9.0096    119.0322    154.3389   4.7567161091e+01   2.6586050841e+01    0.2899659    0.1930843 -88.99  0.001090239    2.646    0.622
       137  -9.5294     68.8463    154.5083   6.2331688405e+01   3.4819933170e+01    0.3513724    0.1871269  50.40 0.0009387563    1.876    0.467
       138 -10.0117     23.4442    153.3510   7.6608049509e+01   4.0410313309e+01    0.4109133    0.1279622 -79.09  0.001462828    3.182    0.686
       139  -9.1436    168.2583    158.1236   3.6382149417e+01   1.6878642896e+01    0.2576407    0.1829245  62.86  0.001225923    2.120    0.528
       140  -9.6998     40.6659    153.2217   7.1109591799e+01   3.8725797226e+01    0.2203549    0.1954617  39.23 0.0007102222    1.108    0.097
       141  -9.5899      5.4327    151.8918   8.2156799568e+01   4.2190936498e+01    0.3642422    0.1472843  55.26  0.001238439    2.200    0.546
       142  -8.9224    190.0945    150.6862   3.0447525579e+01   1.4349052257e+01    0.2600151    0.1190822  48.15  0.001090377    2.549    0.608
       143  -8.9552     82.1954    154.7773   5.8261504140e+01   3.2754059681e+01    0.2601937    0.1368451  62.52 0.0009379886    2.714    0.632
       144  -9.9842     39.6266    147.2363   7.0814521689e+01   4.0379307043e+01    0.6304387    0.2274846  64.11  0.001806372    4.653    0.785
       145  -9.7692     25.8667    147.8184   7.5390267505e+01   4.1607459279e+01    0.5106669    0.1427688  38.95  0.001852144    2.819    0.645
       146  -9.8655    223.2612    147.9086   2.4136433114e+01   9.3563187655e+00    0.3914893    0.1905411  37.75  0.001945552    2.223    0.550
       147 -10.0892    149.0750    145.1322   3.8036420724e+01   2.2899783506e+01    0.4213139    0.3164845  87.56  0.001434193    2.180    0.541
       148  -8.6669     76.9899    147.2585   5.8660291188e+01   3.5420322893e+01    0.2017374    0.1233473  33.23 0.0008819627    1.531    0.347
       149 -10.0612     55.7319    144.7672   6.5178384471e+01   3.9091528690e+01    0.5266145    0.2552236  61.31  0.001947846    2.616    0.618
       150 -10.5580    244.6760    145.6725   2.0543377511e+01   6.5187794707e+00    0.3363587    0.1912884  -0.76  0.001695994    2.529    0.605
       151  -9.4158    106.9806    144.8054   4.9091802225e+01   3.0940253906e+01    0.4805048    0.2858101  77.70  0.001575574    3.635    0.725
       152  -9.6823    119.7034    144.7464   4.5486494627e+01   2.8597351779e+01    0.5917911     0.219538  50.02  0.001784834    3.497    0.714
       153  -9.3642    165.9691    144.0435   3.3961639783e+01   1.9892066146e+01    0.2183273    0.1827606  86.00  0.001129209    1.712    0.416
       154  -8.9731    138.0000    143.9510   4.0498087239e+01   2.5273917163e+01    0.2409503   0.08603044 -47.26 0.0007787746    2.939    0.660
       155  -9.8682    125.1004    142.8039   4.3616072142e+01   2.8003994408e+01    0.4769298    0.3153591 -85.26  0.001823195    2.791    0.642
       156  -8.8062     87.4568    143.2601   5.4678685643e+01   3.4728903942e+01    0.2121597     0.149432 -80.52 0.0009483341    1.719    0.418
       157  -8.5090    206.7554    141.9850   2.5642257782e+01   1.2914909331e+01    0.1709209     0.100576 -34.09 0.0007714855    1.550    0.355
       158  -8.8995     71.0370    142.2262   5.9750424458e+01   3.7598097207e+01    0.2729923    0.1491098  55.30  0.001082665    2.048    0.512
       159  -9.5490    108.6277    138.5216   4.7341399267e+01   3.2105459433e+01    0.5935347    0.2993026  60.05  0.001892078    3.378    0.704
       160 -10.2686     24.3341    139.0045   7.5140439982e+01   4.4035985085e+01    0.4824096    0.1965164  47.52  0.001594706    2.286    0.563
       161  -9.5697    173.0260    139.0314   3.1377807822e+01   1.9481761895e+01    0.2205484    0.1820038 -85.26  0.001135268    1.773    0.436
       162  -9.2567    162.4499    137.7997   3.3372983669e+01   2.1746887740e+01     0.348578     0.131532 -34.01  0.001137441    3.340    0.701
       163 -10.8153    244.8289    134.8337   1.8425300773e+01   7.9601799557e+00    0.4270388    0.1641031  44.56  0.002057093    3.027    0.670
       164 -10.4331    197.2764    136.6081   2.6168495812e+01   1.5425610054e+01    0.4209674    0.2965284  14.22  0.002209527    1.666    0.400
       165  -9.4639    202.5803    136.1672   2.5140424633e+01   1.4559174738e+01    0.2471231    0.1971174  37.93 0.0006626738    1.333    0.250
       166  -9.0340    138.4922    136.4668   3.8746515134e+01   2.6751280589e+01    0.3188924    0.1498607 -45.64  0.001221812    2.206    0.547
       167  -9.4018    234.6801    136.0379   2.0064063097e+01   9.3091441089e+00    0.1758252    0.1330088 -25.17 0.0004818455    1.097    0.088
       168 -10.0275     41.5494    134.4886   6.8663242674e+01   4.3507963799e+01    0.6633351    0.3404755 -65.03  0.002862631    1.885    0.469
       169 -11.8302     49.8968    106.1221   6.0993776107e+01   5.0088816069e+01     1.760981    0.6746444  58.05  0.004332846    5.860    0.829
       170 -11.7706     61.2409    125.8735   6.0328133842e+01   4.3280325442e+01     1.494624    0.4976137  31.30  0.004966387    2.795    0.642
       171 -11.1529     74.1986    122.9071   5.5164990611e+01   4.2071637416e+01    0.7718216    0.3105877 -46.04  0.002483143    2.876    0.652
       172 -12.1707     70.1027    115.2017   5.5042203267e+01   4.4732092723e+01     1.036497    0.7047097 -84.72  0.004481779    1.810    0.448
       173 -10.8100     45.6534    124.2111   6.5753202019e+01   4.5771053530e+01    0.8963305    0.3989965  61.58  0.003005842    3.197    0.687
       174 -10.3403     13.1215    130.4732   7.8341970879e+01   4.7167249713e+01    0.7735468    0.2568405  84.52  0.002566112    3.598    0.722
       175  -9.4256     83.7173    132.0341   5.3753289791e+01   3.8158074729e+01    0.4452933    0.2557088  62.47  0.001596741    2.364    0.577
       176  -9.5990    209.7159    131.8212   2.3013104644e+01   1.4005280073e+01    0.2251446    0.2086319  -8.70 0.0004813887    1.086    0.079
       177 -10.1216    131.7887    130.5080   3.9130320335e+01   2.9374419772e+01    0.5155941    0.2802418 -55.35   0.00203138    2.146    0.534
       178 -10.0189    132.3165    125.3542   3.7788831169e+01   3.0382469047e+01    0.5757935    0.3475534  20.97  0.002180406    2.413    0.586
       179  -9.3524    110.5207    131.4709   4.5278158724e+01   3.3394758288e+01    0.4804495    0.2524016  41.73  0.001899775    1.799    0.444
       180  -9.7167    112.5071    128.4729   4.4026166055e+01   3.3705418590e+01    0.2850263    0.2066189 -39.45  0.001094451    1.504    0.335
       181  -9.2174    143.1063    130.1021   3.6148920926e+01   2.7151006603e+01    0.4980706    0.1669139 -42.38  0.001600594    3.120    0.680
       182  -9.9196    247.1128    129.2573   1.7029836831e+01   8.3800864767e+00    0.3075863    0.1189848 -44.12  0.001381206    2.724    0.633
       183  -9.7117    168.8026    129.7982   3.0200253733e+01   2.2005884003e+01    0.1967308    0.1767651 -79.29  0.001021399    1.375    0.272
       184  -9.5797    153.0006    128.5627   3.3419342191e+01   2.5437948638e+01    0.3395089    0.2053745 -51.65  0.001129162    1.841    0.457
       185  -9.7274     98.9494    127.6096   4.7940883831e+01   3.6525940390e+01    0.4896825    0.3005425  88.39   0.00163691    3.136    0.681
       186  -9.1485    162.6849    128.0120   3.1104986035e+01   2.3571731820e+01    0.2071293    0.1883733 -25.30 0.0004292792    1.081    0.075
       187  -9.0462     25.6541    127.3994   7.3553574809e+01   4.6989999700e+01     0.270514    0.1218873  27.71  0.001130118    2.115    0.527
       188 -10.0602    117.9293    125.6089   4.1799240308e+01   3.3281124954e+01    0.3531305    0.3279151  40.80  0.001058323    1.032    0.031
       189 -10.0499    119.4095    118.7376   3.9732680276e+01   3.4538780212e+01    0.4826661    0.3331962 -49.15  0.002158628    1.504    0.335
       190 -10.7179     45.6952    130.2908   6.6624474326e+01   4.4143929034e+01    0.7402853    0.3760449  81.15  0.002740382    2.706    0.630
       191  -9.5817    241.7773    125.5902   1.6996413785e+01   9.6817812265e+00     0.139908    0.1194186  64.08 0.0004976238    1.620    0.383
       192 -11.1259    181.0571    123.8930   2.6365180414e+01   2.0647455036e+01    0.3791462    0.3073298 -59.44  0.001903246    1.459    0.315
       193 -10.6707    182.2554    119.1452   2.5034112278e+01   2.1245996580e+01    0.3796144    0.2775364  26.44  0.001929999    1.551    0.355
       194 -11.3203    185.1684    114.0580   2.3293070212e+01   2.1546044244e+01    0.3981092    0.3541214 -88.45  0.001279347    1.366    0.268
       195 -10.2090     28.9216    123.0276   7.1857630357e+01   4.7864601876e+01    0.5630804    0.2822615  60.02  0.002314747    2.195    0.544
       196  -8.4612     28.6470    117.6863   7.1318295374e+01   4.9326619234e+01    0.1510437    0.1013861 -37.01 0.0007045644    1.732    0.423
       197 -10.1937    225.9331    123.5352   1.8760661991e+01   1.2505477226e+01     0.261609    0.2159868  71.31  0.001239996    1.694    0.410
       198 -10.0154    104.6740    123.5738   4.5257466738e+01   3.6399152900e+01    0.7350593    0.2269415  40.86  0.002221936    3.027    0.670
       199  -9.7385    108.9937    121.2239   4.3392383513e+01   3.6099522519e+01    0.3431236     0.258645 -72.21 0.0005772918    1.599    0.375
       200  -9.6482     99.3705    119.7893   4.6037879279e+01   3.8341979543e+01    0.6591088    0.4103903   5.26  0.002225055    3.178    0.685
       201 -11.1446    107.7895    112.7773   4.1695606541e+01   3.8327657686e+01     1.027371    0.5575734 -39.96  0.003934407    2.093    0.522
       202  -8.6454     83.6517    122.1729   5.1749147230e+01   4.0659734260e+01    0.2208059    0.1400951 -48.03 0.0006285706    1.665    0.399
       203  -9.8648    194.3538    120.1362   2.3051912374e+01   1.8702406122e+01    0.2017075    0.1157958 -45.27 0.0006157654    1.750    0.429
       204 -10.0112    141.5013    118.5081   3.3776542853e+01   2.9896871296e+01    0.6336523    0.3276522 -60.97  0.002143409    3.102    0.678
       205 -10.0220    141.3596    112.3269   3.2259919678e+01   3.1208887889e+01    0.5686454    0.3181751  23.31   0.00192153    3.110    0.678
       206 -10.1151    249.1224    117.1620   1.4373925129e+01   9.7095945347e+00    0.2576536    0.1347573 -29.98  0.001424122    1.582    0.368
       207  -9.3055      3.0930    117.2491   8.1087627030e+01   5.1266537797e+01    0.3849294    0.1292852  62.95  0.001356205    3.289    0.696
       208  -9.5921    160.1017    117.1017   2.9075258572e+01   2.6202594855e+01    0.2376882    0.2046826   4.11  0.001237614    1.282    0.220
       209  -9.9590     92.4556    112.2430   4.6496141925e+01   4.1519880961e+01     0.489321    0.3273536 -82.95  0.001919016    2.167    0.539
       210  -9.6298     79.1273    112.3643   5.1145943585e+01   4.3944510754e+01    0.4439011    0.2520805  82.30  0.001340476    3.900    0.744
       211 -10.8433     15.9910    111.9700   7.5657399540e+01   5.1891132313e+01    0.4747554    0.2694873  40.69  0.001921846    1.723    0.420
       212  -9.2920    159.3433    112.1195   2.8009811829e+01   2.7322746330e+01    0.2200362    0.1329001 -49.86 0.0006887977    1.767    0.434
       213  -9.6091     22.4634    110.2537   7.2863825644e+01   5.1865669157e+01    0.2932305    0.2129869  74.85  0.001327964    1.377    0.274
       214 -10.5942    184.3310    108.9731   2.2232226913e+01   2.2595096581e+01    0.3721305    0.2083854  52.96  0.001632659    1.935    0.483
       215  -9.7420    133.5732    107.9684   3.3112045136e+01   3.3840290510e+01    0.4871903    0.1923989 -40.74  0.001627797    2.688    0.628
       216 -11.0118    133.4198    102.6088   3.1720532801e+01   3.5002526747e+01    0.7509687    0.3473089  35.41  0.002466371    2.744    0.636
       217 -11.1451     17.2838    104.2393   7.4295194791e+01   5.3879583642e+01    0.5756449    0.2545784 -58.23  0.001561266    2.065    0.516
       218 -10.7486     23.1881    101.8773   7.1490708491e+01   5.4068378864e+01     1.013825    0.3367244  55.39  0.002990447    4.460    0.776
       219  -9.5914    150.2481    103.4277   2.7818649584e+01   3.1022033012e+01    0.3908198    0.1189304 -45.86  0.001080071    3.460    0.711
       220 -10.9796    249.6786    105.5369   1.1959846682e+01   1.1182628393e+01    0.4146153    0.1935847 -32.91  0.001710779    1.724    0.420
       221  -9.3073    175.0000    112.0134   2.4734514615e+01   2.4001830427e+01    0.2417139   0.07945175 -38.87 0.0006270329    2.931    0.659
       222  -9.9768     84.7001    100.7808   4.6291281221e+01   4.5832894084e+01    0.4856859    0.2286257  48.75    0.0017187    2.283    0.562
       223 -11.2271     65.1545     97.6385   5.2936027865e+01   5.0088391997e+01    0.7185028    0.4811678  82.82  0.002953498    2.095    0.523
       224 -10.8447    250.2457    100.4963   1.0867076128e+01   1.1764935030e+01    0.4601678     0.156071 -30.51  0.001989794    2.608    0.616
       225  -9.0683     29.9581    101.0151   6.8452675927e+01   5.3708324287e+01    0.2199808    0.2019904 -88.32 0.0005320775    1.041    0.040
       226  -9.7155    107.5160     97.1930   3.7617161870e+01   4.1989361157e+01    0.4281887    0.2803859 -55.37  0.001173385    1.649    0.394
       227  -8.6686    129.4832     96.9958   3.1207144856e+01   3.7077268243e+01    0.2196043    0.1413682 -17.46 0.0008092608    2.479    0.597
       228 -10.6148     24.1816     92.3517   6.9652465773e+01   5.6553088439e+01    0.5981745     0.319239 -85.97  0.001715484    2.038    0.509
       229 -11.3245     60.7238    107.1301   5.6877546431e+01   4.8302917014e+01    0.6534443    0.4218236 -56.19  0.002275202    1.537    0.349
       230  -9.8744     35.1601     89.7612   6.4139236318e+01   5.6211355810e+01    0.4445726    0.2426254  75.74  0.001690001    2.663    0.624
       231  -9.0959      5.0210     91.5330   7.8296129059e+01   5.7997343161e+01    0.2000995   0.08165626  41.91 0.0008092175    2.514    0.602
       232  -8.0738    124.3464     90.6623   3.0778970193e+01   3.9594939281e+01    0.1671705    0.1259431 -88.27 0.0007047969    1.779    0.438
       233  -8.5774    138.7059     87.6475   2.6179270513e+01   3.6803633511e+01    0.1578064    0.1250357   6.55 0.0007031652    1.683    0.406
       234  -8.3415     86.4847     86.4856   4.1616517158e+01   4.8935292616e+01    0.1618688    0.1492549  71.73 0.0001433774    1.128    0.114
       235 -10.0325     49.7715     84.8230   5.6309396336e+01   5.5722899109e+01    0.6102459    0.2658275  52.66  0.001985496    3.309    0.698
       236  -8.5277    125.9978     84.3254   2.8440151992e+01   4.0507526566e+01     0.265162    0.1170895  32.97 0.0007048104    4.282    0.766
       237  -8.7487    185.8204     83.3669   1.5576411209e+01   2.6567465325e+01    0.1988096     0.127008  46.18 0.0007173235    1.721    0.419
       238  -8.7943    116.5541     83.0251   3.0676501312e+01   4.3022358228e+01    0.2260624    0.1577896 -42.00 3.524215e-05    1.483    0.326
       239  -9.8134     24.8215     80.7345   6.7333256636e+01   5.9598464976e+01    0.4265573    0.2377002  68.45  0.001297977    2.359    0.576
       240  -9.5391     39.9473    106.2049   6.5089425891e+01   5.1276162710e+01      0.43073    0.2249645  76.63  0.001573158    2.764    0.638
       241  -9.2832      8.7816     80.6170   7.5304790094e+01   6.0713023912e+01    0.1911695    0.1175684  30.07 0.0009487853    1.709    0.415
       242  -9.6409    175.4346     78.4965   1.6026915337e+01   2.9718854673e+01    0.3285478    0.2335405 -61.36  0.000888153    1.549    0.355
       243  -9.5583    215.5906     77.4683   9.8873472655e+00   2.1171265927e+01    0.2251729    0.1104121  47.18  0.001028835    2.451    0.592
       244  -8.8468    211.2971     76.6621   1.0235740590e+01   2.2155218699e+01    0.1393372   0.09044404 -58.54 0.0004399477    1.656    0.396
       245  -9.0785     49.8232     76.3799   5.4028643767e+01   5.7872807358e+01    0.2107961     0.142873  12.84 0.0004276031    1.726    0.421
       246  -8.7624    233.6702     74.9764   7.2404061082e+00   1.8039624312e+01    0.2177556   0.05654738 -47.22 0.0007038003    4.231    0.764
       247  -9.4756      9.9929     74.0754   7.3787984338e+01   6.2373811894e+01     0.201744    0.1787235 -60.71 0.0003682981    1.032    0.031
       248  -8.5905     82.5130     72.5089   3.8642252294e+01   5.2970920154e+01    0.1587429    0.1485682  71.35 0.0008079273    1.116    0.104
       249  -8.7171     43.2962     72.6618   5.6165501513e+01   5.9707042817e+01    0.1507893    0.1122936  67.92 0.0006611547    1.654    0.396
       250  -9.9052     52.1637     70.2602   5.1091423396e+01   5.9047134787e+01    0.3821375    0.2674255 -87.16  0.001610725    1.988    0.497
       251  -8.9194     16.9179     69.9851   6.9398995485e+01   6.3026438883e+01    0.2265621    0.1516516  59.49 0.0009749036    1.726    0.421
       252  -9.0500    200.3002     63.9670   8.5129805766e+00   2.6316016906e+01    0.1916442    0.1634359 -46.29 0.0005687453    1.052    0.049
       253  -9.2750     37.8302     64.0468   5.6518103105e+01   6.2555091751e+01    0.2420046    0.1649449  75.26  0.001076296    2.081    0.519
       254  -9.0105     17.9554     61.8333   6.7133167372e+01   6.5052868061e+01    0.2188104    0.1634291 -40.98 0.0003649917    1.270    0.213
       255  -9.4858     73.8318     60.1452   3.7700500818e+01   5.7479229848e+01     0.232788    0.2127416  81.60 0.0006427617    1.229    0.186
       256  -8.6013     24.6591     58.3493   6.2334814517e+01   6.5383239207e+01    0.1470481    0.1019692  60.33 0.0007044658    1.797    0.443
       257  -8.9602     39.4894     57.0102   5.3372886807e+01   6.4056165324e+01    0.2216633    0.1382995 -56.61 0.0006242673    1.579    0.367
       258  -8.9662      7.5390     57.0651   7.2365067726e+01   6.6885254691e+01    0.1925503     0.100379  72.27 0.0008086158    2.547    0.607
       259  -9.0363      2.0839     56.5105   7.5593871416e+01   6.7242459897e+01     0.184423    0.1289002   8.14  0.001016875    1.553    0.356
       260  -9.6432     63.3754     55.2145   4.0420959136e+01   6.0604068024e+01    0.2119473    0.1432825 -59.08 0.0005202671    1.719    0.418
       261  -8.5859    172.0563     50.0023   8.5786495429e+00   3.4919730248e+01    0.1625408    0.1482376 -73.05            0    1.008    0.008
       262 -11.2771     45.5370     48.8462   4.6984994343e+01   6.5075335426e+01      0.32239    0.2562472 -47.72 0.0003257401    1.260    0.207
       263  -9.1074     31.1974     51.2111   5.6237584129e+01   6.6455097677e+01    0.1909445    0.1660677  67.42 0.0008476378    1.373    0.272
       264  -8.8277     58.3693     42.6784   3.7554274029e+01   6.4152277288e+01     0.149042    0.1173407  77.22 0.0003983692    1.798    0.444
       265  -8.8395      5.4154     42.2138   7.0672858965e+01   7.0668943966e+01    0.1888052    0.1186303 -89.72  0.000953551    1.829    0.453
       266  -8.4425    113.5894     41.4132   1.6938846884e+01   5.1392711807e+01    0.1511189     0.140299  60.30 4.837834e-05    1.038    0.037
       267  -8.7997     69.3368     41.6467   3.1956083829e+01   6.2124450108e+01    0.1516818    0.1196641 -89.30 2.401147e-05    1.796    0.443
       268  -8.5707    123.5233     39.9988   1.4038071024e+01   4.8977237502e+01    0.1850258    0.1305593  16.20 0.0003755092    2.055    0.513
       269  -8.5353     37.2831     40.6685   4.8452274869e+01   6.8086607126e+01    0.1340849    0.1115659  72.60 0.0004705163    1.612    0.380
       270  -9.3930    212.2239     39.1966   1.0352381619e+00   2.7000637744e+01    0.1909744    0.1235524 -55.16 0.0008943797    1.368    0.269
       271  -8.4404     84.3125     39.3453   2.4953110748e+01   5.9125797572e+01    0.1566584    0.1153564  18.31  0.000704654    1.710    0.415
       272  -8.5914     26.2220     36.2015   5.3844887636e+01   7.0465338490e+01    0.2094951    0.1139987 -70.04 0.0008819806    2.509    0.601
       273  -8.2455      6.6577     33.3077   6.7390310817e+01   7.2735157737e+01    0.1282865   0.09413069  52.68 0.0007043397    1.691    0.408
       274  -8.8133     49.6907     32.3788   3.7193993051e+01   6.7757716112e+01     0.139933    0.1151368  87.66 0.0007026785    1.790    0.441
       275  -9.6262    216.7350     30.4735   3.5854121107e+02   2.7072369032e+01    0.2309872    0.1496886 -38.08 0.0007210309    1.341    0.254
       276  -9.8575     44.3585     25.1162   3.6407195494e+01   7.0042787519e+01    0.2346572    0.1858688  36.53 0.0003940934    1.213    0.176
       277  -8.5789     67.3007     23.6953   2.3972108956e+01   6.5572754859e+01    0.1375361    0.1138722 -81.71 0.0002777276    1.592    0.372
       278  -9.2418     58.8340     22.1503   2.6935606311e+01   6.7677314537e+01    0.1946168    0.1561366  16.52 0.0002430468    1.303    0.233
       279  -9.7901     12.9986     21.0713   5.7460483466e+01   7.5051334989e+01    0.2450425    0.1910896  12.21  0.000713989    1.259    0.206
       280  -9.1264     85.0013     21.4740   1.6336047359e+01   6.1610798562e+01    0.2227558    0.1347709  60.94 0.0004738386    1.534    0.348
       281  -8.4111     48.3136     21.6582   3.2129075120e+01   6.9899126211e+01     0.132828    0.1129791 -88.94 0.0003617979    1.704    0.413
       282  -8.9666     40.9811     21.0448   3.6146674361e+01   7.1351544417e+01       0.2085    0.1519646   1.59            0    1.565    0.361
       283  -8.9217     50.7522     15.2189   2.6911293396e+01   7.0405483138e+01    0.1961778    0.1486565  17.85 0.0006377983    1.374    0.272
       284  -8.9949    148.4785    249.4773   5.4862274934e+01   4.9703919714e+00    0.1190964    0.0878129  23.23  0.000326985    1.035    0.034
       285  -9.3358    247.7638    248.0150   3.7016136718e+01  -5.8892267456e+00    0.1643356    0.1056797  10.21 0.0005661537    1.148    0.129
       286  -8.9807    195.7795    248.5798   4.5715595095e+01  -5.6642260464e-01    0.1547494   0.08164515  33.08 0.0009556076    1.709    0.415
       287 -10.3360    107.6523    238.7455   6.2309241338e+01   1.1810090535e+01    0.3577957    0.2494893 -55.89   0.00226404    1.858    0.462
