#   1 NUMBER                 Running object number                                     
#   2 MAG_AUTO               Kron-like elliptical aperture magnitude                    [mag]
#   3 X_IMAGE                Object position along x                                    [pixel]
#   4 Y_IMAGE                Object position along y                                    [pixel]
#   5 X_WORLD                Barycenter position along world x axis                     [deg]
#   6 Y_WORLD                Barycenter position along world y axis                     [deg]
#   7 A_WORLD                Profile RMS along major axis (world units)                 [deg]
#   8 B_WORLD                Profile RMS along minor axis (world units)                 [deg]
#   9 THETA_WORLD            Position angle (CCW/world-x)                               [deg]
#  10 FWHM_WORLD             FWHM assuming a gaussian core                              [deg]
#  11 ELONGATION             A_IMAGE/B_IMAGE                                           
#  12 ELLIPTICITY            1 - B_IMAGE/A_IMAGE                                       
         1 -14.3475     68.8654    145.3006   1.0194908428e+02   3.7532062845e+01     4.935292     2.539054  75.59   0.01473104    4.185    0.761
         2 -13.8965    225.1142     20.4792   3.5952642211e+01   2.7279573791e+01     0.962611    0.9224773  38.97  0.002629838    1.404    0.288
         3 -14.1309    208.5794     37.0296   4.1497098637e+01   2.9006103495e+01     1.731385     1.411553   5.41  0.007785809    1.760    0.432
         4 -12.0968    247.0563      2.5059   3.0555560112e+01   2.4603689083e+01    0.5539434     0.250825  83.25  0.002969698    2.099    0.524
         5 -10.4714      2.1159      4.0997   8.7565343081e+01   7.4542750692e+01    0.2282229    0.1038837 -43.94  0.001326636    2.039    0.509
         6  -9.2619    197.6743    223.0461   8.5510074235e+01  -9.9140348560e-01    0.1709614    0.1490687  -7.56 0.0004341248    1.111    0.100
         7 -12.9604     63.8739    174.8377   1.0784422260e+02   3.0913884771e+01     1.310832    0.6535912 -32.90  0.004148886    5.182    0.807
         8 -14.5378      3.2969    179.6518   1.2265926630e+02   3.6258183617e+01     8.453092    0.4423985 -76.49   0.01503014   15.913    0.937
         9 -12.7429     86.7731    223.8171   1.0860761632e+02   1.6652716619e+01    0.7001514    0.5021569  73.14 0.0008039671    1.388    0.280
        10 -16.1593     40.1857    192.9721   1.1554419085e+02   2.9574410441e+01     10.17207     4.069391  67.17   0.03838699    3.483    0.713
        11 -10.1037    208.5218    197.0169   7.8731306537e+01   1.4847983016e+00    0.1981582    0.1250928 -37.51 0.0005263848    1.564    0.361
        12 -13.7164     17.8924    218.2294   1.2217194834e+02   2.6423240325e+01    0.7827599    0.4364352  55.84   0.00314344    1.486    0.327
        13 -15.7400      8.5798    240.5580   1.2509935849e+02   2.2872434234e+01     2.577776     1.778962  46.37    0.0188798    1.390    0.281
        14 -15.2709     57.2942    248.7578   1.1679021061e+02   1.5780904790e+01     10.06627     2.970442  27.89   0.01885182   18.782    0.947
        15  -9.4786     99.4642    180.9012   9.9931100596e+01   2.4112230259e+01    0.2150641    0.1861302  47.57 0.0006050852    1.134    0.118
        16  -9.5421    144.0784    178.9226   8.8895822196e+01   1.6619570600e+01    0.2372311    0.1835137  -2.01   0.00060327    1.705    0.413
        17  -9.0199    149.5613    177.4674   8.7350496899e+01   1.5897256124e+01    0.1443981    0.1413044  37.55 9.325671e-05    1.015    0.015
        18  -9.0468    188.3495    174.6696   7.8315659949e+01   9.0831917020e+00    0.1423626    0.1171921  88.61 9.827722e-05    1.767    0.434
        19 -13.4892     63.4590    158.6013   1.0561806565e+02   3.4954005838e+01    0.5081577    0.3358454 -46.57  0.001515438    1.655    0.396
        20 -11.9237     76.2965    162.6256   1.0285471365e+02   3.2143432406e+01     0.377902    0.3176408  35.04 0.0003355953    1.304    0.233
        21 -12.6325     83.5551    155.9550   9.9797444236e+01   3.2687391678e+01    0.9443244    0.5593204 -40.78   0.00161747    2.030    0.507
        22 -10.5423    139.8520    249.1725   1.0081760332e+02   3.8760238547e+00    0.1951756    0.1526139  52.51  0.001246379    1.241    0.194
        23 -13.5163     58.5206    242.9544   1.1610796528e+02   1.6725075682e+01    0.6419025    0.3554957  56.04 0.0006415445    1.498    0.333
        24 -13.2692     33.5049    204.4287   1.1801727673e+02   2.7741308992e+01     0.578234    0.4073946 -48.20  0.001307087    1.887    0.470
        25 -10.3927    134.2155    147.1819   8.4716771428e+01   2.5660521802e+01    0.7322385     0.217362 -53.38  0.002031906    3.911    0.744
        26  -9.8214    133.0000    140.4403   8.3490637522e+01   2.7463228500e+01    0.4413808    0.1657795 -52.54  0.001397332    2.823    0.646
        27  -9.8367    174.6808    148.7072   7.5579378033e+01   1.6986398080e+01    0.3708628    0.2358063 -64.01  0.001501337    2.203    0.546
        28 -11.7326     22.8823    146.8409   1.1491748276e+02   4.2419500499e+01    0.3645997    0.2146888  67.71  0.001707148    1.835    0.455
        29  -9.4650    179.3944    146.1939   7.3989425722e+01   1.6526836939e+01    0.2149011    0.1391076 -51.84 0.0006496215    1.636    0.389
        30 -10.6202     32.4353    143.8616   1.1194076931e+02   4.2259893960e+01    0.4222057     0.297391  21.83  0.002366002    1.762    0.433
        31 -10.8706     97.8464    142.1671   9.3232113537e+01   3.3732592288e+01    0.4140683    0.3054225 -43.04  0.001296143    1.408    0.290
        32  -9.5262    101.0194    138.9806   9.1675661486e+01   3.3953902853e+01     0.396558    0.2389442 -27.84  0.001498309    2.585    0.613
        33 -12.4769     85.9778    140.6374   9.6235337968e+01   3.6104916700e+01    0.3109837    0.2604679 -50.30 0.0003919794    1.175    0.149
        34  -9.2473     72.9592    172.7426   1.0526958444e+02   3.0156223298e+01    0.1842024    0.1646833  71.66 0.0002581765    1.058    0.055
        35 -10.8888    107.4812    131.0917   8.8107582024e+01   3.4686093713e+01    0.5505052    0.3880714  37.70  0.002193125    1.492    0.330
        36 -10.6229     24.5601    133.5729   1.1278640433e+02   4.5547510422e+01     0.355875    0.2030271  61.81  0.001525247    2.049    0.512
        37 -11.6173    184.4593    216.4489   8.6984886867e+01   2.2077674285e+00    0.4027703    0.3061306  81.27  0.002044697    2.414    0.586
        38 -11.2786     66.1808    126.9857   9.9271461398e+01   4.2500084327e+01    0.5519152    0.3729307 -49.29  0.002723673    1.399    0.285
        39 -11.1876    193.7234    195.8950   8.1418676732e+01   4.1952407990e+00    0.9530356    0.4964237 -63.31  0.002759133    6.331    0.842
        40  -9.3114    160.6704    128.0051   7.3776655927e+01   2.4358982689e+01    0.2646363    0.1207575 -60.63 0.0005886831    4.371    0.771
        41 -11.1804     96.5061    127.0131   9.0271630687e+01   3.7676997104e+01    0.3582739    0.2873356 -16.09  0.001185889    1.568    0.362
        42 -10.3981    136.0005    128.2286   7.9800849263e+01   2.9643221501e+01    0.4230277    0.2664681 -46.70  0.001800442    1.551    0.355
        43  -9.4061    115.9621    125.0075   8.4303648692e+01   3.4499582219e+01    0.2518924      0.19431  -9.82  0.001124177    1.752    0.429
        44  -9.1166     30.6471    125.3053   1.0979216779e+02   4.7047668072e+01    0.1372089   0.09227416  69.79 0.0007041403    1.711    0.415
        45  -9.7563    106.4672    119.4951   8.5592882279e+01   3.7648021402e+01    0.2467222    0.2279869 -44.76 0.0002234836    1.055    0.052
        46  -9.4243    230.8235    113.3810   5.6843560731e+01   1.2124960873e+01    0.1919538    0.1294969  39.87  0.000706151    1.766    0.434
        47  -9.3385    168.1974    113.0111   6.8271120025e+01   2.5813207134e+01    0.2723797    0.1806774 -69.26  0.001084885    2.134    0.531
        48 -10.0403    205.4494    110.2032   6.0257494432e+01   1.7997309235e+01    0.3027103    0.2113707  43.78  0.000993583    1.586    0.369
        49  -9.4356    138.6694    171.3556   8.8698906282e+01   1.9298155510e+01    0.1566789    0.1175256  80.58 2.419486e-05    1.785    0.440
        50  -9.4013    134.3940    105.2055   7.4173858216e+01   3.5102683948e+01    0.2298843    0.1449606 -53.53 0.0009491054    1.680    0.405
        51  -9.1476    224.6571    103.2823   5.5442993315e+01   1.5134147366e+01    0.1432747    0.1044087 -69.41 0.0002504284    1.635    0.388
        52 -11.0726    241.4930     99.0182   5.2031540269e+01   1.2435451065e+01    0.2177889    0.1183348 -38.20 0.0005364866    1.584    0.369
        53 -11.9613    248.0803     91.5103   4.9493153445e+01   1.2361803054e+01    0.5251608    0.1415381 -45.68   0.00178347    3.347    0.701
        54  -9.8865     41.7313     91.9855   9.9662973128e+01   5.4046779817e+01    0.2043731    0.1896692 -16.60 0.0004596485    1.156    0.135
        55 -10.6924     53.2091     91.2717   9.5381484012e+01   5.2872688006e+01     0.358292     0.195353 -58.04  0.001332207    1.705    0.414
        56  -9.5301    234.3109     86.6338   5.0175093779e+01   1.5917517420e+01    0.1487391   0.09345109 -61.90 0.0007038169    1.760    0.432
        57  -9.1307     71.8776     82.9310   8.6468591194e+01   5.2103930101e+01     0.217466    0.1752043  80.40 0.0009844146    1.750    0.428
        58  -9.3025    160.4856     82.4512   6.1557197821e+01   3.3578983378e+01    0.1502291    0.1483466 -71.22 0.0001136206    1.025    0.024
        59  -8.9346    130.4225     65.4308   6.3217072228e+01   4.3776579903e+01    0.1453976    0.1428088 -87.18 0.0001187339    1.052    0.049
        60  -9.1868     45.8975     61.2610   8.9386313603e+01   6.0299693320e+01      0.17355    0.1523074  -9.62 0.0003472189    1.100    0.091
        61 -10.9208     13.5513     60.0019   1.0270640768e+02   6.3657891417e+01    0.2411746    0.1792438 -51.61 0.0004148782    1.122    0.109
        62  -9.6260    173.1649    244.8229   9.3704475504e+01  -5.5819929979e-01    0.2234506    0.1548834 -73.53  0.001159411    2.764    0.638
        63 -12.5909    216.8422     28.7043   3.8612249213e+01   2.8153316654e+01    0.5000476      0.39558  59.09  0.001093904    1.414    0.293
        64 -13.6397    199.9951     42.3388   4.3859842838e+01   3.0325244978e+01     1.195366    0.8128357  52.98  0.003695475    1.594    0.373
        65 -14.7976      9.3751    207.3349   1.2317352447e+02   2.9569828353e+01     1.127443     1.011878 -27.53   0.00666956    1.739    0.425
        66  -8.9778     12.2966     52.6865   1.0122286285e+02   6.5261848240e+01     0.106536    0.0923741  84.27 0.0002576524    1.602    0.376
        67  -9.4221      7.3307     50.6900   1.0292613244e+02   6.5989889062e+01    0.1060074   0.09055119  74.69 0.0004436524    1.668    0.401
        68 -10.3977    136.0816     42.4831   5.4381702987e+01   4.5962028339e+01    0.2680734    0.2289442 -66.33  0.000495031    1.297    0.229
        69  -8.4896    138.3194     36.6518   5.1993655228e+01   4.6189092752e+01    0.1468413    0.1049194 -68.31 0.0007048696    1.734    0.423
        70  -8.5346    115.5078     31.4462   5.5126934507e+01   5.2264590896e+01    0.1372132    0.1255002  41.69 7.247668e-05    1.006    0.006
        71  -9.8148    189.5058     15.0568   3.8041042441e+01   3.6118079818e+01    0.1837101    0.1239961 -34.61 0.0005200228    1.548    0.354
        72  -9.8260    109.8218    201.0966   1.0059807478e+02   1.7859945003e+01    0.2089635    0.1732703  78.23 0.0004821044    1.247    0.198
