#   1 NUMBER                 Running object number                                     
#   2 MAG_AUTO               Kron-like elliptical aperture magnitude                    [mag]
#   3 X_IMAGE                Object position along x                                    [pixel]
#   4 Y_IMAGE                Object position along y                                    [pixel]
#   5 X_WORLD                Barycenter position along world x axis                     [deg]
#   6 Y_WORLD                Barycenter position along world y axis                     [deg]
#   7 A_WORLD                Profile RMS along major axis (world units)                 [deg]
#   8 B_WORLD                Profile RMS along minor axis (world units)                 [deg]
#   9 THETA_WORLD            Position angle (CCW/world-x)                               [deg]
#  10 FWHM_WORLD             FWHM assuming a gaussian core                              [deg]
#  11 ELONGATION             A_IMAGE/B_IMAGE                                           
#  12 ELLIPTICITY            1 - B_IMAGE/A_IMAGE                                       
         1 -10.0049     60.7947     48.2003   5.1334914526e+01   6.3013973801e+01      1.11453     0.545431 -33.81  0.004016657    2.830    0.647
         2 -12.3849    117.3437     45.7916   3.1613189833e+01   4.9897885809e+01     1.270405     0.857048 -24.25  0.005812739    1.838    0.456
         3 -12.1456    104.7947     13.6409   2.1341544075e+01   5.7530940310e+01    0.4670755    0.4182182 -12.90   0.00229907    1.344    0.256
         4 -12.9536    105.4212     20.3828   2.4122113064e+01   5.6596668972e+01    0.3479884    0.2989779 -66.77 0.0004308886    1.122    0.109
         5 -12.2519    164.2976     27.6533   1.8215067852e+01   4.0658939191e+01      0.48239    0.3505127  40.52 0.0004448625    1.897    0.473
         6 -10.1742     12.9147      2.0223   5.6897192790e+01   8.0200228660e+01    0.2675301    0.1862852  21.92 0.0008194572    1.383    0.277
         7 -12.0794     20.3334     21.9892   6.4018329744e+01   7.5430088033e+01    0.7852311    0.4901621 -27.15  0.002263719    1.880    0.468
         8 -11.4597      6.5714     10.5103   7.1300212814e+01   7.9348048633e+01    0.5920491    0.4393472  29.47  0.002966668    1.361    0.265
         9 -10.1173     12.7474      8.6411   6.2702023709e+01   7.9039175148e+01    0.4296417    0.2684253 -68.69  0.001535341    2.416    0.586
        10 -12.0554     15.4033     14.8831   6.4298578648e+01   7.7498211587e+01    0.8060988    0.4219831 -28.76  0.003552622    2.470    0.595
        11 -11.9922     22.5611     11.0751   5.4649700190e+01   7.7183388460e+01    0.5540265    0.3912536  13.99  0.002007114    1.582    0.368
        12 -10.8674    136.7228     22.0110   1.9665306483e+01   4.8203082758e+01    0.8311356    0.4984089 -73.77  0.003941214    1.691    0.409
        13 -11.0473    127.3376     16.7206   1.9037343345e+01   5.1243867318e+01    0.5499594    0.3786314 -14.94  0.002144162    1.843    0.457
        14 -11.1524    135.0939     14.9524   1.7401441613e+01   4.9422938586e+01    0.6302923    0.2593118  64.31  0.002634131    2.236    0.553
        15 -12.1145     47.7381     12.7344   3.8455699941e+01   7.2014840762e+01    0.9434999    0.3767404  57.66  0.003683936    2.491    0.599
        16 -11.6781     35.3883     18.4346   4.9789667202e+01   7.3680467373e+01    0.6486573     0.296607 -35.10  0.002341202    2.535    0.606
        17 -10.2092     75.2315     19.1902   3.1179455678e+01   6.4590037405e+01    0.4678972    0.2612171  33.57   0.00191696    2.458    0.593
        18 -11.0673     67.9552     18.8882   3.3502051480e+01   6.6438405260e+01    0.4690489    0.3544299 -60.12  0.001497214    1.505    0.336
        19 -12.5932    164.3993     18.4064   1.5462925776e+01   4.1721823766e+01    0.4956513    0.3007626  45.91  0.001455354    2.250    0.556
        20 -12.2806    227.8340     15.2816   1.0509187148e+01   2.8500440526e+01    0.4698141    0.2453489 -65.04  0.001528727    1.654    0.396
        21 -10.3364    147.4403     16.5977   1.6564068539e+01   4.6095056929e+01    0.5383928    0.2323395  44.49  0.001962728    3.710    0.730
        22 -11.6394    239.1382     16.8156   1.0323610633e+01   2.6284248214e+01    0.2781078    0.1624035 -62.67  0.001675264    1.415    0.293
        23 -11.0553     85.6379     14.5631   2.5836353243e+01   6.2481761535e+01    0.4084843    0.3205835   0.82  0.001816322    1.633    0.387
        24 -10.6395    218.7413     12.9399   1.0418710845e+01   3.0480961108e+01    0.2463798    0.2018161 -51.79  0.001774944    1.147    0.128
        25 -10.2904    190.8090     12.6447   1.1876545439e+01   3.6285731211e+01    0.3588671    0.1216991 -35.61  0.001615088    2.272    0.560
        26 -11.2438    192.9953      7.3088   1.0375937564e+01   3.6363392075e+01    0.4196297    0.2585177 -17.68  0.002158733    2.026    0.507
        27 -11.1722    206.5247      2.7121   8.5879524609e+00   3.3966884366e+01    0.4168288    0.2100416 -79.80  0.001913788    1.849    0.459
        28 -11.8604    212.1926      9.2723   9.8849657239e+00   3.2156757257e+01    0.5377054    0.3419963 -11.21  0.002797704    2.286    0.563
        29 -10.8850    218.6381      3.9141   8.3707278736e+00   3.1424643458e+01      0.26647      0.20745 -77.47 0.0009025225    1.243    0.196
        30 -11.1188    223.7536      2.7415   7.9130565405e+00   3.0554420208e+01    0.2459905    0.1787825 -59.13 0.0002760813    1.062    0.058
        31 -10.2999    169.1092      9.5969   1.2495836704e+01   4.1545985559e+01    0.3773365    0.1788282  64.48  0.001805827    2.188    0.543
        32  -9.4695    163.4890      9.5069   1.2889053092e+01   4.2895393225e+01    0.2246827    0.1175444 -30.73 0.0007625876    1.849    0.459
        33  -9.9938    163.4794      6.4854   1.1988548609e+01   4.3201280340e+01     0.464509    0.2658624  18.21  0.001912922    3.788    0.736
        34 -10.1567    145.5089      9.4021   1.4389513695e+01   4.7341872975e+01    0.2234323    0.2115029  65.85 0.0002634149    1.273    0.214
        35 -11.8087    245.9704      5.4223   7.7098686890e+00   2.6260650612e+01    0.5374095    0.2514627 -61.91  0.003266875    1.710    0.415
        36 -10.0612    245.9236      1.4253   6.9021742889e+00   2.6660977457e+01    0.1684482     0.131466 -81.08 0.0003295243    1.376    0.273
        37 -10.2336      1.1950      7.0853   7.6132580851e+01   8.0500139683e+01    0.3199272   0.09651113 -57.35  0.001312569    2.830    0.647
        38 -10.8872      2.0776      2.1436   7.1454073142e+01   8.1438350826e+01    0.4072866    0.2350305  -3.77  0.002103267    1.925    0.481
        39 -11.2587    232.4276      7.2922   8.5797158766e+00   2.8479067420e+01    0.2673438    0.1414309 -59.51  0.001186338    1.463    0.317
        40 -11.8302    233.7518      2.9491   7.6048167596e+00   2.8670107999e+01    0.4893296    0.1981652 -59.48  0.002750465    1.916    0.478
        41 -10.6214    122.3979      5.1513   1.5293509398e+01   5.3716715921e+01     0.241162    0.2164983 -86.50  0.001465532    1.083    0.077
        42  -9.3916     69.4894      5.5124   2.5245303350e+01   6.7611273860e+01    0.2692894    0.1684223  79.63  0.001166536    1.613    0.380
        43  -9.4490     77.9608      7.4796   2.4066591500e+01   6.5237377321e+01    0.2564576    0.1821725 -89.98 0.0007250317    1.435    0.303
        44 -10.4205     74.1749      3.1880   2.2620011315e+01   6.6627928774e+01    0.4540697    0.2703297  82.61  0.001878627    1.688    0.407
        45 -10.3071    177.2619      5.9501   1.0919936035e+01   4.0014087261e+01    0.2679156    0.1606149 -86.86 0.0008498946    1.530    0.346
        46 -10.7938     41.0139      4.2339   3.5809728450e+01   7.4597567153e+01    0.3674028    0.2369176  28.54  0.001058066    1.771    0.435
        47 -10.8944    185.0004      6.5608   1.0626473349e+01   3.8199266501e+01    0.3957455    0.1751844 -53.02  0.001359605    1.797    0.443
        48 -11.4691    133.9681      2.7561   1.3194926974e+01   5.0923123986e+01    0.4508899    0.2806949  81.51  0.002353971    1.433    0.302
        49  -8.9537    128.6516      1.2594   1.3159377929e+01   5.2431818805e+01     0.193022    0.1169365 -77.19 0.0007371245    1.505    0.336
        50 -10.8194    105.8083      2.5838   1.6360287316e+01   5.8333761017e+01    0.4652244    0.2300036 -62.12  0.002006056    2.162    0.538
        51 -10.4639    154.4080      2.1510   1.1315471282e+01   4.5822827760e+01    0.5783303    0.1885094 -76.63  0.001958393    3.794    0.736
        52  -9.7861    141.7055      3.7586   1.2843908326e+01   4.8851309164e+01    0.2669012    0.1996004 -81.63  0.001534855    1.145    0.127
        53 -10.9200    113.4231      2.9878   1.5518673280e+01   5.6278678966e+01    0.3115171    0.2751928  65.55  0.001874919    1.191    0.161
        54  -9.2240     29.4767      1.9977   4.1286168994e+01   7.7313965598e+01      0.17362    0.1623822   7.88 0.0003915021    1.090    0.083
        55 -10.0293     25.9849      3.7630   4.5592394276e+01   7.7749358205e+01    0.1831801    0.1673585  23.76            0    1.028    0.027
        56 -10.4399     22.3293      3.0343   4.8094868557e+01   7.8521984288e+01    0.2422416    0.2158299  -8.01 0.0005415894    1.128    0.113
        57  -9.5318    154.4664      6.4756   1.2667549408e+01   4.5396813455e+01    0.1349583    0.1103322 -69.71 0.0001827834    1.004    0.004
        58  -9.1499     33.5407      1.5318   3.8050938473e+01   7.6537321692e+01    0.1304672    0.1167007  38.37  0.000187114    1.006    0.006
        59 -10.1852     61.8302      6.8328   2.8500089181e+01   6.9400728703e+01    0.3043201    0.1830702  64.03   0.00103695    1.495    0.331
        60  -9.0141    103.7637    131.0539   6.0361402737e+01   3.4736113214e+01    0.1915037    0.1293477 -56.95 0.0006660246    1.516    0.340
        61 -10.4455     50.8202    249.8600   8.9029712288e+01   1.5624507583e+01    0.1765609    0.1057453  44.80  0.001082155    1.346    0.257
        62  -9.9610    104.2829    147.7927   6.3575134711e+01   3.0628945509e+01    0.3292036    0.1744902 -48.96 0.0009086799    1.950    0.487
        63  -9.2164     93.3783    129.8110   6.3253928671e+01   3.6923867030e+01    0.2211507    0.1408499 -47.03 0.0007529079    1.653    0.395
        64  -9.0880     50.6556    129.7884   7.8003405430e+01   4.3653374312e+01    0.2135627    0.1405393 -85.28 0.0004558788    1.625    0.385
        65 -10.6905      5.5359    142.4881   9.5963722274e+01   4.4505876553e+01    0.2983316    0.2209388  54.05 0.0006224637    1.199    0.166
        66  -9.0216     26.5573    127.5002   8.6950962014e+01   4.7014649338e+01    0.1500305    0.1359312  70.78 7.649441e-05    1.010    0.010
        67 -10.0779     22.8234    127.0200   8.8368798755e+01   4.7489731820e+01    0.2261999    0.2033562  42.09 0.0003271336    1.103    0.093
        68  -9.8367     32.8863    125.7388   8.4258395658e+01   4.6882920322e+01    0.3108175    0.1649038  67.38  0.001216607    2.126    0.530
        69  -9.9272      2.1532    126.0886   9.6426065794e+01   4.9224514574e+01    0.2675932    0.1864057  47.48   0.00114662    1.330    0.248
        70  -9.4902     82.8642    124.5823   6.5563297331e+01   4.0108492963e+01    0.3990561     0.244599  -0.45  0.001317611    3.397    0.706
        71 -11.4444    104.4916    122.3995   5.8227779018e+01   3.6689522758e+01    0.3895009    0.3388835  54.56 0.0008561199    1.142    0.124
        72 -10.1497     49.6534    123.0776   7.7315363981e+01   4.5645525949e+01    0.3011636    0.2128593  -4.52  0.001311624    1.891    0.471
        73  -9.6645     18.0487    123.1497   8.9901660653e+01   4.8982331722e+01    0.3328727    0.1379001  28.89 0.0008238172    2.211    0.548
        74  -9.4991     56.2036    122.3706   7.4684442747e+01   4.4942896655e+01    0.2287151    0.1307619  40.93 0.0004758888    1.656    0.396
        75 -10.1044     44.6026    119.8223   7.8768846207e+01   4.7203560770e+01    0.3495896    0.2388925  71.27 0.0008566728    1.575    0.365
        76 -10.1468     43.5361    116.4842   7.8657046727e+01   4.8272706241e+01    0.4019613    0.2407827  27.86  0.001726283    1.665    0.399
        77 -10.1898      7.6849    114.9625   9.3505184195e+01   5.2024397658e+01    0.4094184     0.252091 -63.92   0.00113664    1.572    0.364
        78 -12.3692      2.5299    111.7365   9.5485296246e+01   5.3219827327e+01    0.5423292    0.3351787  87.05   0.00239733    1.500    0.333
        79 -11.3418      5.1925    105.2235   9.3872495316e+01   5.4916821812e+01    0.4864729    0.3981608  19.83   0.00225228    1.300    0.231
        80  -9.6796     79.1198    114.7138   6.4699520543e+01   4.3329008848e+01    0.3101431    0.2282724 -50.77  0.001334539    1.399    0.285
        81  -9.3709     57.8017    114.9241   7.2678944179e+01   4.6758513999e+01    0.2746141    0.1717576  76.42  0.001085749    2.036    0.509
        82 -11.0484     16.3034    109.2428   8.9271469340e+01   5.3061858194e+01    0.3924902    0.3404441  78.88  0.001020555    1.075    0.070
        83 -11.1560     42.1711     92.7300   7.4759471632e+01   5.5081351772e+01     1.304163    0.5082209 -56.27  0.001274919    2.390    0.582
        84 -10.9853     26.8034     86.0243   8.0923389491e+01   5.8720595723e+01     1.116874    0.5727969  20.39  0.004585501    2.039    0.509
        85 -10.5131     35.4072     92.6157   7.7934802595e+01   5.5951910369e+01    0.3744483    0.3150716 -78.35  0.001034323    1.160    0.138
        86 -11.8585     42.2399     85.1690   7.2991958883e+01   5.7141892489e+01     1.145685    0.4958847  16.63  0.003702085    3.283    0.695
        87 -12.5862     17.7402    100.5149   8.7622436238e+01   5.5432987438e+01    0.3999716    0.3596409  32.67 0.0003779953    1.146    0.128
        88 -11.2129     22.5918     94.7029   8.4504133994e+01   5.6678486777e+01    0.4686087    0.3272802 -46.28  0.001642916    1.490    0.329
        89 -10.9514     17.9927     90.9741   8.6230085343e+01   5.8114055474e+01    0.4803964    0.3256563  72.53  0.001535946    1.539    0.350
        90 -11.9210     25.3709    107.3895   8.5026124943e+01   5.2828008493e+01     1.385323    0.7620378 -15.43  0.005312047    2.647    0.622
        91 -11.4191     28.5685    112.5120   8.4320857250e+01   5.1066250757e+01    0.4874777    0.3316021 -47.46  0.002269982    1.576    0.365
        92  -9.9347    105.0730    112.7882   5.5765925087e+01   3.8882360979e+01    0.4140259    0.2021331  42.79  0.001105742    2.026    0.506
        93 -10.0239     48.7914    112.0031   7.5729031917e+01   4.8844737179e+01    0.3329871    0.2102876  37.26  0.001041816    1.521    0.343
        94  -9.0207     86.3181    113.6598   6.1968295627e+01   4.2294804197e+01    0.1679818      0.12073  74.20  0.000704923    1.711    0.416
        95 -11.3211     79.6643    108.3510   6.3020008187e+01   4.4882611498e+01    0.6753616    0.3538636  36.29  0.001406529    1.903    0.474
        96  -9.6371    119.8822    109.2197   5.0647710954e+01   3.6680383080e+01    0.2079811    0.1856342 -13.39 0.0006825771    1.318    0.241
        97  -9.7441    181.5512    105.0191   3.6405494373e+01   2.4944478006e+01     0.300161    0.2130272   7.67  0.001450309    2.232    0.552
        98  -8.9668    143.4743    105.9937   4.4009294835e+01   3.2422695780e+01    0.2128186    0.1228058 -64.70 0.0008086972    2.456    0.593
        99 -10.7360     87.8248    104.5020   5.9204862663e+01   4.4322172255e+01    0.5279893     0.257057  51.12 0.0008514544    2.250    0.556
       100  -9.4160     45.7233    105.1273   7.5715327346e+01   5.1171902743e+01    0.3119997     0.143343 -48.97  0.001132485    2.316    0.568
       101  -9.3084     64.6963    101.6828   6.7075742211e+01   4.9261591181e+01    0.2751902    0.1901024 -25.93 0.0002598026    2.013    0.503
       102  -9.1982     64.6829     98.6887   6.6353360548e+01   5.0060457091e+01    0.2573484    0.1546374 -56.69 0.0005669099    1.648    0.393
       103 -11.3671     68.6924     95.5197   6.3938648709e+01   5.0197638369e+01    0.5358939    0.3319062  35.04 0.0006377239    1.628    0.386
       104 -10.6041     51.9682     99.1789   7.1785451568e+01   5.1943189746e+01    0.7486268    0.2485297 -50.16  0.001986374    3.115    0.679
       105  -8.9947    120.4492    101.5093   4.8480869570e+01   3.8274654785e+01    0.1522678    0.1488415 -62.26 0.0001000598    1.055    0.052
       106 -12.1564      9.5939     97.0867   9.1109496669e+01   5.6967233561e+01    0.5972353    0.5104903   0.06  0.003290687    1.295    0.228
       107  -9.0840     28.4679    100.0016   8.2532705343e+01   5.4626552691e+01    0.3178625    0.1511976 -51.89  0.001033763    2.107    0.525
       108  -9.8513     30.4985     95.9944   8.0909193177e+01   5.5549603970e+01    0.2585136    0.1848927  75.81 0.0007399687    1.485    0.326
       109  -8.6165    158.6830     99.7271   3.9237555302e+01   3.0465114635e+01    0.1364997    0.1137065   6.35 0.0001588526    1.563    0.360
       110 -11.2620     89.6438     88.5308   5.4171839913e+01   4.7859518161e+01    0.8365531    0.4833353 -40.64  0.002582615    1.958    0.489
       111 -10.4523     79.5435     83.7577   5.6377197912e+01   5.1091167883e+01    0.7376766    0.4298854 -58.75   0.00298216    1.810    0.448
       112 -10.8883     72.9800     78.4560   5.7281867177e+01   5.3691625979e+01    0.7577966    0.5813634  44.62  0.003589701    1.281    0.220
       113 -10.2748     78.1016     96.6426   6.0611606611e+01   4.8175589728e+01    0.3517711    0.2453038  41.85 0.0005445392    1.410    0.291
       114 -11.2801     80.2497     92.8015   5.8760609943e+01   4.8727334044e+01    0.8641924    0.6909575  65.00  0.004095088    1.319    0.242
       115 -11.5395     21.3850    114.6698   8.7657455174e+01   5.1111352416e+01    0.5806512    0.3080734   3.26  0.001898696    2.381    0.580
       116 -10.5103    119.7881     85.1087   4.4032203022e+01   4.1947753263e+01    0.6525905    0.3191739 -49.05  0.002501748    2.037    0.509
       117 -12.1093    126.0000     94.7994   4.5206456928e+01   3.8511576450e+01    0.3095112    0.2943651  81.93 0.0003047678    1.038    0.037
       118 -10.6406    121.7655     93.9693   4.6066514672e+01   3.9626058137e+01     0.546312    0.2488689 -52.49  0.001936974    2.324    0.570
       119  -9.5365    116.0267     93.4617   4.7465647627e+01   4.1006821742e+01    0.2373288    0.1521211  48.04 0.0005409376    1.573    0.364
       120 -11.1866     99.0806     91.2315   5.1841248555e+01   4.5217390171e+01     0.523542    0.2592493  52.54  0.001928476    2.145    0.534
       121 -10.2665     49.3492     91.2829   7.1119731100e+01   5.4479886171e+01    0.3902084    0.3262459  29.25   0.00194912    1.229    0.186
       122 -11.7052      7.0234     88.8777   9.1545377113e+01   5.9427700822e+01    0.6515244    0.4375556  15.89  0.002250701    1.580    0.367
       123  -9.8210     66.3236     88.7661   6.3078557819e+01   5.2370633449e+01    0.3542396    0.2543497   2.05  0.001206326    2.075    0.518
       124  -9.8685    103.8440     87.2078   4.9172068942e+01   4.5093851709e+01     0.212841    0.1933079   8.30  0.001063649    1.342    0.255
       125 -10.3187    143.2790     84.5470   3.8329969484e+01   3.6692207584e+01    0.2640045    0.2422034 -61.31 0.0003831947    1.019    0.019
       126  -8.9851    133.3217     84.6535   4.0561930851e+01   3.8939045826e+01    0.1613037    0.1148392 -76.95 0.0004275159    1.736    0.424
       127 -10.4792    113.2630     83.1926   4.5219094581e+01   4.3845606204e+01    0.3762686    0.2679094  71.55  0.001413927    1.618    0.382
       128 -10.2245     67.1987     81.6506   6.0649982631e+01   5.4018227127e+01      0.36814     0.302898 -22.37  0.001750536    1.501    0.334
       129  -9.2915    103.4520     79.9268   4.7055340883e+01   4.6789748240e+01    0.2367899    0.1526302 -47.90 0.0005862723    1.552    0.356
       130  -9.4981     46.8682     75.6138   6.8176247571e+01   5.9021859058e+01     0.268745    0.2602282 -34.11  0.001099952    1.081    0.075
       131 -11.5688     53.2707     74.9381   6.4845684691e+01   5.8177791171e+01    0.7155902    0.3881709 -63.79 0.0008290791    1.968    0.492
       132 -10.7573     58.0514     77.8294   6.3493799048e+01   5.6630424990e+01    0.3173057    0.2814147 -65.47  0.000574125    1.127    0.113
       133 -11.4676      2.0294     71.6150   9.2431143564e+01   6.4451443072e+01    0.9227518    0.1988001 -76.20  0.002784868    3.887    0.743
       134 -12.7154      6.2898     61.9191   8.8461772955e+01   6.6890840823e+01     0.870557     0.519548 -15.79  0.004088167    1.866    0.464
       135  -9.9618      7.4946     54.9969   8.6405123087e+01   6.8665958391e+01    0.2553192    0.1790468  36.60  0.000722877    1.496    0.332
       136  -9.8156     92.7761     72.5636   4.8046903463e+01   5.0818855440e+01    0.3129911    0.2381329 -83.06 0.0008429298    1.576    0.365
       137 -10.7344     88.7016     77.4394   5.1054332173e+01   5.0641891773e+01    0.6379921    0.3516663  47.67  0.002553244    1.786    0.440
       138 -10.3874     94.2144     76.6009   4.8910429653e+01   4.9608582800e+01    0.4528233    0.2883626  54.19  0.001937471    1.577    0.366
       139 -11.7041     13.7503     74.3253   8.5941268018e+01   6.3069506051e+01     0.532028    0.3665499  81.42  0.002047153    1.531    0.347
       140  -9.2469    158.9269     76.3475   3.3025147103e+01   3.4649033581e+01    0.1895903     0.175237  89.88 0.0004428802    1.097    0.088
       141  -9.0385    112.4693     75.5077   4.3046495449e+01   4.5634555495e+01    0.1578781    0.1447124 -84.59 0.0008093774    1.048    0.045
       142  -9.7956    103.7820     74.8997   4.5343514773e+01   4.7791223104e+01    0.3620803    0.2164698  56.88  0.001500622    1.710    0.415
       143  -9.6365     66.2822     74.8217   5.8899028161e+01   5.5878645128e+01    0.3125181     0.192871  59.59  0.001254648    1.946    0.486
       144 -11.7748     40.9929     70.0259   6.9574940780e+01   6.1336999295e+01    0.5055213    0.4005848 -65.66  0.001498097    1.263    0.208
       145 -10.7010     36.2040     71.5978   7.2611022524e+01   6.1575603096e+01    0.3812168    0.2542434  39.31 0.0009929286    1.494    0.330
       146  -9.5813     24.7962     74.1982   7.9598372231e+01   6.2176620233e+01     0.253354    0.2428616 -68.67 0.0008084571    1.011    0.011
       147 -10.2271    187.1110     72.2192   2.7610312216e+01   2.9239372690e+01    0.3677703    0.2271078 -35.07  0.001894328    1.493    0.330
       148 -10.0662     81.1987     73.0846   5.2320041458e+01   5.3258307162e+01    0.3852191    0.2139911 -39.41   0.00118524    2.077    0.518
       149 -10.0928    153.3034     72.8856   3.3065578836e+01   3.6526958637e+01    0.4266485    0.1775103  44.87  0.001512528    3.152    0.683
       150  -9.7307     14.7560     67.5161   8.4114603223e+01   6.4855688483e+01    0.5331123    0.2442604   5.23  0.002065267    2.604    0.616
       151 -11.3928    123.4124     68.9336   3.8124394677e+01   4.4320335393e+01    0.5323186    0.2939782  54.45  0.001849168    1.807    0.447
       152 -10.0121     87.0353     69.1345   4.8837477897e+01   5.2859685906e+01    0.2960085    0.2489223 -44.50  0.001464476    1.244    0.196
       153 -11.0054     33.1247     74.1700   7.4968213161e+01   6.1274762053e+01    0.5473874    0.3436309  60.91  0.001086963    1.899    0.473
       154 -10.2528     78.4870     67.6658   5.1470335808e+01   5.5065034592e+01    0.4521783    0.3429099  79.21   0.00206141    1.593    0.372
       155  -9.4480    217.2513     66.5820   2.2788708169e+01   2.4187283919e+01    0.1512707    0.1144783  52.22  0.000948913    1.685    0.407
       156 -10.6593     88.1252     56.5892   4.3847383812e+01   5.5219607652e+01    0.5734102    0.2782609 -39.45  0.002033822    2.223    0.550
       157  -9.8806     96.5078     65.1264   4.4257540544e+01   5.1525440249e+01    0.2528979    0.2163796 -30.20 0.0007266685    1.345    0.256
       158 -10.7694     92.1224     62.7606   4.4822858216e+01   5.3039047459e+01    0.4492726    0.2913243  65.68  0.001136254    1.715    0.417
       159  -9.2583     52.0049     65.7412   6.2488281065e+01   6.0689873333e+01     0.216993    0.1867939  37.92 0.0005274455    1.153    0.133
       160 -10.8016    201.3637     64.8426   2.4057995156e+01   2.7457852027e+01    0.2943614    0.1970216  85.88 0.0006263197    1.755    0.430
       161 -10.7465    157.6870     63.5453   2.9640212177e+01   3.7087106939e+01    0.4447436    0.2333272  46.40  0.001001153    2.356    0.575
       162  -9.6593     58.4724     62.6082   5.8216973927e+01   6.0279721339e+01    0.3937443    0.2877891  73.63  0.001772341    1.744    0.427
       163 -10.1813     64.5525     61.3248   5.4932602549e+01   5.9396041656e+01    0.4406041    0.3606506  43.97  0.001509582    1.197    0.164
       164  -9.7692     50.6559     56.4924   5.9816171572e+01   6.3133653758e+01    0.8947227    0.4649272 -66.30   0.00333241    2.594    0.615
       165 -10.2939     51.8797     48.1988   5.5778709966e+01   6.4776058630e+01    0.3731988    0.2533816  47.10 0.0006166073    1.459    0.314
       166  -9.0428    113.4856    249.4968   7.5153419216e+01   9.0478684004e+00    0.1185735   0.09118965  20.06 0.0008104317    1.020    0.019
       167  -9.6663     55.5279     50.5191   5.4896379490e+01   6.3575213746e+01     0.147642    0.1434717  52.78 4.058478e-05    1.002    0.002
       168 -11.1090     45.5530     48.5291   5.9379132250e+01   6.5847599240e+01    0.4744582    0.4384365 -34.41   0.00180418    1.115    0.103
       169 -11.6761     40.2197     56.9732   6.5741711785e+01   6.4733725367e+01    0.3902979    0.2907367  23.15 0.0004582619    1.408    0.290
       170 -11.2308     44.0725     43.9695   5.8242165671e+01   6.7113650328e+01    0.3456003    0.2611982  35.68 0.0003694792    1.295    0.228
       171 -11.2727     39.8324     44.0722   6.0831570570e+01   6.7808032741e+01    0.5822815    0.3388744  19.55 0.0007565789    2.215    0.548
       172 -11.3221     43.0730     62.0690   6.5917655339e+01   6.3047272535e+01    0.3866497    0.2819858 -54.83 0.0007985757    1.362    0.266
       173 -11.3269     46.1987     59.2037   6.3205471944e+01   6.3251376486e+01    0.7177178    0.3542213  55.04  0.002549699    2.820    0.645
       174  -9.6945    234.3439     62.2987   2.0288364726e+01   2.1741096175e+01    0.1053248   0.08810283   0.15 0.0006638626    1.673    0.402
       175  -9.5124    113.8083     60.9792   3.7862426664e+01   4.8153368253e+01    0.3087806    0.1901208 -47.91  0.001345864    1.610    0.379
       176  -9.5526     83.8176     61.0133   4.7043284418e+01   5.5319702861e+01    0.2534315    0.1899103 -89.94 0.0005708568    1.668    0.400
       177  -9.7283     80.3751     58.7404   4.7444460000e+01   5.6574081269e+01     0.285755    0.2567029 -45.58 0.0008650845    1.167    0.143
       178 -10.0638    124.9430     56.4878   3.3675788656e+01   4.6197035537e+01    0.2947456    0.2573382 -31.67 0.0008694533    1.287    0.223
       179 -11.2960    118.1732     55.8631   3.5010942050e+01   4.7994450571e+01     1.347236    0.6766733 -74.08  0.003552433    5.390    0.814
       180 -10.5770    109.9425     39.8664   3.1074086702e+01   5.2730550212e+01    0.5452939    0.3967218 -28.13  0.001494834    1.577    0.366
       181  -9.5261    213.5112    248.4996   5.6285665022e+01  -9.5258294355e-01    0.1030458   0.07117156  -1.88 0.0008105051    1.020    0.020
       182 -11.1555    120.3748     40.7976   2.9138866568e+01   4.9900228561e+01    0.3382005    0.2597685 -15.64 0.0008168158    1.693    0.409
       183 -11.3106    119.4966     37.4818   2.8095806404e+01   5.0620588907e+01    0.3199938     0.273276 -57.44    0.0010744    1.131    0.116
       184  -9.7171     29.5076     59.5489   7.3005404802e+01   6.5541106450e+01    0.3764623    0.3242973  74.43  0.002029273    1.270    0.213
       185  -9.6660     21.3121     55.3187   7.7004990702e+01   6.7519163089e+01    0.2879951    0.2149819 -51.98 0.0009994069    1.283    0.221
       186  -9.6362     25.5010     59.9996   7.5631000374e+01   6.5880319049e+01    0.2892049    0.1840602  41.14 0.0009853656    1.616    0.381
       187 -10.7493     25.0618     55.9936   7.4734875174e+01   6.6957542426e+01    0.5935733    0.3204388 -27.85  0.001927007    2.464    0.594
       188  -9.8879     30.5292     53.5201   7.0408258872e+01   6.6932604715e+01    0.2944876    0.2023758  36.69  0.000687106    1.452    0.311
       189 -10.1169     33.6791     51.6691   6.7750298140e+01   6.6967445798e+01    0.3066212     0.228453 -41.34 0.0009127203    1.374    0.272
       190 -11.7160     75.3476     54.6934   4.7783578831e+01   5.8539748048e+01    0.5136228    0.4558853 -57.62  0.001668111    1.152    0.132
       191 -11.5210     73.7945     50.7363   4.6775278327e+01   5.9689388628e+01    0.5168654    0.3990764 -66.13  0.001136146    1.455    0.313
       192 -11.1789     72.5353     47.4892   4.5897999478e+01   6.0613624347e+01    0.2917452    0.2621432 -67.99  0.000669349    1.156    0.135
       193 -10.8044    157.5011     54.3202   2.6990190382e+01   3.8592772033e+01    0.5541099    0.3639702 -73.83  0.001945476    1.664    0.399
       194  -9.0313    135.4704     59.5042   3.2450528265e+01   4.3077164338e+01    0.1472698    0.1386459 -77.54 -5.193421e-05    1.067    0.063
       195 -10.4467    105.6782     57.8793   3.8935686633e+01   5.0730689396e+01    0.3998474    0.2393306  73.37  0.001475758    2.052    0.513
       196  -9.5504    201.1203     53.3542   2.1303373327e+01   2.9117538382e+01    0.2071239    0.1566002 -32.13 0.0004843547    1.316    0.240
       197  -8.8761    212.3175     53.6845   2.0304783956e+01   2.6863579908e+01    0.1334654   0.07497721 -57.93 0.0005069397    1.651    0.394
       198 -10.1742    145.6471     49.1418   2.7304237775e+01   4.2249762271e+01    0.5301933    0.2788868 -16.17  0.001847801    3.616    0.723
       199  -8.7711     93.6650     52.6795   4.0521659782e+01   5.4643409086e+01    0.1537149    0.1221803  20.35 0.0007049753    1.704    0.413
       200  -9.9547    240.1204     50.7971   1.7411519025e+01   2.2213223884e+01    0.1970881     0.143186 -32.53  0.000703047    1.282    0.220
       201 -11.3256     83.2202     47.1437   4.1733432263e+01   5.8192300914e+01    0.3444782    0.3079976   2.20  0.001799827    1.378    0.274
       202 -10.3185     26.1438     49.0779   7.1751347513e+01   6.8565496990e+01    0.3513655    0.1980693 -38.30 0.0009595034    1.947    0.486
       203  -9.7004      1.8976     49.1753   8.9360685836e+01   7.0451802965e+01    0.2015447    0.1783988  55.30 0.0006167989    1.219    0.180
       204 -10.6359     20.4804     46.3193   7.4779721709e+01   6.9868859925e+01     0.453274    0.3021939 -37.01  0.001862803    1.546    0.353
       205 -10.5294     26.1059     42.7971   6.9425277018e+01   7.0083002820e+01    0.3169048    0.2710017  37.70 0.0009583017    1.193    0.162
       206 -10.2904     23.0476     37.2582   6.9404559494e+01   7.1749867953e+01    0.5009741    0.2060469  41.86   0.00194342    2.640    0.621
       207  -9.5132     13.6899     46.4142   7.9830944571e+01   7.0463114986e+01    0.2592755     0.138938 -47.25  0.001177001    1.768    0.434
       208 -10.6247    138.7478     44.6174   2.7012676685e+01   4.4648471492e+01    0.4935855    0.2497646  43.94  0.001927272    2.683    0.627
       209 -10.3315    200.0052     44.9743   1.9355641880e+01   3.0467711516e+01    0.3679211    0.1838825  79.63  0.001715586    2.310    0.567
       210  -9.6370      4.9431     42.7556   8.5678638780e+01   7.1960537933e+01     0.415922    0.1440681 -47.75  0.001610364    2.565    0.610
       211 -11.2197      4.2903     35.9528   8.4499347523e+01   7.3692868833e+01      0.50841    0.3801581 -31.58  0.002874116    1.279    0.218
       212 -10.2033      9.8205     30.1278   7.7607261482e+01   7.4734870460e+01    0.6350449    0.3548698  -2.08  0.002965996    2.032    0.508
       213 -10.3763    155.9413     42.4844   2.3682947731e+01   4.0715620324e+01    0.2693277    0.2575034  18.08  0.001117556    1.345    0.256
       214  -9.6291     56.8285     41.7729   5.0334295384e+01   6.5137941569e+01    0.3136536     0.168708  54.38  0.001278458    2.019    0.505
       215  -9.4162     17.8691     41.2333   7.4964528926e+01   7.1373658590e+01    0.2774639    0.1443007 -39.72  0.001208563    2.011    0.503
       216 -10.5535    232.3400     39.4529   1.5531406553e+01   2.4941915252e+01    0.4891722    0.1297644 -49.83  0.002067306    2.961    0.662
       217  -9.2057     91.0192     41.4900   3.6790808935e+01   5.7283650640e+01    0.2258059    0.1421674  60.62 0.0006096421    1.517    0.341
       218 -10.6737     80.0355     39.1518   3.9362479323e+01   6.0382824636e+01    0.5112401    0.3227234  83.70  0.002067811    2.298    0.565
       219 -11.2895     79.0774     33.8512   3.7245462321e+01   6.1497459076e+01    0.6216506     0.326491  44.76  0.002562952    1.992    0.498
       220  -9.2108     70.6353     34.2371   4.0543562781e+01   6.3464357364e+01    0.2028126    0.1933927 -43.85 0.0007738519    1.119    0.107
       221  -9.7317     59.6479     23.7558   3.9610279278e+01   6.7714571667e+01    0.5082831    0.1497228 -39.38  0.001693636    3.498    0.714
       222 -11.0822     61.2209     35.9799   4.5418461510e+01   6.5305686997e+01    0.4951621    0.3638955  -6.17  0.001635345    1.986    0.496
       223  -9.5522     67.5407     32.2862   4.0814631419e+01   6.4516857211e+01    0.3624202    0.2446023  33.21  0.001668485    1.749    0.428
       224 -11.4697     57.3298     31.2205   4.4794714571e+01   6.7006544874e+01    0.4838458    0.3797539 -51.45  0.001387886    1.381    0.276
       225 -11.4261     48.6521     30.6491   4.8969473100e+01   6.8933568673e+01    0.7514346    0.2839197  43.29  0.002772632    2.542    0.607
       226 -10.1420     43.0849     28.1142   5.0779050889e+01   7.0497767679e+01    0.2053666    0.1909576  23.41            0    1.048    0.045
       227  -9.0959    206.4601     37.4866   1.6970161671e+01   3.0106640056e+01    0.1272719    0.0991201 -53.85 0.0001167322    1.003    0.003
       228 -10.8533    176.1850     34.4122   1.8917011402e+01   3.7025489276e+01    0.6617984    0.2568103 -43.78  0.002324735    2.096    0.523
       229 -10.1181    170.0688     30.2732   1.8377438465e+01   3.8966654820e+01    0.3274336    0.1927565 -57.82 0.0003909389    1.518    0.341
       230 -11.0588    153.0412     36.1180   2.2122590111e+01   4.2302469630e+01    0.2494115    0.2089417 -56.70            0    1.079    0.073
       231  -9.3256    132.4406     36.9450   2.5502395362e+01   4.7364271933e+01    0.3201903    0.1497045 -72.45  0.001036721    3.572    0.720
       232  -9.6603    174.2445    246.5696   6.2758321270e+01   3.0022875295e+00    0.1603672   0.08276422  14.66 0.0009569965    1.709    0.415
       233 -11.8472    126.3766    241.4981   7.1593672328e+01   8.8731621158e+00    0.3399029    0.2723128  40.77  0.001674342    1.370    0.270
       234 -11.4436    106.2673     32.7062   2.9077875460e+01   5.4749042814e+01     0.553888    0.3504412  23.95  0.001954243    2.715    0.632
       235 -12.3052    113.7179     25.2437   2.4517911341e+01   5.3806696933e+01    0.7636408    0.3754115  61.15  0.002060845    1.872    0.466
       236 -11.7479    160.0272     29.7593   1.9311934277e+01   4.1425510288e+01    0.3434758    0.3027683 -54.42 0.0005181648    1.121    0.108
       237 -11.1428    147.1364    237.8103   6.6884707875e+01   7.1108733916e+00    0.3907301    0.2708116  32.85  0.002587591    1.378    0.274
       238  -9.0717    138.6375     33.2789   2.3250687742e+01   4.6288133326e+01    0.1543347   0.09593134 -69.65 0.0004265658    1.672    0.402
       239 -10.3755    241.0424     32.0584   1.3425005054e+01   2.4274729855e+01    0.1795995    0.1321555 -49.37 0.0007228096    1.028    0.027
       240 -10.9673    188.8237     28.5732   1.6173900092e+01   3.4916448354e+01    0.4794394      0.31718  -4.95  0.002412373    2.466    0.595
       241 -10.3195    167.2013    237.9292   6.2980506664e+01   4.8997629861e+00    0.1617254    0.1354138  13.72 0.0009872977    1.213    0.175
       242 -10.8574     32.4480     30.7157   5.9246196973e+01   7.1865830950e+01    0.3620989     0.245439 -59.92  0.000478225    1.693    0.409
       243 -11.7787     26.3244     28.5115   6.2651730040e+01   7.3251053909e+01    0.4920339    0.4081932 -51.10  0.001704233    1.249    0.200
       244  -8.9939    200.3085    234.6984   5.6622155817e+01   1.9218051131e+00   0.08993394   0.07878938  23.14 0.0005336909    1.602    0.376
       245  -9.1943     15.4944    233.9672   9.6505382094e+01   2.1921802412e+01    0.1596416    0.1111624  86.27  0.001023767    1.566    0.361
       246  -9.6848    197.3019    232.3452   5.6812303893e+01   2.5187047146e+00    0.1137348   0.06562449  -7.96 0.0007038917    1.684    0.406
       247  -9.0435     75.3300    224.2959   8.1482962647e+01   1.7789441592e+01    0.1234918   0.09208448  -8.07 0.0004065739    1.636    0.389
       248  -9.8226    233.5648    223.4893   4.9780291270e+01   1.2596775458e-01    0.1035307   0.07203019  -9.22 9.436023e-05    1.025    0.024
       249 -11.7764    126.0654     28.4233   2.3543241024e+01   5.0165771770e+01    0.5377012    0.3791967 -89.72  0.002661034    1.373    0.272
       250  -8.6894    194.3886     38.2865   1.8196035616e+01   3.2508937975e+01    0.1188112   0.09724876  35.38 0.0007007609    1.754    0.430
       251  -9.6341    198.7972     28.7853   1.5433752865e+01   3.2747637510e+01    0.3206365    0.1560146  51.95   0.00151816    2.835    0.647
       252 -11.3456     68.8975    240.2313   8.4282240385e+01   1.5497631687e+01    0.4782545    0.2535148   1.61  0.002179559    2.894    0.654
       253 -10.0665    148.2844     28.1511   2.0218809936e+01   4.4519518918e+01    0.3438649    0.2115016  66.25  0.001077813    1.601    0.375
       254 -11.1570    144.7680     24.2894   1.9401104281e+01   4.5879579692e+01    0.6473789    0.2579459  56.49  0.002579949    2.616    0.618
       255  -9.0497    153.3170    219.3141   6.3249946387e+01   9.2443824360e+00    0.1241343   0.08082346  -5.98 0.0003757841    1.647    0.393
       256  -9.0082     44.6925    215.3177   8.8461622661e+01   2.2995773573e+01    0.1404153   0.07588175  51.19 0.0007030509    1.633    0.388
       257 -11.1112    183.3379     25.7890   1.5894522965e+01   3.6466185198e+01    0.4085271    0.2525859 -44.27  0.001738633    1.346    0.257
       258  -9.5251    187.3919     22.8400   1.4781597670e+01   3.5908199530e+01    0.2304064    0.1881678   8.46  0.001188587    1.834    0.455
       259 -10.0137    230.8456     27.1354   1.2947000975e+01   2.6644374428e+01    0.1879269    0.1172742 -55.42 0.0008506625    1.241    0.194
       260  -8.8062    206.3114     25.6787   1.4129679392e+01   3.1553891600e+01    0.1352585   0.06853466 -56.79  0.000703751    1.650    0.394
       261 -10.0550    155.7186     24.7731   1.8268686195e+01   4.3090938861e+01    0.3346353    0.1880092 -67.37 0.0003910751    1.759    0.432
       262  -9.1922    155.2639     20.9711   1.7134466393e+01   4.3651802327e+01    0.1767218    0.1336698 -17.90 0.0005121995    1.630    0.386
       263  -9.6209     90.4406     23.2118   2.8795881627e+01   6.0171871638e+01    0.2842845    0.1881267  64.05   0.00111564    1.380    0.275
       264  -9.4114    164.5268    211.9256   5.9957272708e+01   9.0543141624e+00    0.1790489    0.1380136  15.32 0.0005444768    1.115    0.103
       265 -10.6712     38.8152     22.1995   4.9926358782e+01   7.2381119659e+01    0.2501865    0.2232545  17.42 0.0003743276    1.118    0.106
       266  -9.5002     16.9926    206.2434   9.5199449450e+01   2.7637878133e+01    0.2895945    0.1037555  61.80  0.001198978    2.656    0.623
       267  -9.2617    223.8987     22.4647   1.2303551302e+01   2.8458886542e+01    0.1556088    0.1047457 -88.97 0.0005750027    1.540    0.351
       268 -10.7637    178.8646     20.8146   1.4910886582e+01   3.8058496322e+01    0.4026514    0.2389678  44.51  0.001977796    2.487    0.598
       269  -9.2321      5.2957     22.0299   7.8782929410e+01   7.6942173128e+01    0.1741101    0.1616753 -46.14 0.0006534694    1.088    0.081
       270  -9.2577     61.5130    206.5129   8.3429807307e+01   2.3045821619e+01     0.134995    0.1138465  38.00 7.743564e-05    1.014    0.014
       271 -10.9404      5.8535    199.2957   9.7924289332e+01   3.0132346259e+01    0.3219584    0.1447445 -66.61  0.001506548    2.517    0.603
       272 -11.0135    246.8324     19.8860   1.0619483451e+01   2.4623564508e+01     0.215882    0.1093403 -41.28   0.00136191    1.373    0.271
       273 -10.0868    235.8645     20.1436   1.1178523200e+01   2.6510283677e+01    0.1402778     0.119281 -38.25 0.0003575199    1.302    0.232
       274  -9.3080    216.5351     20.5236   1.2275293561e+01   3.0091933859e+01     0.123416   0.08946695 -54.19 2.723763e-05    1.033    0.032
       275  -9.6905     78.3833    203.8628   7.8765527761e+01   2.1591936572e+01    0.2293434    0.1548367  37.77 0.0005061834    1.257    0.205
       276  -9.7139     47.1574     19.4711   4.3202833182e+01   7.1150625790e+01    0.2541996    0.2050852 -28.39  0.001408372    1.346    0.257
       277  -9.0511      1.4680     20.5156   8.2298821170e+01   7.7521763148e+01    0.1301645    0.1133775 -31.43 0.0002425924    1.033    0.032
       278  -9.8380    233.8508    196.9074   4.5754301630e+01   3.3301168199e+00    0.1907363    0.1190337 -32.15  0.001029665    1.379    0.275
       279  -8.7799     83.6799    195.7033   7.6479722095e+01   2.2675393083e+01    0.1345955    0.1025243 -12.61  0.000439901    1.616    0.381
       280 -12.2094      4.6724    184.1772   9.7815902962e+01   3.3791180732e+01    0.6463935    0.4413622  70.55  0.002740511    1.306    0.234
       281  -9.2070    198.9797     17.6584   1.2640122690e+01   3.3984980005e+01    0.1701885    0.1346856 -67.75 0.0005496398    1.092    0.084
       282  -9.2855    250.4901    176.9974   4.0265306207e+01   4.1207045703e+00    0.1578414   0.06928314 -20.27 0.0008104611    2.594    0.615
       283  -9.0069    120.2851     16.3194   1.9897772685e+01   5.3138605294e+01    0.1362619    0.1042055  40.85 0.0002496412    1.591    0.371
       284  -9.6934    186.9618     15.1014   1.2768525529e+01   3.6869997599e+01     0.193212    0.1594211 -62.30 0.0006193975    1.063    0.059
       285  -9.5370     28.0730    175.7209   9.0499500934e+01   3.3900281410e+01    0.1983517     0.168372  44.94 0.0006137571    1.051    0.048
       286  -9.8984     51.7477    173.2720   8.3080452668e+01   3.1974416959e+01     0.470281    0.2029608  86.49  0.001601507    3.505    0.715
       287  -9.3420     39.4141    173.7829   8.6892791998e+01   3.3238842775e+01    0.1881555    0.1275583 -63.49 0.0008897895    1.590    0.371
       288  -9.0948     35.6765    169.2993   8.7677227222e+01   3.4775318838e+01    0.1568596   0.08888748  53.74 0.0002907704    1.628    0.386
       289 -10.5348     13.9031    159.1356   9.3962139445e+01   3.9432080039e+01    0.3488723     0.257627  79.57 0.0009796474    1.258    0.205
       290 -12.0370      8.8190    166.9450   9.5962212842e+01   3.7789194308e+01    0.6614743    0.2976426  31.04  0.002133689    1.890    0.471
       291 -11.6642     11.4172    162.7250   9.4950328834e+01   3.8684736127e+01    0.4782601    0.2550624  69.13  0.001799848    1.755    0.430
       292  -9.0730    120.1806     11.6248   1.8086650864e+01   5.3668130804e+01    0.1940271    0.1129866  64.11 0.0004760431    1.605    0.377
       293 -10.5804     18.8679    165.0515   9.2693173652e+01   3.7471531722e+01    0.3808092    0.2592951   0.83  0.001896482    1.796    0.443
       294  -9.9941    205.0147    163.2065   4.4511205359e+01   1.1466264457e+01    0.2094047    0.1487074 -29.26 0.0006205832    1.198    0.165
       295 -10.8259     27.8072    161.5221   8.9574368884e+01   3.7584811865e+01    0.4051137    0.2883424 -53.40  0.002064925    1.590    0.371
       296  -9.4360     37.9674    160.4941   8.6173699034e+01   3.6823915651e+01     0.221917    0.1368905  24.57  0.001027261    1.578    0.366
       297  -9.4079     65.9002     10.4906   2.9354334901e+01   6.7987637026e+01    0.2137121    0.1260854  63.38 0.0005642642    1.529    0.346
       298 -10.8772      9.3258    155.6369   9.5291988417e+01   4.0707258733e+01    0.3083749     0.237451  88.46  0.001254553    1.234    0.189
       299 -12.6607     22.6303    149.4186   9.0390582752e+01   4.1300524787e+01    0.7851231    0.4647425 -43.24    0.0022898    2.065    0.516
       300 -11.0088     16.5553    147.8258   9.2388865621e+01   4.2249035966e+01    0.3758095    0.2877834  28.47  0.001595107    1.286    0.223
       301  -9.8040    104.2864    155.1501   6.4922791530e+01   2.8893751936e+01    0.2581157    0.2054734  20.41   0.00130745    1.316    0.240
       302 -10.5190      4.1527    153.7692   9.6929143156e+01   4.1564336087e+01    0.3001655    0.1525677  35.72  0.001244707    1.712    0.416
       303 -10.6276     30.3927    152.2051   8.7949406300e+01   3.9816545956e+01    0.3290676    0.2290821 -51.67  0.001488029    1.609    0.378
       304  -9.9107     62.0452    151.8043   7.7256583676e+01   3.6182378720e+01    0.2727209    0.2146805  -0.15 0.0008017577    1.551    0.355
       305 -11.2469     47.4655    146.8831   8.1513139187e+01   3.9375962686e+01    0.6758575    0.4377169 -35.05  0.002968973    1.995    0.499
       306 -10.8043     10.3132    127.6916   9.3335692689e+01   4.8275939311e+01    0.5411537    0.3114556 -77.26   0.00188461    1.634    0.388
       307  -9.8078     13.2016    121.9333   9.1757462489e+01   4.9692428370e+01    0.4819469     0.157599 -62.51  0.001691296    2.779    0.640
       308 -10.9077      3.0459    148.0657   9.7076095218e+01   4.3158186776e+01    0.5517146      0.23402  37.43  0.002366232    2.001    0.500
       309 -11.9821     12.2529    136.1879   9.3167526542e+01   4.5773723821e+01     1.576211     0.595355 -62.35  0.005977043    2.559    0.609
       310 -11.0906      2.1552    141.3923   9.7116163454e+01   4.5015441562e+01    0.4987942    0.1995431 -86.88  0.001973881    2.349    0.574
       311  -8.9534     74.2690    146.0070   7.2392700087e+01   3.5937300795e+01    0.1864484     0.133547 -65.92 0.0006366196    1.445    0.308
       312 -10.9931     33.1898    144.2955   8.6226816730e+01   4.1685456765e+01    0.3841352     0.281274  50.08 0.0007877161    1.253    0.202
       313  -8.7452    227.6830    140.3166   3.6870815076e+01   1.1805328797e+01    0.1104584   0.08356211 -55.14 0.0004572239    1.652    0.395
       314  -9.0972    217.4836    138.9871   3.8045331551e+01   1.3427208559e+01    0.1543387    0.0910276 -54.04 0.0004094032    2.189    0.543
       315 -10.2805     80.1952    138.2737   6.9130195008e+01   3.7012187885e+01    0.3733169    0.2512816  39.50  0.001021057    1.407    0.289
       316 -10.4747     40.5578    138.0124   8.2869108612e+01   4.2615578481e+01    0.3393436    0.2654012  67.27 0.0009252195    1.233    0.189
       317  -9.9200     32.0020    137.8284   8.5985617146e+01   4.3591472604e+01    0.3589443    0.2376299  27.64 0.0008216747    1.476    0.323
       318 -11.5941     23.7377    136.6255   8.8928501846e+01   4.4718404268e+01     0.670341    0.3538919  38.39 0.0006807821    1.714    0.417
       319 -10.7507     30.1057    132.9503   8.6170692941e+01   4.5141479018e+01    0.4671841    0.3837334   8.23 0.0009454485    1.372    0.271
       320  -9.5496     47.3524    134.2555   7.9885320242e+01   4.2841760730e+01    0.4371299    0.1451689 -71.53  0.001388774    3.128    0.680
       321  -9.5852     39.3601    133.4390   8.2740369886e+01   4.4020127286e+01    0.2573355    0.1502254  18.13 0.0006413579    1.865    0.464
