#   1 NUMBER                 Running object number                                     
#   2 MAG_AUTO               Kron-like elliptical aperture magnitude                    [mag]
#   3 X_IMAGE                Object position along x                                    [pixel]
#   4 Y_IMAGE                Object position along y                                    [pixel]
#   5 X_WORLD                Barycenter position along world x axis                     [deg]
#   6 Y_WORLD                Barycenter position along world y axis                     [deg]
#   7 A_WORLD                Profile RMS along major axis (world units)                 [deg]
#   8 B_WORLD                Profile RMS along minor axis (world units)                 [deg]
#   9 THETA_WORLD            Position angle (CCW/world-x)                               [deg]
#  10 FWHM_WORLD             FWHM assuming a gaussian core                              [deg]
#  11 ELONGATION             A_IMAGE/B_IMAGE                                           
#  12 ELLIPTICITY            1 - B_IMAGE/A_IMAGE                                       
         1  -9.5396     62.8440     19.0054   7.1736096378e+01   6.4649214534e+01    0.3602141    0.2727669 -72.01  0.001806892    2.972    0.664
         2 -10.0118    119.0417     19.5461   5.5087678638e+01   5.3005416590e+01    0.5286627    0.2460338 -19.92  0.002232396    2.468    0.595
         3 -10.2400    142.8931     18.1928   4.9772510771e+01   4.7336310998e+01    0.4973864     0.316664  44.78  0.002081718    1.517    0.341
         4 -10.6409    171.7497     13.0574   4.3675354435e+01   4.0578797346e+01    0.3798259     0.342053 -62.77  0.001343829    1.132    0.117
         5  -9.3232      5.2439      9.3159   9.5146359056e+01   7.3026856927e+01    0.3112519    0.1227175 -36.23  0.001692217    1.968    0.492
         6 -10.8873    164.2372      7.6961   4.3077376000e+01   4.3000352281e+01    0.5611295     0.327309 -42.28  0.002802661    1.808    0.447
         7 -10.8851    168.0600      4.9244   4.1752327838e+01   4.2293697611e+01    0.5768928    0.3644184 -26.70  0.003036091    1.754    0.430
         8  -9.6441     79.2131      4.8954   5.9442667739e+01   6.3193478624e+01    0.2596952    0.1929295  -2.32  0.001578809    1.312    0.238
         9  -9.2709    236.1749      1.8038   3.4506112327e+01   2.6240345042e+01    0.3045042    0.1530938  87.52  0.001563547    1.910    0.477
        10  -8.9560    150.5195      1.3163   4.2979983359e+01   4.7008613433e+01    0.2421087      0.10878  68.96 0.0009837808    1.946    0.486
        11  -9.4395    124.5015    225.0154   1.0542186962e+02   1.0863449175e+01    0.2572461    0.1633907   5.24   0.00105357    3.633    0.725
        12  -9.6614    185.7892    249.5269   9.6774643503e+01  -2.8772870571e+00    0.1959731    0.1686504 -20.41  0.001313557    1.343    0.256
        13 -13.9549     29.7169    244.2649   1.2521877492e+02   2.0338050271e+01     1.221143    0.7781592  65.75  0.004248402    1.157    0.136
        14 -10.3974    218.4981    221.0051   8.6165226339e+01  -4.0031034414e+00    0.5239671    0.2310596  28.43  0.002384305    2.305    0.566
        15 -10.9406    191.0874    218.1255   9.0903583513e+01   8.6091146345e-01    0.5030768     0.469022  -5.47  0.003187833    1.174    0.148
        16 -10.0264    146.8092    220.6689   1.0024062512e+02   7.9463960089e+00    0.3890415    0.2189297  20.70  0.001685739    2.626    0.619
        17  -9.0184     80.0218    221.5165   1.1408659289e+02   1.8342397791e+01     0.185237    0.1070919  41.81 0.0006410932    1.542    0.351
        18 -12.3886     32.5842    204.9420   1.2216774187e+02   2.7749861707e+01     1.102296    0.4715941  63.33  0.005448834    2.272    0.560
        19 -10.5508    211.1114    213.9020   8.6310242891e+01  -1.8022651515e+00      0.47559    0.2489401  29.94  0.002357244    1.795    0.443
        20  -9.0082     53.1091    214.7952   1.1886250315e+02   2.3294740133e+01    0.2097783     0.154245 -86.50  0.001041684    1.241    0.194
        21 -10.7914    204.8975    212.5415   8.7257716655e+01  -5.7711566267e-01    0.3069523    0.3026191  86.05  0.002052742    1.403    0.287
        22 -11.2438    134.4979    211.5149   1.0147243513e+02   1.1718406191e+01    0.5228857    0.3411674  61.94  0.002650917    1.761    0.432
        23  -9.0202    160.6489    212.3580   9.6104337159e+01   7.0398281897e+00    0.2055249    0.1578318  68.30  0.001117278    1.671    0.402
        24 -10.9871    199.5590    207.0574   8.7321657683e+01   1.1768549447e+00    0.4085596    0.2981304  25.58  0.002080956    1.238    0.192
        25  -9.6637    153.6655    208.6105   9.6964039609e+01   8.9363644201e+00    0.2784694    0.1787603 -57.90  0.001407046    1.902    0.474
        26 -11.0456    200.4664    194.2742   8.4787583229e+01   3.1083412334e+00    0.4901785    0.3069366 -42.17  0.002487072    1.726    0.421
        27 -12.7869     34.0622    220.2833   1.2297285109e+02   2.4434532911e+01     1.459342    0.7409968  60.82  0.008524225    1.651    0.394
        28 -10.9099    186.7920    204.2196   8.9357568566e+01   3.8556075593e+00    0.4050027    0.2630785  15.99  0.001999136    1.809    0.447
        29  -9.5286    187.4055    176.8256   8.4030409903e+01   8.6017812195e+00    0.2037601    0.1324516 -28.62  0.000712247    1.681    0.405
        30  -8.9143      3.8317    171.1634   1.2570548767e+02   3.7836494535e+01    0.1573884    0.1165357 -68.60 0.0008273183    1.337    0.252
        31  -9.4010    124.6519    167.0112   9.6328677548e+01   2.2759695124e+01    0.3343376    0.2779555 -31.08  0.001477133    1.406    0.289
        32 -10.3949    198.3268    161.6513   7.8600330247e+01   9.2920957928e+00    0.5727162    0.1851402 -36.45  0.001842822    3.347    0.701
        33  -8.1204    217.3264    163.6581   7.5305604167e+01   5.2595872532e+00    0.1359679    0.1146188 -75.03 0.0007051189    1.736    0.424
        34  -9.5128     81.0850    144.9722   1.0346468968e+02   3.5415624041e+01    0.3612981    0.2318266 -62.16  0.001486768    1.463    0.316
        35 -10.4851     56.9096    128.4769   1.0731253846e+02   4.2807402205e+01    0.6538772    0.3844472 -44.72  0.003120907    1.795    0.443
        36 -11.0269    116.6117    121.0507   8.8535021082e+01   3.4979960041e+01    0.8264872    0.7204894 -32.36  0.004208708    1.204    0.170
        37  -9.6955      2.2260    110.0185   1.2066934082e+02   5.2103782375e+01     0.665975   0.04608037 -63.51  0.002208031    4.180    0.761
        38 -11.0250    245.7972    107.1096   5.7703740710e+01   9.3933294585e+00    0.9925784    0.3993109 -29.06  0.003682886    2.732    0.634
        39 -11.4598    241.5788    105.1563   5.7873649815e+01   1.0563865136e+01     1.412257    0.5379103 -28.32  0.004839058    3.187    0.686
        40 -10.2436    228.7161    111.0986   6.1278950555e+01   1.2218335052e+01    0.4724802    0.3539868 -30.96  0.002451014    1.246    0.197
        41 -10.6398    160.5137    100.3597   7.1787435107e+01   2.9862564544e+01    0.6946924    0.4991224 -33.69   0.00312543    1.424    0.298
        42  -9.4461    180.8342    100.8101   6.7470260472e+01   2.4942157778e+01    0.3839307     0.263957 -32.03  0.001432637    1.488    0.328
        43  -9.0372     47.8828     99.4527   1.0448388538e+02   5.0935403835e+01    0.3036374    0.1412839 -47.64  0.001339994    1.925    0.481
        44  -9.9087     37.4521     98.6617   1.0779191232e+02   5.2199017727e+01    0.3565558    0.2483932 -22.51  0.001944387    1.747    0.428
        45  -9.9868     13.7215     95.6511   1.1512320837e+02   5.4799223093e+01    0.5421122    0.2105707 -58.49  0.002592414    1.898    0.473
        46  -8.2960    135.3078     97.6763   7.7231806045e+01   3.6256651608e+01    0.1598899    0.1265229 -82.22 0.0004523566    1.647    0.393
        47 -11.0684    210.9948     87.3941   5.8325250034e+01   2.0255262847e+01    0.9661369    0.4056242 -38.50  0.003660749    2.187    0.543
        48  -9.5786    240.9965     88.5167   5.4057645236e+01   1.3408647312e+01    0.3952134    0.2413521 -26.63  0.001875149    1.710    0.415
        49  -9.6956    128.8155     83.7827   7.4846446271e+01   4.0590220518e+01     0.327684    0.3026255 -84.90  0.001078759    1.213    0.176
        50 -10.4137     84.4082     82.4275   8.7776325312e+01   4.9753263544e+01    0.6037121    0.4238187   6.91  0.002794658    1.900    0.474
        51  -8.6729     95.7057     80.9838   8.3676762559e+01   4.8043654362e+01    0.2195646    0.1869659 -40.15 0.0007033715    1.119    0.107
        52 -10.5091    213.8560     70.0760   5.3418212695e+01   2.2455337030e+01    0.6383653    0.3834003 -48.12  0.002628099    1.598    0.374
        53 -10.7407      4.6568     67.2699   1.1329994470e+02   6.1778648348e+01    0.6258148    0.3384403 -73.48  0.003466993    1.734    0.423
        54 -10.7765    184.2931     63.8694   5.6533892945e+01   3.0669720989e+01    0.8521433    0.5184073 -22.80  0.003622259    1.960    0.490
        55 -11.0210    139.4724     64.5103   6.6031243065e+01   4.1717139789e+01    0.7493986    0.6114107 -69.28  0.003679869    1.469    0.319
        56 -10.4537     87.3074     64.3885   8.1018387876e+01   5.2964580718e+01     0.467736    0.4258841 -17.05  0.002545457    1.012    0.012
        57  -8.5152    114.9926     61.9868   7.1614017738e+01   4.7822982344e+01    0.2355183     0.189883 -77.20  0.001137411    1.693    0.409
        58  -9.4411     20.3234     56.3893   1.0436070853e+02   6.3178904519e+01    0.4894886    0.1396448 -41.80  0.001939444    3.026    0.670
        59  -9.8258     95.6866     54.0595   7.4618478216e+01   5.3271733624e+01    0.4557323    0.3209378  13.37  0.002187531    1.702    0.412
        60 -10.1646    233.8832     47.6955   4.5247035796e+01   2.1158094131e+01    0.4674248    0.3365382  23.87  0.002353797    2.179    0.541
        61 -11.1923    199.4737     45.2239   4.8948565550e+01   2.9680895640e+01    0.8351092    0.5220106 -32.79  0.004003792    1.619    0.382
        62  -8.4404    127.3997     50.2175   6.4223059844e+01   4.6958714491e+01     0.202672    0.1364126 -42.67 0.0005739695    1.573    0.364
        63  -8.2799     13.9941     49.0463   1.0505594175e+02   6.5139901087e+01    0.1519499    0.1120263 -46.26 0.0008657551    1.063    0.059
        64 -10.9433     82.0969     43.4053   7.5102778380e+01   5.7674962941e+01    0.7110932    0.4781384 -21.87  0.003644034    1.508    0.337
        65 -10.4224     49.4907     43.1618   8.7510530478e+01   6.2854732937e+01    0.3991362    0.3277147  11.74  0.002510785    1.220    0.180
        66 -10.3522    140.3783     38.0629   5.7024474721e+01   4.5580572978e+01    0.5019607    0.4143715 -89.86  0.002644822    1.392    0.282
        67 -10.0336    172.7392     36.2251   5.0419849760e+01   3.7640733225e+01    0.3623473     0.344607  43.19  0.001769656    1.124    0.110
        68 -10.1250     40.9335     34.4200   8.7780599346e+01   6.5468956053e+01    0.5584714    0.2421993 -50.06  0.002515601    2.548    0.607
        69 -10.1630    181.1316     26.2099   4.6223018059e+01   3.6752439413e+01    0.4575071     0.361908   4.71  0.002450294    1.637    0.389
        70  -9.8359    109.2751     24.8735   5.9506472965e+01   5.4659910331e+01    0.4967346    0.2578914  27.59  0.002035918    2.488    0.598
        71 -10.3037    109.2897    246.4307   1.1092205117e+02   9.4548080613e+00    0.4563232    0.3341795 -37.19  0.002830529    2.028    0.507
        72  -8.6071    180.1491    244.1363   9.7063388145e+01  -1.2543566402e+00    0.1637214    0.1316641  47.32  0.001070598    1.322    0.243
        73  -9.7853    143.5361    243.0999   1.0395081749e+02   4.7047739415e+00    0.2630582    0.1820244  37.99  0.001604413    1.197    0.164
        74 -10.4863    203.1295     18.2257   4.1336734852e+01   3.2188083443e+01    0.3675259    0.2789866  56.60  0.001568961    1.380    0.276
        75  -9.1691    238.6730     15.5025   3.7341292288e+01   2.4182192855e+01    0.2577224    0.1862702  40.11  0.001470928    1.967    0.492
        76  -9.5497    123.2360    243.8733   1.0797096030e+02   7.7626479826e+00    0.2228842    0.1826661  38.99  0.001463433    1.139    0.122
        77 -10.5796    180.3050    222.7167   9.3782240376e+01   1.9422400346e+00    0.3235302    0.2500636  19.63  0.001945687    1.221    0.181
        78  -9.9803    149.7197    239.1799   1.0223822759e+02   4.3450049239e+00    0.3602295    0.2632552  28.23  0.002202752    1.305    0.234
        79  -9.9602    132.1161    238.5420   1.0560710786e+02   7.2661660548e+00    0.2878421     0.186906  21.54  0.001546677    1.950    0.487
        80  -9.1947     90.5194    227.5250   1.1259874517e+02   1.5658251476e+01    0.1244236    0.1031312  59.50 0.0001846015    1.030    0.029
        81 -10.0836    138.1449    237.0015   1.0422656664e+02   6.5624221497e+00    0.2363355    0.1583532  42.03  0.001387254    1.230    0.187
