#   1 NUMBER                 Running object number                                     
#   2 MAG_AUTO               Kron-like elliptical aperture magnitude                    [mag]
#   3 X_IMAGE                Object position along x                                    [pixel]
#   4 Y_IMAGE                Object position along y                                    [pixel]
#   5 X_WORLD                Barycenter position along world x axis                     [deg]
#   6 Y_WORLD                Barycenter position along world y axis                     [deg]
#   7 A_WORLD                Profile RMS along major axis (world units)                 [deg]
#   8 B_WORLD                Profile RMS along minor axis (world units)                 [deg]
#   9 THETA_WORLD            Position angle (CCW/world-x)                               [deg]
#  10 FWHM_WORLD             FWHM assuming a gaussian core                              [deg]
#  11 ELONGATION             A_IMAGE/B_IMAGE                                           
#  12 ELLIPTICITY            1 - B_IMAGE/A_IMAGE                                       
         1 -11.3701    112.6186     26.2402   3.3791896693e+01   5.1975770488e+01    0.4148025    0.2613201 -17.05  0.002212208    2.206    0.547
         2 -11.7032    130.2141     12.8326   2.7047333969e+01   4.9325516353e+01    0.3890718    0.2434039 -60.25  0.002281219    1.683    0.406
         3 -12.5965    132.8539     18.9416   2.8362107289e+01   4.8141689743e+01     0.342682      0.21753  60.35 0.0004570427    1.416    0.294
         4 -11.8548      3.1456     16.1243   7.2937440070e+01   7.3853471330e+01    0.4732348    0.3290142 -60.19  0.002805323    2.422    0.587
         5 -11.5301     77.9690      9.9618   3.5714126056e+01   6.1357169992e+01    0.3987038    0.2123144  45.78 0.0006929131    1.650    0.394
         6  -9.8356     81.9907      7.0217   3.3644539813e+01   6.0717264078e+01    0.1847465    0.1435551  53.86  0.000387759    1.082    0.076
         7 -10.7035     72.4970     10.5079   3.7346744244e+01   6.2503920155e+01    0.3625142    0.2413584  14.09   0.00207783    1.948    0.487
         8 -11.4629     73.1539     16.3697   3.9481101853e+01   6.1815006307e+01    0.4356751    0.2476405  68.47  0.001354861    1.852    0.460
         9 -10.8503     76.4753     15.4896   3.8223564067e+01   6.1179546568e+01    0.2790487    0.2098116  63.23  0.001157486    1.186    0.157
        10 -11.0087     19.3133     16.3816   6.2320628878e+01   7.1827127234e+01    0.2993714    0.2744007   2.00  0.002156116    1.322    0.244
        11 -11.8435     28.6467     19.7014   5.8657618187e+01   6.9985987111e+01    0.2572673    0.1906885  13.93 0.0002569058    1.193    0.162
        12 -11.7325     30.8916     13.1093   5.4218393537e+01   7.0429638809e+01    0.3101985    0.2745345 -13.68 0.0004574803    1.316    0.240
        13 -12.1026    238.0891     17.5310   1.8737905627e+01   2.7402922267e+01    0.2226906    0.1418541 -55.18 0.0003061647    1.188    0.158
        14 -11.4117    233.0792     15.1235   1.8609084816e+01   2.8497375036e+01     0.232307    0.1342843 -49.36  0.001519434    1.380    0.276
        15 -10.9591     50.0906     15.4235   4.6755233193e+01   6.6670884870e+01    0.4492718    0.2350971  37.34  0.002351044    1.695    0.410
        16 -10.8640     12.0804     14.0101   6.5670362070e+01   7.3126978222e+01    0.4570026    0.2469336  14.40  0.001806384    1.863    0.463
        17 -11.8077     20.2782      2.7778   5.4437529529e+01   7.3308627235e+01    0.6463394    0.2963489  36.76  0.003494362    1.746    0.427
        18 -12.0230     27.2667      3.1403   5.0836549564e+01   7.2115480240e+01    0.2437605    0.2141584  40.65 0.0009886243    1.316    0.240
        19 -10.3480     34.0698      1.3450   4.6585927707e+01   7.1076962335e+01    0.4644237    0.1049698  52.75  0.001632247    4.110    0.757
        20 -11.4274      9.2160      7.9558   6.4358464453e+01   7.4301023562e+01    0.3369617    0.2252913  25.71  0.001058282    1.242    0.195
        21 -11.7819     11.0394      2.5513   6.0040348503e+01   7.4717866370e+01    0.2712232    0.1824941   8.46  0.001046783    1.331    0.249
        22 -11.3436     59.6633     13.4322   4.2419309195e+01   6.4950844183e+01    0.2607411    0.2251499  64.37 0.0008577092    1.248    0.198
        23 -10.6655    164.8702     12.3070   2.2997930877e+01   4.1795800252e+01     0.200257     0.134845 -54.94  0.001159437    1.383    0.277
        24 -10.6272    155.7466     13.2567   2.4126256557e+01   4.3650162260e+01    0.2495619     0.177301   2.94  0.001469393    2.497    0.599
        25 -10.9043    155.0477      8.7373   2.3113310253e+01   4.4231343534e+01    0.2634468    0.1920411 -88.57  0.001301542    1.117    0.105
        26 -10.4636     99.4044     12.1318   3.1800305336e+01   5.6371074456e+01    0.2720014    0.1908422  55.46   0.00101825    1.228    0.186
        27 -11.1497    177.4201     10.0417   2.1391707219e+01   3.9413373057e+01    0.3272619    0.1976774  56.10  0.002043206    1.921    0.479
        28 -11.4236    145.9570      8.0645   2.3889225619e+01   4.6267119033e+01    0.3762106    0.2593797 -28.98  0.002428401    1.781    0.439
        29 -10.9304    234.9949     10.3023   1.7692098411e+01   2.8681699707e+01    0.1427609   0.09870945 -73.11 0.0005005936    1.087    0.080
        30  -9.6472    108.4716      9.6479   2.9374103845e+01   5.4531955826e+01    0.2232957    0.1217504 -27.80  0.001221517    2.212    0.548
        31  -9.0088    109.3224      5.3477   2.7895065695e+01   5.4699690100e+01    0.1692829    0.1062111  -1.03 0.0009290752    2.485    0.598
        32 -11.1465    241.4261      9.1342   1.7176197124e+01   2.7740428507e+01    0.1567466   0.09146626 -83.08 0.0007397289    1.441    0.306
        33 -11.2458    213.2362      6.4876   1.8218051776e+01   3.2862115987e+01    0.4141335     0.152972 -45.13  0.002424265    2.120    0.528
        34 -10.0267    118.1415      8.0287   2.7371915336e+01   5.2478923276e+01    0.1966313    0.1589121 -47.82  0.001329446    1.392    0.281
        35  -9.1196     65.3131      8.3306   3.8482312427e+01   6.4237156509e+01    0.1294367   0.07675247  35.27 0.0007044245    1.675    0.403
        36 -11.1034     36.5973      7.6123   4.8683720108e+01   7.0019913432e+01     0.367367    0.2107758  50.78   0.00080912    1.591    0.371
        37 -11.0093    223.0137      5.3716   1.7477179924e+01   3.1233103477e+01    0.1922771    0.1243384 -45.00   0.00144836    1.454    0.312
        38  -9.5360    150.8110      5.7802   2.2820486144e+01   4.5415953480e+01    0.1550994    0.1066276 -76.38 0.0002391656    1.281    0.219
        39  -9.5110    101.3732      6.1656   2.9471795775e+01   5.6433544660e+01    0.1529981    0.1058104 -45.67 0.0009383113    1.670    0.401
        40 -10.7448     73.8917      2.4969   3.3814514894e+01   6.2860013467e+01     0.324244     0.239724 -46.40  0.001694886    1.691    0.409
        41 -10.7997    172.3431      5.1324   2.0741786589e+01   4.0922824721e+01    0.2534552    0.1326345  85.44 0.0004355927    1.639    0.390
        42 -10.2821    164.5206      4.7183   2.1300618460e+01   4.2587489220e+01    0.2095979    0.1415797 -68.30 0.0005432232    1.283    0.220
        43 -10.0940    229.2512      5.3956   1.7158088409e+01   3.0153006674e+01    0.1410338   0.07215802 -82.42 0.0009483492    1.675    0.403
        44  -9.8255      1.2762      5.2173   6.8585185029e+01   7.5616100470e+01    0.1330245   0.09658349 -38.46 0.0002565182    1.673    0.402
        45 -11.6541    243.4940      3.2557   1.6129267359e+01   2.8001442704e+01    0.2374702    0.1290788  85.72  0.001775109    1.673    0.402
        46 -10.1930    201.0887      3.9095   1.8465292078e+01   3.5362597932e+01    0.1557346    0.1195001 -75.11 0.0003712654    1.064    0.060
        47 -10.8168    178.9822      3.8504   1.9952909105e+01   3.9688324131e+01    0.1690469    0.1312053 -67.96 0.0002649608    1.117    0.104
        48 -11.2262    236.3600      2.2190   1.6283703690e+01   2.9272740502e+01    0.2255492    0.1110234 -67.64  0.001306843    1.560    0.359
        49 -10.6383    126.7163      2.3472   2.4595187712e+01   5.1022019675e+01    0.3471806    0.1387911  61.73  0.001747797    2.015    0.504
        50 -10.4822    168.0715      1.9389   2.0382957993e+01   4.2097544410e+01    0.1671319    0.1251208 -81.64 0.0003179429    1.039    0.038
        51  -9.4977     90.9528      2.0247   2.9970884647e+01   5.9107754233e+01    0.1321836    0.1181585  65.60 0.0009341831    1.121    0.108
        52  -9.5601    215.3931    193.8231   5.3260825869e+01   4.0482180152e+00    0.1791898   0.09291653 -34.29 0.0009378165    1.628    0.386
        53  -9.9907    109.8573    250.1127   8.4632309370e+01   6.5103747518e+00    0.2004033    0.1678562  35.89 0.0006940321    1.229    0.187
        54 -11.1806     89.5424    249.5184   8.9458685597e+01   9.0625104625e+00    0.3530612     0.226315  18.53  0.001209361    1.425    0.298
        55  -9.4073     72.4032    250.4835   9.3740543452e+01   1.0864410768e+01    0.1296861    0.1157567  16.74 0.0001657759    1.067    0.063
        56 -12.8914     19.1969    247.2564   1.0631396641e+02   1.7121652049e+01      1.05082    0.2648569  43.64  0.004053588    3.036    0.671
        57 -12.3979      6.8717    244.7655   1.0904792655e+02   1.8760123731e+01    0.4952895    0.3947683 -83.73  0.001844235    1.294    0.227
        58 -10.5506     12.0342    250.5728   1.0815544956e+02   1.7051081825e+01     0.182504    0.1061533  27.44  0.000430499    1.549    0.354
        59 -11.4111     15.5828    193.0428   1.0349707041e+02   3.0480871121e+01     0.392842    0.2767841  34.08  0.001302467    1.381    0.276
        60 -11.4102    244.7356    188.4970   4.7736874659e+01   1.6315598243e+00    0.2801099    0.1769756 -53.13  0.001426953    1.873    0.466
        61  -9.9375     61.7271    184.3389   8.8792547211e+01   2.7938332781e+01    0.2698641    0.1852994 -69.92  0.001249282    1.532    0.347
        62 -12.7354     18.4123    181.3605   1.0164199156e+02   3.3320509790e+01    0.7935806     0.414036  11.58  0.002632925    2.181    0.542
        63 -10.7244    249.8418    181.1856   4.5804291689e+01   2.2416802347e+00    0.1622699    0.1072549 -24.33   0.00107786    1.344    0.256
        64 -11.9106    244.3491    178.5830   4.6142153047e+01   3.2513118764e+00    0.3450536    0.1260527 -35.28  0.001109419    2.388    0.581
        65 -10.8182     18.5053    172.8942   1.0079348701e+02   3.5583798569e+01    0.2585776    0.2088212  23.28    0.0011576    1.288    0.224
        66 -10.9069     35.1867    161.1552   9.4010319272e+01   3.7238300928e+01     0.323036    0.2517739  -4.75 0.0002414714    1.427    0.299
        67 -10.9222     36.8557    165.8374   9.4083561696e+01   3.5788126807e+01    0.3503785    0.2466069  80.00 0.0005251967    1.629    0.386
        68 -11.3771     33.0647    166.1153   9.5359424393e+01   3.6097545135e+01     0.251891    0.2409797  74.20 0.0003385747    1.050    0.048
        69 -11.0986     51.7285    161.8300   8.8609831686e+01   3.5202442315e+01    0.6609652    0.4300087 -69.28  0.002445186    1.578    0.366
        70 -10.2716      8.5489    163.1197   1.0300689106e+02   3.8992236417e+01     0.285441     0.176463 -17.73   0.00117347    1.966    0.491
        71 -11.6151    247.0212    157.4803   4.2206292913e+01   6.3238565709e+00    0.1954519    0.1213549 -41.19  0.001252185    1.217    0.178
        72 -11.0852     21.3050    156.7229   9.8110631457e+01   3.9749151761e+01     0.458325    0.3307304 -17.06  0.002156346    1.576    0.366
        73 -11.2578    235.7104    152.9859   4.2953468938e+01   8.4598594904e+00    0.3362568    0.1152013 -42.95  0.001535347    2.273    0.560
        74  -9.8113    216.4739    154.5286   4.6059495275e+01   1.0784025255e+01    0.1262569    0.1029322 -38.16 4.663347e-05    1.012    0.012
        75 -10.5218     10.7174    153.0363   1.0127963502e+02   4.1579614777e+01    0.3353179     0.207714  23.29  0.001032329    1.684    0.406
        76  -9.5914    222.5667    151.5083   4.4576454682e+01   1.0461966025e+01    0.1243048   0.09927233 -41.15 0.0001180937    1.040    0.039
        77  -9.6630     21.1665    147.8688   9.7059510199e+01   4.2185243498e+01    0.2008027    0.1559303 -40.24 0.0002988709    1.283    0.221
        78  -8.9530     14.2750    148.2949   9.9526196351e+01   4.2614890814e+01    0.1481434   0.09743737 -41.58 0.0001794772    1.525    0.344
        79 -10.1270      7.9830    145.6881   1.0142920291e+02   4.3767863195e+01    0.1947416    0.1910376 -73.66  0.001165631    1.063    0.059
        80 -10.0808    216.5236    145.4672   4.4370118881e+01   1.2364197185e+01    0.1262596    0.1029603 -37.81 0.0002206186    1.034    0.033
        81  -9.7021    187.6991    144.0429   4.8871897641e+01   1.7079437290e+01    0.1843869    0.1546852 -37.03  0.000437067    1.062    0.058
        82  -9.9423     13.8448    139.6492   9.8628498785e+01   4.5005397930e+01    0.1989706     0.124054  30.76  0.000419098    1.670    0.401
        83 -10.0176     43.5609    137.3012   8.7368921657e+01   4.2830718460e+01    0.2787741    0.1492719 -67.61  0.001116121    1.925    0.480
        84 -10.4043      2.5266    133.5053   1.0203980901e+02   4.7401935153e+01    0.2635438    0.1697686 -86.80  0.001066223    1.578    0.366
        85 -10.8105      4.3174    130.1577   1.0098507252e+02   4.8201097619e+01    0.2974951    0.2049854 -37.08 0.0006564821    1.425    0.298
        86  -9.5480      9.4630    136.4488   9.9832136869e+01   4.6180899590e+01    0.1429235    0.1294575 -55.27 5.115007e-05    1.021    0.021
        87 -12.1123    241.4031    134.0161   3.8859705295e+01   1.0802783761e+01    0.2571523     0.187223 -40.31 0.0008660895    1.094    0.086
        88  -9.8521     20.6553    134.7677   9.5456418675e+01   4.5803309567e+01    0.2089965    0.1327846 -83.00 0.0007847158    1.705    0.413
        89 -10.7449    249.4206    134.2175   3.7918280401e+01   9.7151527734e+00    0.1681136   0.08336668 -48.71 0.0007806909    1.634    0.388
        90 -11.0522     53.7384    132.4573   8.2735062553e+01   4.2859382013e+01    0.4164336    0.2418127  19.16  0.001277677    1.845    0.458
        91 -12.7447     36.2518    131.7298   8.9099122527e+01   4.5148554024e+01    0.5115811    0.3068859 -45.29 0.0008556325    1.607    0.378
        92 -11.2777     73.7661    128.9743   7.4871065435e+01   4.0831705950e+01    0.3529348    0.3184664  44.32   0.00123927    1.156    0.135
        93 -10.8589     56.7967    126.6081   8.0412089307e+01   4.3980230264e+01    0.2917638    0.2217532 -25.32  0.000515444    1.413    0.292
        94  -9.5011     51.3153    126.2874   8.2382475413e+01   4.4804188977e+01    0.1589871    0.1118175 -24.63            0    1.587    0.370
        95 -10.7336      7.2930    117.9976   9.8240249381e+01   5.1272658111e+01      0.24929    0.2070118  27.45 0.0006511645    1.311    0.237
        96 -11.3276     10.7618    122.3710   9.7478024029e+01   4.9886540035e+01    0.4020976    0.2843028  85.51    0.0017419    1.603    0.376
        97  -9.9559     17.3228    125.6788   9.5386385081e+01   4.8525657212e+01    0.2100506    0.1407001  36.70 0.0007587844    1.601    0.375
        98 -10.7465     13.9681    125.5124   9.6670942512e+01   4.8821943620e+01    0.2944237    0.2194604  -9.46     0.001052    1.430    0.301
        99  -9.5856    219.4968    124.0488   3.9911972574e+01   1.5595980202e+01    0.1899265    0.1014442 -42.70 0.0008398783    1.537    0.349
       100 -11.6870    243.6178    121.9177   3.6462905213e+01   1.2419490881e+01    0.2216308    0.1383685 -56.93 0.0008709866    1.521    0.343
       101 -10.7062     19.9306    121.5292   9.3706269648e+01   4.9427489956e+01    0.2317358    0.1822357 -62.70 0.0006656562    1.199    0.166
       102 -10.5214     24.3211    120.6851   9.1810968491e+01   4.9275718701e+01    0.2497856    0.1819885  89.91 0.0003839654    1.610    0.379
       103 -10.7065     24.3055    117.6819   9.1291439300e+01   5.0072170342e+01    0.2804988     0.208205  43.57 0.0008464471    1.498    0.332
       104  -9.1522     82.3038    119.2937   6.9694825414e+01   4.1809894516e+01    0.1570986    0.1194049 -14.05 0.0001997289    1.576    0.366
       105 -10.2735      1.3146    118.5248   1.0070909384e+02   5.1471662528e+01    0.2480943    0.1126139 -65.57 0.0001001605    1.880    0.468
       106 -10.0164      3.4143    115.2418   9.9427449872e+01   5.2226168136e+01     0.292943    0.1311643 -73.38  0.001202989    2.127    0.530
       107 -11.4831    249.6507    117.5194   3.5012275361e+01   1.2273569593e+01     0.224717    0.1625684 -40.78 0.0007959146    1.152    0.132
       108 -12.5175    249.3114    112.0467   3.4103010594e+01   1.3153988083e+01    0.4084594    0.3159134  34.28  0.002504831    1.911    0.477
       109 -10.9429     52.5707    116.2107   7.9733950602e+01   4.7240762274e+01    0.2980699     0.239129   1.89  0.000980227    1.308    0.235
       110  -9.8996     42.3950    117.2872   8.3947034518e+01   4.8273776837e+01    0.2055053    0.1453355 -73.69 0.0009440281    1.605    0.377
       111 -11.0375    181.8863    114.8375   4.3840640942e+01   2.3563134564e+01    0.3537815    0.2562667  28.59  0.001335967    1.864    0.463
       112 -10.0499     86.0909    116.1478   6.7655692836e+01   4.1893996595e+01    0.2265406    0.2030142  -8.49 0.0002441161    1.164    0.141
       113 -10.4434    105.7694    114.6224   6.1128078449e+01   3.8546748964e+01    0.2922826    0.2139033 -46.08  0.001072888    1.373    0.271
       114 -10.9967     15.8734    115.1319   9.4302030265e+01   5.1442341044e+01    0.2697887    0.2007873 -71.60 0.0006365151    1.338    0.253
       115 -11.8829     14.3820    109.9385   9.4052823702e+01   5.2913282529e+01    0.3747318    0.3573128  41.42  0.001821491    1.175    0.149
       116 -10.6968     93.8210    112.1050   6.4130144496e+01   4.1411934488e+01    0.3978803    0.2771817  48.02  0.001815632    1.494    0.331
       117 -10.8876     30.9644    106.6487   8.6386068343e+01   5.2291269539e+01    0.4259271    0.3198873 -78.53  0.002120005    1.550    0.355
       118 -11.3803     25.3247    105.9883   8.8652329670e+01   5.3017711736e+01    0.6045678    0.3158525 -14.92  0.002371909    2.487    0.598
       119 -11.4909     37.8399    109.4754   8.4119223166e+01   5.0817748686e+01    0.4468783    0.3396672  37.08  0.001491972    1.393    0.282
       120  -9.8138     41.6664    108.3125   8.2288305616e+01   5.0657915113e+01    0.2251846    0.1493339  25.46 0.0003252465    1.504    0.335
       121 -11.8272     54.5401    108.2685   7.7110951683e+01   4.8955079765e+01    0.6146858    0.4087486 -60.85  0.001972653    1.601    0.375
       122 -10.6084      2.6513    106.0095   9.8421574636e+01   5.4676056318e+01    0.4119728    0.1986052 -56.66  0.001854082    1.733    0.423
       123  -9.9515    111.6566    105.8582   5.7193932138e+01   3.9289358120e+01    0.2363512    0.1688647  48.39            0    1.405    0.288
       124 -10.1469     71.8822    115.8922   7.2478153711e+01   4.4403078323e+01     0.356987    0.2612854  72.31  0.001557203    1.943    0.485
       125  -9.5858     90.4822    103.4732   6.2936906703e+01   4.3991295747e+01    0.1504375     0.146449  38.90 0.0002471826    1.044    0.042
       126 -11.2858     37.5119    102.3450   8.2655971003e+01   5.2649274830e+01    0.4537057    0.3423495  58.99   0.00202999    1.688    0.407
       127 -10.2393     34.2403     97.7403   8.2985781201e+01   5.4162276532e+01    0.3685343    0.1999565 -44.02  0.001609217    1.748    0.428
       128  -9.6843      9.8929     99.3054   9.4140730345e+01   5.5958972132e+01    0.1907133    0.1806788  72.90 0.0004931351    1.225    0.184
       129 -11.9726     62.2836     98.8477   7.1688066090e+01   5.0036151769e+01    0.5389379    0.4236466 -14.28  0.002465823    1.392    0.282
       130 -10.0677     47.9161    100.1883   7.7778365892e+01   5.1855774108e+01    0.2039741     0.191259  34.72 0.0002842432    1.146    0.127
       131  -9.8481    144.4992     99.1023   4.7396598554e+01   3.3846138290e+01    0.2155181    0.1361388 -44.81  0.001018715    1.548    0.354
       132 -10.1773     22.0755     99.2390   8.8684982019e+01   5.5024288967e+01    0.2711354    0.1889094  38.54    0.0013523    1.592    0.372
       133  -9.9420     94.9836     97.9937   6.0017523784e+01   4.4307280554e+01    0.1763216    0.1693496  29.76 0.0009607446    1.009    0.009
       134 -10.7606     16.1446     96.9886   9.0884568822e+01   5.6087757688e+01    0.3706628    0.2121189   7.97  0.001711274    1.836    0.455
       135 -10.8677    241.2298     96.2656   3.2190803044e+01   1.6694053127e+01    0.1903668   0.06421127 -48.98 0.0008877022    2.399    0.583
       136  -9.4425     77.6222     93.7224   6.4595437394e+01   4.8545305279e+01      0.15587    0.1152757   1.02 0.0007006002    1.705    0.413
       137  -9.9389     52.8995     93.4925   7.3977884189e+01   5.2728366486e+01    0.2202372    0.1411791  28.31 0.0005436706    1.520    0.342
       138 -10.8231     38.1024     91.3105   7.9702560905e+01   5.5254050412e+01    0.2806928     0.198946 -50.94 0.0004075438    1.382    0.276
       139  -9.9464    231.6912     91.3258   3.2308038743e+01   1.8902014000e+01    0.1198607   0.07304902 -64.33 0.0003495032    1.655    0.396
       140 -11.3895    158.9900     89.5776   4.2209021012e+01   3.2566111977e+01    0.5559592     0.308607  49.06   0.00262583    1.900    0.474
       141 -10.0148     73.6636     90.9135   6.5211270744e+01   4.9874623044e+01     0.299641    0.1279707 -41.90  0.001091064    2.507    0.601
       142 -10.4200     56.4957     90.6266   7.1721838652e+01   5.2835310086e+01    0.2900791    0.1433685 -51.20 0.0007445338    2.051    0.512
       143 -10.4392     10.6930     90.8103   9.2158398024e+01   5.8026103725e+01    0.2270476    0.1680469 -10.88 0.0004827476    1.324    0.245
       144 -10.6434     21.9277     87.8852   8.6234243338e+01   5.7823463970e+01    0.4255641     0.185708 -56.24   0.00177391    2.079    0.519
       145 -10.5013     95.0431     88.6505   5.7375741003e+01   4.6229963972e+01    0.4211319    0.2383129  52.95  0.001599372    1.912    0.477
       146 -10.5209     84.0353     88.9934   6.1027777046e+01   4.8341655351e+01    0.3636485    0.2190872  36.62  0.001178187    1.618    0.382
       147 -10.2443     78.1988     87.3909   6.2567868210e+01   4.9787378418e+01    0.3318487    0.2479702  74.74  0.001474003    1.958    0.489
       148  -9.2546     62.4939     82.4712   6.6950540657e+01   5.3638346780e+01    0.2176787    0.1335026  43.50 0.0003702251    1.666    0.400
       149 -10.0397     65.6589     87.3345   6.7162209974e+01   5.2058627326e+01    0.2773545    0.2326003 -88.07 0.0008134445    1.602    0.376
       150 -11.2212     66.3490     84.3167   6.6006431889e+01   5.2583844695e+01    0.5221832    0.3046045  13.92  0.002040427    2.486    0.598
       151 -10.5235    250.2456     86.9916   2.9687387497e+01   1.6710036031e+01    0.1475387   0.07191259 -44.18 0.0005147908    1.566    0.362
       152 -10.1718     39.4661     86.3947   7.7795920086e+01   5.6228307304e+01    0.3237879    0.1626907  34.45  0.001115244    1.970    0.492
       153 -10.2436      9.5674     86.0194   9.1713973150e+01   5.9272989998e+01    0.3133432    0.1771201  41.41 0.0008327159    2.139    0.533
       154 -10.3799      7.4350     81.4937   9.1800579239e+01   6.0502484886e+01    0.3318577    0.2061212 -31.06  0.001692781    1.484    0.326
       155 -10.6468    156.9487     83.5469   4.1135483240e+01   3.4025518830e+01    0.3754911    0.3287022 -31.00  0.002225575    1.296    0.228
       156  -9.9952    107.1325     84.6480   5.2686169470e+01   4.4502747336e+01    0.2026407    0.1731811  44.63  0.000364005    1.128    0.113
       157 -10.4458    167.4951     83.0428   3.9185103527e+01   3.1923895015e+01    0.4107964    0.2113436  70.62  0.001767968    2.541    0.606
       158 -11.6060     31.2183     81.2208   8.0166557540e+01   5.8416585803e+01    0.5905147    0.3587894 -14.07  0.001623588    1.933    0.483
       159  -9.9922    247.3086     84.6824   2.9561295219e+01   1.7472474082e+01     0.113888   0.06617852 -62.97 0.0007031755    1.636    0.389
       160 -10.7079     42.9519     82.6560   7.5201774957e+01   5.6612201084e+01    0.2931652    0.2515678  54.81   0.00143085    1.425    0.298
       161  -9.5172     16.4544     83.4995   8.7820338086e+01   5.9352947249e+01    0.1418392    0.1205128 -27.51 0.0006020752    1.038    0.036
       162 -10.6413     75.7461     82.0534   6.1846186472e+01   5.1346433506e+01    0.4875131    0.2188168  45.53  0.001877557    2.240    0.554
       163 -10.6894     21.9154     80.8801   8.4528247095e+01   5.9477224016e+01    0.2289087     0.169763 -26.22 0.0008361908    1.259    0.206
       164 -10.0650     84.1427     79.3477   5.8124802647e+01   5.0258639523e+01    0.2274262    0.1950614 -23.19 0.0004781896    1.255    0.203
       165 -11.2845     99.9937     76.8477   5.2442708473e+01   4.7468540019e+01     0.331397    0.2856885  77.20 0.0009494959    1.302    0.232
       166 -11.4177     21.7501     75.0368   8.3079789394e+01   6.0828972005e+01    0.3086472    0.2394943 -52.17  0.001187752    1.299    0.230
       167  -9.2776     70.2655     76.3190   6.2077056892e+01   5.3515535213e+01    0.1433307    0.1097234  -5.61 0.0001997096    1.554    0.357
       168 -11.7740     54.1173     72.1044   6.7141058985e+01   5.7173192328e+01    0.5504599    0.4432662  78.29  0.001078474    1.869    0.465
       169 -12.6434     50.2506     68.4366   6.7606941384e+01   5.8528930542e+01    0.9097316    0.4048834  46.82 0.0005007891    2.777    0.640
       170 -11.7088     44.5887     74.7798   7.2132496575e+01   5.8092127404e+01    0.2872345    0.2166429  32.20 0.0003228151    1.297    0.229
       171 -12.0262    167.7404     73.4255   3.6905303772e+01   3.3419672987e+01    0.2328103    0.1971989 -68.46 0.0002916683    1.077    0.071
       172 -13.8284     16.5660     67.3384   8.3617692952e+01   6.3028102157e+01    0.5440475    0.3690375 -31.85 0.0007891616    1.347    0.258
       173 -11.5687      5.9575     72.9415   9.0642983677e+01   6.2600868571e+01    0.6142502    0.2754897  13.39  0.002740835    2.220    0.550
       174  -9.9338      6.4732     68.0272   8.9184326828e+01   6.3682358928e+01    0.2985874    0.1722436 -71.47  0.001442021    2.080    0.519
       175  -9.7607     54.1862     85.9811   7.1343797264e+01   5.4231603363e+01    0.1893616    0.1756486 -13.83            0    1.043    0.041
       176 -10.8898     88.2216     77.4489   5.6212317786e+01   4.9803003839e+01     0.262436    0.2484078  74.69 4.008968e-05    1.154    0.134
       177  -9.5482    186.9606     68.9557   3.3149099367e+01   3.0214894644e+01    0.1428271    0.1225695 -84.78            0    1.087    0.080
       178 -10.6672    140.0063     66.3999   3.9976174566e+01   4.0465427467e+01    0.2789331    0.2395542  59.25  0.001087188    1.148    0.129
       179 -11.4876    122.7319     67.2552   4.3810168026e+01   4.4156982437e+01    0.2412163    0.2232189 -84.94 0.0002632062    1.075    0.070
       180  -9.8730     35.5032     68.0199   7.4240250866e+01   6.0763889272e+01    0.1721842    0.1274105 -89.50 0.0008076133    2.367    0.577
       181 -11.8303    155.9225     63.7486   3.6478910138e+01   3.7398935023e+01    0.2788004    0.2280861 -79.98 0.0003027423    1.170    0.145
       182 -12.6300     12.4147     47.6793   7.9816597198e+01   6.7470907543e+01    0.5284492    0.3374392 -66.79 0.0005313858    2.221    0.550
       183 -11.8355      2.5226     62.5697   8.9977239674e+01   6.5151657880e+01    0.8096018     0.349693 -57.66  0.003738757    2.075    0.518
       184 -10.0729     10.5244     61.5325   8.5239505610e+01   6.4804899517e+01    0.3022527    0.2077514  36.26  0.001319999    1.686    0.407
       185 -11.0264     12.0635     57.1820   8.3098662601e+01   6.5593482235e+01    0.3232968    0.2703328  63.81  0.001325537    1.738    0.425
       186 -11.9543      4.3595     49.3677   8.5191943358e+01   6.7817023582e+01    0.6831352    0.5125749 -69.29  0.004039984    1.719    0.418
       187 -10.1705      7.0579     41.0968   8.0766305355e+01   6.9218102828e+01    0.3873773    0.1469637 -46.74  0.001371703    2.355    0.575
       188 -10.5480    106.0750     64.0079   4.6908583036e+01   4.8367721346e+01    0.2050109    0.1900665  53.88  0.001208624    1.018    0.018
       189 -11.0031     32.5276     63.5933   7.4271786532e+01   6.2058671444e+01    0.4366655    0.3177996 -16.52  0.001171885    1.374    0.272
       190 -11.0359     28.6222     60.9931   7.5388832628e+01   6.3074142901e+01    0.5746147    0.2713054  18.47  0.002045999    2.219    0.549
       191 -10.4546    202.1121     62.3938   2.9955582753e+01   2.8251037475e+01    0.1819086    0.1425169 -45.89  0.001212654    1.252    0.201
       192 -10.5240     76.7310     62.4175   5.5235979263e+01   5.4841706507e+01    0.2712529    0.2172118   6.23  0.000606555    1.438    0.305
       193  -9.4377    161.8682     61.8094   3.5065629480e+01   3.6412884055e+01    0.1755238     0.133212 -71.92  0.000342875    1.285    0.222
       194 -10.8128    120.0962     60.7317   4.2544112176e+01   4.5770506089e+01    0.4788215    0.2146921  61.08  0.001955286    2.289    0.563
       195 -10.6724    114.9794     60.1492   4.3548431979e+01   4.7003367253e+01    0.2856625     0.172735  43.52  0.001275449    1.694    0.410
       196 -10.1114     98.3503     60.2461   4.7823973729e+01   5.0662755124e+01     0.221302    0.1769247 -54.46 0.0007314695    1.407    0.289
       197 -11.2049     90.7365     60.9136   5.0231277082e+01   5.2195585844e+01    0.3817537    0.1722565  48.42  0.001582167    2.018    0.504
       198 -11.5353     46.4914     60.3333   6.6533586297e+01   6.0688497329e+01    0.3372062    0.2552432  -9.31 0.0007375319    1.401    0.286
       199 -10.1116    169.0006     59.9187   3.3565343776e+01   3.5181253169e+01    0.1864993    0.1637904 -77.55 0.0003880613    1.022    0.022
       200 -10.9318    135.0754     58.0970   3.8704857517e+01   4.2814889403e+01    0.2617902    0.1908836  78.98 0.0006305759    1.403    0.287
       201 -11.2190     58.0631     59.1061   6.1120842016e+01   5.8963660674e+01    0.3785672    0.2675306  21.47  0.001137292    1.432    0.302
       202  -9.7813    127.4613     58.5744   4.0347632104e+01   4.4447234197e+01    0.1345648    0.1220231  72.05 4.741867e-05    1.018    0.018
       203 -11.2582     80.6625     56.1328   5.1795734428e+01   5.5085907526e+01    0.4182592    0.2786437  -2.88  0.001591267    2.365    0.577
       204  -9.3798     38.6505     57.7383   6.9286122792e+01   6.2367868741e+01    0.1403006    0.0963899  -1.39 0.0003017647    1.608    0.378
       205 -10.2591     74.9373     55.9155   5.3642452680e+01   5.6291013414e+01    0.2189849    0.1968739  -8.01  0.000665342    1.188    0.159
       206 -12.6241    104.7899     52.4275   4.3673108660e+01   5.0434998229e+01    0.3523101     0.314155  74.39 0.0004166833    1.109    0.098
       207 -12.8662     38.2741     49.7229   6.6552267366e+01   6.3888595566e+01     0.778758    0.5909073  17.23  0.004491622    1.184    0.155
       208 -11.1493     36.6378     40.0866   6.3583958884e+01   6.5763656891e+01    0.9241652    0.4663281 -12.35  0.003085625    4.799    0.792
       209 -11.6095     44.6255     43.4237   6.1099852037e+01   6.3938484628e+01    0.4059784    0.3289284 -70.60  0.001632077    1.966    0.491
       210 -11.7152     44.8585     38.1590   5.8871306441e+01   6.4718287716e+01    0.2632201     0.224626  43.04  0.001632962    1.273    0.214
       211 -10.5393     89.2432     54.1859   4.8473418737e+01   5.3580587109e+01    0.2602237    0.1764812  75.69   0.00120614    2.039    0.510
       212 -10.2269     89.1617     50.1936   4.7164498825e+01   5.4198434511e+01    0.2505698    0.2112394  36.50  0.001460205    1.147    0.128
       213 -10.8689     27.8953     53.3790   7.3167641217e+01   6.4657464573e+01    0.4022365    0.2346842  11.65 0.0005938302    1.793    0.442
       214 -10.2919     27.4097     48.7351   7.1742690359e+01   6.5587588150e+01    0.3166628     0.224411 -55.31  0.001746344    1.767    0.434
       215 -10.0998    153.3796     53.0485   3.4230789338e+01   3.9490077098e+01    0.3508398    0.1394209  53.11  0.001504362    2.514    0.602
       216 -11.2761    128.7385     50.7158   3.7890299801e+01   4.5289992046e+01    0.8237242    0.3045793  62.43  0.002553494    2.646    0.622
       217  -9.7986    129.7062     46.3406   3.6481379722e+01   4.5666156780e+01    0.2101861    0.1227183  64.81  0.001011265    1.572    0.364
       218  -9.8125    120.0028     52.2602   4.0108240234e+01   4.7043132351e+01    0.2088762    0.1355322  36.36 0.0007884009    1.887    0.470
       219 -10.4083     56.5693     51.3217   5.8926300380e+01   6.0569185639e+01    0.3370338    0.1330591 -45.29  0.001335257    2.917    0.657
       220  -9.7601     73.5215     50.6042   5.2267345158e+01   5.7420047961e+01    0.2717136    0.1828714   5.25  0.001110497    2.180    0.541
       221 -11.8242     52.2464     46.1467   5.8785880358e+01   6.2186778285e+01    0.5794889    0.3791999 -24.56  0.003019236    1.748    0.428
       222 -10.6589     78.3424     47.3873   4.9515830343e+01   5.6912444122e+01    0.3852161    0.2012781 -40.27  0.001275818    2.147    0.534
       223  -9.7051     82.5145     47.4907   4.8233784442e+01   5.6018390729e+01    0.1370038    0.1211287  43.52 0.0008104413    1.005    0.005
       224  -9.5386    143.1901     45.8061   3.3995614277e+01   4.2712365206e+01    0.1609875    0.1463121  44.03 0.0005738594    1.308    0.236
       225 -10.8706    112.6395     45.2709   3.9621833830e+01   4.9671146827e+01    0.2730564    0.2169234  33.46  0.001212055    1.446    0.308
       226  -9.9652    104.4364     46.2003   4.1802194806e+01   5.1393803874e+01    0.2131437    0.1509694  64.28 0.0005763866    1.326    0.246
       227  -9.6873     91.7714     45.5775   4.4872858414e+01   5.4291378625e+01    0.1852424    0.1205114  63.30 0.0003288733    1.549    0.354
       228 -10.1004     14.0215     34.4967   7.3886167449e+01   6.9720731604e+01    0.2011559    0.1453639 -10.86 0.0004667219    1.238    0.192
       229 -11.2180     18.1907     30.9412   6.9841227060e+01   6.9824143256e+01    0.5049432    0.3756241  41.76  0.003056388    1.670    0.401
       230 -10.8096     23.9880     42.2737   7.1150767939e+01   6.7185223697e+01    0.4267299    0.2902178 -46.33   0.00141157    1.633    0.388
       231 -13.0584     27.6421     37.8486   6.7353951269e+01   6.7452733805e+01    0.3122956    0.2748956  -3.04 0.0004671537    1.125    0.111
       232 -12.0598     24.5607     34.5208   6.7667682651e+01   6.8418477706e+01    0.2404905    0.1819671   6.27 8.976139e-05    1.155    0.134
       233 -10.9990     96.4064     42.5892   4.2638513638e+01   5.3675052691e+01    0.2908179    0.2145742  27.88 0.0007922881    1.593    0.372
       234 -10.7786     67.0667     42.2382   5.1475868483e+01   5.9969176555e+01     0.313657    0.1929639 -31.37  0.001379424    1.853    0.460
       235  -9.9873     72.6219     42.5520   4.9659234354e+01   5.8796675057e+01    0.2935522    0.2158676 -58.57  0.001147588    1.837    0.456
       236 -11.0767     89.3890     41.3748   4.4105239654e+01   5.5386176468e+01    0.2769474    0.2057557  45.24 0.0008095836    1.214    0.177
       237 -10.5360     80.3863     41.9438   4.6934922175e+01   5.7255184046e+01    0.3034396    0.2035005  42.75 0.0009056848    1.337    0.252
       238 -11.8806     83.1172     36.2171   4.4072112363e+01   5.7425107442e+01    0.7331669     0.248639  43.86  0.002754298    2.882    0.653
       239 -11.5915     77.8232     32.8830   4.4419994217e+01   5.8983687383e+01     0.487368    0.2655589  59.71 0.0004564838    1.776    0.437
       240 -10.0077     18.0093     42.6462   7.4706107905e+01   6.7835357256e+01    0.2341389    0.1093033  17.17  0.001060731    2.157    0.536
       241 -10.6198    130.6575     40.4993   3.4677134013e+01   4.6206964505e+01    0.2315664    0.1619671 -30.20 0.0006895838    1.694    0.410
       242 -10.0155     60.3649     40.9491   5.3476631138e+01   6.1472525160e+01    0.2871425    0.1517206  31.60  0.001077588    1.998    0.499
       243 -10.4888    235.9270     39.8465   2.2689206108e+01   2.5208787915e+01    0.1455143    0.1238046 -64.86 0.0004496539    1.246    0.197
       244 -10.0229    226.4003     40.1802   2.3448065497e+01   2.6779986910e+01    0.1586931   0.07418109 -50.59  0.000611083    1.669    0.401
       245  -9.6538    168.3733     40.1549   2.9048992542e+01   3.7959537981e+01    0.1728805   0.09424403 -51.23  0.000493105    1.729    0.422
       246  -9.6593    148.4689     38.9835   3.1419232909e+01   4.2410356004e+01    0.1813683    0.0858473 -57.69 0.0003886434    2.461    0.594
       247 -12.2236     57.6068     34.3312   5.1924450752e+01   6.2933328035e+01    0.4238411    0.3143187  19.83 0.0002491321    1.382    0.276
       248  -9.7959    159.3247     38.1422   2.9714215675e+01   4.0141575926e+01    0.1638083     0.137201 -77.38 0.0003872027    1.052    0.049
       249 -11.1353    248.1678     36.2812   2.1266962124e+01   2.3654966823e+01    0.1782438    0.1190575 -57.53 0.0003497618    1.085    0.078
       250 -10.6863     66.5747     36.5610   4.9485261459e+01   6.0857667460e+01    0.3580652    0.1631965  49.35  0.001615409    1.919    0.479
       251  -9.8271      1.6025     37.0694   8.2829825133e+01   7.0421630522e+01    0.1769547     0.133213 -27.42 0.0009482771    1.139    0.122
       252  -9.5092    194.3284     36.2205   2.5400553568e+01   3.3161328986e+01    0.1572728   0.08600231 -48.98 0.0005999382    1.586    0.370
       253  -9.5973    135.0385     34.9681   3.2413870744e+01   4.5894636071e+01    0.2045026    0.1350248 -75.42 0.0008320413    1.674    0.402
       254 -11.2410    111.0904     34.6984   3.6706151443e+01   5.1361839522e+01    0.2790101    0.1930698  58.41 0.0008003187    1.257    0.205
       255 -10.9910     79.1548     28.8797   4.2542410188e+01   5.9176987554e+01    0.2916854    0.2276973  18.94 0.0002524409    1.469    0.319
       256 -11.7265      8.3752     31.4340   7.6212308457e+01   7.0841137505e+01    0.3871135    0.3256288 -35.08  0.001798882    1.316    0.240
       257  -9.5647    177.8146     34.2167   2.6626545585e+01   3.6712821346e+01    0.1463391    0.1387401  63.25  0.001063825    1.372    0.271
       258  -9.6262    140.7777     33.8431   3.1220305022e+01   4.4739639061e+01     0.167218    0.1277303 -77.66 0.0004162634    1.263    0.208
       259 -11.2033    122.3291     33.2191   3.4086673323e+01   4.8979349926e+01    0.3748708    0.2224502  69.16  0.001528129    1.522    0.343
       260 -10.3527     32.8559     33.0706   6.2559619806e+01   6.7444259880e+01    0.4008471    0.1975696  48.54  0.001780354    2.655    0.623
       261 -11.0800    221.5894     31.5888   2.2245518698e+01   2.8645375133e+01    0.2220336     0.132464 -58.59 0.0001205294    1.312    0.238
       262 -10.6901     99.4946     31.8692   3.8336057935e+01   5.4322909616e+01    0.3276521    0.2136983  82.42  0.001686147    1.831    0.454
       263 -10.7524    101.3837     28.5489   3.6817630174e+01   5.4275557666e+01      0.30276    0.2339228  83.06  0.000929053    1.332    0.249
       264 -10.0856    207.9808     30.9693   2.3167442600e+01   3.1182851159e+01     0.140774    0.1296728  58.40 0.0004324642    1.547    0.354
       265 -11.3619     74.5378     35.5797   4.6442159534e+01   5.9341192274e+01    0.3276285    0.2570996 -69.88 0.0005415856    1.764    0.433
       266 -11.0003     49.4344     29.1531   5.3080342623e+01   6.5170289354e+01    0.3081211    0.2110244 -18.19  0.001184517    1.684    0.406
       267  -9.8918      1.4150     30.9200   8.0655346735e+01   7.1561541850e+01    0.1616425    0.1067128 -42.75 0.0003146214    1.463    0.317
       268 -10.8633    144.9495     30.0191   2.9617269997e+01   4.4252005637e+01    0.1885481    0.1730254 -59.88            0    1.206    0.171
       269 -11.2213    234.6644     28.6539   2.0833432137e+01   2.6736945203e+01    0.2277219   0.08971293 -46.26  0.001349271    1.914    0.477
       270 -12.2611    156.7773     28.2394   2.7633142535e+01   4.1855974176e+01    0.2287538    0.1837155 -84.50 0.0003483155    1.055    0.052
       271 -11.7632    246.0341     27.5164   1.9947069526e+01   2.5006816769e+01    0.3005255    0.1442964  78.02   0.00138667    2.123    0.529
       272 -10.6634    197.7901     28.0700   2.3435551108e+01   3.3447161001e+01    0.1955952    0.1373119  88.40 0.0006351551    1.251    0.200
       273  -9.8474    247.3332    249.6965   5.6920840547e+01  -7.7031357106e+00   0.08796326    0.0785283 -20.34 0.0007036895    1.659    0.397
       274 -10.8166    226.2112     23.9138   2.0548420116e+01   2.8713571087e+01     0.322341    0.1114082 -49.59  0.001786308    2.164    0.538
       275 -10.7295    216.0445     25.3604   2.1499408055e+01   3.0349040679e+01    0.2337813    0.1470075  67.46 0.0009268709    1.714    0.417
       276 -11.1412    224.5351    247.6516   6.0363814458e+01  -5.5156743582e+00    0.3279246   0.08583817 -41.59  0.001443415    3.144    0.682
       277 -10.4570    128.9316     24.8184   3.0571886810e+01   4.8419024642e+01    0.3217207    0.1903454 -71.90 0.0007141813    2.008    0.502
       278  -9.8863    160.4977    249.4864   7.3027911088e+01   6.6630623533e-01    0.1303141    0.1022382  -3.99 5.747391e-05    1.040    0.039
       279 -10.0848     83.6375    248.2579   9.0761211935e+01   1.0021842112e+01    0.2558953    0.1352373  37.55  0.000845377    1.685    0.406
       280 -10.8105      1.7102     25.6584   7.8311102333e+01   7.2453190350e+01    0.2373635    0.1599452  -4.75  0.001471942    1.259    0.206
       281 -10.3401      1.7113     22.6623   7.7014770225e+01   7.2954832514e+01      0.19606    0.1381997 -12.95 0.0005603726    1.188    0.158
       282  -9.9879     71.9610     25.3322   4.3341284531e+01   6.1126089795e+01    0.3255299    0.1226809  49.78  0.001407471    2.149    0.535
       283 -10.7027     21.9985     24.3623   6.4610019488e+01   7.0333525776e+01    0.2828431    0.1625278  13.70  0.001157266    1.829    0.453
       284 -10.7201      9.5543     24.7320   7.2546065338e+01   7.1831966824e+01    0.4078005    0.1818098  17.98  0.001571552    2.181    0.541
       285 -10.1705    161.5162     20.5089   2.5241039477e+01   4.1675474636e+01    0.1827081    0.1166778 -30.17 0.0001659417    1.886    0.470
       286 -10.1783     54.8552     23.6077   4.8522463275e+01   6.4825499955e+01    0.2895612    0.2118597  74.44  0.001381354    1.996    0.499
       287 -12.0507     60.1811     21.3193   4.5596961815e+01   6.4023586478e+01    0.5710033    0.2359062  53.29  0.001490579    2.090    0.522
       288 -10.8957     83.3704     22.0525   3.8868184708e+01   5.9009554311e+01    0.3616546     0.257029 -80.14  0.001477981    1.924    0.480
       289 -10.0351     87.2148     20.1673   3.7219356263e+01   5.8351283625e+01    0.2386499    0.1510087  61.05 0.0006292326    1.333    0.250
       290  -9.9762     99.6524     20.6044   3.4566934590e+01   5.5511338308e+01    0.2752023    0.1349624 -55.21 0.0009807424    2.892    0.654
       291 -10.0102     34.5111     21.7813   5.6617231739e+01   6.8762274706e+01    0.2597181    0.1941349 -35.18  0.001622733    1.585    0.369
       292  -9.9009    159.7474     24.0223   2.6268761105e+01   4.1679727523e+01    0.2158594    0.1210554 -32.42  0.001205936    2.036    0.509
       293  -9.8656    192.9771     21.0273   2.2413339975e+01   3.5167053954e+01     0.135553    0.1044345 -75.62 0.0004039314    1.006    0.006
       294  -9.2631    155.6955     21.7103   2.6174229041e+01   4.2802504729e+01    0.1113373   0.08474487  49.85 0.0003116129    1.570    0.363
       295  -9.7070     74.6398     21.2598   4.0961365827e+01   6.0997467187e+01    0.2746187    0.1758531 -49.42  0.001057675    2.033    0.508
       296  -9.8256    138.2259    247.0265   7.7601934145e+01   3.6936049469e+00    0.1569746     0.104096 -44.96  0.000547191    1.595    0.373
       297 -11.4219     28.4347    245.3656   1.0400396049e+02   1.6662411294e+01    0.3395901     0.231977 -89.18  0.001946236    1.568    0.362
       298 -11.1584    232.1655    245.8629   5.8804231753e+01  -5.9213120530e+00    0.1652361   0.09744295 -19.05  0.001079243    1.343    0.256
       299 -10.1095    124.8384    245.8237   8.0532370291e+01   5.5346986507e+00    0.1749933    0.1474719  36.71   0.00045795    1.304    0.233
       300 -10.7513     72.8528    244.8919   9.3063536557e+01   1.1996716318e+01    0.3144396    0.2255226  20.27  0.001373165    1.275    0.216
       301  -9.9445     24.1710     20.1699   6.1356717727e+01   7.0610519332e+01    0.2380061    0.1467071  44.28 0.0009309581    1.780    0.438
       302 -12.2501     75.3105    238.4129   9.1759890809e+01   1.3113677348e+01    0.6201391    0.5408032 -35.46  0.003574837    1.251    0.201
       303  -9.5485    102.3074    243.6514   8.5651491624e+01   8.7260170045e+00    0.1361872   0.09750346  54.02 0.0007043342    1.705    0.414
       304  -9.6149     88.7749    240.9525   8.8665874080e+01   1.0944323501e+01    0.1670494    0.1130556 -58.20 0.0008724021    1.651    0.394
       305 -10.5108     41.4696     19.1527   5.2085907076e+01   6.7875557316e+01    0.2464475    0.1881511  38.57  0.001105932    1.124    0.110
       306 -10.1055    195.2304    238.5553   6.4304281491e+01  -1.2733442095e+00    0.2244717    0.1456174 -35.15 0.0009528687    1.374    0.272
       307 -11.4518     18.4303    237.0443   1.0588129358e+02   1.9465587643e+01    0.5271894    0.2201883  40.56  0.002443812    1.986    0.496
       308 -10.0792    108.1775     17.5873   3.1922412283e+01   5.3872414884e+01    0.2028722    0.1791678  -6.97  0.001029393    1.444    0.307
       309 -10.5702    194.1073     16.5482   2.1419770769e+01   3.5425461372e+01    0.2333091    0.1366322 -88.76  0.001493258    1.496    0.332
       310 -10.0538    103.4267     17.0458   3.2640820674e+01   5.5004580885e+01    0.1828258    0.1391854  68.42 0.0003128384    1.100    0.090
       311  -9.6186    134.6769    237.6495   7.7089946583e+01   5.9150977420e+00    0.1449125   0.09182957 -15.08 0.0007048472    1.750    0.429
       312 -11.0316    169.2754     15.3865   2.3281811945e+01   4.0562852155e+01    0.1908438     0.144877 -49.23  0.000521574    1.333    0.250
       313  -9.7039    143.3780     16.3593   2.6295928336e+01   4.6049577076e+01     0.167513    0.1233579  47.71 0.0006153574    1.594    0.373
       314  -9.7523    123.3676     26.2844   3.1889770026e+01   4.9523609761e+01    0.1638386    0.1083572 -48.89 0.0004802471    1.627    0.386
       315  -9.1523    119.2411     16.6607   2.9750597738e+01   5.1444788826e+01    0.1196869   0.08303967 -68.57  0.000186358    1.554    0.357
       316  -9.2924    113.3087     16.2511   3.0603135858e+01   5.2832834337e+01     0.121404   0.08021406  48.42 0.0001462791    1.512    0.339
       317 -11.2925    160.3792    235.2356   7.0931423157e+01   3.2284925576e+00    0.2670473    0.1769376  -7.14  0.000809853    1.495    0.331
       318 -11.2145    183.0207    234.3161   6.6045341063e+01   7.6502982673e-01    0.3978415    0.2378651  22.25  0.002165236    1.601    0.375
       319 -11.5114    184.9844    228.3815   6.4711363350e+01   1.5733336302e+00    0.5343112    0.2300871 -26.88    0.0022508    2.758    0.637
       320  -9.3181     45.4194    244.4798   9.9812747479e+01   1.5136987722e+01    0.1309697    0.1134049  43.87 0.0001550247    1.035    0.033
       321 -11.3886     29.9582    234.0625   1.0283669480e+02   1.9058921409e+01    0.4100369    0.2130985  63.97  0.001896501    2.140    0.533
       322  -9.6638     23.9860    232.0515   1.0418564775e+02   2.0096912963e+01    0.1963894    0.1473409 -34.09 0.0005910368    1.639    0.390
       323  -9.1371    159.2685     15.6884   2.4339886040e+01   4.2652239071e+01    0.1192072   0.07293253 -68.29 0.0002355799    1.545    0.353
       324 -10.0817    151.8194    228.3630   7.1762493942e+01   5.5724924380e+00     0.207598    0.1812725 -41.48 0.0007131423    1.298    0.230
       325 -10.1415    166.5160    232.9047   6.9248393220e+01   2.9225317898e+00    0.1913434    0.1164753 -40.85  0.001025077    1.573    0.364
       326 -10.6580      3.7239    226.3033   1.0885145269e+02   2.3209354529e+01    0.2975543    0.1452985 -80.72  0.001443873    2.021    0.505
       327 -10.0634    191.1074    226.6614   6.3224705094e+01   1.1768628527e+00    0.2143402    0.1597343 -41.28  0.001325212    1.395    0.283
       328 -10.7204     87.0079    232.9840   8.8160003082e+01   1.2888515913e+01    0.2649161    0.1758196  34.68  0.001355998    1.369    0.270
       329 -11.4445     13.9665    222.2090   1.0605299348e+02   2.3323294729e+01    0.3618731    0.2320465   6.48   0.00121622    1.845    0.458
       330  -9.3567    230.2500    221.6478   5.5377928661e+01  -2.1160939579e+00     0.101498   0.08241647 -45.65 0.0006635084    1.593    0.372
       331  -9.5666    126.3330    220.6511   7.6555334514e+01   1.0456626898e+01    0.1399383    0.1080107  58.93 0.0007048199    1.773    0.436
       332  -9.0974     77.3085    220.3158   8.9134758828e+01   1.6982393468e+01     0.145664    0.1045597 -21.72 0.0002866197    1.632    0.387
       333  -9.6950     42.3385    220.6723   9.8529890930e+01   2.0959021968e+01     0.151768   0.09066691  54.99 0.0007051742    1.731    0.422
       334  -9.7953    181.3436     19.8962   2.3167632311e+01   3.7606429582e+01    0.1513624    0.1214759 -63.96 0.0004683914    1.136    0.120
       335 -10.0107     21.5252    220.0224   1.0395867138e+02   2.3175011297e+01    0.1954019    0.1268795 -78.33 0.0006631686    1.557    0.358
       336  -9.8248    211.6056    218.7538   5.8107907060e+01   2.5601156857e-01    0.2273379    0.0945519 -39.99  0.001117328    2.000    0.500
       337  -9.3906    120.5909    219.4952   7.7796599953e+01   1.1476541435e+01    0.1428085    0.1247762  -5.91 0.0002806395    1.060    0.057
       338  -9.8216     50.5901    218.1780   9.6075583749e+01   2.0666205462e+01    0.2020956     0.121116 -54.49 0.0009566912    1.746    0.427
       339 -12.5513      4.7493    208.1288   1.0755163215e+02   2.7514074773e+01    0.6534192    0.4046375  79.12  0.003042471    1.590    0.371
       340 -11.3030     14.0804    215.4996   1.0558061897e+02   2.4936014644e+01    0.3018177    0.1298787  18.22  0.001275557    2.441    0.590
       341 -11.8747     11.8332    209.7115   1.0577917296e+02   2.6552496410e+01    0.5825669    0.2481503  84.80  0.002309302    2.767    0.639
       342  -9.5467    136.3049    216.3145   7.3459620236e+01   1.0024652843e+01    0.1465002    0.0988422 -15.41 0.0003211656    1.621    0.383
       343 -10.9778     29.2741    215.5560   1.0156686670e+02   2.3533067832e+01    0.2579187     0.246141  44.35  0.001033251    1.057    0.054
       344 -10.4127     24.0303    216.0457   1.0300236510e+02   2.3911548588e+01    0.2060381    0.1823059  62.00 0.0004312936    1.049    0.047
       345  -9.5993    110.2388    212.0386   7.9289499715e+01   1.4540920223e+01    0.1837243    0.1204433 -52.43 0.0008737887    1.588    0.370
       346  -9.6522     20.3032    211.6252   1.0365618871e+02   2.5343557003e+01    0.1509065   0.08666943  58.73 0.0007029372    1.762    0.432
       347  -9.8135     64.5090     12.9810   4.0668861470e+01   6.3984694468e+01    0.1912958    0.1319897  42.00 0.0006109696    1.238    0.192
       348 -10.1784    217.3625    209.4129   5.5560125380e+01   1.1826370546e+00    0.2457368   0.07528685 -34.74 0.0009534947    3.195    0.687
       349 -10.8007    236.9790    209.0189   5.2268606402e+01  -8.0700710117e-01     0.187488    0.1061428 -21.04 0.0005958471    1.657    0.397
       350 -10.1856    247.5877    205.2175   5.0039722429e+01  -1.2599590532e+00    0.1690526   0.07783704 -33.80 0.0009542744    1.677    0.404
       351 -10.7811    175.3076    202.3387   6.2333240163e+01   7.5633892280e+00    0.2282888    0.2033754  -8.91 0.0004742598    1.093    0.085
       352 -11.0147     19.9661    200.5448   1.0287208157e+02   2.8167888315e+01    0.5386377    0.1768169 -65.35  0.002028252    2.729    0.634
       353  -9.8111     67.3301    202.7212   8.9646209435e+01   2.2508182489e+01    0.1525572    0.1042579  54.01 0.0001609798    1.601    0.375
       354  -9.5066    238.3071    200.6947   5.0706212165e+01   3.7066138208e-01    0.1011094    0.0849831 -52.43 0.0002956164    1.606    0.377
