#   1 NUMBER                 Running object number                                     
#   2 MAG_AUTO               Kron-like elliptical aperture magnitude                    [mag]
#   3 X_IMAGE                Object position along x                                    [pixel]
#   4 Y_IMAGE                Object position along y                                    [pixel]
#   5 X_WORLD                Barycenter position along world x axis                     [deg]
#   6 Y_WORLD                Barycenter position along world y axis                     [deg]
#   7 A_WORLD                Profile RMS along major axis (world units)                 [deg]
#   8 B_WORLD                Profile RMS along minor axis (world units)                 [deg]
#   9 THETA_WORLD            Position angle (CCW/world-x)                               [deg]
#  10 FWHM_WORLD             FWHM assuming a gaussian core                              [deg]
#  11 ELONGATION             A_IMAGE/B_IMAGE                                           
#  12 ELLIPTICITY            1 - B_IMAGE/A_IMAGE                                       
         1 -15.4017    191.9199     35.6991   3.5964524462e+02   3.2763594164e+01     2.946688     1.784318  74.22   0.01549945    1.698    0.411
         2 -16.2446    242.5805     65.1587   1.8650012871e+00   1.8692799571e+01     2.879072     1.194169 -40.63    0.0145884    1.800    0.444
         3 -15.2796    220.7405     54.2497   1.4380561103e+00   2.4208344100e+01     1.735048    0.8157935 -45.67  0.008112133    1.727    0.421
         4 -13.8023     81.2191     38.8000   2.2225840519e+01   5.9919019794e+01    0.8075207    0.4260353 -43.87  0.003387701    2.009    0.502
         5 -14.3423     44.5499     25.1636   3.1828029041e+01   6.9971765662e+01     1.192243    0.8295923 -34.30  0.006289166    1.471    0.320
         6 -16.4092    243.1646    111.4704   1.1523418242e+01   1.2198629279e+01     3.968875    0.9462129 -36.41   0.01508378    3.211    0.689
         7 -13.4933    240.0098     19.6177   3.5224768730e+02   2.4676873832e+01    0.8457293    0.3613252 -42.15  0.004301864    1.674    0.403
         8 -11.8961    223.8968     22.1075   3.5373450536e+02   2.7527970186e+01    0.3893653    0.2003596 -59.82  0.001915671    1.693    0.409
         9 -12.5758    229.1185     12.1839   3.5119557684e+02   2.7566335768e+01     0.637378    0.3876996 -17.21  0.003495908    2.113    0.527
        10 -13.1511    142.8559      3.9131   3.5512294686e+02   4.8312400681e+01    0.6631392    0.4127813  87.97  0.003040886    1.463    0.316
        11 -14.4525    161.0771     11.3751   3.5574048304e+02   4.2960615214e+01     1.724973    0.5879163  69.78   0.00686318    2.621    0.618
        12 -14.0965    157.9378      3.1371   3.5347659333e+02   4.4541772937e+01     1.180944    0.3666345  76.12  0.004486625    2.894    0.654
        13 -13.5257    169.7152      3.0186   3.5251294007e+02   4.1640229317e+01    0.5065482    0.3767864 -70.11  0.002710662    1.139    0.122
        14 -11.0332    192.4843      5.0212   3.5153002902e+02   3.6081109139e+01    0.1886695    0.1118594 -32.16  0.001037593    1.605    0.377
        15 -12.0424      2.3876      2.8497   5.2037733479e+01   7.9808990588e+01    0.2951261    0.2365317 -26.01  0.001964366    1.069    0.065
        16 -10.4834     86.4806      3.4867   3.4956778526e+00   6.3099990191e+01    0.1377983    0.1226188  67.08 0.0002246331    1.003    0.003
        17 -12.5783     40.0375     11.6357   2.6053324792e+01   7.2952179163e+01    0.5782548    0.3151581 -46.32  0.002710984    2.264    0.558
        18 -12.9085     93.8906    199.3600   5.8100050800e+01   2.0427373598e+01    0.5312935    0.2950068 -64.78  0.002502352    2.109    0.526
        19 -10.5495    250.5083    249.4904   3.4234550545e+01  -6.2004693697e+00    0.1485943   0.08000514 -37.05  0.001032593    2.257    0.557
        20 -14.2101    201.1346    177.1832   3.0811812887e+01   8.5434054718e+00    0.8845378      0.69349 -51.04  0.004617791    1.671    0.402
        21 -10.9705    123.3329    187.3254   4.9090365105e+01   1.8586451540e+01    0.1428566    0.1037983  -7.78 0.0007051112    1.711    0.415
        22 -11.2900    175.6396    180.1010   3.6182278912e+01   1.1825822665e+01    0.3178593    0.1750017  32.25  0.001438963    1.764    0.433
        23 -10.7813    146.9747    179.4977   4.2217165672e+01   1.6417390412e+01    0.2192884    0.1264847  34.50  0.001043848    1.624    0.384
        24 -11.7748    215.1862    207.1391   3.3496064953e+01   2.3510230855e+00    0.3519111    0.1462498  40.90  0.001719277    3.018    0.669
        25 -11.1966    177.4722    169.0323   3.3771679378e+01   1.3465785648e+01    0.2607112    0.1763851  17.77  0.001371638    1.584    0.369
        26 -10.3461    149.3052    167.6378   3.9537661745e+01   1.8347441697e+01    0.1370311    0.1130314  79.95 0.0007038375    1.734    0.423
        27 -11.8271    206.4474    163.8121   2.7387369740e+01   9.8736311009e+00    0.4690536    0.2254236 -34.60  0.002304755    1.878    0.467
        28 -12.1685    169.7107    162.7964   3.4155784897e+01   1.5849895951e+01    0.5383441    0.2924439 -35.82  0.002507753    1.840    0.456
        29 -12.7395    180.6088    161.6331   3.1723820839e+01   1.4263635861e+01    0.5130698    0.3096004 -15.31  0.002359622    2.183    0.542
        30 -13.3137    175.9715    160.9798   3.2518605009e+01   1.5141319184e+01    0.3867101    0.2883485  62.99  0.001998494    1.999    0.500
        31 -11.8495     96.5189    165.4961   5.2595230066e+01   2.7612348213e+01    0.1472592    0.1371782  43.89  0.000173357    1.005    0.005
        32 -12.2792    140.3431    162.4578   4.0650284148e+01   2.0920788098e+01    0.4298534    0.2134654  54.28  0.001569436    3.012    0.668
        33 -11.6373     82.3433    238.6964   6.4918860903e+01   1.4240052233e+01    0.3037562     0.125801  29.37  0.001459112    1.933    0.483
        34 -14.3085    227.7640    172.5815   2.5525860933e+01   5.5845140218e+00     1.019068     0.704574  31.11  0.006358935    1.569    0.363
        35 -14.7447    243.6085    222.5495   3.1368042928e+01  -2.6579196027e+00     1.106913     1.014309 -39.48  0.008911943    2.092    0.522
        36 -14.0572    176.8963    151.5998   3.0448669140e+01   1.6683982082e+01    0.7807488    0.6886153 -18.46  0.004042109    1.041    0.039
        37 -11.9939    162.5101    152.2840   3.3577270049e+01   1.9067433378e+01    0.3246725    0.2523113 -63.03  0.001685688    1.630    0.386
        38 -11.7715     86.0029    150.5049   5.3136080116e+01   3.2933728832e+01     0.334643    0.1993309 -87.17   0.00128719    2.489    0.598
        39 -12.8181    171.7253    140.8412   2.9228073363e+01   1.9593554710e+01    0.4108917    0.2724036 -24.11  0.001982016    1.672    0.402
        40 -12.3373    167.3642    138.8261   2.9690561034e+01   2.0779485602e+01    0.4059515    0.3330427  83.34  0.002013674    1.711    0.416
        41 -10.7222    164.5287    134.4897   2.9328072101e+01   2.2150533649e+01    0.2728491    0.2366385  85.37  0.001058924    1.475    0.322
        42 -10.8574    108.4718    141.4703   4.4807032145e+01   3.1295327021e+01    0.1522204    0.1467045  53.96 0.0003266752    1.020    0.020
        43 -11.4346     39.3139    140.6407   6.6789970764e+01   4.1933842473e+01    0.3668263    0.2383998  21.84  0.001735135    1.643    0.391
        44 -11.9298     80.7201    158.9914   5.6110662030e+01   3.1642472802e+01    0.3058968    0.1934943  -2.93   0.00119163    2.655    0.623
        45 -10.7719    101.8070    136.3943   4.5695813139e+01   3.3730166329e+01    0.2233242     0.147873  24.83 0.0009513267    1.712    0.416
        46 -12.4931    179.0334    133.6200   2.6196552976e+01   1.9594200920e+01    0.4436303    0.2014232 -38.71   0.00184486    2.073    0.518
        47 -12.0813    121.7949    125.6283   3.7584085685e+01   3.2466619571e+01      0.31236    0.2940843  25.91   0.00165103    1.089    0.082
        48 -11.5781    189.2567    130.2579   2.3542776681e+01   1.8327181624e+01     0.262053    0.1585017 -34.67  0.001283682    1.529    0.346
        49 -12.2306    129.5546    116.6729   3.3333797947e+01   3.2899356093e+01    0.2867637    0.2566124  31.76 0.0009712568    1.163    0.140
        50 -12.4092    149.5222    109.0787   2.6534167678e+01   3.0264555139e+01    0.6836456    0.3775579 -24.96  0.002487274    2.725    0.633
        51 -13.6883    144.6363    100.9749   2.5526889896e+01   3.2976330236e+01    0.9627153    0.5628663 -39.12  0.004083759    1.706    0.414
        52 -11.6262     94.5541    111.2639   4.2211088517e+01   4.1295578195e+01    0.3567403    0.2288683  85.60  0.001283325    2.665    0.625
        53 -11.9914    103.0241    105.6964   3.8073755870e+01   4.0959434679e+01     0.233234    0.2110736  43.18  0.001164677    1.108    0.098
        54 -12.7753    112.8371     99.9814   3.3549772103e+01   4.0220405105e+01    0.5389141    0.3622402 -52.19  0.002018564    1.504    0.335
        55 -12.5843     91.6686    101.1922   4.0548619345e+01   4.4340421751e+01    0.3607077    0.3186021  25.18  0.001793562    1.223    0.183
        56 -12.7880    151.8848     91.6007   2.1363350578e+01   3.3196824315e+01    0.3805515    0.3154727  56.92  0.001340743    1.250    0.200
        57 -12.5064     44.6381     90.2347   5.6156741645e+01   5.5039987087e+01    0.4809037    0.2598033  23.59  0.001982452    2.014    0.503
        58 -12.5780     13.6425     89.6093   7.0371788133e+01   5.8228203637e+01    0.4177747    0.2280871 -21.34  0.001802429    2.308    0.567
        59 -12.3285      2.6314     88.1894   7.5370978976e+01   5.9215379162e+01    0.3838875    0.3058714  73.76   0.00218714    1.236    0.191
        60 -12.1519    144.1530     80.9543   2.0008551359e+01   3.7018363585e+01    0.3627623    0.3257369 -68.09  0.001246977    1.099    0.090
        61 -12.5033    148.5131     79.4871   1.8644361421e+01   3.6261013936e+01    0.4964044    0.3275921 -64.17   0.00216598    1.807    0.447
        62 -13.9085     93.6689     78.8789   3.3235157820e+01   4.9168484605e+01    0.6991535    0.6195988 -35.92   0.00353569    1.189    0.159
        63 -12.2505    220.1105     76.8232   6.7372444400e+00   2.1182831407e+01    0.3135304    0.2065401 -63.72  0.001724249    1.673    0.402
        64 -12.4217    218.4051     70.8511   5.5498787799e+00   2.2370443871e+01    0.4146484     0.230931 -80.28  0.001861625    2.861    0.651
        65 -12.0318     74.6793     69.3526   3.7010577835e+01   5.5283503926e+01    0.3433466    0.2440872  41.88  0.001586731    1.399    0.285
        66 -12.5855     83.9821     68.7517   3.3223952854e+01   5.3492372728e+01    0.3762047    0.2814311  61.49  0.001740523    1.474    0.322
        67 -11.3093    199.1937     63.2689   5.9621716303e+00   2.7382005495e+01    0.3169723    0.1806302 -36.89  0.001573173    1.540    0.351
        68 -11.7096    132.3810     62.5418   1.6916073494e+01   4.3244799735e+01    0.3905365     0.129974 -41.21  0.001271629    2.870    0.652
        69 -12.2825    194.9772     57.0355   4.8868059010e+00   2.9196982848e+01    0.3861681    0.2927039  24.63  0.002052693    1.941    0.485
        70 -12.7195    198.9971     51.4150   2.9805268191e+00   2.9108944067e+01    0.4696749    0.2377008 -50.18  0.002227211    1.772    0.436
        71 -12.1596     84.7921     47.8049   2.4857114123e+01   5.7515243972e+01    0.5137475    0.2840582  49.80  0.002161312    1.740    0.425
        72 -12.3936    122.8536     46.4898   1.3541312886e+01   4.8332415587e+01    0.3610184    0.3213134  50.07  0.001934532    1.173    0.148
        73 -15.8814    247.0156    194.3228   2.6386264350e+01   3.7327642546e-01     3.105646    0.8320502 -34.85   0.01406105    3.120    0.680
        74 -12.3377    111.9033     37.3519   1.2636432897e+01   5.2537266334e+01    0.2681575    0.2035386 -49.63  0.001338757    1.355    0.262
        75 -11.8690    104.0283     38.5017   1.5074764812e+01   5.4378887248e+01    0.2386678    0.1409187  60.13  0.001039636    1.610    0.379
        76 -12.3817     97.0095     36.5067   1.6176393393e+01   5.6451442207e+01    0.2996145    0.2349826 -36.04  0.001308131    1.342    0.255
        77 -12.9382    147.3406    207.2473   4.6614897754e+01   1.1273489796e+01    0.7641958    0.4348987   4.81  0.003440531    2.530    0.605
        78 -12.6743    143.3813    204.3444   4.7048093155e+01   1.2347881371e+01    0.7373864     0.439997  13.65  0.003645693    1.897    0.473
        79 -11.1851    234.6073     28.6070   3.5451648612e+02   2.4690594690e+01    0.2376879    0.1833507 -51.76  0.001166379    1.022    0.021
        80 -11.4910    229.5968     28.8098   3.5488692031e+02   2.5634347737e+01    0.2791954    0.1911787 -33.06  0.001145423    1.359    0.264
        81 -12.7072    156.6849    231.4806   4.8071713785e+01   6.0934344579e+00    0.4756277    0.3544889  45.38  0.003044212    1.640    0.390
        82 -14.3282    152.5424    219.7152   4.7311534052e+01   8.4694619434e+00      1.21169    0.8602895  67.27  0.006338296    2.729    0.634
        83 -11.6288    231.3945     21.2166   3.5307806995e+02   2.6144869985e+01    0.3242876    0.1070605 -41.11  0.001552674    2.104    0.525
        84 -12.8417    146.6611    222.4340   4.8923023274e+01   8.8087222670e+00    0.7485839    0.4339362 -62.27  0.003785715    2.789    0.641
        85 -12.1807    187.0569     19.3575   3.5572247855e+02   3.5827742420e+01    0.3336997    0.2096292 -76.62  0.001264144    1.509    0.337
        86 -12.7524    105.6549    226.2000   5.8421424835e+01   1.3582120217e+01    0.3780033    0.2879258  83.86  0.002274028    1.800    0.445
        87 -11.6387     79.0185    224.9713   6.4465276266e+01   1.7201574392e+01    0.2130385    0.1249156  53.25 0.0008391528    1.684    0.406
        88 -12.8998    221.0779    222.4438   3.4905610734e+01  -3.0190049408e-01    0.2458572    0.1707764  29.45  0.001737235    1.571    0.363
        89 -14.1158    210.6624    214.8885   3.5495498818e+01   1.8459053137e+00    0.5935329    0.4258733   0.45  0.003195318    1.131    0.116
        90 -13.4499    211.7392    183.8000   3.0146786683e+01   6.0773818348e+00    0.6759585    0.3205938 -37.07   0.00353262    1.927    0.481
        91 -14.8117    194.8980    211.3191   3.7731762792e+01   4.2474154409e+00    0.7941322    0.5234662  42.75  0.004767959    1.953    0.488
        92 -15.5740    193.7518    190.2990   3.4480642224e+01   7.5350177165e+00      2.00655     1.395979 -25.51    0.0106369    1.320    0.243
