#   1 NUMBER                 Running object number                                     
#   2 MAG_AUTO               Kron-like elliptical aperture magnitude                    [mag]
#   3 X_IMAGE                Object position along x                                    [pixel]
#   4 Y_IMAGE                Object position along y                                    [pixel]
#   5 X_WORLD                Barycenter position along world x axis                     [deg]
#   6 Y_WORLD                Barycenter position along world y axis                     [deg]
#   7 A_WORLD                Profile RMS along major axis (world units)                 [deg]
#   8 B_WORLD                Profile RMS along minor axis (world units)                 [deg]
#   9 THETA_WORLD            Position angle (CCW/world-x)                               [deg]
#  10 FWHM_WORLD             FWHM assuming a gaussian core                              [deg]
#  11 ELONGATION             A_IMAGE/B_IMAGE                                           
#  12 ELLIPTICITY            1 - B_IMAGE/A_IMAGE                                       
         1  99.0000     40.3110     38.3689   8.6789622246e+01   6.4550730035e+01     1.505172    0.8508018 -21.73  0.007742654    1.818    0.450
         2 -10.9824     77.3786     34.8485   7.0400811793e+01   5.9495233760e+01    0.3945389    0.2067492 -21.54  0.001440345    2.126    0.530
         3 -10.7677     22.5363     25.7493   9.0165218866e+01   6.8601921810e+01    0.4427311    0.2527989 -29.78  0.001854618    1.449    0.310
         4  -9.8166     15.0100     14.2399   8.9100804867e+01   7.1156885885e+01    0.1957852    0.1753235 -39.24 0.0008629584    1.574    0.365
         5 -11.7021     13.4869      3.3738   8.4608796183e+01   7.2905364144e+01     0.569242    0.3721934  43.03  0.003413153    2.736    0.634
         6 -11.5561     27.4405      3.4695   7.6990841877e+01   7.1367727306e+01    0.3267169    0.2118527  41.19 0.0006032023    2.078    0.519
         7 -11.4419     32.2640      1.7963   7.3640849063e+01   7.0951901461e+01    0.2407576    0.1611908  22.54 0.0005465827    1.309    0.236
         8 -11.3842     20.7992      3.8069   8.0715000973e+01   7.2096445594e+01     0.324955    0.1993983 -34.52  0.001287369    1.586    0.369
         9 -12.0493     20.3686     17.9644   8.7910460258e+01   7.0079370539e+01    0.3881403    0.2945321 -32.39  0.001150789    1.257    0.204
        10 -12.2005     24.0302      8.5112   8.1420819906e+01   7.1103413873e+01    0.3724941    0.1894257 -26.73 0.0003503679    1.712    0.416
        11 -11.3745    129.4904     19.2537   5.0051080613e+01   5.0092429014e+01    0.2849347    0.2430245  -6.86 0.0005950083    1.278    0.217
        12 -11.0160    104.2959     19.3311   5.5854871550e+01   5.5938839971e+01    0.5125617    0.3120866   5.32  0.002162807    2.039    0.509
        13  -9.9882    107.2749     18.3755   5.4725310303e+01   5.5372636288e+01    0.3657551    0.2075476  -1.34  0.001434604    2.292    0.564
        14  -8.2703     43.4298      8.5102   7.1900511941e+01   6.8591744041e+01    0.3844207    0.1876501 -36.99  0.001985565    2.261    0.558
        15 -10.7766     50.2282     14.1184   7.1704122597e+01   6.6880727032e+01    0.4989073    0.3490107  25.87  0.003094458    1.278    0.218
        16 -10.9174     41.8136     19.3289   7.7923540130e+01   6.7399568232e+01    0.5366924     0.298613  20.40  0.002174647    1.804    0.446
        17 -11.7456     39.9353     12.2836   7.5397350100e+01   6.8616312784e+01    0.4814906    0.3539554 -43.06  0.002985139    1.884    0.469
        18 -11.2182     31.1607     12.8276   7.9908327756e+01   6.9677197641e+01    0.4386006    0.1584536 -33.18  0.001579194    2.521    0.603
        19 -11.5160      9.9403     15.4511   9.2463265649e+01   7.1381437025e+01    0.3247128    0.1760657 -29.96 0.0004565891    1.456    0.313
        20 -11.9336      4.4114     18.0774   9.6671982846e+01   7.1332024968e+01    0.3500672    0.3394188 -39.77  0.001891032    1.567    0.362
        21 -10.6517      5.2725     13.6558   9.4323060827e+01   7.2015791257e+01    0.1844068    0.1595542 -26.86 0.0005656783    1.338    0.253
        22 -11.2562    157.2444     13.1128   4.3211641444e+01   4.3898513750e+01    0.3767624    0.3487566  23.98  0.002365284    1.199    0.166
        23 -11.2863     78.6042     10.7096   5.9585821646e+01   6.2241249492e+01    0.5709285    0.2024232  46.21  0.001990437    2.363    0.577
        24 -11.7652     73.3197      4.9179   5.8633453530e+01   6.3834854452e+01    0.6003867    0.3255686 -19.84  0.001297147    1.897    0.473
        25 -10.9185     74.0327     15.9576   6.3446934593e+01   6.2565778075e+01    0.4194372      0.28077  57.16  0.001665955    1.835    0.455
        26 -10.6437     64.1091     14.2051   6.6192374041e+01   6.4577758528e+01     0.348663     0.215684   6.40  0.001866416    1.719    0.418
        27 -10.8107     26.3606     14.1794   8.3007656811e+01   7.0039200983e+01    0.2097482    0.1334798 -10.32 0.0002475331    1.393    0.282
        28  -9.9479    118.8091     12.6108   4.9883722331e+01   5.3284640649e+01     0.196813    0.1772071  28.56 0.0006767452    1.084    0.077
        29 -10.3056    117.4295      9.2733   4.8942061506e+01   5.3911591403e+01    0.2380185    0.1872782 -41.86 0.0007232287    1.498    0.332
        30  -9.9170     54.9945     11.4805   6.8440937300e+01   6.6442538722e+01    0.3879697    0.1554506 -23.44  0.001111745    2.633    0.620
        31 -12.5976    239.8058      9.8834   3.3648794623e+01   2.4836802154e+01    0.5250599    0.2612336  87.28  0.002250239    2.037    0.509
        32 -10.4486    126.9856      8.0115   4.6592095223e+01   5.1758082533e+01    0.2534337    0.1634528  52.77            0    1.323    0.244
        33 -10.1712    130.3943      6.7409   4.5523365582e+01   5.1048444777e+01    0.2721453     0.160864 -13.11 0.0009690859    1.995    0.499
        34 -10.3324    131.6398     10.4036   4.6561401807e+01   5.0428140398e+01    0.2767902     0.255469 -48.86  0.001185466    1.235    0.190
        35  -9.9983    176.0411     11.3243   4.0141946830e+01   3.9434504403e+01    0.1937215     0.154871  73.44 0.0006808254    1.114    0.102
        36  -9.1952     59.3032      9.6941   6.5870004701e+01   6.5921802510e+01    0.1054392     0.100648 -48.09  0.000701193    1.599    0.375
        37 -10.7655      8.0216      8.9084   9.0565885530e+01   7.2568465678e+01     0.382221    0.1549329  34.77  0.001914634    3.378    0.704
        38 -10.9965    146.7519      6.3117   4.2675648419e+01   4.7104324201e+01    0.5162558    0.2719653  55.02  0.002533161    1.627    0.385
        39 -10.6068     67.0122      7.8918   6.2161471996e+01   6.4739801785e+01    0.2044406    0.1438656  25.75 0.0003082677    1.204    0.169
        40 -10.8574     68.0937      3.9133   5.9892269770e+01   6.4925757193e+01    0.3514501    0.1899746  46.61  0.001845419    1.646    0.392
        41 -11.1463    216.2623      7.7014   3.5056927136e+01   3.0244114002e+01    0.2689651     0.190029  -7.69  0.001527351    2.024    0.506
        42 -11.3167    244.1691      4.6702   3.2252194967e+01   2.4473777568e+01    0.3712028    0.1103608 -48.21  0.001635526    2.739    0.635
        43  -9.7700    191.8216      7.3930   3.7299577702e+01   3.5988112855e+01    0.1780391    0.1486296 -65.65 0.0006165864    1.143    0.125
        44 -10.0641    161.0549      6.7144   4.0752141460e+01   4.3550768120e+01    0.1994333    0.1601093 -84.13   0.00117501    1.247    0.198
        45 -10.5318     91.3307      6.7113   5.4118873464e+01   5.9997982498e+01    0.4476383    0.1682169  40.39  0.001882372    2.403    0.584
        46 -12.2446    179.0103      4.2159   3.7844733102e+01   3.9377465051e+01    0.2794488    0.2349104  74.06 0.0003524364    1.063    0.059
        47  -9.1474    172.5263      3.4553   3.8377779831e+01   4.1024719605e+01    0.2544859    0.1898163  65.18  0.001071581    1.193    0.162
        48 -10.8417    164.9715      5.4615   3.9871981575e+01   4.2698635059e+01    0.2279702    0.1665857 -51.78 0.0005481004    1.461    0.315
        49 -11.3055    237.4630      4.5119   3.2687659743e+01   2.5902739229e+01      0.25572    0.1574737 -57.94  0.001482356    1.402    0.287
        50 -10.7980    238.6767      1.6617   3.2006480508e+01   2.5937686863e+01     0.239443    0.1366356  57.47 0.0008006048    1.987    0.497
        51 -10.1383    223.5939      4.2758   3.3676207100e+01   2.8944810919e+01    0.1915423    0.1534296 -26.13 0.0007897949    1.481    0.325
        52 -11.6763     35.2045     15.0404   7.8998850423e+01   6.8868187859e+01    0.6601036    0.2546732  21.36 0.0008466541    3.701    0.730
        53  -9.6386    126.6052      3.2694   4.4994059035e+01   5.2242358463e+01    0.2355582    0.1189815 -26.93  0.001134771    2.176    0.541
        54  -9.9440    100.2560     12.5277   5.4183632230e+01   5.7524248690e+01    0.2704795    0.1552711   0.90  0.001284758    2.153    0.536
        55 -10.0643    194.6065      2.3028   3.5730676019e+01   3.5806245714e+01    0.2157026    0.1434623 -89.94 0.0008562728    1.387    0.279
        56 -11.0751     88.7558      1.6842   5.2655405990e+01   6.0970806837e+01    0.2290054    0.1469001  47.71 0.0009581466    1.307    0.235
        57 -10.7627     97.4628      4.2959   5.1530881228e+01   5.8875903054e+01    0.2887129    0.1796361  25.23  0.000867366    1.612    0.380
        58 -10.0977     81.5041      5.9376   5.6560969191e+01   6.2115610080e+01    0.1774498    0.1190196 -12.00 0.0003822196    1.534    0.348
        59  -9.4967      1.3339      1.2648   9.0852858183e+01   7.4229697049e+01    0.1137019   0.06149213 -16.91 0.0002014613    1.582    0.368
        60  -9.6110    200.5183    176.4982   7.8211771019e+01   6.5175061368e+00    0.1451414    0.1267496   0.36 0.0003982484    1.038    0.037
        61 -10.6541    249.2747    247.6109   8.2120745416e+01  -1.1370116302e+01    0.4465677    0.2126938  -3.14  0.002111023    2.966    0.663
        62  -9.6278    141.6677    250.3167   1.0274224877e+02   3.7284578252e+00    0.1233047   0.08420128  58.61 0.0007047221    1.688    0.408
        63 -10.3622     88.0003    249.9979   1.1313888832e+02   1.1618717566e+01    0.1820216    0.1458844  51.01 0.0004610347    1.043    0.041
        64  -9.9506     72.6082    250.0914   1.1604938933e+02   1.3663810194e+01    0.1771448    0.1552314  10.27  0.001257159    1.642    0.391
        65 -12.4118     19.8507    238.3747   1.2482981736e+02   2.1978634388e+01    0.6086408    0.2935963  51.78  0.003808356    1.622    0.384
        66 -12.0232     28.7796    248.1376   1.2380767820e+02   1.9240895089e+01    0.5140954     0.257514  76.48  0.003137501    1.847    0.459
        67 -11.3407      4.5359    236.4289   1.2737743599e+02   2.3831336893e+01    0.3396279    0.2707709 -64.59  0.002683373    1.638    0.389
        68 -13.2036      6.0790    244.8561   1.2748666350e+02   2.2132650500e+01    0.8604317    0.5800359  45.05   0.00490555    1.414    0.293
        69 -12.1657     21.9587    248.7851   1.2501033609e+02   1.9844130175e+01    0.4009257    0.2279465  47.08  0.001605365    1.435    0.303
        70 -11.1453     17.4789    247.4790   1.2570286017e+02   2.0539578259e+01    0.1980861    0.1537379  80.20 0.0006438848    1.163    0.140
        71 -10.9217     18.0866    173.1456   1.2080950266e+02   3.5834402157e+01    0.3666781    0.2011115  69.62  0.001988153    1.797    0.444
        72  -8.9438     74.6916    171.2969   1.0692972254e+02   2.9874428965e+01     0.142087   0.09812871  69.65 0.0003519676    1.592    0.372
        73 -10.8835     36.9438    157.9300   1.1473867207e+02   3.7639560960e+01    0.3074075    0.2082323  80.98 0.0003823076    1.469    0.319
        74 -11.8317     50.6964    162.3488   1.1178036131e+02   3.5085308983e+01     0.623802    0.4349565  85.48  0.002709108    1.447    0.309
        75 -10.8415     41.2350    164.9465   1.1447975258e+02   3.5514851246e+01    0.4453886    0.1672095 -71.02  0.001540628    2.427    0.588
        76 -11.2276     44.3805    162.6426   1.1341891504e+02   3.5725632374e+01    0.4042166    0.3001523  64.98  0.002352061    1.334    0.250
        77 -11.3208     36.1536    166.8553   1.1594438777e+02   3.5592006348e+01    0.5409784    0.2597432  54.72  0.002559856    2.217    0.549
        78 -11.1302     35.8188    163.1592   1.1562033704e+02   3.6502805047e+01    0.2848772    0.2651787 -24.90  0.001383588    1.368    0.269
        79  -9.3103    177.0013    168.7518   8.1579148630e+01   1.2414793565e+01    0.1878037    0.1223761  38.94 0.0002442606    1.500    0.334
        80  -9.4135      4.6756    168.6924   1.2348783121e+02   3.7938879031e+01    0.1143984   0.07731695 -52.84 0.0004547712    1.648    0.393
        81  -9.5666     67.2115    165.1895   1.0794466717e+02   3.2350337155e+01    0.1991009     0.149251  70.66  0.000978164    1.382    0.277
        82  -9.1888     99.2880    164.7154   9.9598992393e+01   2.7702906648e+01    0.1441372    0.1088995  72.63  0.000227872    1.530    0.346
        83  -8.9967    200.3066    162.6510   7.5321216427e+01   9.0863928904e+00    0.1400524    0.1187091 -76.60 0.0007042734    1.704    0.413
        84  -9.8354      9.1562    162.3481   1.2197114782e+02   3.9052868169e+01     0.295301    0.0469891  36.01  0.001110378    4.399    0.773
        85 -12.1428     21.8509    157.1720   1.1844559140e+02   3.9233114239e+01    0.5114059     0.455489 -40.34  0.003482869    1.377    0.274
        86 -10.2286     11.2698    153.4571   1.2069643203e+02   4.0964485153e+01    0.2897413    0.1764036  10.42  0.001626363    2.348    0.574
        87 -10.1193    177.8353    151.2767   7.7569463291e+01   1.5742049572e+01    0.3033876    0.2713764  80.82  0.001217881    1.408    0.290
        88 -10.6116     18.5804    146.9396   1.1821627030e+02   4.1941350476e+01    0.2511067    0.2068571 -31.42 0.0009878696    1.520    0.342
        89 -10.1718    207.1484    146.2085   7.0289568116e+01   1.0803626053e+01     0.223244    0.1916138   1.36 0.0008199585    1.160    0.138
        90 -10.1390     41.1468    146.1868   1.1214926311e+02   4.0057269653e+01    0.1842955    0.1614845 -63.78 0.0002550155    1.110    0.099
        91 -10.6879     11.2287    146.0271   1.2000740079e+02   4.2720835889e+01    0.3178023    0.1783055  70.33  0.001697543    1.884    0.469
        92  -9.5855    220.4645    143.9888   6.7257197786e+01   8.6092930607e+00    0.2190693    0.1307626 -36.39 0.0007136725    1.541    0.351
        93 -10.4317     22.6946    144.1671   1.1683757677e+02   4.2270161119e+01    0.1924839    0.1566511  63.41 0.0003885598    1.265    0.210
        94  -9.3389     49.3869    141.8519   1.0925946307e+02   4.0232905485e+01    0.1924809    0.1066769 -55.11 8.591594e-05    1.629    0.386
        95 -10.2372      9.3017    137.0917   1.1961386062e+02   4.4979459277e+01    0.2259804    0.1168867 -70.09 0.0008756871    1.523    0.344
        96 -10.4965      2.6704    136.4483   1.2129334478e+02   4.5561699950e+01     0.275897    0.1098991 -69.28  0.001350828    1.896    0.473
        97  -9.9657     20.9254    135.3739   1.1628251484e+02   4.4536885482e+01    0.2217663    0.1463585 -81.64 0.0006506144    1.332    0.249
        98  -9.8848     13.9579    136.0031   1.1825332652e+02   4.4912935825e+01     0.184597    0.1497271 -82.96  0.001204867    1.049    0.046
        99  -9.4067    122.7207    135.3362   8.7386207495e+01   3.0449227630e+01    0.1546998    0.1237927  89.21 0.0003620555    1.614    0.381
       100  -9.9572    249.6892    134.0377   6.0081726529e+01   4.9054965339e+00    0.1944615    0.1550867 -28.11 0.0005517536    1.069    0.064
       101  -9.2371    104.7166    134.3612   9.2115270078e+01   3.4033575867e+01    0.1552272    0.1197356  86.36 0.0001702865    1.679    0.404
       102 -10.4481     55.7358    133.3094   1.0606407120e+02   4.1607583700e+01    0.2931768    0.2105927  72.48 0.0009837316    1.634    0.388
       103 -10.4291     79.6583    133.0727   9.9025606674e+01   3.8453182212e+01    0.2071199    0.1766654 -56.44 0.0004016122    1.096    0.088
       104 -11.3732     37.2008    130.0490   1.1094649678e+02   4.4410483474e+01    0.4146759    0.2774212 -43.08  0.001628015    1.554    0.356
       105 -11.4543     73.3754    129.1175   1.0007909992e+02   4.0340593222e+01    0.5083506    0.2786721  52.28  0.002134174    2.246    0.555
       106  -9.6259      9.6474    129.1291   1.1866756626e+02   4.6856342863e+01    0.1742406    0.1279135 -72.04 0.0003785081    1.088    0.080
       107 -11.9736     13.2866    124.9159   1.1715404112e+02   4.7622560602e+01    0.5919886    0.3275625  47.87  0.001263773    2.069    0.517
       108 -10.0107     24.5464    116.4069   1.1266266544e+02   4.8852771383e+01     0.463375    0.1179398 -43.23  0.001370572    5.335    0.813
       109 -11.2157     21.7615    121.1205   1.1418877112e+02   4.7926034008e+01    0.2552019     0.202334 -23.71  0.001578428    1.511    0.338
       110  -9.7770     26.1940    120.1454   1.1272230183e+02   4.7812460835e+01    0.1996415    0.1519373 -53.62  0.000506473    1.187    0.157
       111  -9.4459     56.6443    126.6750   1.0461539623e+02   4.3138490990e+01      0.14796   0.09861364 -32.74 0.0007045838    1.769    0.435
       112 -11.0573      2.3438    123.6747   1.2010223803e+02   4.8601723487e+01    0.4796133    0.1408873 -66.01  0.001760191    2.377    0.579
       113  -9.5797    220.4239    124.4825   6.2771550039e+01   1.2088889263e+01    0.1457569    0.1303713 -25.12 0.0008054055    1.016    0.016
       114  -9.0544     77.3515    122.7391   9.7556845021e+01   4.1328875882e+01    0.1451668     0.110841  68.44 0.0003122588    1.611    0.379
       115  -9.6586     32.2520    121.7940   1.1114723458e+02   4.6893358135e+01    0.1710063     0.131757 -44.63 0.0002798885    1.290    0.225
       116 -10.2539     72.0301    118.0769   9.8177391335e+01   4.3237623739e+01    0.3697849    0.1765407 -61.84  0.001274112    2.122    0.529
       117 -11.2337     17.5199    114.9351   1.1459376764e+02   4.9732364213e+01    0.3470941    0.2063091 -49.32  0.000931207    1.521    0.343
       118 -10.6505     14.3115    103.5175   1.1391726977e+02   5.2682289222e+01     0.290259    0.1687271 -19.80  0.001099224    2.232    0.552
       119  -9.4858     12.2642    115.6740   1.1628276298e+02   4.9908991685e+01    0.1228325   0.08437412  78.83 0.0001749731    1.565    0.361
       120 -12.2526     14.6569    109.2427   1.1466128922e+02   5.1293674923e+01     0.582619    0.3542791 -32.64  0.003213038    1.863    0.463
       121 -10.5171     85.9493    116.6013   9.3548499659e+01   4.1489548899e+01    0.2490733    0.1904268 -43.14 0.0003865398    1.251    0.201
       122  -9.3842    220.4380    116.5121   6.0885375332e+01   1.3496627191e+01     0.145926    0.1311513 -23.45 -8.170443e-05    1.045    0.043
       123  -9.9623    214.0113    115.6765   6.1812207369e+01   1.4987070368e+01    0.1997724    0.1841689  30.14 0.0006064229    1.153    0.133
       124  -9.3507    179.4892    116.5135   6.8790924188e+01   2.2385396260e+01    0.1547776    0.1486938 -20.64 0.0001599631    1.004    0.004
       125  -9.9833      6.6502    115.2335   1.1789914033e+02   5.0359033647e+01     0.214858    0.1266566 -75.25 0.0005068703    1.388    0.279
       126 -10.2202     35.2507    114.4466   1.0902142312e+02   4.8416351984e+01    0.1655437    0.1230018  43.23 0.0005966184    1.544    0.352
       127 -11.0862    249.1378    112.3435   5.5375953450e+01   8.5405678291e+00    0.2652586    0.1980409 -33.54 0.0006262853    1.157    0.135
       128  -9.4097      3.0000    112.9280   1.1870202434e+02   5.1110978686e+01    0.2082256   0.05611822 -72.39 0.0007971582    2.906    0.656
       129  -9.9076     94.7802    112.5600   8.9871062961e+01   4.0975834401e+01    0.2055974    0.1427956  49.33 0.0008016163    1.609    0.379
       130 -12.4012     54.9952    110.2393   1.0189947413e+02   4.7366283391e+01    0.3135233    0.2372571 -46.41  0.000488776    1.204    0.169
       131  -9.7241     43.0257    111.2822   1.0597484488e+02   4.8433639093e+01    0.1857661    0.1659135 -48.47 0.0006688877    1.075    0.070
       132 -11.2005     40.3688     97.5697   1.0410215495e+02   5.2001494541e+01    0.3620727    0.2647462  51.14  0.001995269    1.687    0.407
       133 -11.3202     36.3716    109.3835   1.0776670226e+02   4.9543955739e+01    0.4921084    0.3015021  73.81  0.001917652    2.360    0.576
       134 -10.9374     36.1963    102.9452   1.0661120171e+02   5.1114541523e+01    0.5316244     0.305268  -6.36   0.00244694    2.577    0.612
       135 -10.9531     24.0331    108.8629   1.1164135449e+02   5.0717047341e+01    0.4011307    0.2048875 -47.24  0.001260438    1.764    0.433
       136 -10.0578     70.7270    108.4281   9.6405396337e+01   4.5756428745e+01    0.2721239    0.1833251 -57.52 0.0008202968    1.395    0.283
       137 -11.6180      2.8672    106.2840   1.1792046915e+02   5.2687569423e+01    0.3689412    0.3023889 -61.35  0.001689161    1.086    0.079
       138  -9.4489     82.4804    108.5038   9.2670898317e+01   4.3976049217e+01    0.1487152    0.1378902 -41.21 5.673221e-05    1.003    0.003
       139 -10.3845    243.9615    104.7098   5.4408659727e+01   1.0768853683e+01     0.185532    0.1735141 -34.61 0.0006248822    1.073    0.068
       140 -10.5079    247.1573    102.1499   5.3373908604e+01   1.0563491305e+01    0.1857362    0.1762503 -35.19 0.0005970605    1.096    0.087
       141 -10.0730     50.9885    105.2303   1.0214941149e+02   4.9042964950e+01    0.1950051    0.1699901 -53.51 0.0005696596    1.012    0.012
       142  -9.1896    223.2983    103.7001   5.7343059065e+01   1.5126938241e+01    0.1423484    0.1072933 -64.46 0.0003364815    1.578    0.366
       143 -10.2198    119.6335    102.1892   7.9768461664e+01   3.8606290966e+01    0.3943458    0.1895248 -36.92  0.001430826    2.233    0.552
       144 -10.3937     57.4704     96.6480   9.8004085541e+01   5.0318779403e+01    0.2459416    0.2264085 -65.83 0.0004664441    1.145    0.127
       145 -11.3720     61.9314     98.7125   9.6985422204e+01   4.9264691103e+01    0.4366769    0.3250901 -37.80  0.001632807    1.273    0.214
       146  -9.4033     76.6609    101.6753   9.2824056827e+01   4.6488047061e+01    0.1549281    0.1081549 -21.45 0.0007051235    1.725    0.420
       147 -11.7283      3.1341     99.8536   1.1698294626e+02   5.4186016998e+01    0.2940178    0.2099647 -80.32 0.0002807535    1.256    0.204
       148 -11.5079      1.4751     96.0266   1.1698858402e+02   5.5161674026e+01     0.439377    0.1221831 -70.20 5.084452e-05    2.755    0.637
       149 -11.2288    144.2790     98.2617   7.2050720637e+01   3.4076832381e+01     0.515535     0.406706  50.60  0.002454811    1.306    0.234
       150 -10.9978     97.1480     88.8255   8.2646538546e+01   4.5931731299e+01    0.5551845    0.2965491 -26.21  0.002011342    2.673    0.626
       151 -11.7293    157.2616     82.3393   6.4339481669e+01   3.4134020001e+01     1.042381    0.5639058  23.13  0.003186982    3.883    0.742
       152 -12.1347    158.5496     89.8329   6.6213378117e+01   3.2428877066e+01    0.6294681    0.3285362 -39.98  0.002256074    1.890    0.471
       153 -11.9319    162.3143     92.5725   6.6136372705e+01   3.1019136063e+01    0.5884777    0.2755823 -30.72  0.001583483    2.463    0.594
       154 -12.7904    166.0150     85.1794   6.3224987733e+01   3.1522008318e+01      1.29707    0.8837188 -25.63  0.005773698    1.613    0.380
       155 -10.3900     25.6476     91.1109   1.0790757150e+02   5.4820090465e+01    0.2710005    0.2251557 -81.39 0.0008440643    1.289    0.224
       156 -10.8773     20.7757     93.7638   1.1011746754e+02   5.4557682506e+01    0.5794249   0.09283888 -59.82  0.001946425    3.554    0.719
       157 -11.0260     22.2926     86.9703   1.0827668999e+02   5.6037627217e+01    0.4457746    0.2192074 -31.90  0.002106179    2.270    0.559
       158 -10.5930     15.2258     98.3633   1.1280032630e+02   5.3846522314e+01    0.2223802    0.1565576 -68.06 0.0006509544    1.185    0.156
       159  -9.7754     53.2224     94.3936   9.8927483186e+01   5.1362385289e+01    0.2391098    0.1193653  41.42 0.0009374669    2.361    0.576
       160  -9.5968    249.8541     95.8316   5.1584018961e+01   1.1049209240e+01     0.185365    0.1421493 -55.14 0.0004564677    1.304    0.233
       161 -11.1416     28.0187     95.9864   1.0803641637e+02   5.3483460872e+01    0.1919072    0.1570206 -53.79            0    1.018    0.017
       162  -8.9054     77.6685     95.2954   9.0818024968e+01   4.7812148863e+01    0.1419193    0.1164462  77.96 0.0007026455    1.638    0.389
       163  -9.0265     82.9366     93.2898   8.8524572156e+01   4.7428475488e+01    0.2329862    0.1047482  53.89 0.0007026824    4.181    0.761
       164 -10.0616     31.3208     92.6614   1.0622190351e+02   5.3994100428e+01    0.2386921    0.1505608 -61.46 0.0006201547    1.355    0.262
       165 -10.9605     93.4988     95.0652   8.5608713394e+01   4.5224680523e+01    0.5225773    0.1812761 -50.01  0.001720696    2.863    0.651
       166  -9.8216     47.0640     92.5421   1.0064333114e+02   5.2494617154e+01    0.1853208    0.1343678  27.86 0.0006779008    1.552    0.356
       167 -10.0112     35.8621     91.2998   1.0432705007e+02   5.3910801893e+01    0.2221899    0.1696037 -73.48 0.0007450543    1.364    0.267
       168 -11.4554     10.9738     90.8204   1.1298836851e+02   5.5877328979e+01     0.326614    0.2453862  19.32 0.0009459479    1.628    0.386
       169 -10.5967     66.3894     98.1014   9.5328335249e+01   4.8811277625e+01    0.2437368    0.2223185 -49.59 0.0008229121    1.059    0.055
       170 -10.2478    108.7977     91.3989   7.9824357206e+01   4.3137224609e+01    0.2130831    0.1445159  29.17 0.0007413473    1.611    0.379
       171  -9.6943     83.1587     88.8019   8.7178701853e+01   4.8394830927e+01     0.203659    0.1636548 -15.69 0.0004810665    1.320    0.242
       172  -9.6021     58.4754     89.5322   9.5869231448e+01   5.1847197298e+01    0.2794033    0.1394088  28.81  0.001222872    2.215    0.549
       173  -9.6198    138.9946     87.7062   7.0326834713e+01   3.7394476552e+01    0.2138435     0.200555  41.53 0.0005684849    1.074    0.069
       174 -10.6142     78.5431     87.7071   8.8412889876e+01   4.9386702176e+01    0.3190306    0.2163361 -59.33  0.001503879    1.639    0.390
       175 -10.3778     46.5907     87.8114   9.9674953833e+01   5.3645813711e+01     0.248127    0.2114336 -82.81  0.001447788    1.393    0.282
       176 -10.4922     44.3626     83.4098   9.9390622761e+01   5.4894521615e+01    0.4245088    0.2224132  42.73  0.001948082    2.408    0.585
       177 -10.2695     64.9304     87.2911   9.2997063446e+01   5.1502363875e+01    0.2338152    0.2105263  16.61 0.0007697376    1.187    0.158
       178  -9.7826     67.5008     84.4823   9.1309418298e+01   5.1771365478e+01    0.2199676    0.1192927 -40.93 1.947782e-05    1.718    0.418
       179 -11.5544      6.0615     83.9183   1.1353865378e+02   5.7739950188e+01    0.6142491    0.3031992 -37.44  0.003242003    1.949    0.487
       180 -11.4424      5.0563     58.8886   1.0894108072e+02   6.3355248498e+01    0.2947727    0.2416928  34.76 0.0003344656    1.597    0.374
       181 -11.1565      3.1354     78.5346   1.1366288357e+02   5.9109173773e+01    0.3959379    0.2165185 -74.06  0.002172203    1.672    0.402
       182 -12.3615      4.0248     64.7862   1.1066905692e+02   6.2129147396e+01    0.7223844    0.3457282 -60.52  0.003611027    1.597    0.374
       183 -11.8033     10.5387     63.0456   1.0762183446e+02   6.2170886037e+01    0.9430759    0.3172436 -31.40  0.003732836    3.528    0.717
       184 -11.9601     13.1604     75.6192   1.0934804928e+02   5.9238410543e+01     0.903609    0.1864175 -54.92  0.001640633    2.869    0.652
       185 -11.4348      8.4455     73.9606   1.1081338445e+02   5.9877015374e+01    0.4163047    0.2399306   4.17  0.002362161    2.110    0.526
       186 -13.2650     16.3361     67.7594   1.0636626984e+02   6.0790781741e+01     0.476469    0.2434212 -46.79 0.0004948571    1.525    0.344
       187 -11.6400     21.8330     66.6334   1.0386778893e+02   6.0657241285e+01    0.3652625    0.2714996  51.06  0.001213417    1.871    0.465
       188  -9.2155     82.8449     85.3673   8.6280728710e+01   4.9201083366e+01    0.1863605    0.1371723  20.68 0.0003253577    1.484    0.326
       189  -9.9852     22.8824     99.4147   1.1041768561e+02   5.3067324713e+01    0.3023386    0.1310974  18.90  0.001385495    2.803    0.643
       190 -10.0727    133.0305     83.1511   7.0503237988e+01   3.9640069714e+01    0.2269219    0.2233455   0.49 0.0006694765    1.037    0.036
       191  -9.7064    117.2104     83.6163   7.5000824447e+01   4.3021489060e+01    0.2182794     0.141491  33.24  0.000668863    1.645    0.392
       192  -9.5172     56.4278     83.5838   9.5021596439e+01   5.3458481502e+01    0.1390059    0.1209167 -35.31 7.292417e-05    1.010    0.010
       193 -11.0594     30.6493     81.8251   1.0409933588e+02   5.6566078633e+01    0.3055669     0.219863 -24.31  0.001392698    1.432    0.302
       194  -8.9522    196.2821     82.3136   5.6527751991e+01   2.4822393388e+01    0.1451767    0.1163953  10.53  0.000310061    1.574    0.364
       195  -9.9868    145.8174     81.4434   6.6755118905e+01   3.7012306864e+01    0.2921333    0.2114362 -36.39  0.001349168    1.383    0.277
       196 -10.5184     21.3183     81.3353   1.0747064256e+02   5.7406577332e+01    0.4061313    0.1761978 -33.48  0.001403903    2.557    0.609
       197 -11.3205     18.7576     79.0121   1.0793688473e+02   5.8114256191e+01    0.5353864    0.2260166 -42.31 0.0004145147    2.064    0.516
       198  -9.8854     86.7335     80.4006   8.3477704236e+01   4.9603153088e+01    0.1997564    0.1389531  24.60 0.0008779823    1.558    0.358
       199  -9.1101    112.2539     79.6510   7.5209328919e+01   4.4855888158e+01    0.1475456    0.1207307 -70.46 0.0002168763    1.593    0.372
       200  -9.6421     71.1005     79.3571   8.8541827226e+01   5.2367033756e+01    0.1867239    0.1736202   1.05 0.0004343005    1.099    0.090
       201 -10.5263     53.9947     73.8667   9.3179297716e+01   5.5906957637e+01    0.2351113    0.2250762 -38.41 0.0006181449    1.173    0.147
       202 -10.7486     58.0184     74.4448   9.1836923073e+01   5.5268355218e+01    0.3377649    0.2884889 -74.25  0.001235946    1.491    0.329
       203 -11.9919     62.1105     71.7403   8.9487607331e+01   5.5292501142e+01    0.6573895    0.2337638 -43.81  0.000444838    2.521    0.603
       204 -12.6318     44.7028     75.3000   9.7125114357e+01   5.6676368285e+01    0.2628078    0.2578525 -27.77 0.0004691629    1.200    0.167
       205  -9.7939     39.7338     72.3994   9.8249470402e+01   5.7834972144e+01    0.2760401    0.1300574  21.89  0.001258981    2.432    0.589
       206 -11.5765     37.4618     67.6684   9.7829046062e+01   5.9088901718e+01    0.5281153    0.3318373  35.71  0.002207859    1.892    0.472
       207  -9.5745    122.1770     76.3400   7.1319547019e+01   4.3372820192e+01    0.2182552    0.1419121  55.20 0.0009426361    1.710    0.415
       208 -10.7261     90.6276     75.1462   8.0528674214e+01   4.9994706032e+01     0.266044    0.2249511 -39.66 0.0006196182    1.165    0.141
       209 -10.2074     74.6352     75.7673   8.6193914164e+01   5.2587469332e+01    0.2565915    0.1984222 -24.20 0.0008350096    1.260    0.206
       210 -10.2326    145.1347     73.7316   6.4577403824e+01   3.8580449968e+01    0.3080034    0.2719169  32.76  0.001592668    1.136    0.120
       211  -9.7186    137.4900     74.0368   6.6544122560e+01   4.0324930117e+01    0.2291403    0.1509711 -34.29 0.0004976147    1.537    0.350
       212 -10.9293    102.5712     73.4830   7.6162912338e+01   4.8044376896e+01      0.36444     0.144649  41.04  0.001302272    2.562    0.610
       213  -9.5030    150.5034     71.9901   6.2789409155e+01   3.7604263513e+01    0.2089062    0.2035293  11.89 0.0003370054    1.019    0.018
       214  -9.6425    153.9988     70.0000   6.1396715627e+01   3.7104073991e+01    0.3648321    0.1857291  46.72  0.001302629    1.944    0.486
       215  -9.4208     95.3324     72.3178   7.8073727237e+01   4.9682864339e+01    0.1549276    0.1119828  -1.50 0.0007047852    1.691    0.409
       216 -11.5212     76.4794     69.1647   8.3426764158e+01   5.3649999065e+01    0.6268465     0.463317  59.29  0.003088544    1.941    0.485
       217 -10.7114     77.3493     64.3433   8.1502893948e+01   5.4458879972e+01    0.3863484    0.3181812 -27.77  0.002149756    1.116    0.104
       218 -11.8174    167.7487     69.9843   5.8481042579e+01   3.3759563503e+01    0.2721388    0.2358337  50.11 0.0003477876    1.147    0.128
       219  -9.9074     68.4459     69.0559   8.6292578354e+01   5.4933514529e+01    0.3413334    0.1152606 -41.79  0.001213676    2.774    0.640
       220 -10.2272     47.9634     58.1153   9.0632013701e+01   5.9924626532e+01    0.3539741    0.2451536 -81.79  0.001536103    3.077    0.675
       221 -12.0188     50.2510     68.5581   9.3032841667e+01   5.7500052943e+01    0.3280521    0.2391381  -9.55 0.0002643962    1.461    0.316
       222 -11.4949     51.7421     62.8235   9.0653354917e+01   5.8509755931e+01    0.4087384    0.3042058 -52.53 0.0005702178    1.394    0.283
       223  -9.5243    161.2524     69.3453   5.9631887875e+01   3.5451869656e+01    0.1501622    0.1176805   8.70 0.0003387257    1.584    0.369
       224  -9.1816    189.2962     68.6932   5.4091889537e+01   2.8730143601e+01    0.1500309    0.1102038 -67.97 0.0002373457    1.587    0.370
       225  -9.3045    110.4408     68.5272   7.2144139443e+01   4.7369360911e+01    0.1516827     0.138063   2.46 3.179123e-05    1.057    0.054
       226 -11.0502     31.6607     68.0417   1.0026126366e+02   5.9552808813e+01    0.2534564    0.1725664 -31.45 0.0003270275    1.336    0.252
       227  -9.5800     99.4828     65.5046   7.4470185597e+01   5.0176184237e+01    0.1478528    0.1365412  -1.68 0.0001098884    1.007    0.007
       228 -10.6541     95.5940     64.9569   7.5522313372e+01   5.1041893730e+01    0.3657397    0.2640573  18.65  0.001017509    1.522    0.343
       229 -10.4423     98.1078     60.2752   7.3098090218e+01   5.1399689998e+01    0.2599513    0.1981659 -21.72 0.0002538265    1.313    0.239
       230  -9.4150    216.4462     65.5702   4.9040933491e+01   2.2836862427e+01    0.1354693    0.1302366 -50.30  9.68743e-05    1.076    0.071
       231  -9.4657    109.4699     63.4494   7.0722023586e+01   4.8494852015e+01     0.147126    0.1395044   7.07 9.386125e-06    1.038    0.036
       232 -11.0065     84.4193     61.7620   7.8137856522e+01   5.3725074087e+01    0.3963495    0.2709841 -10.74  0.001881515    1.728    0.421
       233  -9.6862    167.0058     60.9791   5.5986857140e+01   3.5397014286e+01    0.2236506    0.1725692 -70.15 0.0003319333    1.536    0.349
       234 -10.0293    121.5172     61.3778   6.6611506356e+01   4.6216662230e+01    0.3451842    0.1314935  45.99  0.001197692    2.530    0.605
       235 -12.4873    226.6224    245.2677   8.5746182139e+01  -8.1273460150e+00     0.876075     0.401994  15.25  0.003927447    2.903    0.656
       236 -11.3790     29.5311     60.5038   9.9025436183e+01   6.1350873517e+01    0.7775158    0.4550235  13.42  0.003910101    1.932    0.482
       237 -11.4981     26.7030     49.8292   9.6993829818e+01   6.3783026396e+01    0.5659403    0.4855881  80.66  0.002990697    1.820    0.451
       238 -12.7513     38.5482     50.4655   9.2002600503e+01   6.2506503828e+01    0.6339021    0.4937775 -33.47  0.003167522    1.081    0.075
       239 -11.6048     33.9388     49.5201   9.3689347855e+01   6.3168875232e+01     0.325398    0.2661476   4.11  0.001061325    1.242    0.195
       240  -9.6591    215.0305     60.3649   4.7941530910e+01   2.3938695753e+01    0.1848311    0.1682654 -88.07  0.001088035    1.088    0.081
       241 -10.1828    155.7487     60.1906   5.8026803380e+01   3.8289663669e+01    0.2109092    0.1982034 -76.41 0.0005630215    1.129    0.115
       242 -10.8929     63.7648     59.6219   8.4895497083e+01   5.7511461798e+01    0.2745605    0.1847769  43.46  0.001404227    1.773    0.436
       243 -11.4763     59.1798     58.8755   8.6410142868e+01   5.8314464494e+01    0.5227319    0.4261335  73.17  0.002678185    2.034    0.508
       244 -11.5965     75.3038     56.0808   7.9340775996e+01   5.6359201137e+01    0.2468268    0.2113081 -21.86 0.0003108705    1.075    0.070
       245 -10.2547     73.1334     51.4265   7.8429774655e+01   5.7559684142e+01    0.3502375    0.2336878  20.18 0.0008947343    1.582    0.368
       246 -10.9392     78.5846     47.6951   7.5051338499e+01   5.7261785463e+01    0.3983673    0.2095858 -28.74  0.001595058    1.961    0.490
       247 -10.3650     98.8389     55.8390   7.1297760373e+01   5.2026193177e+01    0.2967079    0.1851113  31.32 0.0007417718    1.667    0.400
       248 -10.0071    133.5134     54.5536   6.1250394258e+01   4.4550906192e+01    0.2506445    0.2319737  67.77 0.0005816082    1.158    0.136
       249 -12.0664    130.2214     49.5048   6.0357074661e+01   4.6100198990e+01    0.5518494     0.389578 -30.03  0.001335522    1.469    0.319
       250 -10.0374    119.9062     52.8833   6.4146564662e+01   4.7972244708e+01    0.2229197     0.181905  19.22  0.001155016    1.262    0.207
       251 -10.9048    104.2930     51.5784   6.8097262196e+01   5.1605442317e+01    0.5113936    0.2539513 -44.56  0.002085469    2.300    0.565
       252 -10.9599     87.3250     51.6858   7.3524881896e+01   5.4986740013e+01    0.3616332     0.267864  35.64  0.001196701    1.323    0.244
       253  -9.8429     61.9102     53.0728   8.3295675976e+01   5.9027860703e+01    0.1903217    0.1815499 -20.09 0.0007105757    1.238    0.192
       254 -12.3383      8.4525     51.5492   1.0565348036e+02   6.4725620392e+01    0.5589238    0.3634114  13.84  0.001501466    1.768    0.434
       255 -10.7272     11.2041     44.7580   1.0248925949e+02   6.5947378428e+01    0.4255054    0.2030755 -42.97  0.001470384    1.585    0.369
       256  -9.9083     17.1442     51.8521   1.0186981466e+02   6.4120478718e+01    0.1655543    0.1507321 -45.68 0.0002731726    1.235    0.190
       257 -12.1264    147.1302     56.8584   5.8846450582e+01   4.0918290521e+01    0.2782819    0.2675064  -0.44 0.0002951334    1.061    0.058
       258  -9.6211    166.8794     48.8350   5.2409439764e+01   3.7240584159e+01    0.2103471    0.1863464  36.60 0.0004260449    1.182    0.154
       259 -10.8410    112.3238     47.5185   6.4319182373e+01   5.0502779552e+01    0.5078592    0.3387154  78.06   0.00171089    2.569    0.611
       260 -10.3221    155.5833     48.2504   5.4374259074e+01   4.0125081555e+01    0.2014064    0.1433424 -14.11 0.0009533071    1.669    0.401
       261 -10.8934    143.2044     45.7760   5.6142290637e+01   4.3519961400e+01    0.3128922    0.2765631 -73.05 0.0006714087    1.287    0.223
       262  -9.0896     62.6569     47.2406   8.0837635160e+01   5.9970377919e+01     0.117871    0.1070343  58.11  0.000421507    1.561    0.359
       263 -10.9933     91.7951     43.4216   6.8938666687e+01   5.5454979325e+01    0.5014974    0.2322284 -41.67  0.002079368    2.372    0.578
       264  -9.4165     57.4915     46.4606   8.2597873388e+01   6.0872177262e+01    0.1336808    0.1148492 -12.58 4.049586e-05    1.043    0.041
       265 -10.6902     51.0707     44.9606   8.4669199278e+01   6.2028953735e+01    0.2142501    0.1634843 -29.92 0.0003396408    1.153    0.133
       266 -11.6233     51.6215     40.3416   8.2648348026e+01   6.2765278405e+01    0.5972718    0.3167538  31.99  0.001897084    1.931    0.482
       267  -9.6440    174.3591     43.8338   4.9641969489e+01   3.6076088873e+01    0.2027125    0.1739988  80.97  0.001114995    1.155    0.135
       268 -10.4736    124.1561     42.9036   5.9572521223e+01   4.8481995791e+01    0.4415987    0.2930684 -25.31  0.002139477    1.596    0.373
       269  -9.7934     73.5630     44.0520   7.5461685313e+01   5.8744530524e+01    0.2184834    0.1615589  32.54 0.0005493321    1.329    0.248
       270 -10.5416     83.3275     40.5104   7.0611734362e+01   5.7543237474e+01    0.3905504    0.2297447  18.19  0.001740494    2.131    0.531
       271 -11.8587     81.6885     34.7597   6.8868914019e+01   5.8704952829e+01    0.5948392    0.3310023 -36.30  0.002876129    1.856    0.461
       272 -10.9983     65.4865     41.5365   7.7516438506e+01   6.0500657347e+01    0.3539779    0.2465903  30.01  0.001896392    1.408    0.290
       273 -11.9051     69.0727     38.1347   7.4778192152e+01   6.0458342280e+01    0.7750173    0.4894758   2.52   0.00378318    1.916    0.478
       274 -11.0730     73.7051     37.3212   7.2728485335e+01   5.9786213131e+01    0.2905478     0.182622 -19.45  0.001148556    1.629    0.386
       275 -11.7838     36.9188    243.3122   1.2209124867e+02   1.9233709295e+01    0.5880361    0.2860371  87.36  0.003338408    2.098    0.523
       276 -12.7383     28.0128     38.8030   9.2602348537e+01   6.5781018693e+01    0.6940875    0.3247311 -35.85  0.001814403    1.827    0.453
       277 -12.2991     24.5391     35.0287   9.2849434982e+01   6.6793142707e+01    0.2923571     0.188351  -9.59  0.000320894    1.514    0.339
       278 -10.9943      7.0040     41.2888   1.0343187848e+02   6.6884864036e+01    0.2608778    0.1198173 -48.29 0.0006598076    1.598    0.374
       279  -9.8587    163.1500     42.1355   5.1073218181e+01   3.9091065292e+01    0.2047085    0.1853525  32.92 0.0003897886    1.163    0.140
       280 -10.0650     96.6865     41.7040   6.6741725243e+01   5.4722875484e+01    0.2248332    0.1838249  11.67 0.0006568286    1.177    0.151
       281 -11.6201    100.6556     37.4395   6.3915486554e+01   5.4504636996e+01    0.5674834    0.3024683  29.11 0.0007020935    2.205    0.546
       282 -11.3384     23.8261     41.8691   9.5656450913e+01   6.5583343106e+01     0.697961    0.4813363  73.89   0.00319791    3.954    0.747
       283 -10.1585    137.9183     41.0245   5.5722398229e+01   4.5461619359e+01    0.2168397    0.1987492  49.51 0.0005892637    1.032    0.031
       284  -9.8823    188.0477     39.4599   4.6290602788e+01   3.3279349368e+01    0.1996002    0.1307405  66.69 -1.729141e-05    1.468    0.319
       285  -9.7285    179.0307     36.7414   4.6870617638e+01   3.5847527992e+01    0.1966526    0.1703894  68.11 0.0003460156    1.092    0.084
       286 -10.3073      2.2469     36.8729   1.0440857010e+02   6.8003353493e+01    0.2261325    0.1302247 -17.93  0.001376017    1.680    0.405
       287  -9.3181    154.4607     36.5050   5.0923568325e+01   4.1985474786e+01    0.1430695    0.1309463  46.55 9.115491e-05    1.064    0.060
       288 -12.1361     57.5274     34.2920   7.7731318065e+01   6.2908906304e+01    0.3711434    0.3115271 -43.34  0.002280916    1.492    0.330
       289 -10.1847    147.5159    245.5141   1.0097126551e+02   3.5968538119e+00     0.125566    0.1029143  33.80 5.053295e-05    1.010    0.010
       290 -11.4958      8.6550     33.2701   1.0006289224e+02   6.8334433694e+01    0.5311849    0.4174731  34.81  0.003223356    1.761    0.432
       291 -11.2320     17.9025     31.1161   9.4636216359e+01   6.8068781211e+01    0.3346683    0.2190945  14.78  0.001956962    1.595    0.373
       292 -12.6670     74.1108    238.3340   1.1474788306e+02   1.5614116564e+01    0.7629349    0.5539942 -83.42  0.005007141    1.426    0.299
       293 -10.3955     88.8811    241.2486   1.1213245247e+02   1.3061725983e+01    0.2082397    0.1506319 -34.30  0.001228671    2.136    0.532
       294 -10.4814     16.3528     18.8132   9.0427011919e+01   7.0308925124e+01    0.2253109    0.1177109 -34.45 0.0002310563    1.529    0.346
       295 -10.0872    195.4044    238.7375   9.0552399683e+01  -2.7531703116e+00    0.2550254    0.1707119  18.28   0.00150281    1.347    0.258
       296  -9.8463    135.0242    238.7455   1.0259397917e+02   6.6480215817e+00    0.2681504     0.125644 -33.68  0.001065002    3.943    0.746
       297 -10.2574    243.9385    237.9477   8.1447057846e+01  -9.5416327698e+00    0.1527494    0.1460643   6.23 0.0008864854    1.702    0.413
       298 -11.7231     30.0221    233.9327   1.2275474769e+02   2.1760307026e+01    0.3951351    0.1736809  81.59  0.002049261    2.424    0.587
       299 -11.8018    234.5038    248.5108   8.4853001030e+01  -9.5804557702e+00    0.2432067    0.1774014  10.63  0.001298082    1.024    0.023
       300  -9.8793     94.9935     34.7060   6.4551067645e+01   5.6070848818e+01    0.2554395      0.19571 -16.95 0.0007914563    1.306    0.235
       301 -10.0418     97.5040     31.4996   6.2536093303e+01   5.5973600392e+01    0.2678918    0.2073964  32.94  0.001492732    1.169    0.145
       302 -11.4232    101.2142     28.4398   6.0265683685e+01   5.5567355756e+01    0.3544374    0.3069704 -25.59 0.0004744946    1.247    0.198
       303 -10.5195    201.9224     34.1081   4.3009925160e+01   3.0604712105e+01    0.1973388    0.1831383 -82.84 0.0003626227    1.039    0.037
       304 -11.0232    192.8343     33.0812   4.3907750153e+01   3.2919759306e+01    0.2480917    0.2015896 -75.75 0.0002999188    1.212    0.175
       305 -10.8226    165.4423     32.1644   4.7681857437e+01   3.9790249356e+01    0.3136378    0.2675858  40.06  0.001777541    1.224    0.183
       306 -10.3229    247.0984     33.1526   3.8012558427e+01   2.0591578267e+01    0.1691874    0.1588293 -75.80 0.0003491652    1.184    0.155
       307  -9.9545    225.6366     33.0771   4.0062258479e+01   2.5239769769e+01    0.2809044    0.1275251 -51.02  0.001268369    2.120    0.528
       308  -9.8656    121.1004     33.0000   5.6802479596e+01   5.0514913699e+01    0.4000769   0.07523739  56.71   0.00105445    4.963    0.798
       309 -11.3702     48.2011     31.7481   8.0595907549e+01   6.4657234557e+01    0.3200162    0.2114754  25.65   0.00184454    1.482    0.325
       310 -10.0063     50.3074     27.6926   7.7935184416e+01   6.4991430975e+01    0.1973192     0.183876   1.36  0.001328956    1.337    0.252
       311  -9.4985     88.9601     31.5055   6.5153356921e+01   5.7735618329e+01    0.2022197    0.1237035  43.46  0.000956855    1.524    0.344
       312 -10.5189    236.0667     29.8732   3.8303836936e+01   2.3338338093e+01    0.2738442    0.1623045  68.29 0.0009830418    1.693    0.409
       313 -10.7268    111.9074     26.3095   5.6601504948e+01   5.3445688666e+01     0.476842    0.1918573 -27.50  0.001764791    2.625    0.619
       314 -10.7874     69.7614     26.6229   6.9683986671e+01   6.2022746766e+01    0.2767859    0.2336071  -8.85  0.001087402    1.116    0.104
       315 -11.4470    196.0114     26.3768   4.1738148252e+01   3.2955391230e+01    0.4448372    0.2570519  69.54  0.001748346    1.628    0.386
       316 -10.7923    131.8644     26.0405   5.1923277796e+01   4.8786731042e+01    0.3386818     0.194792  48.31 0.0007434704    1.566    0.361
       317 -10.2890    128.4915     23.9205   5.1894590905e+01   4.9834609156e+01    0.2663917    0.2040416 -43.09  0.001092717    1.481    0.325
       318 -10.0900    177.3196    235.0715   9.3532091835e+01   5.8299007711e-01    0.1961433    0.1467727  -9.66 0.0009043538    1.483    0.326
       319  -9.7157    218.6940     26.0059   3.9114201369e+01   2.7669915578e+01     0.171617    0.1534277 -60.20 0.0003355008    1.086    0.079
       320 -10.0528    214.3224     25.9312   3.9550366603e+01   2.8682769875e+01    0.1803074    0.1645282 -58.63 0.0009982856    1.106    0.096
       321 -10.3162    118.8552     25.8332   5.4734489242e+01   5.1899574729e+01    0.2205305    0.1904612 -14.45  0.000283634    1.226    0.184
       322 -10.3680    120.1330     21.3669   5.2806359811e+01   5.2095518129e+01     0.321671    0.1893993  30.66  0.001475839    1.858    0.462
       323 -10.8863      9.4456     24.8647   9.6611216833e+01   6.9816892362e+01    0.4085838    0.1528636  16.41  0.001648666    2.925    0.658
       324  -9.4203    108.4869     24.5642   5.6807259114e+01   5.4421610862e+01     0.140109    0.1190623  31.57 6.484128e-05    1.049    0.047
       325 -10.7658     95.4870     23.4665   5.9914601174e+01   5.7393201989e+01     0.499882    0.2225845  59.10  0.002033891    2.604    0.616
       326 -10.9700     90.3468     20.7087   6.0290583623e+01   5.8789975860e+01    0.3027853    0.2199147  34.00  0.001013014    1.214    0.176
       327 -10.3208     59.4998     21.4750   7.1332782123e+01   6.4459046848e+01    0.1306638    0.1051626   5.47 4.733048e-05    1.020    0.019
       328 -10.1962    185.7723     21.7300   4.1775782079e+01   3.5968154505e+01    0.3116387    0.1666328 -54.15  0.001341528    2.042    0.510
       329 -11.4597    153.6098    233.1364   9.8035824122e+01   4.6606269378e+00    0.3014638    0.2087932 -63.77  0.001148251    2.015    0.504
       330  -9.7048     38.3591    232.8471   1.2114553727e+02   2.1054483302e+01    0.1521373    0.1173825  82.65 0.0007069734    1.134    0.118
       331 -10.2357     54.2277     23.6094   7.4453005198e+01   6.5003990259e+01    0.1745337    0.1048078  24.72 0.0003919031    1.598    0.374
       332  -9.7220     36.3423     22.9783   8.2160470697e+01   6.7562623213e+01     0.168791    0.1261465 -23.34 0.0003746508    1.150    0.130
       333  -9.5231    155.7874     21.8399   4.6119391432e+01   4.3371741636e+01    0.1848922    0.1516368 -77.05 0.0002221237    1.320    0.242
       334  -9.7805    124.1364     21.9043   5.2114802281e+01   5.1092781303e+01    0.1860648    0.1361742  41.14            0    1.254    0.203
       335 -11.2260     67.4332     21.7807   6.8415092370e+01   6.3070784138e+01    0.3697111    0.1484105  43.80  0.001575292    2.363    0.577
       336  -9.7805    168.6992     21.6309   4.4066222590e+01   4.0187442518e+01    0.1902002    0.1212274  78.01 0.0007366993    1.569    0.363
       337  -9.9941      1.7566     25.6880   1.0100831554e+02   7.0141469886e+01    0.1969082     0.109997 -40.75 0.0006327499    1.311    0.238
       338 -10.1567     24.1078    232.4588   1.2374115891e+02   2.2667350869e+01    0.1818398    0.1536426 -72.32 0.0007143241    1.431    0.301
       339  -8.9686    115.6628    244.6905   1.0720506830e+02   8.5778517522e+00    0.1168913   0.09229547   7.17 0.0007043773    1.683    0.406
       340  -9.2860     13.2790    231.3409   1.2561810893e+02   2.3967698781e+01   0.09542286   0.07595471 -62.27 0.0005678557    1.624    0.384
       341  -9.3163    169.7669    229.0014   9.4116287383e+01   2.7462560100e+00    0.1518487    0.1087222 -40.77 0.0006054551    1.596    0.374
       342  -9.6647    190.4940    226.4889   8.9539790168e+01  -1.7454980552e-01    0.2029803    0.1148635 -26.84  0.000729852    2.051    0.512
       343 -10.7873     86.4460    233.1318   1.1180322912e+02   1.4913276632e+01    0.2662409    0.1232559  50.88 0.0009593258    1.939    0.484
       344  -9.4762    130.6702    227.3253   1.0197552950e+02   9.3413958549e+00    0.1332837   0.09248739  63.24 0.0007050469    1.703    0.413
       345 -10.9864    120.5592    226.4875   1.0398764355e+02   1.1092124174e+01     0.218239    0.1680963  58.37  0.001058412    1.286    0.222
       346 -10.4528    170.6415     18.7392   4.2950802257e+01   4.0014597734e+01    0.2287894    0.1522445 -84.13  0.000244525    1.674    0.403
       347  -9.5899    139.7974     19.6414   4.8188912660e+01   4.7550158994e+01    0.1848916    0.1221204  72.09 0.0003982745    1.529    0.346
       348  -9.7783    160.0010     17.9788   4.4274504563e+01   4.2731338044e+01    0.2129475    0.1495627 -67.77 0.0003202072    1.638    0.390
       349  -9.9627     65.9705    226.2057   1.1525760842e+02   1.9022829444e+01    0.1937302    0.1601823 -87.94 0.0006880616    1.190    0.160
       350  -9.8819     60.0349     17.4840   6.9284933910e+01   6.4883805223e+01    0.1849641    0.1138462  39.66  0.001020436    1.565    0.361
       351  -9.9170    186.3297     15.9768   4.0160388356e+01   3.6450680114e+01    0.2973019    0.1229004  47.29  0.001195517    2.773    0.639
       352 -10.5399      4.2961    226.1130   1.2694592884e+02   2.5819454795e+01    0.2541285    0.1121351  55.69  0.001442665    1.797    0.444
       353 -10.2929    160.0062    235.9780   9.7146001887e+01   3.1758603385e+00    0.1987813    0.1421782   6.87 0.0004884372    1.650    0.394
       354 -11.1935     21.0926    222.2004   1.2368638900e+02   2.4987045410e+01    0.2442919    0.1325334 -88.89  0.001386885    1.629    0.386
       355  -9.6590     77.8062     15.1647   6.1829868240e+01   6.1930046932e+01    0.1932487    0.1593208  15.39 0.0002452279    1.037    0.036
       356  -9.5670    126.5373    221.5242   1.0205490601e+02   1.1073258515e+01    0.2075708    0.1070368  46.90 1.460465e-05    1.789    0.441
       357 -10.1314    142.3779    220.7437   9.8565911146e+01   8.6435880341e+00    0.2393608     0.150449  21.69  0.001180951    1.822    0.451
       358  -9.2376     41.6702    220.7148   1.1963641327e+02   2.3084456532e+01    0.1014667   0.09064647 -39.63 0.0007009676    1.613    0.380
       359  -9.5026    174.0367    220.0000   9.1803314349e+01   3.5333353431e+00    0.2250085   0.06706504  38.19 0.0008040797    2.954    0.661
       360 -11.4742      9.6939    217.1613   1.2551708749e+02   2.7094369237e+01    0.2914037    0.1789846  58.69  0.001630998    1.328    0.247
       361  -9.5802     37.9345    217.4924   1.2012901949e+02   2.4161465809e+01     0.164459     0.104504  39.46 0.0006500728    1.537    0.349
       362 -11.3401     30.2452    215.9323   1.2152802578e+02   2.5314162824e+01    0.3326306    0.2401863  15.30  0.002096863    2.083    0.520
       363 -11.4419    235.9007    215.0557   7.8879221925e+01  -5.4353782674e+00    0.3037277    0.1826078 -16.36  0.001054976    1.626    0.385
       364 -11.3611    240.8834    211.8155   7.7391571911e+01  -5.7034828232e+00    0.3803247     0.239137  25.58  0.002218886    1.455    0.312
       365  -9.1779    194.6559    215.3038   8.6807462761e+01   9.1236570540e-01    0.1229375    0.1039405  60.66 0.0002672351    1.686    0.407
       366  -9.5349    137.2011    215.6130   9.8911530665e+01   1.0447842686e+01    0.1939539    0.1171391  28.68 0.0009430175    1.676    0.403
       367 -10.1975    109.5138    243.0041   1.0823660374e+02   9.7820304486e+00     0.262299    0.1515626  57.43  0.001053357    1.779    0.438
       368 -10.6112     21.5813    212.6167   1.2299276382e+02   2.6883740505e+01    0.2842218    0.1440232  55.65  0.001657112    1.687    0.407
       369 -10.0725    208.9563    212.0363   8.3398152947e+01  -8.8170931539e-01    0.2030861    0.1645431   6.91 0.0005094152    1.052    0.050
       370  -9.4667     76.3613    212.2853   1.1170218327e+02   2.0471711178e+01    0.1173686     0.100403 -12.91 0.0006295432    1.683    0.406
       371 -12.2741      4.1336    208.1060   1.2606821382e+02   2.9432864149e+01    0.5696243    0.2991894 -81.30  0.003538739    1.590    0.371
       372 -10.8062     19.7438    200.5965   1.2255040298e+02   2.9589698070e+01    0.2758687    0.1135994 -62.20  0.001208487    2.340    0.573
       373 -10.2952    175.3367    202.7371   8.8565806222e+01   6.3016052470e+00     0.222795     0.196862  44.45 0.0005269781    1.233    0.189
       374  -9.3716    243.3140    202.3057   7.5186905880e+01  -4.7130088589e+00    0.1318448   0.08339777   0.39 0.0003183072    1.622    0.383
       375 -10.0744     10.7642    208.5873   1.2483268123e+02   2.8745169619e+01    0.1908371    0.1485994 -54.64 0.0006324197    1.664    0.399
       376  -9.1049    223.4830    201.5115   7.8661035656e+01  -1.5688796465e+00    0.1297645    0.1128403   2.04 0.0006705057    1.112    0.101
       377  -9.2449     34.4468    201.4335   1.1958209833e+02   2.7923946344e+01    0.1179159   0.09953122  82.60 0.0008010276    1.077    0.072
       378  -9.6044    206.3257    199.3182   8.1561752155e+01   1.5743586954e+00    0.1423064   0.09535895   2.39 0.0007045511    1.676    0.403
       379  -9.4496    215.5023    194.5441   7.8848728536e+01   8.2261866041e-01    0.1383366     0.113789   2.35 2.616801e-06    1.057    0.054
       380 -10.7565     16.0534    193.2365   1.2279422543e+02   3.1523101429e+01    0.2333725    0.2054816 -38.87  0.001015654    1.590    0.371
       381  -9.4986    211.5704    188.2110   7.8372737243e+01   2.5277557184e+00    0.1960336    0.1195244 -23.71 0.0009456514    1.696    0.410
       382 -11.4188     16.0274    182.9570   1.2205053417e+02   3.3793925855e+01    0.4711708    0.2212335  84.34  0.002366578    2.100    0.524
       383  -9.7637    167.4763    183.5057   8.6681588413e+01   1.1319948020e+01    0.1449154    0.1340574  16.19 0.0002871266    1.010    0.009
       384  -9.5847     58.8105    182.1856   1.1223931089e+02   2.9423354761e+01    0.1714159    0.1514263 -48.04 0.0007934335    1.332    0.249
       385  -9.4262      1.5508    180.4958   1.2497160757e+02   3.5534265905e+01    0.1169546   0.08871847  84.88 0.0001873424    1.012    0.012
       386  -9.8266    244.4357    178.5032   7.0333824469e+01  -1.3339687690e+00    0.2376004    0.1080828 -25.53  0.001019376    2.294    0.564
       387  -9.3277     69.6448    178.1337   1.0912787555e+02   2.8958835967e+01    0.1882313    0.1104975 -54.38 0.0005770138    1.725    0.420
       388 -10.4657     46.4153    177.5867   1.1465020024e+02   3.1966969450e+01    0.2728038     0.218669  76.40  0.001398853    1.125    0.111
