#   1 NUMBER                 Running object number                                     
#   2 MAG_AUTO               Kron-like elliptical aperture magnitude                    [mag]
#   3 X_IMAGE                Object position along x                                    [pixel]
#   4 Y_IMAGE                Object position along y                                    [pixel]
#   5 X_WORLD                Barycenter position along world x axis                     [deg]
#   6 Y_WORLD                Barycenter position along world y axis                     [deg]
#   7 A_WORLD                Profile RMS along major axis (world units)                 [deg]
#   8 B_WORLD                Profile RMS along minor axis (world units)                 [deg]
#   9 THETA_WORLD            Position angle (CCW/world-x)                               [deg]
#  10 FWHM_WORLD             FWHM assuming a gaussian core                              [deg]
#  11 ELONGATION             A_IMAGE/B_IMAGE                                           
#  12 ELLIPTICITY            1 - B_IMAGE/A_IMAGE                                       
         1 -13.6911      6.6080     13.3224   1.2077247405e+02   7.1064234605e+01     2.997336    0.6970102 -47.05   0.01333675    2.915    0.657
         2 -13.3648    189.6850     27.6168   7.3018777551e+01   3.3941243036e+01     1.236644     1.125999  57.16  0.005700147    1.080    0.074
         3 -13.8978    202.2735      9.8109   6.6299404764e+01   3.2629002642e+01     1.838503     1.147855  42.25  0.009029845    1.793    0.442
         4 -10.3304      1.5760     51.7730   1.3491770503e+02   6.4125592223e+01    0.2683951    0.1407214 -65.06 0.0004840562    1.533    0.348
         5 -10.1208    250.0000    248.4981   1.1350607188e+02  -9.2188682171e+00    0.1737513    0.1095082 -19.38   0.00121485    1.699    0.411
         6 -11.3711    139.3049    248.9659   1.3176389320e+02   7.5877406509e+00    0.3197619    0.2522971 -72.11  0.002360736    1.609    0.379
         7 -11.2674    124.0732    249.9426   1.3440820340e+02   9.7470784096e+00    0.4817585    0.1194031  47.51  0.002030466    3.166    0.684
         8  -9.7992    111.0395    250.5359   1.3661938208e+02   1.1569924100e+01    0.1737627   0.08331418  45.87 0.0008079367    1.602    0.376
         9 -10.4460     98.7483    249.5795   1.3854473472e+02   1.3457064545e+01     0.248804    0.1467264  55.48  0.001273031    1.323    0.244
        10 -10.8733    102.5200    247.8479   1.3777144176e+02   1.3185624772e+01    0.2401144    0.1607953  56.85  0.000747545    1.158    0.137
        11  -9.9276     73.6936    250.0019   1.4260860405e+02   1.6760840870e+01    0.1447085    0.1085771  69.88 0.0005829504    1.088    0.081
        12 -10.0520     67.1803    250.2056   1.4364960332e+02   1.7558151276e+01    0.1485915     0.116865  62.57 0.0009645101    1.152    0.132
        13 -12.3928     32.8130    246.6802   1.4870882668e+02   2.2148222500e+01    0.6341454    0.5747628  21.67  0.005509674    1.999    0.500
        14 -14.3963      4.9131    187.2913   1.4990978306e+02   3.5410719721e+01     2.723776    0.8770886 -69.42   0.01477913    2.539    0.606
        15 -14.4425     55.0169    210.6434   1.4264736611e+02   2.5767623641e+01     7.495868    0.8261732  48.66   0.02405505    6.096    0.836
        16 -14.6217     18.8615    171.0250   1.4617473764e+02   3.7387314818e+01     5.097056     1.605468  88.51   0.01669728    5.999    0.833
        17 -10.3368     46.4231    248.5564   1.4675514093e+02   2.0322475326e+01    0.2581835    0.1134442  71.99  0.001019547    2.255    0.557
        18 -13.3404      9.6574    206.7464   1.5020141996e+02   3.1342518017e+01     0.693487    0.5677664  69.58  0.002700549    1.264    0.209
        19 -12.4641     26.6106    203.2671   1.4710230315e+02   3.0328179003e+01    0.4762711    0.1933669  54.75  0.002762101    2.068    0.517
        20 -10.8113    232.9478    235.8105   1.1427457457e+02  -5.4826255025e+00    0.2743175    0.1945581 -57.77  0.001578537    3.113    0.679
        21  -9.4224    183.4724    238.4855   1.2295854249e+02   2.0039935802e+00    0.1178242   0.09218547  35.65 0.0002365282    1.013    0.013
        22  -9.9191     16.4197    250.2870   1.5129051754e+02   2.3294329030e+01    0.1487232    0.1017328  43.32 0.0009905752    1.638    0.390
        23  -9.9388     74.6742    242.9943   1.4191747648e+02   1.7731683223e+01    0.1470219     0.108743  72.65  0.000607738    1.122    0.108
        24 -14.6882      3.3685    230.4809   1.5234163155e+02   2.7773615870e+01      11.2636    0.3389557 -74.76   0.03578297    9.511    0.895
        25 -12.6580     43.3062    233.4370   1.4630185503e+02   2.3146081067e+01    0.2855902    0.2611152 -81.05 0.0007905665    1.544    0.352
        26 -13.8398     49.2585    224.4039   1.4471005966e+02   2.3999442700e+01    0.9578822    0.6014326  82.47    0.0055969    1.377    0.274
        27  -8.9825     33.7921    229.0961   1.4755484239e+02   2.4945511563e+01    0.1624016   0.09950738  69.50 0.0006406007    1.237    0.192
        28 -10.8164    173.6658    222.0146   1.2233890249e+02   5.8206241411e+00    0.3669368    0.2881446  71.74  0.002313789    1.666    0.400
        29  -8.6540    152.5614    212.7658   1.2485131789e+02   1.0790997647e+01    0.1399176    0.1195792 -77.22 0.0002889452    1.416    0.294
        30 -11.3833     67.7109    198.7117   1.3921968699e+02   2.6398254444e+01    0.3096003    0.2013702 -52.04  0.001394711    1.940    0.485
        31  -9.8423    191.8729    193.0546   1.1430485833e+02   6.8501112021e+00    0.5349351    0.2734879 -61.08  0.001719636    5.911    0.831
        32 -11.5686     72.9979    190.9180   1.3737787100e+02   2.7202294623e+01    0.2478543    0.2096153 -65.67 0.0006198311    1.333    0.250
        33 -10.0016    152.2340    248.3973   1.2952894960e+02   5.6725947448e+00    0.1629826   0.08354654  49.14 0.0003497236    1.592    0.372
        34  -8.7602    104.7908    180.7593   1.2963560959e+02   2.4512924934e+01    0.1709238    0.1297937  72.18 0.0003543297    1.305    0.234
        35 -13.2120     69.4775    176.0688   1.3638029072e+02   3.0654692320e+01    0.4561744    0.2670072 -45.95  0.001761027    2.283    0.562
        36 -10.7437     81.9989    178.2940   1.3404889866e+02   2.8468066816e+01     0.221159    0.1912234  86.63 0.0003317385    1.052    0.049
        37  -8.6008    171.5556    173.4964   1.1462712055e+02   1.3856754508e+01    0.1363493    0.1262168  40.21  0.000238973    1.034    0.033
        38  -9.5620    131.7151    173.2614   1.2279973185e+02   2.1398122208e+01    0.2147166     0.108988  32.91 0.0008972872    2.385    0.581
        39 -11.8981     89.0023    168.6401   1.3124295937e+02   2.9423588501e+01    0.6394066    0.5141464  56.90  0.003964026    1.171    0.146
        40 -10.5311    192.3692    156.0376   1.0696435802e+02   1.2701613165e+01    0.4390775    0.3128803 -77.08  0.001501589    2.529    0.605
        41 -11.2713     32.5261    156.3671   1.4201601232e+02   3.9126978327e+01    0.3402784     0.163089 -83.06  0.001781898    1.980    0.495
        42 -12.7994     66.0484    142.9369   1.3264604271e+02   3.8195719870e+01     1.358225    0.7042679  84.13  0.003164911    3.316    0.698
        43 -11.9362     89.5270    151.8641   1.2853975347e+02   3.2899713563e+01    0.2618909    0.2389887 -39.84 0.0006380409    1.310    0.236
        44  -8.8170    103.4586    148.0944   1.2464581381e+02   3.1477853641e+01    0.1985047    0.1286084 -55.48 0.0005217494    1.513    0.339
        45  -9.1541    181.7975    144.5461   1.0655620180e+02   1.6907611374e+01    0.2148468    0.1955295 -77.16 0.0005285975    1.311    0.238
        46  -8.2959    192.0120    143.9824   1.0438537407e+02   1.4845076632e+01    0.1693669    0.1575949 -12.77 0.0003676518    1.065    0.061
        47  -9.5739    110.8593    137.5378   1.2086953397e+02   3.2474117523e+01    0.2992632    0.2115561 -27.06  0.001428142    1.952    0.488
        48  -8.9363    173.9626    137.4493   1.0655872095e+02   1.9874514979e+01    0.1997669    0.1311993  72.28  0.000554132    2.375    0.579
        49 -10.6276     98.6114    134.9101   1.2332062084e+02   3.5144689737e+01    0.2986637    0.2292542 -37.98 0.0009722411    1.486    0.327
        50  -9.7223    167.3388    131.3058   1.0652700211e+02   2.2459536575e+01    0.2681845    0.2397553  82.75 0.0006236258    1.294    0.227
        51 -10.4384     25.0018    126.5059   1.4034591986e+02   4.6330077537e+01    0.1546303     0.115927  37.33 0.0007126956    1.588    0.370
        52  -9.5440     71.1447    124.9229   1.2834305448e+02   4.1533460317e+01    0.2030896    0.1822815  65.44 0.0003995895    1.162    0.139
        53  -9.2115    107.9668    124.0706   1.1873766178e+02   3.5905688146e+01    0.1989959    0.1908432 -75.11            0    1.013    0.013
        54  -9.7569    154.7343    120.1522   1.0659534793e+02   2.7365343965e+01    0.3969339    0.2677784  80.49  0.001583926    2.470    0.595
        55  -9.7819    100.7189    152.4879   1.2606011172e+02   3.0991357602e+01    0.2538811    0.2329229 -85.93 0.0007578899    1.027    0.026
        56  -8.3869    146.3798    113.7021   1.0688594058e+02   3.0462664477e+01    0.1561486    0.1206914  88.88 0.0007022884    1.761    0.432
        57  -8.9966    203.2256    111.5752   9.4419974065e+01   1.7969081357e+01    0.2073691     0.137059  39.11 0.0006487052    1.571    0.363
        58 -10.5750    168.1341    113.2554   1.0189013723e+02   2.5715288641e+01    0.3570687    0.2944517 -77.79 0.0009129479    1.527    0.345
        59 -10.2329     44.5610    109.0404   1.3257753473e+02   4.8347098234e+01    0.2642836    0.1325684  51.68  0.001268159    2.473    0.596
        60 -10.7043      2.2675     77.3274   1.3962233583e+02   5.8732325656e+01    0.4065747   0.08740196 -70.40  0.001442887    4.147    0.759
        61  -8.2835    184.6669     77.6523   8.8716823232e+01   2.8124961794e+01    0.1635875    0.1175718  17.55 0.0007048785    1.770    0.435
        62  -9.6863    155.2912     75.9854   9.4237473545e+01   3.5592946059e+01    0.2233649    0.2030893 -27.20  0.001087846    1.084    0.078
        63  -9.6601     18.6282     66.9405   1.3219394731e+02   5.9908538308e+01    0.1777932    0.1671742  38.76 0.0005132245    1.353    0.261
        64 -11.4341      3.4663     62.1756   1.3645749480e+02   6.1877043762e+01    0.3458747    0.2668487 -67.11   0.00113444    1.130    0.115
        65 -10.9245     17.7240     56.7123   1.3008491336e+02   6.2107504956e+01    0.4934589    0.1841318  37.21  0.002350315    3.450    0.710
        66 -10.8157    197.9390    244.9501   1.2140889976e+02  -1.0732931828e+00    0.3328166    0.2273883 -72.22  0.001755327    3.691    0.729
        67 -10.6398     81.4077    248.4487   1.4125884162e+02   1.5992214362e+01    0.2729599    0.1591307  69.04  0.001365278    1.579    0.367
        68 -10.7450     83.1040    244.1383   1.4063570170e+02   1.6436205784e+01    0.4229264    0.1869818  69.82  0.002084213    3.096    0.677
        69 -10.6883      5.7453     52.9826   1.3363065976e+02   6.3650285365e+01    0.1708364    0.1537049 -29.19 0.0006115353    1.258    0.205
