#   1 NUMBER                 Running object number                                     
#   2 MAG_AUTO               Kron-like elliptical aperture magnitude                    [mag]
#   3 X_IMAGE                Object position along x                                    [pixel]
#   4 Y_IMAGE                Object position along y                                    [pixel]
#   5 X_WORLD                Barycenter position along world x axis                     [deg]
#   6 Y_WORLD                Barycenter position along world y axis                     [deg]
#   7 A_WORLD                Profile RMS along major axis (world units)                 [deg]
#   8 B_WORLD                Profile RMS along minor axis (world units)                 [deg]
#   9 THETA_WORLD            Position angle (CCW/world-x)                               [deg]
#  10 FWHM_WORLD             FWHM assuming a gaussian core                              [deg]
#  11 ELONGATION             A_IMAGE/B_IMAGE                                           
#  12 ELLIPTICITY            1 - B_IMAGE/A_IMAGE                                       
         1 -11.4008     17.6839     20.7155   7.6202555761e+01   7.4049553058e+01    0.5373989    0.4097406  13.79  0.002240369    1.405    0.288
         2  -9.6555     72.5683     13.7915   4.2895822787e+01   6.5153929130e+01    0.3545122    0.1311069 -41.53  0.001196272    2.957    0.662
         3 -10.6971     38.3585     16.6771   5.9857286185e+01   7.1824122012e+01    0.4427466    0.2463875 -20.57  0.001699876    2.356    0.576
         4 -11.8992    236.3616     15.0179   2.1141196597e+01   2.5801446441e+01     0.409885    0.2386598 -48.12  0.001663695    1.415    0.293
         5 -11.6876    208.0400     12.7936   2.2250180946e+01   3.1841103261e+01    0.3109821    0.2252919 -17.93 0.0005762645    1.392    0.282
         6 -11.2784    203.7725     12.6572   2.2495590972e+01   3.2789240496e+01    0.3136742    0.1954258 -65.37   0.00171451    1.589    0.371
         7 -11.0147     13.4050     14.7073   7.6122088654e+01   7.5768106968e+01    0.4580319      0.29037 -69.68 0.0009199411    2.151    0.535
         8 -10.7788      4.5763      7.8658   7.9798192827e+01   7.8041203792e+01    0.4245805    0.3120313  24.36  0.002615558    1.493    0.330
         9 -10.1708    200.5159      1.4625   1.9603088576e+01   3.4516216449e+01    0.2382221     0.130822  45.35  0.001132646    2.370    0.578
        10 -11.7569    191.6701      9.9546   2.2570813870e+01   3.5771258800e+01    0.5326433    0.3449438  87.74  0.001878124    1.616    0.381
        11 -11.7134    193.8901      5.6519   2.1178873929e+01   3.5650332401e+01    0.3786161    0.2459486 -16.13   0.00142119    1.590    0.371
        12 -11.6038    197.2903      5.3236   2.0871122569e+01   3.4907062733e+01    0.3533369    0.1932147  81.78  0.001416154    1.924    0.480
        13 -11.4825     34.6922     12.3153   5.9117892149e+01   7.3186773909e+01     0.349847     0.327072  63.85    0.0011766    1.355    0.262
        14 -11.6789     29.4339      8.1578   5.9475504778e+01   7.4750549517e+01    0.4196756    0.3057452   4.03  0.002333633    1.525    0.344
        15  -9.6611    248.8233     12.0942   1.9830011969e+01   2.3718821954e+01     0.181384    0.1159373 -47.20 0.0004321814    1.249    0.200
        16 -12.0919    125.9574     10.9149   2.9649794030e+01   5.2025096581e+01    0.3111022    0.2589261 -61.67 0.0003177372    1.212    0.175
        17 -10.1727     91.4726     11.6738   3.6455102043e+01   6.0809171471e+01    0.4147207    0.1429043  52.59  0.001518481    2.620    0.618
        18 -10.3719     45.8036     10.0149   5.1342187027e+01   7.1469746405e+01     0.376543    0.2518689  10.46  0.001863137    1.847    0.458
        19  -9.3299     42.4723      9.4201   5.2637209755e+01   7.2207364460e+01    0.3603392    0.1650054 -37.70  0.001100167    2.133    0.531
        20 -10.9583    171.3645     10.4325   2.4322153056e+01   4.0543108198e+01    0.3308037    0.1237984 -47.94  0.001303204    2.516    0.603
        21 -10.4144     97.3392      9.7991   3.4191587069e+01   5.9521453073e+01    0.3312487    0.2189619 -11.35  0.001608942    1.638    0.389
        22 -10.2310     51.2784     10.4470   4.9028631448e+01   7.0297013224e+01    0.2757856    0.2261425  24.16 0.0007170014    1.201    0.168
        23 -10.2518     55.9444      9.1510   4.6144291161e+01   6.9476146831e+01    0.2359796    0.1887403 -13.86  0.001149268    1.228    0.185
        24 -10.1821    148.1160      8.9517   2.6086616208e+01   4.6489445528e+01    0.2622299    0.1246122 -49.54  0.001105651    2.105    0.525
        25 -11.2046    117.0231      8.6611   3.0053894049e+01   5.4558512236e+01    0.2939598    0.2492924 -79.53 0.0007311985    1.208    0.172
        26  -9.8690    165.2195      7.8297   2.4016533819e+01   4.2289181198e+01    0.1748334    0.1518365  32.43 -0.000430966    1.329    0.248
        27  -9.7295     16.4480      8.4740   6.9442037852e+01   7.6622980277e+01    0.1896022    0.1068095 -35.42 0.0009047739    1.655    0.396
        28 -11.9132     18.7768      2.4878   6.2818882445e+01   7.7343699118e+01     0.583092    0.2972777  34.07  0.002899187    2.057    0.514
        29  -9.5015     88.9607      6.4688   3.4323163250e+01   6.1964077936e+01    0.2124823    0.1739853 -14.85 0.0005316691    1.250    0.200
        30  -9.3652    246.9919      5.9619   1.8504888859e+01   2.4610789415e+01    0.1349898    0.1074354 -48.51 0.0003400229    1.077    0.072
        31 -11.3311    149.9034      2.8218   2.3694498952e+01   4.6563886587e+01     0.402735    0.2319749 -78.94  0.001166565    1.860    0.462
        32 -10.6697    104.8809      3.9250   2.9892078275e+01   5.8128150769e+01    0.2711083    0.2174986  22.14 0.0009794245    1.343    0.256
        33  -9.2980     38.9898      4.0125   5.0506574006e+01   7.3627417270e+01    0.1523888    0.1335559  27.65            0    1.108    0.097
        34 -10.9752    163.1765      2.6891   2.2484359910e+01   4.3238547238e+01    0.3756639    0.1646902 -69.95  0.001490794    2.703    0.630
        35 -10.8066    123.0956      1.6982   2.6197733925e+01   5.3575038835e+01    0.2245273    0.1839193  87.19 0.0009380531    1.199    0.166
        36 -10.0765     59.3995      3.1270   4.0784535198e+01   6.9404902550e+01    0.2610042    0.1819271  85.50  0.001192931    1.953    0.488
        37  -9.7024     80.4922      1.4174   3.3511648493e+01   6.4536864869e+01    0.1352021    0.1278213  45.01 0.0001027818    1.016    0.015
        38  -9.3254     28.9390      1.0000   5.4078625812e+01   7.5906333997e+01    0.2077571   0.07105395  47.53 0.0003968219    3.008    0.668
        39  -9.1607     18.4843    182.4851   1.0425943046e+02   3.4224043831e+01    0.1189616   0.09896195  61.52 0.0008101707    1.025    0.024
        40 -10.3335    110.0258    250.5681   8.9597557372e+01   1.2316396919e+01      0.16442   0.08102145  30.95 0.0004952015    1.545    0.353
        41 -10.7955     28.1757    250.3480   1.0515403921e+02   2.0739919057e+01    0.2370557   0.08693584  32.73  0.001386803    1.951    0.487
        42 -11.8810     18.4552    248.0367   1.0690150934e+02   2.1958978645e+01    0.2617696    0.2315192  17.61  0.002248341    1.438    0.305
        43 -12.4715      4.0929    233.4391   1.0924525788e+02   2.5578066202e+01    0.4868957     0.204351  40.09  0.003071699    1.646    0.392
        44 -12.7845     10.5993    243.7475   1.0825740145e+02   2.3316471790e+01     0.597916    0.2382322  85.27  0.003540934    2.689    0.628
        45 -12.1476      4.8384    240.9014   1.0927651440e+02   2.4254894492e+01    0.4298724    0.2186209  36.32  0.002968629    1.459    0.314
        46  -9.0089     22.6836    179.6816   1.0306627209e+02   3.4461801756e+01    0.1124617   0.08903097 -40.68 0.0003647491    1.655    0.396
        47  -9.3137     69.0252    178.3419   9.1287802009e+01   2.9818015179e+01    0.2074317    0.1071742   4.68 0.0006038115    4.670    0.786
        48  -9.4127      3.5029    177.5417   1.0772024206e+02   3.6485528196e+01    0.1170874   0.09592333  64.13 2.489571e-05    1.032    0.031
        49  -9.8962      1.6512    171.1749   1.0794708331e+02   3.8013190481e+01    0.1642049   0.09390704 -74.61 0.0006146797    1.714    0.416
        50  -9.7071      6.6766    168.3150   1.0654588596e+02   3.8283185753e+01     0.133165   0.06777991  56.64 0.0002528646    1.663    0.399
        51 -10.3848      1.6182    158.0635   1.0743994703e+02   4.0978407657e+01    0.1676783    0.1341109  77.44 0.0005707694    1.065    0.061
        52 -11.3258      4.8865    153.9832   1.0636072887e+02   4.1700311919e+01    0.4567857    0.1888832  39.09  0.002255278    2.054    0.513
        53 -10.7016     23.9912    148.6120   1.0057229670e+02   4.1462729380e+01    0.3336923    0.1609036  68.12  0.001522291    2.166    0.538
        54 -10.9600      6.3844    145.3059   1.0548379914e+02   4.3655393208e+01    0.2171542    0.1633688  67.88 0.0005038358    1.135    0.119
        55 -10.0538     29.0347    143.0300   9.8588853738e+01   4.2358078358e+01    0.1944769    0.1680907  70.86            0    1.026    0.025
        56  -9.3795    236.1900    138.4040   4.9569683868e+01   1.1061297172e+01    0.1383424    0.1165943  47.12 0.0009429628    1.607    0.378
        57  -9.0531     25.3426    136.2524   9.9077384763e+01   4.4367849509e+01    0.1245682   0.09692769 -36.19 0.0005847032    1.578    0.366
        58  -9.7072     96.0924    133.9035   7.7320420341e+01   3.5822976795e+01    0.2162694    0.1903512  77.62 0.0006606088    1.227    0.185
        59  -9.4300    213.4743    134.0000   5.2006456945e+01   1.5162117124e+01    0.2416566   0.07116082  46.30  0.000916245    3.787    0.736
        60  -9.7319     50.1880    131.8053   9.0717119475e+01   4.2891735648e+01    0.1788108    0.1563434 -40.30 0.0002781469    1.297    0.229
        61  -9.8637     63.0148    128.1687   8.6100769176e+01   4.2163637762e+01    0.1901436    0.1777159  64.03  0.001108068    1.046    0.044
        62 -10.3676     41.5030    127.4797   9.2902942414e+01   4.4968033875e+01    0.1381458    0.1241332  81.57 0.0008102873    1.016    0.015
        63  -9.4439    226.4760    124.5430   4.8041615925e+01   1.4375265742e+01    0.1254612    0.1025688 -19.63 0.0002035655    1.041    0.040
        64 -11.6191     24.5672    122.0396   9.7870373599e+01   4.8024740562e+01    0.4316842    0.2219021  40.64  0.002055177    1.878    0.468
        65 -11.7863      9.8964    120.5924   1.0271013815e+02   4.9543664480e+01    0.4100724    0.2818479  46.10  0.000854625    1.417    0.294
        66  -9.9990     86.3650    118.7778   7.7031789009e+01   4.0935799516e+01    0.2100327    0.1289249 -46.90 0.0004982963    1.648    0.393
        67 -10.1626     69.1355    116.6712   8.2021365130e+01   4.4140435166e+01    0.2353138    0.1906541 -77.59 0.0005734699    1.247    0.198
        68 -10.5558      1.9952    113.8927   1.0492327420e+02   5.1753115037e+01    0.2260925    0.1603724 -85.96            0    1.205    0.170
        69  -9.9358     56.0074    121.2515   8.7182105937e+01   4.4811708965e+01    0.1927051    0.1802694  79.84 0.0004773543    1.024    0.023
        70 -11.0477     13.5008    108.4985   1.0031956490e+02   5.2405927488e+01    0.2089675    0.1141404  87.31 0.0008770179    1.759    0.432
        71  -8.9518     84.2996    110.2879   7.5767295338e+01   4.3300205254e+01    0.1448815    0.1154995 -19.44 0.0002363705    1.557    0.358
        72 -10.2869     44.3255    110.0763   8.9280986130e+01   4.9095931479e+01    0.1987016    0.1670929 -77.62 0.0003996701    1.103    0.093
        73 -10.3439     27.3996    108.1658   9.5148615008e+01   5.1357052527e+01    0.1990137    0.1198031 -88.49 0.0005822374    1.656    0.396
        74  -9.7073     66.7668    104.4209   8.0220897911e+01   4.7534309893e+01    0.1980244    0.1450389  16.17 0.0009441301    1.677    0.404
        75 -11.1622     13.1624    103.5749   9.9918004348e+01   5.3712942245e+01    0.2881466    0.1637361 -67.15 0.0007469283    1.538    0.350
        76  -9.9896      1.2876    103.6743   1.0441918004e+02   5.4422138597e+01    0.2510342     0.099732 -78.53  0.001075915    2.120    0.528
        77  -9.2966    186.5156    102.9638   4.9248993266e+01   2.4684808616e+01    0.1908225     0.114919  -9.26 0.0006757123    2.325    0.570
        78 -10.0221    247.4511    101.5035   4.0345256124e+01   1.4009413120e+01    0.1230116   0.09524348 -21.63 0.0003278568    1.024    0.023
        79 -12.4885    197.1723     97.5421   4.6152759203e+01   2.3438894410e+01    0.2488285    0.2168762 -24.58 0.0003416119    1.004    0.004
        80  -9.9001     61.2885     99.3514   8.1009227511e+01   4.9614192630e+01     0.151841    0.1080697 -33.11 0.0007024992    1.668    0.400
        81 -10.1891     36.9837     96.2726   8.9564580032e+01   5.3503603441e+01    0.2817898    0.1923045 -34.77  0.001165143    1.722    0.419
        82 -12.2144     20.0329     93.1106   9.5855216987e+01   5.5939450690e+01    0.5289774    0.3227432 -35.74  0.002562266    1.933    0.483
        83 -11.4777     10.8229     93.4298   9.9670733836e+01   5.6530035692e+01    0.4796938    0.2929412 -68.64  0.001988395    1.411    0.291
        84 -11.5652      7.0898     90.6419   1.0088387781e+02   5.7495231560e+01    0.4279447    0.1738597 -72.24  0.001795399    2.035    0.509
        85 -11.9004    125.1678     93.0872   5.9430197441e+01   3.9259286409e+01    0.2618982    0.2505908  19.48 0.0002812063    1.084    0.078
        86 -10.4892     45.1699     92.5354   8.5581562048e+01   5.3523275699e+01     0.473314     0.207742 -44.68  0.001799846    2.515    0.602
        87 -10.1958     30.5239     93.6044   9.1658206867e+01   5.4869685183e+01    0.3027348    0.2608559  56.27  0.001746684    1.204    0.169
        88 -10.2960    105.9339     91.9256   6.4342912017e+01   4.3496002925e+01    0.2402343    0.1875632 -85.44 0.0006021287    1.677    0.404
        89 -11.5796     58.0842     91.4802   8.0330873779e+01   5.2058943581e+01    0.3224518    0.2647819  -6.30 0.0007785796    1.505    0.335
        90 -10.0702    160.0057     89.0585   5.0427035293e+01   3.2486077702e+01    0.2223344    0.1726278 -67.28 0.0004579627    1.598    0.374
        91  -9.9051     83.1760     90.3323   7.1020440906e+01   4.8233265201e+01    0.2034147     0.181023  42.04  0.001044585    1.170    0.145
        92  -9.9194     30.0705     84.6814   9.0171538470e+01   5.7248314220e+01    0.1779548    0.1757512 -53.08 0.0003922307    1.116    0.104
        93 -11.5119      8.4812     82.9133   9.9335763085e+01   5.9440653586e+01    0.5207847    0.2647281 -45.34  0.002425377    2.016    0.504
        94  -9.8027    250.4163     80.7290   3.5438070565e+01   1.6057391807e+01    0.1664862   0.09641316 -20.73 0.0005787412    1.515    0.340
        95 -10.5427     66.2727     80.1636   7.4148627416e+01   5.3582213130e+01    0.3939599    0.2616499 -19.04  0.001394625    2.273    0.560
        96 -10.4958     86.0503     78.5208   6.6505850909e+01   5.0408645602e+01     0.441463    0.2736883  60.81  0.001791058    2.125    0.529
        97  -9.2578     87.5118     75.4402   6.5016111943e+01   5.0807689035e+01    0.2508457    0.2192915 -24.90 5.303721e-06    1.216    0.178
        98  -9.0281     43.2443     80.6859   8.3626153821e+01   5.6802262252e+01    0.1400465    0.1063901  81.34 0.0001569029    1.512    0.339
        99 -10.5536     48.0788     78.9685   8.1135928470e+01   5.6609310058e+01    0.2148829    0.1945045 -52.80 0.0003435258    1.051    0.049
       100  -9.6849     22.5956     76.8022   9.1928841162e+01   6.0002932381e+01    0.1931153    0.1222318 -84.05 0.0003948582    1.598    0.374
       101 -11.8297     12.8509     76.4444   9.6389245427e+01   6.0855645068e+01    0.4016647    0.2647101  -7.19  0.002066493    1.907    0.476
       102 -10.0150    177.1258     76.2072   4.3711850285e+01   3.0850514622e+01    0.2150682    0.1927616   7.35 0.0008152444    1.205    0.170
       103 -10.9062     53.3753     75.4604   7.7933823548e+01   5.6738740371e+01    0.4112021    0.2735573  29.55   0.00160938    1.653    0.395
       104  -9.5433     69.1567     74.4902   7.1304470350e+01   5.4442639808e+01    0.2833194    0.1813861 -76.77  0.001143662    2.291    0.564
       105 -11.5763      4.6458     74.2559   9.9921038734e+01   6.1928078393e+01    0.3527847    0.2136513  32.81  0.001796695    1.807    0.447
       106 -10.9418    151.2186     72.1637   4.7201728501e+01   3.7336836691e+01    0.2539964    0.2294001 -53.00 0.0002154459    1.109    0.099
       107 -11.2146     80.7107     67.6502   6.4722746463e+01   5.3855552981e+01    0.4289117     0.317526 -32.28  0.002053803    1.431    0.301
       108 -10.3225     75.0231     71.5116   6.8119580978e+01   5.4078650008e+01    0.2715221    0.2271674 -13.11  0.000483553    1.403    0.287
       109 -11.0215      5.4670     69.5219   9.8835611595e+01   6.3119463495e+01    0.2489053     0.181612  87.76 0.0008743939    1.305    0.233
       110 -11.4275      6.8360     64.4177   9.7307595086e+01   6.4369250548e+01    0.5001889    0.1802102 -47.37  0.002004854    2.580    0.612
       111 -10.2433     92.7436     71.2714   6.1890496765e+01   5.0649332590e+01    0.3747524    0.2001739  59.31  0.001394073    2.534    0.605
       112  -9.5721     45.9763     69.1848   7.9290636137e+01   5.9333727799e+01    0.2976766    0.1836264  28.08  0.001381933    1.799    0.444
       113  -9.9471    105.9081     68.0930   5.6758138377e+01   4.8472971760e+01    0.2264988    0.1987281 -68.42 0.0003392237    1.238    0.192
       114 -11.1417     58.7751     66.1471   7.2739036970e+01   5.8147497473e+01    0.4188347    0.2152205 -51.67  0.001113457    1.809    0.447
       115  -9.5418    211.7465     67.4501   3.6472632688e+01   2.4801515798e+01    0.1552329    0.1250073  40.82 0.0003135651    1.449    0.310
       116 -14.1554     20.4745     58.3280   8.8759600767e+01   6.4941825511e+01    0.6090638    0.3915969 -49.17  0.001187707    1.405    0.288
       117 -11.1206     13.1098     48.6506   9.0324951404e+01   6.7975175597e+01    0.7531952    0.1508339  28.90  0.002504858    4.356    0.770
       118  -9.6309    138.3615     63.3111   4.7013386470e+01   4.1832749813e+01    0.1562702    0.1159498  18.74 0.0007041151    1.748    0.428
       119 -10.0297     55.0470     61.2236   7.2644704078e+01   5.9898978231e+01    0.2191726    0.1868606 -24.65 0.0002992639    1.246    0.197
       120 -10.7890     58.6608     58.9041   7.0227000406e+01   5.9837792796e+01     0.321569    0.2112299  34.46  0.001464782    1.641    0.391
       121  -9.5461     90.8366     59.7774   5.8371327950e+01   5.3419293102e+01    0.2074941    0.1760286 -66.97 0.0007767496    1.311    0.237
       122 -11.2546     11.5285     59.5274   9.3872119771e+01   6.5336431382e+01    0.2909301    0.2415672  24.51  0.001081378    1.369    0.269
       123 -11.1532     12.3538     55.6996   9.2556892755e+01   6.6256193302e+01    0.2851404    0.2053743 -53.10 0.0006577385    1.221    0.181
       124 -10.3462    145.6092     59.0626   4.4122802160e+01   4.0797666049e+01    0.2653639       0.2135  49.63 0.0005439201    1.310    0.237
       125  -9.8265     49.0378     59.1066   7.4612632853e+01   6.1325251105e+01    0.2346444    0.1771472  80.53  0.001131298    1.799    0.444
       126  -9.2912    130.6991     57.3002   4.6629379911e+01   4.4667735863e+01    0.1525753    0.1140394 -66.36 0.0002729938    1.583    0.368
       127 -10.8754     71.9339     56.9351   6.4024507449e+01   5.7868407937e+01    0.2412923    0.2165981 -56.69 0.0003617154    1.127    0.113
       128  -9.1996     68.4070     56.3807   6.5200549724e+01   5.8657294179e+01    0.1919432    0.1350939 -53.55 8.258368e-05    1.428    0.300
       129 -12.0503     66.9180     52.5661   6.4282390467e+01   5.9747976123e+01    0.4768948     0.258957  36.14  0.001234845    2.040    0.510
       130 -10.5305     32.9629     55.5226   8.1304763794e+01   6.4346639895e+01    0.2590803    0.1755083 -37.51 0.0003373006    1.500    0.333
       131  -9.5187     36.3568     54.2857   7.9128797192e+01   6.4228890248e+01    0.2291253      0.19428 -15.66 0.0005885094    1.284    0.221
       132 -10.1604     38.5703     51.4958   7.6990473877e+01   6.4601756126e+01    0.2620048    0.1846256 -51.43 7.500405e-05    1.284    0.221
       133 -13.4097    114.5134     53.2104   4.8996472386e+01   4.9240416844e+01    0.3697392    0.3570849  47.98 0.0006285901    1.068    0.063
       134 -13.1874    105.9635     50.1294   5.0071957089e+01   5.1799005438e+01    0.4998456    0.4071957 -87.66 0.0008517961    1.487    0.328
       135 -12.2796    119.3869     47.3305   4.5568401745e+01   4.9036729369e+01    0.2900019    0.2675753 -35.33 0.0003251675    1.054    0.051
       136 -12.1522     86.6908     53.8977   5.7462158511e+01   5.5469556760e+01    0.4606943    0.2999535  38.65 0.0005731565    1.662    0.398
       137  -9.8899     60.0512     53.5050   6.7552390493e+01   6.0799352080e+01    0.2055453    0.1458694  37.25  0.000324658    1.496    0.332
       138 -10.6597     44.9476     52.4487   7.4130493406e+01   6.3482648516e+01    0.2555265    0.1823357 -42.38  0.000371391    1.321    0.243
       139  -9.3320    181.7743     52.0218   3.6019767646e+01   3.3300713779e+01    0.1864958    0.1056703 -30.31 0.0003866989    1.588    0.370
       140 -10.0016    149.0307     52.2819   4.1221194958e+01   4.1015997808e+01    0.2011878    0.1893931  89.05 0.0004976725    1.108    0.098
       141 -10.7603    138.5911     50.2088   4.2484474800e+01   4.3877026032e+01    0.3025826    0.2461277 -24.77  0.000477481    1.234    0.189
       142  -9.9070    136.3996     46.4516   4.1582566882e+01   4.4981513310e+01    0.3415184    0.1921715  78.18  0.001344023    2.405    0.584
       143  -9.4106    232.3364     50.3004   3.0026481055e+01   2.2871818642e+01    0.1196882   0.09126906  13.64 0.0003498723    1.660    0.397
       144 -10.0509     89.0593     48.9017   5.4638559581e+01   5.5898342855e+01    0.2605381    0.2133084 -20.93 0.0007605331    1.294    0.227
       145 -10.3865     74.5629     47.6816   5.9224696910e+01   5.9232853932e+01    0.2681271     0.214436  81.76 0.0008534057    1.656    0.396
       146  -9.7597     63.0000     62.5679   6.9726284234e+01   5.8264789731e+01    0.3384733   0.08025518 -50.49 0.0009394414    3.973    0.748
       147 -10.3210    155.1089     46.8338   3.8355772314e+01   4.0323932825e+01    0.2695871    0.2035102 -26.00 0.0006684187    1.298    0.229
       148 -10.7022     68.9791     46.1844   6.0753577551e+01   6.0653136614e+01    0.3538455    0.2634135  -0.79 0.0008544345    1.787    0.440
       149 -11.4471     79.1384     45.4629   5.6574551043e+01   5.8699575244e+01    0.2633339    0.2516201 -66.19 0.0003639615    1.115    0.104
       150 -10.3558     26.2452     44.7981   8.1296868684e+01   6.7693011518e+01    0.3658242    0.3089473 -78.04  0.002013824    1.289    0.224
       151 -10.6970     29.5973     41.7895   7.8183062204e+01   6.8006981095e+01     0.525363    0.3006517 -74.60  0.002129623    2.484    0.597
       152 -10.9385     16.8815     42.5395   8.6161113674e+01   6.9166880006e+01    0.4843059    0.2861255 -63.36  0.001442265    1.519    0.342
       153 -10.9070      3.0994     42.6240   9.4977763065e+01   7.0118747856e+01    0.3528561    0.2348613 -22.47  0.001944582    1.641    0.391
       154 -10.6284     95.3821     42.8853   5.0127775285e+01   5.5520856131e+01    0.2484981    0.2030012  67.28 0.0005166291    1.341    0.254
       155 -10.2844    202.0210     41.6932   3.0677628612e+01   3.0075747216e+01     0.174642    0.1631262 -62.32 0.0003550154    1.116    0.104
       156 -11.1461    184.1769     40.7539   3.2376299813e+01   3.4195134988e+01    0.3438157    0.2791638 -50.10  0.001190852    1.144    0.126
       157 -12.3237    141.5039     41.0002   3.8672910102e+01   4.4494691347e+01    0.2786573    0.2498575 -80.26  0.000357511    1.157    0.136
       158  -9.4009    101.2604     42.3232   4.8197412322e+01   5.4228221860e+01    0.1471917    0.1155867   9.18 0.0001587736    1.554    0.356
       159  -9.5644     86.6076     42.1916   5.2570619703e+01   5.7652365966e+01    0.2040689    0.1391604 -23.76 0.0002630858    1.606    0.377
       160 -10.4222     36.2748     41.9176   7.4435504115e+01   6.7112050348e+01    0.2454258    0.2034371  11.96 0.0003490874    1.319    0.242
       161 -10.4239    170.2915     40.0566   3.3908301823e+01   3.7550889747e+01    0.3107008    0.2090265 -82.29 0.0007891199    1.782    0.439
       162  -9.5397     58.9787     41.5253   6.2893269133e+01   6.3500499444e+01    0.2095955    0.1426955  44.62  0.001013746    1.558    0.358
       163 -12.8758    121.3404     37.4164   4.1268549789e+01   5.0051633917e+01    0.3831041    0.3426429  16.25   0.00102619    1.222    0.182
       164  -9.9285    221.0942     43.1705   2.9242497596e+01   2.5898709060e+01    0.1785039    0.1571744 -16.90 0.0002548547    1.176    0.150
       165  -9.7976     49.9335     33.4784   6.3258796119e+01   6.6726979610e+01    0.2119718    0.1726537 -38.95  0.000320059    1.157    0.136
       166  -9.5654     40.7472     34.6151   6.8629157757e+01   6.8031164275e+01    0.1720787    0.1315697  44.61 0.0005957491    1.466    0.318
       167 -10.6100     28.6459     33.1068   7.4987313061e+01   7.0074344774e+01    0.2652346    0.1826806 -21.08 0.0008097592    1.658    0.397
       168 -11.4471    205.9416     32.3013   2.7721077596e+01   3.0298410640e+01    0.2295741    0.1809289 -35.51 0.0002792571    1.089    0.082
       169  -9.9179    144.8702     32.1643   3.4936306087e+01   4.4812945896e+01    0.2372081    0.1782938 -56.00  0.001202382    1.352    0.260
       170 -10.3584    144.5806     27.9708   3.3465522438e+01   4.5397404858e+01    0.2693068    0.2562746 -47.73 0.0006013805    1.016    0.016
       171 -10.1768     91.5987     30.6975   4.5789125923e+01   5.8350060732e+01    0.3190822    0.1887187  66.16  0.001378612    1.929    0.481
       172 -12.8659      9.0512     29.3798   8.6728356254e+01   7.2938806096e+01    0.3567348     0.245849  34.87  0.001342325    1.667    0.400
       173 -11.3934    135.7411     29.1840   3.5325396507e+01   4.7498254796e+01    0.2455808    0.2322752 -68.05  0.000268636    1.039    0.037
       174  -9.3318     59.2649     30.3864   5.7279974002e+01   6.5546478976e+01    0.1469841    0.1072437  -5.60 0.0006982402    1.696    0.410
       175  -9.6856     38.9356     30.3113   6.7466190846e+01   6.9191931517e+01    0.1840041    0.1660276  12.41 0.0004084694    1.139    0.122
       176  -9.9802     54.3145     29.1567   5.8881526337e+01   6.6728574365e+01    0.1922985    0.1674694 -39.17 0.0004419904    1.132    0.116
       177  -9.2385     32.5288     28.4564   7.0276099180e+01   7.0531915843e+01    0.1386821      0.11991 -24.41  0.000347745    1.079    0.073
       178 -11.5801     91.3415     26.7755   4.4003539091e+01   5.8977317073e+01    0.3647565    0.2741859  66.83 0.0002463575    1.419    0.295
       179  -9.9676     80.8288     26.8676   4.7235250941e+01   6.1454006273e+01    0.2152378    0.1888632   3.85  0.000615378    1.187    0.158
       180  -9.6654     68.2175     26.6561   5.1599083633e+01   6.4315067858e+01    0.2090132     0.183991  77.75 0.0006570501    1.350    0.259
       181  -9.3835     28.9953     27.5974   7.2040700146e+01   7.1202934227e+01    0.1765854    0.1299959  28.22 0.0003165659    1.454    0.312
       182 -10.4687    216.8988     25.6570   2.5051451423e+01   2.8674220552e+01    0.2023058    0.1563133 -22.42 0.0003238905    1.238    0.192
       183  -9.9761    102.5865     26.0451   4.0721444644e+01   5.6312665429e+01    0.2684441    0.1995592 -10.37  0.001081092    1.491    0.329
       184 -10.1702    102.5255     22.5146   3.9120066730e+01   5.6780568289e+01    0.2546231     0.193991  -4.05 0.0009854572    1.474    0.321
       185  -9.5686     75.9928     26.2071   4.8519856971e+01   6.2661349282e+01    0.1985995    0.1879835  15.17   0.00113846    1.037    0.036
       186  -9.1018     18.4945     26.5101   7.8597224651e+01   7.2716280246e+01    0.1364515    0.1129962 -33.80 -5.35561e-06    1.086    0.079
       187 -10.5117    191.4644    249.4933   7.5017791176e+01   3.2944665000e+00    0.1617011   0.09636399   5.58 0.0007967431    1.547    0.354
       188  -9.6213     51.6232     24.7458   5.7727852203e+01   6.8019186701e+01    0.1949691    0.1246215 -45.10 0.0009409497    1.596    0.373
       189  -9.9753    185.8699     24.1755   2.7246990731e+01   3.5704632095e+01    0.1998158    0.1597583 -51.10 0.0003270965    1.132    0.117
       190  -9.6017     34.2531     23.9924   6.6774403639e+01   7.1165693931e+01    0.1845956    0.1627326 -18.84 0.0002092642    1.051    0.049
       191 -10.2200    128.2683     23.0289   3.4199973759e+01   5.0147887211e+01    0.1953074    0.1840961 -41.96   0.00028559    1.041    0.039
       192  -9.7639    200.2103     21.8006   2.5300881505e+01   3.2679113746e+01    0.1614821    0.1489353  24.91  0.000360431    1.293    0.227
       193 -11.3732      2.3328     20.4124   8.8417942936e+01   7.5481645517e+01    0.3138546    0.2556786 -69.46 0.0006480418    1.235    0.190
       194  -9.9964      6.6862     19.6504   8.4406650218e+01   7.5340714031e+01    0.2846487    0.1794418 -40.23  0.001574826    1.399    0.285
       195  -9.6942    131.9490     20.8148   3.2718021737e+01   4.9451753235e+01    0.2139745    0.1828812  33.24 0.0004389514    1.276    0.216
       196  -9.3740    184.4814     19.4895   2.5969963893e+01   3.6518359145e+01    0.1348024    0.1187467 -48.34    0.0001365    1.003    0.003
       197  -9.1409    119.9696     19.0161   3.4002974093e+01   5.2740450685e+01    0.1669396    0.1581036  77.50 0.0003296674    1.049    0.047
       198 -10.3291    188.6519    248.3132   7.5335936642e+01   3.7273754333e+00    0.1440585    0.1100018  39.19 0.0004490488    1.723    0.420
       199 -10.7499     74.9017     17.9794   4.4488169234e+01   6.4075886598e+01     0.258703    0.2025151  62.97 0.0003596934    1.350    0.259
       200 -11.0571     69.8457     18.1514   4.6316325222e+01   6.5213062982e+01    0.3753249    0.2218309  59.56  0.001735791    1.795    0.443
       201  -9.5118     54.4591     18.4781   5.2707950470e+01   6.8482611109e+01    0.1375551    0.1281549  -5.43 2.246081e-05    1.012    0.012
       202  -9.7115    230.1525    247.2166   6.8660565610e+01  -5.0510647195e-01    0.1210284   0.09127298  11.27  0.000467147    1.282    0.220
       203  -9.4589    224.4998    247.5178   6.9548810724e+01   3.2445629610e-02    0.1005551   0.06855464   7.34 0.0001621428    1.001    0.001
       204 -10.1087     61.1409     16.0710   4.8392815786e+01   6.7430292819e+01     0.257465    0.1883644 -48.90  0.001175236    1.557    0.358
       205 -10.0502    170.9100    246.8100   7.8157164689e+01   5.8690183440e+00    0.1689818    0.1117163   9.78  0.001084387    1.318    0.241
       206 -10.1473    116.1019    246.7992   8.8107130421e+01   1.2152621371e+01    0.1587917     0.120119  41.44  0.001193498    1.228    0.186
       207 -10.1184    170.5231     15.8980   2.6155663162e+01   4.0224450273e+01    0.2315155    0.1655467 -62.55 0.0008340977    1.372    0.271
       208 -11.0769    160.6716     15.8431   2.7142591111e+01   4.2662029855e+01    0.3995957    0.1769947  66.61 0.0008735815    2.211    0.548
       209 -10.6153     83.1022     15.7476   4.0766425672e+01   6.2410390456e+01    0.2811562    0.2078364  20.67  0.001023554    1.516    0.340
       210 -10.8464     52.0656    243.7117   1.0026456990e+02   1.9545373681e+01    0.2427346    0.1674472  79.01  0.001786889    1.599    0.375
       211 -10.3636     39.0191    242.3144   1.0274114349e+02   2.1036342361e+01    0.2212158   0.08768006  63.73 0.0009467707    2.753    0.637
       212 -10.0531    154.1079     17.1420   2.8325808530e+01   4.4178345837e+01    0.1946839    0.1484505 -57.10 0.0003416156    1.276    0.216
       213 -11.1312     29.2540    241.0082   1.0458740281e+02   2.2155055259e+01    0.2116028    0.0889894  40.78  0.001290559    1.656    0.396
       214  -9.2763     61.4694    240.5415   9.8226006554e+01   1.9101636372e+01    0.1063981   0.08506818  37.14 7.926004e-05    1.084    0.078
       215 -10.1108     13.6517    181.0944   1.0537558432e+02   3.4927815645e+01    0.2697745    0.1123026  81.21  0.001283638    2.431    0.589
       216 -10.2394     20.6607    236.6880   1.0610337319e+02   2.3642569487e+01   0.09079573   0.07822702 -16.20 0.0007045954    1.694    0.410
       217  -9.4374    204.1684    235.4111   7.1115281806e+01   3.4174887232e+00    0.1311815   0.08069559  31.22 0.0005484307    1.504    0.335
       218  -9.8569    146.9945    244.0122   8.2080055219e+01   8.9563541852e+00    0.1700434    0.1107018   3.05 0.0008033456    1.678    0.404
       219  -9.0538    238.7371    234.3142   6.5625147282e+01  -1.4775899771e-01   0.08195622   0.06881121  -1.45 0.0002609392    1.540    0.351
       220  -9.8965     32.1804    233.1559   1.0367490748e+02   2.3210166231e+01    0.1476833    0.1242133  39.62 0.0004478628    1.172    0.146
       221 -10.2697    244.9582    229.9716   6.4102852621e+01  -3.6288581232e-01    0.3010871   0.08887875  29.24  0.001580903    3.063    0.674
       222 -10.0953    174.4137    235.5032   7.6151657387e+01   6.8110380937e+00    0.1078729   0.08191796  13.21 -0.0001199449    1.017    0.017
       223 -10.9164    140.3539    228.0341   8.1474329211e+01   1.1908255040e+01    0.2242147    0.1971321  84.09  0.001614627    1.712    0.416
       224 -11.7716      2.3999    225.6598   1.0939403928e+02   2.7074351980e+01    0.3832031    0.1292674  72.44  0.001977679    2.838    0.648
       225 -12.1294      2.9280    247.6605   1.0978082566e+02   2.3298392813e+01    0.4622225     0.324371  41.92   0.00243545    1.118    0.105
       226  -9.3377    241.3809    225.2688   6.3937677398e+01   4.5696972263e-01    0.1070814   0.05735911   5.88 0.0006991494    1.692    0.409
       227  -9.0391     61.4229    224.5086   9.7158206638e+01   2.1789981292e+01    0.1129038   0.08926994  45.94 0.0001178086    1.026    0.025
       228  -8.9475     86.3037     10.2991   3.7000503440e+01   6.2242216212e+01    0.1463003    0.1000336  30.80  0.000212306    1.587    0.370
       229  -9.7414    130.8038    221.3647   8.2537818653e+01   1.4076568173e+01    0.1722377   0.09217271  24.20 0.0009556914    1.722    0.419
       230 -11.0229      7.8658    220.1220   1.0813817233e+02   2.7638991305e+01     0.180473    0.1344469 -65.44 0.0004005496    1.676    0.403
       231  -9.3632    223.2899    226.6608   6.6857469090e+01   2.2427308151e+00   0.08582779   0.07741917   5.70 0.0003406193    1.643    0.391
       232 -10.5201     85.9329    215.0139   9.1149794710e+01   2.0674601031e+01    0.1683414    0.1420283  39.29  0.001189403    1.018    0.017
       233  -9.4608    205.4341    211.7551   6.7506655236e+01   5.9648994091e+00    0.1478554   0.08800241 -17.80 0.0009402402    1.607    0.378
       234  -9.2689    229.7281    209.3474   6.3268476985e+01   3.3750931520e+00   0.08937794   0.07920647 -18.46 0.0005089333    1.624    0.384
       235  -9.5157     20.2853    209.4498   1.0512045148e+02   2.8592667662e+01    0.1585316   0.07753862  41.43 0.0009290177    1.563    0.360
       236  -9.6393    125.1714     17.0942   3.2314355093e+01   5.1605772570e+01    0.2096193    0.1821038  39.44 0.0003618777    1.214    0.176
       237 -10.3559     39.3813    207.1750   1.0077981628e+02   2.7249447715e+01    0.2144212    0.1454858  50.41 0.0005302738    1.203    0.169
       238  -9.4246    123.9965    205.9842   8.2015706045e+01   1.7389625206e+01    0.1382927    0.1157406  26.76 0.0009302818    1.014    0.014
       239  -9.2883     46.4181    202.4929   9.8880781275e+01   2.7446479811e+01    0.1183535   0.09580567  53.54 0.0001325287    1.031    0.030
       240  -9.3880    194.0003    201.4977   6.7856136083e+01   8.6774560394e+00    0.1691725   0.09713421  29.52  0.000564365    1.548    0.354
       241 -11.0609      4.3350    201.0417   1.0831858742e+02   3.1551192167e+01     0.158077    0.1207741  70.42 0.0005711005    1.128    0.114
       242  -9.6410     18.6357    195.1975   1.0485148494e+02   3.1554366036e+01    0.1561415    0.0958642 -71.10 0.0009543565    1.736    0.424
       243  -9.4471      1.2233    191.5929   1.0873227601e+02   3.3691834751e+01    0.1220731   0.06031619  62.33 0.0005852859    1.661    0.398
