#   1 NUMBER                 Running object number                                     
#   2 MAG_AUTO               Kron-like elliptical aperture magnitude                    [mag]
#   3 X_IMAGE                Object position along x                                    [pixel]
#   4 Y_IMAGE                Object position along y                                    [pixel]
#   5 X_WORLD                Barycenter position along world x axis                     [deg]
#   6 Y_WORLD                Barycenter position along world y axis                     [deg]
#   7 A_WORLD                Profile RMS along major axis (world units)                 [deg]
#   8 B_WORLD                Profile RMS along minor axis (world units)                 [deg]
#   9 THETA_WORLD            Position angle (CCW/world-x)                               [deg]
#  10 FWHM_WORLD             FWHM assuming a gaussian core                              [deg]
#  11 ELONGATION             A_IMAGE/B_IMAGE                                           
#  12 ELLIPTICITY            1 - B_IMAGE/A_IMAGE                                       
         1 -14.1243     10.4101     71.7130   7.6451032805e+01   6.0464450237e+01     1.710638     1.248059 -24.64   0.01109632    1.312    0.238
         2 -12.0852    161.0881     54.3130   2.3670764279e+01   3.7733945119e+01     1.591355    0.9486913  -8.81  0.005626661    2.795    0.642
         3 -11.7422     30.9583     21.9872   5.1119648908e+01   6.7738773158e+01    0.8029228    0.4876017 -32.45  0.004164759    1.501    0.334
         4 -14.4811    131.1309     83.8337   3.8935199824e+01   3.9853280668e+01     2.479628     1.902303 -25.76  0.008359666    1.397    0.284
         5 -13.3669     64.0077     34.3148   4.2567849137e+01   6.1277087778e+01     1.853831     1.371861   6.25   0.01104661    1.283    0.221
         6 -13.1425     50.4949     22.2780   4.2776290757e+01   6.5044572412e+01     1.607971     1.055916  24.67  0.005873912    1.365    0.267
         7 -14.2025     12.1278     38.2305   6.6395279087e+01   6.6940449564e+01     1.524644     1.050773 -57.08  0.006686444    1.661    0.398
         8 -14.0980     39.6996     55.2250   5.9905928727e+01   6.1235910848e+01     2.150679    0.9957832  18.68  0.004669966    2.578    0.612
         9 -13.6985     70.5851     22.3175   3.5365039104e+01   6.1687053825e+01     1.143925    0.9610692 -72.01  0.003142005    2.026    0.506
        10 -11.4560    211.1919     21.1167   8.1914904272e+00   3.0173722569e+01    0.5420299     0.432844 -56.29  0.003503687    1.176    0.149
        11 -11.6132    203.0025     18.8031   8.4926998327e+00   3.2272815460e+01    0.5073633    0.4409852 -54.11  0.003370266    1.177    0.150
        12 -13.8729    193.9128     61.8933   2.0156380086e+01   2.8832627547e+01     2.489702    0.9627773 -47.07  0.009452164    2.683    0.627
        13 -13.0153    184.5010     56.6050   2.0268275666e+01   3.1815315203e+01     1.288944    0.6166201 -48.49  0.005430978    2.209    0.547
        14 -14.1482    219.3067     58.2790   1.5757161679e+01   2.3616412259e+01     1.501849      1.41381  25.58  0.003719394    1.328    0.247
        15 -13.1298    232.9378     48.0915   1.1903369743e+01   2.2100665705e+01     1.034143    0.9570358  78.25  0.006166356    1.203    0.169
        16 -12.8097    200.0907     47.2525   1.5632510622e+01   2.9476788017e+01     1.455444    0.8469858  16.24  0.004924688    5.056    0.802
        17 -13.2983    193.6590     36.9399   1.3938267909e+01   3.2308422173e+01     1.686324    0.8219256 -47.66  0.007815602    2.055    0.513
        18 -13.0551    221.6235     38.6308   1.1038319686e+01   2.5767342233e+01     1.143899    0.6362719 -72.93 0.0008321202    2.095    0.523
        19 -12.5092    221.4250      8.2084   4.4541258755e+00   2.9319456024e+01    0.5398147    0.2416011 -57.42  0.001750201    2.170    0.539
        20 -11.5639    232.7728      3.6787   2.6595025826e+00   2.7385167369e+01    0.8190659    0.2972246 -35.70  0.004070092    2.553    0.608
        21 -12.6500    201.1367     30.3126   1.1407435463e+01   3.1386614861e+01      1.09765    0.5567188 -61.82  0.001923603    2.286    0.563
        22 -11.8943    145.0312     61.4024   2.8971947554e+01   4.0497048204e+01     1.572575     1.222909 -35.78  0.008226168    1.339    0.253
        23 -13.8348    244.6930      8.5610   2.7747120817e+00   2.4440768266e+01     1.089272    0.4539764 -77.14  0.005033479    2.890    0.654
        24 -13.8139     94.4497     70.7341   4.5262283925e+01   4.9922140536e+01     1.949628     1.572902 -79.21  0.009857152    1.857    0.461
        25 -13.3558    226.6661     20.6057   6.6270721869e+00   2.6849027399e+01     1.179213     0.765438  -9.00  0.004265046    2.656    0.624
        26 -12.4257     79.7256     23.3066   3.2795752991e+01   5.9866203520e+01    0.5495777    0.4281495  -4.08  0.001760211    1.265    0.210
        27  -4.7212    244.0765     17.8641   4.6319022346e+00   2.3539083676e+01    0.3671125    0.1599423 -52.80  0.001409158    1.997    0.499
        28 -11.5674    176.4081     23.7218   1.2830741803e+01   3.7926246277e+01    0.3541534    0.2781502  12.39 0.0009438649    1.726    0.421
        29 -10.8264    171.0769     18.1060   1.2052801373e+01   3.9788965222e+01    0.4206839     0.253602  16.15  0.001917136    2.891    0.654
        30 -12.9918    172.9827      7.1935   8.9482242488e+00   4.0399232194e+01    0.3901168    0.2930859  -1.72   0.00107625    1.811    0.448
        31 -12.9507     24.4826     39.8052   6.1188041103e+01   6.5608173214e+01     1.062706    0.5238243 -42.71  0.001700304    1.730    0.422
        32 -10.2779    154.0255     16.0257   1.3875367490e+01   4.4059264922e+01    0.2664246    0.1935135 -36.27  0.001541108    1.517    0.341
        33 -10.7326    150.1303     13.0454   1.3598443455e+01   4.5271023536e+01    0.2178015    0.1882761 -75.13 0.0007426019    1.216    0.177
        34 -11.6249    115.9114     10.3447   1.8722943787e+01   5.3495706088e+01     0.413385    0.2713944  10.21  0.001515669    1.864    0.463
        35  -9.7784    212.4508     11.7940   5.9948167058e+00   3.0904145016e+01    0.2580949     0.133827 -79.38  0.001284152    2.092    0.522
        36  -9.2585    192.2467     11.7364   7.9459117926e+00   3.5473977607e+01    0.1471015    0.1278884  77.31 0.0001879041    1.102    0.093
        37 -11.5446    193.5624      7.5522   6.8155653677e+00   3.5584862390e+01    0.2564474    0.2195544  72.93 0.0007686515    1.143    0.125
        38 -10.9175    132.7409     11.3480   1.5898110070e+01   4.9529777882e+01    0.3016378    0.2029141  74.80 0.0009355124    1.465    0.317
        39  -9.2496    131.2407      8.4133   1.5226646552e+01   5.0136160432e+01    0.3328672    0.2400766  44.81  0.001592509    1.285    0.222
        40 -10.5549     93.8632     11.6971   2.4224582504e+01   5.8205080443e+01    0.1872268     0.159284  29.89 0.0002832206    1.049    0.047
        41 -10.4671     88.0067     11.5766   2.5711945920e+01   5.9433184626e+01     0.238669    0.1935958  47.73  0.001523224    1.151    0.131
        42 -10.7898    109.2740     10.3437   2.0109335777e+01   5.4985562409e+01    0.2643071    0.2493802 -49.10  0.001780754    1.273    0.215
        43  -9.9248     45.8351      9.7331   3.9020011166e+01   6.7252389666e+01     0.323083     0.172876  25.26  0.001523999    1.756    0.431
        44 -11.0504     78.6080      9.2453   2.7408871036e+01   6.1534209682e+01    0.3658934    0.2135132  35.55  0.001506939    1.490    0.329
        45 -11.4738     65.3280      7.5468   3.0823019796e+01   6.4202239275e+01    0.5328439      0.35836  68.46  0.002900512    2.389    0.581
        46 -11.7146     70.9583      4.7449   2.7799908197e+01   6.3411239699e+01    0.5698677    0.4846291  78.58  0.003290655    1.710    0.415
        47 -13.4231     56.6912      4.0457   3.2217876196e+01   6.6057674562e+01    0.4497215    0.2709978  39.88 0.0008618897    1.411    0.291
        48 -11.3984     47.8170      1.9640   3.4540198872e+01   6.7733619369e+01    0.4236194    0.2312559  33.45  0.002496755    1.537    0.350
        49  -9.4007    124.8431      9.4211   1.6689124225e+01   5.1533446751e+01    0.2171187    0.1841201 -16.13  0.001381753    1.353    0.261
        50 -11.0715     26.5380      9.7519   4.7631393711e+01   6.9906347869e+01    0.2434144    0.1525616   2.63  0.001359535    1.460    0.315
        51 -10.3166    146.1274      7.1691   1.2474886361e+01   4.6746759945e+01    0.3296596    0.2070979  -7.75  0.001761214    2.099    0.524
        52  -9.2500    165.4735      8.4537   1.0193653271e+01   4.2054360525e+01    0.1275296      0.10881  79.80 0.0001400526    1.019    0.019
        53  -9.3639    156.5061      7.5116   1.1106598870e+01   4.4261575958e+01    0.1279363     0.109661  76.84 0.0008103757    1.029    0.028
        54  -9.5361     12.6347      7.4569   5.3620080586e+01   7.1729704021e+01    0.1108494   0.08080363 -11.56 0.0002672137    1.035    0.034
        55 -11.2613      2.6960      5.9116   5.8391587551e+01   7.2829043650e+01    0.2154043    0.1634953 -16.68 0.0007632274    1.128    0.113
        56  -9.3726    210.7814      5.9406   4.8569173327e+00   3.1869673631e+01    0.1360128   0.09469179 -35.10 0.0004445937    1.558    0.358
        57 -10.7718    120.7806      4.8203   1.5911881702e+01   5.2848300828e+01    0.2502591     0.199627 -36.35 0.0009254894    1.465    0.317
        58  -9.1715     91.2662      6.6532   2.2930831797e+01   5.9192554506e+01    0.1123304   0.09542356 -62.26 0.0003381199    1.611    0.379
        59 -10.5792    111.6989      4.2370   1.7450456613e+01   5.4950882721e+01    0.2806843    0.1549353  52.62  0.001202907    1.475    0.322
        60  -9.5678    101.9567      4.1860   1.9476353650e+01   5.7108597454e+01    0.2183399    0.1547917 -37.40  0.001299923    1.701    0.412
        61  -9.8001     97.6259      4.9764   2.0750776482e+01   5.7982330225e+01    0.1583913    0.1433212  31.60 0.0005340314    1.105    0.095
        62  -8.0604    183.4809      3.8994   6.9609115927e+00   3.8250357142e+01     0.260006    0.1713733 -68.02  0.001085326    1.522    0.343
        63 -10.6435    187.3065      1.4258   5.9757668738e+00   3.7591858071e+01    0.3635396    0.1073049  74.03 0.0004607706    3.092    0.677
        64 -11.3141    217.1987      2.4135   3.5701633459e+00   3.0815162927e+01    0.3508925     0.185726  76.59  0.001484576    1.665    0.399
        65  -9.9586    207.3716      2.4574   4.3834660081e+00   3.2963641626e+01    0.1965058    0.1182458 -20.66  0.001096964    2.190    0.543
        66  -9.7819     19.2176      3.6410   4.8276115542e+01   7.1516951548e+01   0.09439409   0.07810609 -28.09 0.0004114141    1.561    0.359
        67 -10.0563    143.1227      2.5618   1.1553400191e+01   4.7836949659e+01     0.196492    0.1080174  69.55  0.001015319    1.572    0.364
        68 -12.2247     86.0916      1.4019   2.2164412075e+01   6.0688812915e+01    0.4290736    0.1029737  56.73  0.001206561    3.288    0.696
        69  -9.9800    250.2082      1.4149   1.0612531420e+00   2.4098661366e+01    0.1421676   0.08586384 -82.40 0.0003492087    1.433    0.302
        70 -10.7945    181.5990    117.6874   3.6480966854e+01   2.1970934504e+01     0.409793    0.2268577 -47.57  0.001694977    1.834    0.455
        71 -10.3966    203.7139    115.9467   3.1787267966e+01   1.7519848218e+01    0.4085022    0.2114439  65.44  0.001513635    2.965    0.663
        72 -11.5172     89.5425    114.9652   5.9351992243e+01   4.1516345819e+01    0.3705762     0.277831  56.19   0.00180003    1.575    0.365
        73 -11.3319    138.0901    112.5804   4.5142973281e+01   3.2582134479e+01    0.4649718    0.2144378  35.87  0.001586765    2.556    0.609
        74 -12.1061    209.2062     58.4039   1.7101389781e+01   2.5841886791e+01     0.389724    0.2636524  83.86  0.002021427    1.617    0.382
        75  -9.0386    242.3478    112.2593   2.4683033329e+01   1.0407431138e+01    0.1264549    0.1016982   7.68 0.0002850651    1.601    0.375
        76  -9.4205     73.0059    118.9870   6.5369535362e+01   4.3182482209e+01    0.1695638    0.1579585 -46.23 0.0009604489    1.002    0.002
        77 -11.8741    210.7708     47.5040   1.4320289272e+01   2.7009957152e+01    0.5102777    0.3379236 -77.76  0.001258351    1.652    0.395
        78  -9.1659    211.0752    112.0000   2.9558468713e+01   1.6681598120e+01    0.2246477   0.08261848  51.93 0.0007998662    2.925    0.658
        79 -11.4688    215.3667     41.9239   1.2477360861e+01   2.6721408160e+01    0.3121169     0.243827 -84.63 0.0008075201    1.206    0.171
        80  -9.3795    174.4359    111.4423   3.6413651103e+01   2.4769078599e+01    0.1494711    0.1453722 -22.28 2.774415e-05    1.026    0.025
        81 -11.0365     62.9597    110.5028   6.6617394515e+01   4.6593632716e+01    0.2053966    0.1405606  29.91 0.0006266791    1.582    0.368
        82 -10.5932     38.3132    110.0100   7.4540095766e+01   4.9590154803e+01    0.2005884    0.1547231 -58.09 0.0006421373    1.131    0.116
        83 -13.1528     56.2985     94.5108   6.4994246962e+01   5.1132978779e+01    0.6073255    0.4164032  59.28   0.00295775    2.107    0.525
        84 -13.0047     61.7977     90.5426   6.2063322666e+01   5.1285216986e+01    0.7354179    0.3508287 -59.12  0.002574653    2.373    0.579
        85 -11.9638     57.8371     89.1455   6.3069051867e+01   5.2121642207e+01    0.3273996    0.2867383 -45.22  0.001028627    1.094    0.086
        86 -10.4709    249.8973     94.3227   1.9822156545e+01   1.1881165367e+01    0.2641615    0.1867944 -51.53 0.0009470059    1.277    0.217
        87 -12.8326    202.4068     59.8334   1.8389214708e+01   2.7177526225e+01     0.777341    0.4573497 -59.97  0.003636522    1.908    0.476
        88 -12.2209    116.7151     93.6035   4.5631853351e+01   4.1049246777e+01    0.3493147    0.3366121 -23.61 0.0009826545    1.033    0.032
        89 -13.4013    177.7474     75.9847   2.6532246614e+01   3.0409792170e+01     2.049638    0.8290735 -38.30  0.006201182    2.420    0.587
        90 -12.2443     48.4394     95.1278   6.7868931011e+01   5.1949197822e+01    0.3837943    0.2899939  31.94  0.002161886    1.467    0.318
        91 -10.1546    172.7545     91.5173   3.1610739197e+01   2.8891355669e+01    0.2861775    0.2321757 -86.24  0.001138941    1.471    0.320
        92 -10.6035    167.7304     89.9103   3.2210793038e+01   3.0345842389e+01    0.3376643    0.2179661  60.97  0.000793431    1.671    0.402
        93 -11.5670     96.6882     91.0007   5.0752859717e+01   4.5528284045e+01     0.536147    0.3791032  49.46  0.001663679    1.565    0.361
        94 -10.2483     79.5685     90.9282   5.6173643747e+01   4.8535039633e+01    0.2355869    0.1910655   1.84 0.0004837993    1.337    0.252
        95 -10.4840      7.3614     89.7122   8.1216916954e+01   5.6705027647e+01    0.2511019     0.140053 -89.85 0.0009613663    2.488    0.598
        96 -11.0553      3.9456     87.3061   8.1994481821e+01   5.7432777958e+01    0.3768593    0.1706595  -8.38  0.001727476    3.099    0.677
        97 -11.8180    237.6261     86.3422   1.9694645598e+01   1.5523858625e+01    0.5775172    0.3202126  69.25  0.001852852    2.227    0.551
        98 -11.2139    231.0075     83.5014   1.9949153329e+01   1.7317073379e+01    0.3262112    0.2105185 -76.39  0.001124823    2.048    0.512
        99 -11.9043    222.8146     88.1903   2.2161984307e+01   1.8274282235e+01    0.4092232    0.2029042  57.86   0.00182858    2.174    0.540
       100 -10.5520    225.9878     85.3046   2.1048381731e+01   1.8073414027e+01     0.209154    0.1713869 -64.86 0.0005351694    1.203    0.169
       101 -11.6863    161.9412     84.5588   3.1971303325e+01   3.2652799783e+01     0.728639    0.3953501  45.22  0.003035379    1.881    0.468
       102 -12.2654    168.4157     79.4240   2.9242086031e+01   3.2028076730e+01    0.5787743    0.4269952 -47.60  0.001319215    1.377    0.274
       103 -11.7796    109.3864     85.5058   4.5349657229e+01   4.4168979358e+01    0.5261346     0.284697  57.25  0.001464438    2.485    0.598
       104 -10.2073     30.9058     85.3737   7.1815971176e+01   5.5937952234e+01    0.2247805    0.1614061 -61.90 0.0006935231    1.344    0.256
       105 -12.4046    215.8107     83.6721   2.2145114684e+01   2.0503559165e+01    0.3934108    0.2926981  74.90  0.002102648    1.486    0.327
       106 -11.5145    147.4081     83.2102   3.4802563555e+01   3.6273488042e+01    0.6296172    0.4441096 -38.87  0.002601085    1.435    0.303
       107 -12.4093     83.3412     83.9916   5.2930394301e+01   4.9357364848e+01    0.2888945    0.2435214  26.87 0.0005108722    1.199    0.166
       108 -12.2273    114.5387     80.6520   4.2424293597e+01   4.4041325606e+01    0.5446777    0.4973143 -32.01  0.002993274    1.101    0.091
       109 -10.8352    250.5063     81.7875   1.7105186032e+01   1.3701889249e+01    0.2298445     0.144121 -27.60 0.0007974267    1.763    0.433
       110 -11.9460    221.8758     79.6169   2.0325782377e+01   1.9846613319e+01    0.3700638    0.2503988  89.95  0.001784994    1.861    0.463
       111 -10.0223    232.3855     78.8417   1.8726920659e+01   1.7760585694e+01    0.2936429    0.1571648  79.06  0.001250278    2.759    0.638
       112 -11.8453    199.5300     76.2762   2.2871618282e+01   2.5314317809e+01    0.3454222    0.2303638  68.25  0.001247486    1.603    0.376
       113 -12.5946    218.1769     74.9530   1.9765272882e+01   2.1373394344e+01     0.484673    0.3420283  21.60  0.002341293    2.264    0.558
       114 -12.6358    221.3832     69.5882   1.8086912647e+01   2.1500989917e+01    0.4537487    0.3734725  83.39  0.001127114    1.239    0.193
       115  -9.8707    161.4952     77.2529   3.0047642169e+01   3.4027405198e+01    0.2072565    0.1353006 -50.32 0.0009345445    1.641    0.390
       116 -10.4996    155.8136     76.7057   3.1088440333e+01   3.5457791972e+01    0.3580627    0.2328421  70.60  0.001192848    1.889    0.471
       117 -11.7220    249.9361     75.0389   1.5756485001e+01   1.4825142746e+01    0.2838765    0.1908787 -40.47 0.0004484574    1.312    0.238
       118 -10.7395    249.7266     67.9039   1.4289532338e+01   1.5913000276e+01    0.4619468    0.1907189 -35.12  0.001998452    2.280    0.561
       119 -11.3408    225.8246     75.0105   1.8732932644e+01   1.9723838102e+01    0.3271476    0.2209637   2.69  0.001446707    2.852    0.649
       120 -12.0391    233.8563     71.8938   1.7000872504e+01   1.8516100593e+01    0.4626948    0.3015315  16.55  0.001980837    3.342    0.701
       121 -11.0768    229.1483     71.1393   1.7426607028e+01   1.9611456137e+01    0.2324652    0.2119281 -56.65 0.0009646342    1.060    0.056
       122 -10.4062    243.6183     73.2652   1.6115888301e+01   1.6329851046e+01    0.3241887    0.1464621  55.77  0.001511334    2.423    0.587
       123 -11.1677    196.1492    108.1572   3.1305424965e+01   2.0575467531e+01    0.4746022    0.3542038 -75.34  0.001625749    1.743    0.426
       124  -9.7739    151.0942     72.7021   3.0965246274e+01   3.7244775245e+01    0.1952896    0.1864285  39.55 0.0004906593    1.042    0.040
       125 -12.6643     81.2956     49.9545   4.2432940592e+01   5.5930926947e+01    0.5942144    0.4048294   0.54  0.002998322    1.745    0.427
       126 -12.7902      4.9545     55.8674   7.4875210356e+01   6.4059269903e+01    0.7060275    0.4002331 -29.20   0.00235945    1.586    0.370
       127 -11.0528      3.3360     48.6027   7.3652085762e+01   6.5580604615e+01    0.2929521    0.2516081  77.35  0.001413488    1.755    0.430
       128 -12.3921    128.0704     58.2422   3.1897276949e+01   4.4922834799e+01    0.4829569    0.2732012  38.16  0.002107911    1.867    0.464
       129 -11.0087    191.2942    102.3885   3.0791311520e+01   2.2699898236e+01    0.4992639    0.1884459 -46.47  0.001727052    2.734    0.634
       130 -11.8316    100.4820     54.1233   3.7907417056e+01   5.1555686259e+01     1.016047    0.4246209  54.11  0.003811519    2.804    0.643
       131  -9.8823    106.9983     53.4906   3.5829588688e+01   5.0297149166e+01    0.3459093     0.231647  65.01 0.0007516958    1.928    0.481
       132 -10.2037    174.5766     55.4590   2.1591991947e+01   3.4339140538e+01    0.3613175    0.2016461 -52.88 0.0007608277    2.020    0.505
       133 -10.0327    170.6098     56.1452   2.2462461092e+01   3.5187843186e+01     0.239257    0.1853491  73.87 0.0008306512    1.302    0.232
       134 -10.4145     69.7470     55.3256   4.8335703008e+01   5.7041758305e+01    0.2513412    0.2353984  65.67  0.001265792    1.453    0.312
       135 -11.8974    161.7743    106.7077   3.7944913745e+01   2.8538366976e+01    0.3758118    0.2448079 -52.18  0.001642899    1.654    0.396
       136 -10.8906    153.0424    108.2844   4.0359210113e+01   3.0184579179e+01    0.2387563    0.2287956 -47.45 0.0003797241    1.050    0.047
       137 -11.4029     90.4361     51.1197   3.9902370536e+01   5.4027660321e+01     0.228752    0.1995049  26.53 0.0003126947    1.071    0.066
       138 -11.6388    246.7807     42.1808   9.2807164708e+00   2.0035810567e+01     0.577745    0.2376947 -56.38  0.001178237    2.496    0.599
       139 -10.5346    100.3086     41.4883   3.3542606027e+01   5.3448580962e+01    0.3133428    0.2367305  -3.07  0.001708548    1.444    0.307
       140  -9.9016    180.9519     31.2973   1.4195951458e+01   3.5984999917e+01     0.425803    0.2930168   2.24  0.001940417    2.249    0.555
       141 -10.2679    168.5599     36.4827   1.7396724392e+01   3.8318394893e+01    0.3215615    0.2426515  14.95  0.001015005    1.794    0.442
       142 -10.9841    168.9006     32.4830   1.6246885783e+01   3.8719538789e+01    0.4600739    0.2550292  71.16  0.002185667    1.762    0.432
       143 -12.3255    172.8689     44.9636   1.9030078926e+01   3.6200901122e+01    0.7287553    0.5113261  44.99   0.00254771    1.510    0.338
       144 -11.2678    178.0247     37.5590   1.6252438545e+01   3.5921041132e+01    0.3822485    0.2727745 -19.12  0.001221651    1.719    0.418
       145 -11.4026    161.1987     40.6031   1.9753920678e+01   3.9570451895e+01    0.5764607    0.1956847  47.79  0.002053174    3.042    0.671
       146 -11.7442    160.8600     36.4567   1.8633538978e+01   4.0170808064e+01    0.4140527    0.3575196  52.66  0.002455409    1.127    0.113
       147 -11.1289     99.3364     47.7671   3.6039634525e+01   5.2757050720e+01    0.3229175    0.2364843  -5.28  0.001689619    1.538    0.350
       148 -11.1788    144.2157     45.3908   2.4319531917e+01   4.3009666816e+01    0.8422713    0.4125827  59.56  0.002290631    1.934    0.483
       149 -12.3814    148.8818     40.6454   2.1979638294e+01   4.2519780333e+01    0.6192436    0.3597433 -39.94  0.002967114    1.826    0.452
       150 -10.9020     41.0201     44.6849   5.5695903259e+01   6.2966607222e+01    0.3060976    0.2610777  14.71  0.002029834    1.228    0.186
       151 -11.0666     39.7791     39.3704   5.4245091553e+01   6.4008903367e+01    0.8409228    0.3703113  14.98  0.003322217    3.598    0.722
       152  -9.8633    121.0694     44.8043   2.9253158442e+01   4.8471542802e+01    0.2753422    0.1641019 -58.06  0.001102764    2.575    0.612
       153  -9.9210    125.6898     43.4958   2.7729474860e+01   4.7596876726e+01    0.2869831    0.1771701 -10.35 0.0009720409    2.184    0.542
       154 -10.6794     93.6818     42.7488   3.5918575215e+01   5.4631160410e+01     0.355188    0.2265476 -15.58  0.001758125    1.797    0.444
       155  -9.8510    105.1796     43.1957   3.2792987997e+01   5.2186144932e+01    0.1749516    0.1587163  68.60 0.0006648856    1.287    0.223
       156 -10.2744    156.0328     41.3172   2.0862751948e+01   4.0720082362e+01    0.2562071     0.182342 -60.31 0.0009501264    1.621    0.383
       157 -10.8138    133.1194     39.9150   2.4922255898e+01   4.6344949577e+01    0.4126097    0.1921676  56.48   0.00147527    1.952    0.488
       158 -10.8357    245.3725     50.0545   1.1035269112e+01   1.9276875084e+01    0.3743964    0.1754573  64.67 0.0001005685    2.218    0.549
       159 -11.2660    155.6148    105.2195   3.8951963710e+01   3.0219906371e+01    0.2682933    0.2011527  11.91 0.0008042963    1.774    0.436
       160 -10.1966    134.2675     35.6995   2.3342422581e+01   4.6603073189e+01    0.2021771    0.1639822 -58.33 0.0001878069    1.434    0.303
       161 -10.6646    131.2711     33.2882   2.3194307410e+01   4.7594957082e+01    0.3657103    0.1955606 -52.60 0.0009132997    2.574    0.611
       162 -11.3310    122.5394     33.1682   2.5044867456e+01   4.9628484848e+01    0.4368765    0.2083946 -40.80  0.001370419    2.372    0.578
       163 -10.5552    123.6524     27.1242   2.2788605184e+01   5.0068727640e+01    0.3915956    0.2482626 -39.21  0.002032165    1.770    0.435
       164  -9.1562    105.1162     29.0401   2.7791213283e+01   5.4001037015e+01    0.3606848    0.2510439 -38.86  0.001969726    1.642    0.391
       165  -9.9488    109.9787     36.0503   2.9031894004e+01   5.2092294128e+01    0.1906679    0.1792099  42.49 0.0005226322    1.093    0.085
       166 -11.4484    114.5749     27.9948   2.5112559196e+01   5.2034356836e+01     0.244279    0.1751155  45.01 0.0004745043    1.236    0.191
       167 -11.1702    112.9983     32.5462   2.7063193050e+01   5.1856433127e+01    0.3634701    0.2527466  -4.89 0.0005236481    1.711    0.416
       168  -9.9598    108.9607     32.2405   2.7954509637e+01   5.2784689245e+01    0.2374771    0.2105989  87.26 0.0005776449    1.391    0.281
       169 -10.7284     74.8963     34.0316   3.8612235427e+01   5.9428627475e+01    0.2806471    0.2246528  26.50 0.0009015614    1.113    0.102
       170 -11.0894     92.5091     33.6048   3.2909549150e+01   5.6095432799e+01    0.3166504    0.2346604  30.64  0.001157155    1.237    0.191
       171  -9.8145    239.7188     30.4402   7.5206961119e+00   2.2949189037e+01    0.4140259    0.2002546  64.91  0.002183987    2.056    0.514
       172 -10.0490    210.1004    105.8603   2.8283803896e+01   1.7975808148e+01      0.22091    0.1877405 -68.49 0.0007615917    1.268    0.211
       173 -11.4939     86.0215     28.5375   3.2915114386e+01   5.8023008068e+01    0.4088107     0.213915  41.36  0.001010673    1.708    0.414
       174  -9.5608     90.4733     26.6333   3.0872144982e+01   5.7357139567e+01    0.1295228    0.1114537  33.78 0.0002051244    1.057    0.054
       175  -9.9487    162.7430     29.0447   1.6239376305e+01   4.0595604142e+01    0.1977189    0.1633949 -74.28 0.0005391202    1.260    0.206
       176 -10.4825    148.7158     24.8483   1.7299483668e+01   4.4420543310e+01    0.3414187    0.2256804 -31.68   0.00123499    1.661    0.398
       177  -9.7279    144.6350     26.3309   1.8449852357e+01   4.5232482801e+01    0.2080479    0.1160681 -89.95 0.0008411775    2.780    0.640
       178 -10.9546     20.8212     25.5640   5.7461599183e+01   6.8309884296e+01    0.3422453    0.2507146  16.74  0.002343351    1.360    0.265
       179 -10.5957    234.2601     24.3762   6.7498134518e+00   2.4806989809e+01    0.3665638    0.2458093  75.48  0.001527304    1.421    0.296
       180 -12.6453     75.5110    103.1547   6.0778607032e+01   4.6483185792e+01    0.5549031    0.3389852 -55.77  0.001514061    1.638    0.389
       181 -10.9087    246.9496     22.5399   5.3294238762e+00   2.2423042545e+01    0.2643627    0.1771502  58.63  0.001021846    1.734    0.423
       182 -11.5579    242.2079     22.6237   5.7247612732e+00   2.3370987519e+01    0.3436021     0.192931  60.51  0.001378445    1.917    0.478
       183 -11.0057    239.2673     20.6408   5.5649943504e+00   2.4202047777e+01    0.2183019    0.1355692 -49.25 0.0006192207    1.401    0.286
       184 -14.6061     42.7896     75.1733   6.4747296391e+01   5.6936318449e+01     1.594395     1.353235  52.22  0.006121466    1.546    0.353
       185 -10.1763    168.3190     26.6613   1.4742376131e+01   3.9528980890e+01    0.2545952    0.1867737 -78.80  0.001404061    1.462    0.316
       186 -10.4519    135.5165     24.9203   1.9683908089e+01   4.7545025034e+01    0.2680403    0.2144595  37.06  0.001500358    1.250    0.200
       187  -9.2862    153.4080     25.4433   1.6695820231e+01   4.3234405177e+01    0.1312496    0.1185941  74.75 8.065414e-05    1.035    0.034
       188 -10.2124    115.0497     22.5789   2.3130873112e+01   5.2517136842e+01    0.3743615    0.2070301  23.04  0.001671399    2.440    0.590
       189  -9.7596     99.3714     22.3613   2.6833024246e+01   5.5980709174e+01    0.6515712    0.2164717  51.70  0.002620267    2.513    0.602
       190  -9.2145    103.4119     19.4552   2.4746221020e+01   5.5414657375e+01    0.2113401    0.1781927  49.82 0.0001401859    1.103    0.093
       191 -10.1003    119.5046     22.1516   2.2007566633e+01   5.1552033868e+01    0.1947886    0.1706429  85.83 0.0004959235    1.299    0.230
       192  -9.9121    163.3102     20.9358   1.3894762893e+01   4.1346319487e+01    0.1631978    0.1554019 -83.34 0.0003213064    1.101    0.091
       193  -9.8834    150.9715     20.4939   1.5644085455e+01   4.4340147256e+01    0.1864145    0.1702071  75.50  0.001032627    1.047    0.045
       194  -9.9218    124.0129     20.7310   2.0588416263e+01   5.0664163616e+01     0.192244    0.1730371 -75.47 0.0003240241    1.285    0.222
       195  -9.9533    121.6120     17.2039   1.9898903281e+01   5.1565943502e+01    0.1883199    0.1677095  72.87 0.0004037809    1.166    0.142
       196  -9.7586    125.0000     15.9925   1.8823299267e+01   5.0902102580e+01    0.1729789    0.1664199  43.15 0.0004426019    1.108    0.097
       197 -10.9475     36.2608    248.4820   9.1167284702e+01   1.8401287850e+01    0.2223773    0.1145248 -61.94  0.001303377    2.156    0.536
       198 -11.2043    113.6849    246.3875   7.5900247540e+01   8.4527303553e+00    0.2713538    0.2091862 -22.47  0.001114739    1.835    0.455
       199 -10.5773    130.0825     19.3252   1.8932190831e+01   4.9397677152e+01    0.2550957    0.1808247  54.63 0.0004473087    1.222    0.182
       200 -10.3753     20.0957     19.2913   5.5173893335e+01   6.9329632982e+01    0.1938793    0.1522142 -51.14   0.00129408    1.902    0.474
       201 -10.1912    180.7683    243.5835   6.1935034786e+01  -1.4149796484e+00    0.1803777    0.1035422  42.19 0.0009495899    1.668    0.401
       202 -10.7275    193.5704     17.3487   9.1529513392e+00   3.4589213134e+01    0.2788329    0.1749643 -67.23  0.001186204    1.641    0.391
       203 -10.3520     88.2495    238.9736   8.0249400263e+01   1.3560305131e+01    0.1477429    0.1041322 -70.18 0.0003695137    1.552    0.356
       204 -12.9787     66.9758     83.2542   5.8242768855e+01   5.2114020065e+01      0.90042    0.6761445  72.20   0.00320585    2.159    0.537
       205  -9.8739    138.8927     18.0530   1.6924853194e+01   4.7454745068e+01    0.1661212    0.1400645  25.15 0.0003653866    1.300    0.231
       206 -11.1145     93.7346     16.1699   2.5972033703e+01   5.7807396856e+01    0.3578638    0.1654757  43.92  0.001707081    1.851    0.460
       207  -9.2155    103.2904     15.2622   2.3242071670e+01   5.5853920386e+01    0.1300938   0.08335006  33.50 0.0002242241    1.496    0.332
       208  -9.4421    159.9666     13.9300   1.2423768334e+01   4.2847529714e+01    0.1505165    0.1257917  71.06 0.0002811364    1.041    0.039
       209 -10.3932    187.2811     12.9975   8.7864215120e+00   3.6496181543e+01    0.2346791    0.1444899 -76.34 0.0008002375    1.713    0.416
       210  -9.1817    141.3713     13.2732   1.5041026385e+01   4.7325682747e+01    0.1387307   0.08288809  42.57 0.0005061466    1.679    0.405
       211 -12.8860     72.6192     73.8523   5.3458156001e+01   5.3161891779e+01     1.686926    0.6666457  43.99  0.006414805    2.919    0.657
       212 -13.1951     80.8923     41.9824   3.9646564017e+01   5.7214836085e+01     1.134528    0.6446887  45.64  0.005626521    1.737    0.424
       213 -14.3297    118.9301     63.9791   3.6034681912e+01   4.6051559910e+01     1.997847     1.131527  62.77  0.003896503    2.297    0.565
       214  -9.9827     15.5800    238.4938   9.4296855189e+01   2.2538408597e+01    0.1101245   0.08459894  74.00 -0.0002027087    1.036    0.035
       215  -9.6627    101.1652    176.0189   6.8698651028e+01   2.5095736831e+01    0.1831344    0.1743983 -84.49 -0.0006383859    1.034    0.033
       216 -13.0857     53.9558     70.4035   5.9132674950e+01   5.6557404277e+01     1.196042    0.7505638 -78.18   0.00452196    4.116    0.757
       217  -9.4912    236.7099    146.0067   3.2793098056e+01   5.7259535215e+00    0.1906487      0.15398 -31.79 0.0003237053    1.088    0.081
       218 -12.4394     60.4259     62.2544   5.4114462501e+01   5.7237385513e+01    0.7623839    0.6553203 -26.36  0.004663675    1.085    0.079
       219  -9.8419    152.8635    124.0930   4.4453702670e+01   2.6961628677e+01    0.2202648    0.2048932 -78.51            0    1.183    0.155
       220  -9.1771    206.7511    122.3898   3.2746683944e+01   1.5700940426e+01    0.1486864    0.1070084 -61.97 0.0006948547    1.670    0.401
       221 -13.1400     79.9760     59.0181   4.6061870460e+01   5.4668898705e+01    0.9550012    0.4442524  33.25  0.003542969    2.281    0.562
       222 -12.0106     75.9351     51.9865   4.4976597666e+01   5.6559150656e+01    0.3052019    0.2395605 -30.46   0.00028368    1.255    0.203
       223 -11.4056     96.0760    102.1202   5.4049715349e+01   4.3266706157e+01    0.3860162    0.1982932 -38.10   0.00153736    2.043    0.511
       224 -11.1964    144.5970    103.1791   4.1018489607e+01   3.3094200997e+01    0.3679975    0.3143154  -6.59  0.001528899    1.325    0.245
       225 -10.7627    165.0647    101.9516   3.5973531504e+01   2.8715805195e+01    0.2361921    0.2284272 -41.38 0.0007235154    1.023    0.023
       226  -9.9792    244.7588     97.9961   2.1276072664e+01   1.2274312698e+01    0.2088284     0.126196 -38.65 0.0009489825    1.450    0.310
       227 -11.8892    158.9555     99.0554   3.6552407697e+01   3.0663933753e+01    0.9745869    0.3170601  40.55 0.0003320112    3.993    0.750
       228  -9.4998    100.6078     10.5327   2.2132878619e+01   5.6870419120e+01    0.1307231    0.1022472  34.48 0.0007963454    1.136    0.119
       229 -10.3713    157.3278     95.6799   3.6008324309e+01   3.1679647017e+01    0.3024527    0.2223459  60.37 0.0006875175    1.459    0.315
       230 -12.2679    154.3388     95.7172   3.6693987296e+01   3.2356758157e+01    0.7433352    0.4911422  37.13  0.001987458    1.642    0.391
       231 -11.6141     33.7574    100.5741   7.4157213704e+01   5.2235754995e+01    0.2602409    0.2297143  19.08 0.0001241685    1.288    0.224
       232 -12.9739     85.9789     98.7461   5.6267893780e+01   4.5776327239e+01     0.706605    0.4004728  29.56  0.003057327    1.950    0.487
       233 -10.4713     89.1892     93.8663   5.3905003759e+01   4.6279489703e+01    0.2050316     0.194268 -45.42 0.0002536084    1.105    0.095
       234 -10.6922    170.4208     97.7653   3.3733585293e+01   2.8282965258e+01    0.3413867    0.2829553 -53.63  0.001738927    1.238    0.193
       235 -11.7994    101.9615     96.1881   5.0635508764e+01   4.3449415768e+01    0.4168426    0.3086427 -39.74  0.002043964    1.320    0.242
       236 -12.4655    106.7211     96.4087   4.9289710572e+01   4.2484134476e+01    0.5163308    0.3212129 -22.81  0.001592286    2.133    0.531
       237 -12.2507    107.5028     92.4974   4.7945640312e+01   4.3141475176e+01     0.533548    0.2639552  36.16  0.001946788    2.161    0.537
       238 -11.6569    226.1302     97.5074   2.3799279936e+01   1.6051471707e+01    0.3043173    0.2467206  51.79  0.001734125    1.359    0.264
       239 -10.4014     17.4518     95.5035   7.8761195468e+01   5.4743568952e+01    0.2423712     0.187788 -80.76 0.0007460376    1.381    0.276
       240 -11.2425     12.0242     97.3223   8.0951938065e+01   5.4695791203e+01    0.2848499    0.2191633 -49.02  0.001058228    1.100    0.091
       241 -11.0030     13.5223     93.5445   7.9759121001e+01   5.5458954776e+01    0.2197616    0.2074311   0.75  0.001013477    1.248    0.199
       242 -11.9060    165.6027     66.1784   2.6151538390e+01   3.4866372633e+01     1.464763    0.5594178  47.09  0.005275038    2.700    0.630
       243 -14.4346    193.9091     87.2561   2.6543922259e+01   2.4776786820e+01     1.950841     1.462832  31.41  0.009737022    1.637    0.389
       244 -13.5002    192.0450     76.1440   2.4061795450e+01   2.7050906129e+01    0.9150561    0.7046779  41.99  0.002358027    1.441    0.306
       245 -11.3435    234.0640     36.8585   9.3835757513e+00   2.3328353506e+01    0.8732517    0.4500665 -78.32  0.003146868    2.425    0.588
       246 -13.1959    243.9420     61.5259   1.3585346251e+01   1.7975007380e+01     1.247797    0.7372236  56.58  0.004871727    1.882    0.469
       247 -10.1537    219.2868    121.3860   3.0317095502e+01   1.3325783256e+01    0.3329264    0.1395456  52.26  0.001301848    2.672    0.626
