#   1 NUMBER                 Running object number                                     
#   2 MAG_AUTO               Kron-like elliptical aperture magnitude                    [mag]
#   3 X_IMAGE                Object position along x                                    [pixel]
#   4 Y_IMAGE                Object position along y                                    [pixel]
#   5 X_WORLD                Barycenter position along world x axis                     [deg]
#   6 Y_WORLD                Barycenter position along world y axis                     [deg]
#   7 A_WORLD                Profile RMS along major axis (world units)                 [deg]
#   8 B_WORLD                Profile RMS along minor axis (world units)                 [deg]
#   9 THETA_WORLD            Position angle (CCW/world-x)                               [deg]
#  10 FWHM_WORLD             FWHM assuming a gaussian core                              [deg]
#  11 ELONGATION             A_IMAGE/B_IMAGE                                           
#  12 ELLIPTICITY            1 - B_IMAGE/A_IMAGE                                       
         1 -12.5888      2.2283     35.8900   1.3038697773e+02   6.7092757004e+01     3.626693          nan -66.19  0.007471442   11.779    0.915
         2 -11.9564      2.1541     13.2296   1.2476569476e+02   7.1915619835e+01    0.8260087    0.1994507 -56.27  0.003752836    2.457    0.593
         3 -11.2980      2.1038      5.0654   1.2204839963e+02   7.3567041976e+01    0.5943955    0.2458274 -46.32   0.00331307    1.678    0.404
         4 -13.4639    209.9360     13.0474   5.7840735832e+01   3.0388071138e+01     1.572853     1.021242  28.20  0.007518132    1.827    0.453
         5 -12.8769    195.1465     31.4806   6.5293124483e+01   3.2242125826e+01     1.290593     1.162657   7.59   0.00666117    1.129    0.114
         6 -10.5409    238.1405    248.1326   1.0605065176e+02  -4.0567863891e+00     0.175946    0.1044413  19.05  0.001244676    1.251    0.201
         7 -10.4172    249.3330    249.5559   1.0447544219e+02  -5.6396785158e+00    0.2358884    0.1269772  27.83   0.00164546    1.262    0.207
         8 -12.3432    126.3870    247.7059   1.2492486344e+02   1.1547386367e+01    0.4138567    0.3753368  32.69  0.003549229    1.288    0.224
         9 -12.3150    100.3594    247.8023   1.2940131316e+02   1.4935168778e+01    0.4749923    0.2819047  41.61  0.003413091    1.241    0.194
        10 -10.8492     65.8445    249.2495   1.3526247937e+02   1.8844620547e+01    0.2231007      0.14227  56.46 0.0005418749    1.167    0.143
        11 -10.8702     46.2723    248.9350   1.3839845400e+02   2.0989601501e+01    0.2847154    0.1460875  60.23   0.00130793    1.508    0.337
        12 -12.9354     33.4615    246.6226   1.4031860331e+02   2.2604824178e+01    0.8906003    0.6410767  22.75   0.00726871    1.998    0.500
        13 -13.7282      7.3670    244.9994   1.4425853659e+02   2.5216298823e+01     1.532369    0.9914916  82.41   0.01390555    1.371    0.271
        14 -13.6181      8.4939    206.5054   1.4290678453e+02   3.1182238953e+01     1.034689    0.6630442  81.53  0.005043138    1.279    0.218
        15 -14.6580     51.7055    209.9169   1.3534339214e+02   2.6521893838e+01     7.037208          nan  43.33   0.02319745    6.067    0.835
        16 -10.5895    104.1086    236.8362   1.2786183300e+02   1.5983957771e+01     0.170164    0.1117104  54.29 0.0007819997    1.277    0.217
        17 -12.4208     35.0466    229.4290   1.3933113274e+02   2.5046496280e+01    0.2358904    0.2098647  84.66 0.0007563594    1.383    0.277
        18 -15.1561      7.6346    152.7919   1.4075315302e+02   4.1214453910e+01     5.151158     1.473679 -86.43   0.02285675    3.351    0.702
        19  -8.8055    152.7168    212.9327   1.1628524270e+02   1.2457819494e+01    0.1549918    0.1296962  36.76 0.0003082922    1.079    0.073
        20 -13.7022     41.4184    221.1911   1.3784294223e+02   2.5724317925e+01    0.7338287    0.5127657  57.52  0.002502241    1.054    0.051
        21 -11.2963     61.8458    196.0306   1.3241091146e+02   2.7821456605e+01    0.2733659     0.215478 -44.82  0.001303104    1.778    0.437
        22  -9.8229    192.8944    194.4309   1.0583016387e+02   8.5063042274e+00    0.4715422    0.2836305 -65.43  0.001513874    7.773    0.871
        23 -11.5086     67.7904    188.2823   1.3055872001e+02   2.8537246744e+01     0.227575    0.2091068 -69.00 0.0005555294    1.313    0.239
        24 -11.2134     50.6842    235.4281   1.3701069222e+02   2.2526754302e+01    0.2231005    0.1629163  83.05 0.0008400346    1.336    0.252
        25 -10.6730     77.7267    175.9542   1.2724136821e+02   2.9636579886e+01    0.2095025    0.1896601  88.79 0.0003654548    1.141    0.124
        26 -12.8857     64.5568    173.8088   1.2989932824e+02   3.1666434717e+01    0.4128466    0.2529746 -44.78  0.001412693    2.233    0.552
        27 -11.5568     85.4645    166.8198   1.2446242800e+02   3.0401599143e+01    0.5769247    0.4623149  47.24  0.003732632    1.130    0.115
        28  -9.6083     98.1177    151.1497   1.1932673935e+02   3.1758212100e+01     0.218497    0.2047293  59.60 0.0006933319    1.026    0.025
        29 -11.8339     86.6397    150.2423   1.2199206208e+02   3.3603237056e+01    0.2534493    0.2301735 -44.56 0.0005840175    1.260    0.206
        30 -12.1585     67.6207    143.8697   1.2583326400e+02   3.7433420645e+01    0.6644974    0.4185103  62.91  0.002725845    1.682    0.405
        31  -9.5167    144.4879    243.4773   1.2135778335e+02   9.5929404737e+00    0.1115082   0.08049603  39.95 3.404458e-05    1.024    0.023
        32  -8.3131    192.2970    144.2724   9.6443966142e+01   1.5940224641e+01     0.142845   0.09962177  14.08 0.0002256171    1.525    0.344
        33 -11.4922     57.2936    131.9367   1.2693369591e+02   4.1231124721e+01    0.6954414    0.3128513 -85.88  0.002776423    3.279    0.695
        34 -10.2288     50.3563    130.0303   1.2851872824e+02   4.2398062034e+01    0.2580612    0.1588312  45.54  0.000660211    1.610    0.379
        35  -9.4610    109.7458    136.6070   1.1399108516e+02   3.2939166007e+01    0.2905746    0.2185446 -14.85  0.001325734    1.840    0.456
        36  -8.9240    101.0070    147.0470   1.1797683995e+02   3.2163680405e+01    0.1968462    0.1583914 -15.60  0.000532812    1.656    0.396
        37 -10.2188     96.8880    133.7126   1.1678507511e+02   3.5598084138e+01    0.2377395    0.2057794 -27.21 0.0006046646    1.349    0.258
        38  -8.7612    106.8868    123.3567   1.1218956952e+02   3.6214633493e+01    0.1872704     0.163381  35.05 0.0003417144    1.140    0.123
        39 -10.2906    168.0387    113.0995   9.4445476857e+01   2.6267876706e+01    0.3352266    0.2983395 -81.23  0.000912181    1.485    0.327
        40  -8.4524    203.3123    111.7013   8.6637637944e+01   1.8777940144e+01    0.1369681    0.1203276 -72.61 0.0004297357    1.603    0.376
        41  -8.9462    229.4998    229.9871   1.0486650468e+02  -1.2250325723e+00    0.1177464     0.100313 -53.92 0.0008094629    2.458    0.593
        42 -11.8181    140.2285    248.8481   1.2264261157e+02   9.5172689891e+00    0.4671949    0.1996665  42.88   0.00274827    1.693    0.409
        43 -11.0167    109.9177    248.1472   1.2779678335e+02   1.3666446392e+01      0.18487    0.1511195 -60.66  0.001147201    1.656    0.396
        44 -11.1193     81.4558    249.2092   1.3268570193e+02   1.7053979094e+01    0.2750761    0.1112964  41.73  0.001709354    1.745    0.427
        45 -11.2415     87.4869    248.0846   1.3160055673e+02   1.6488267543e+01    0.3585014    0.1372971  54.34   0.00201963    2.356    0.575
        46  -9.9746     14.8276     12.8212   1.1727325878e+02   7.1364913814e+01    0.1440877    0.1353663 -56.19  0.000572546    1.338    0.253
