#   1 NUMBER                 Running object number                                     
#   2 MAG_AUTO               Kron-like elliptical aperture magnitude                    [mag]
#   3 X_IMAGE                Object position along x                                    [pixel]
#   4 Y_IMAGE                Object position along y                                    [pixel]
#   5 X_WORLD                Barycenter position along world x axis                     [deg]
#   6 Y_WORLD                Barycenter position along world y axis                     [deg]
#   7 A_WORLD                Profile RMS along major axis (world units)                 [deg]
#   8 B_WORLD                Profile RMS along minor axis (world units)                 [deg]
#   9 THETA_WORLD            Position angle (CCW/world-x)                               [deg]
#  10 FWHM_WORLD             FWHM assuming a gaussian core                              [deg]
#  11 ELONGATION             A_IMAGE/B_IMAGE                                           
#  12 ELLIPTICITY            1 - B_IMAGE/A_IMAGE                                       
         1  -8.2581    189.4737     12.0202   2.4342215003e+01   3.6510396392e+01    0.1630028    0.1050367 -39.28   0.00102727    1.578    0.366
         2  -7.5555    125.8004    249.4344   8.6323399371e+01   4.8940609931e+00    0.1795331    0.1097734  16.14 0.0004341096    1.569    0.363
         3  -8.8074     54.0659    249.1402   1.0284584946e+02   1.3853342313e+01    0.1862236     0.165762  57.08 0.0003004926    1.087    0.080
         4  -9.7062     20.3593    247.8452   1.1034802975e+02   1.7687374746e+01    0.3838274    0.2748916  -0.46  0.002280103    1.922    0.480
         5  -9.4458      3.9658    249.6347   1.1396338140e+02   1.8838426741e+01     0.343828     0.310434 -12.57  0.002338272    1.500    0.334
         6  -9.9855     12.7231    248.5110   1.1204499980e+02   1.8275399747e+01    0.5872892     0.327539   0.41    0.0028161    3.087    0.676
         7  -9.6194     12.7032    244.1271   1.1183204362e+02   1.9194725964e+01    0.3229397     0.228263  21.42 0.0009380368    1.519    0.342
         8  -8.4236    116.6055    248.1858   8.8255599042e+01   6.3112156977e+00    0.2510789    0.1599636  19.46 0.0004102777    1.440    0.306
         9 -10.1529    246.9600    244.6699   6.1825964806e+01  -8.0688058543e+00    0.3457075    0.1378784 -30.20   0.00191708    2.058    0.514
        10  -8.0538     87.2352    244.0857   9.4618732592e+01   1.0888609843e+01     0.184889    0.1640223   5.91 0.0004482955    1.171    0.146
        11  -9.5491    114.0347    238.7940   8.7660855399e+01   8.4584034214e+00    0.2350213    0.2314526 -17.21 0.0004684086    1.174    0.149
        12  -9.0014     11.5287    239.7585   1.1187021058e+02   2.0233177788e+01    0.2902162    0.1767577  41.71  0.001020409    1.369    0.270
        13  -8.0272     94.8386    239.1927   9.2261339311e+01   1.0909351200e+01    0.1754869    0.1480005 -12.56 0.0005040492    1.310    0.236
        14  -9.0442     55.9950    238.5030   1.0149784083e+02   1.5870903001e+01    0.3072849    0.2054915  -8.46  0.001548912    2.168    0.539
        15  -9.9341     48.3134    238.0095   1.0328253409e+02   1.6855246152e+01    0.3864439    0.2530856  31.49   0.00215899    1.361    0.265
        16  -9.1671     26.7345    245.9160   1.0882312859e+02   1.7461270352e+01    0.2662779    0.1759422   6.93  0.001480841    1.971    0.493
        17  -8.2764     42.2582    233.7324   1.0437980542e+02   1.8462714844e+01    0.2529938    0.1562056  -5.32   0.00118327    2.548    0.608
        18  -8.1191     36.7199    233.0429   1.0564816485e+02   1.9212260652e+01    0.1742224    0.1554572  71.68 0.0004331409    1.091    0.084
        19  -8.0368      2.4727    231.0376   1.1346832574e+02   2.2930813188e+01    0.2061769    0.1686898 -26.47  0.001333875    1.667    0.400
        20  -9.6063      9.6990    229.6447   1.1175876356e+02   2.2611522367e+01    0.5178636    0.2662251  31.21  0.002754997    1.753    0.430
        21  -9.3659      6.2970    225.9697   1.1235042005e+02   2.3733298219e+01    0.3101296    0.2686474  23.85  0.001885359    1.298    0.230
        22  -9.7456      2.2531    221.4690   1.1306111868e+02   2.5094875956e+01    0.5829367    0.2485098  48.16  0.002856849    1.973    0.493
        23  -8.2795     90.7981    230.1928   9.2170457680e+01   1.3323813673e+01    0.1984077    0.1703123  44.68 0.0005416053    1.125    0.111
        24  -8.8064     64.7193    228.7458   9.8454363735e+01   1.6968929514e+01    0.2872002    0.2081562  73.93 0.0009404696    1.543    0.352
        25  -8.0393    103.3409    229.6917   8.9039086187e+01   1.1748890875e+01    0.1416434   0.09689467  54.47 0.0007043624    1.688    0.408
        26  -8.2744     61.0243    226.1663   9.9113159198e+01   1.7995664103e+01    0.4202256    0.1978842 -61.86  0.001648374    2.221    0.550
        27  -8.5328    138.0080    227.0033   8.0409858218e+01   7.5163237697e+00    0.1994274    0.1771734   8.05   -0.0106749    1.031    0.030
        28  -8.4875    243.7512    226.1426   5.9445288643e+01  -5.2125527765e+00    0.1636199    0.1296093 -19.35 0.0005150245    1.190    0.160
        29  -8.2026     87.1450    221.8724   9.2060848417e+01   1.5626734564e+01    0.1851449    0.1561686 -21.09 0.0003702345    1.334    0.250
        30  -7.8153     72.5098    221.9751   9.5777577805e+01   1.7518749786e+01    0.1894311    0.1020899 -39.41 0.0007681784    2.404    0.584
        31  -7.9562     19.7828    222.4097   1.0896193616e+02   2.3323475983e+01    0.1628415     0.120146  15.97 0.0005069635    1.531    0.347
        32  -9.4554     17.0298    218.5914   1.0938189641e+02   2.4465029295e+01    0.6393961    0.3533596 -20.56  0.002741053    3.327    0.699
        33  -8.6254     92.8701    219.1583   9.0267301140e+01   1.5455526231e+01    0.3738464    0.1027694  26.56  0.001127787    3.862    0.741
        34  -9.3851     30.7168    217.6429   1.0593925103e+02   2.3356005628e+01    0.3406842    0.2397823   0.34  0.000855606    1.853    0.460
        35  -8.4812     11.1616    216.7837   1.1069332772e+02   2.5415704796e+01    0.2361099    0.1484153  81.05  0.001299763    1.511    0.338
        36  -9.2880      5.7564    216.1821   1.1195990501e+02   2.6020612352e+01    0.3465528    0.1708207  44.98  0.001409805    1.743    0.426
        37  -9.2981     28.3666    212.2011   1.0610755041e+02   2.4883001887e+01    0.4951837    0.2891672  -4.60  0.002208054    2.696    0.629
        38  -8.3671     28.4550    199.0352   1.0500043719e+02   2.8086843101e+01    0.2867817    0.2009187 -59.88  0.001472402    1.464    0.317
        39 -11.6962     19.3530    194.2728   1.0705022597e+02   3.0139390865e+01    0.9559557    0.7675126  18.39   0.00557555    1.374    0.272
        40 -10.6483     10.1938    208.2727   1.1041388698e+02   2.7511705530e+01    0.5690355    0.4670155 -44.20   0.00207048    1.459    0.315
        41 -10.8867      9.8911    201.4797   1.1005784327e+02   2.9179968595e+01      0.59105     0.388121   7.17  0.001033099    1.895    0.472
        42  -7.6622     95.4566    211.4994   8.8573344582e+01   1.6822018068e+01    0.1416081    0.1317031  16.53 0.0008087601    1.040    0.038
        43  -8.6003      1.8528    207.8329   1.1245210014e+02   2.8303808219e+01    0.1837447    0.1694415 -69.39  0.001229555    1.219    0.180
        44  -7.6878     47.7583    206.4276   1.0053998596e+02   2.4198561151e+01    0.1863011    0.1317886   9.61 0.0009386964    1.655    0.396
        45  -7.5578     91.5091    204.4618   8.8614770309e+01   1.9008745404e+01    0.1436015    0.1348103  22.85 1.410048e-05    1.021    0.021
        46  -7.3750    115.6974    203.2919   8.2150960291e+01   1.5727120468e+01    0.1419676    0.1100094  59.77 0.0001786371    1.571    0.363
        47  -7.2260    140.2945    202.2749   7.5910776017e+01   1.2215626714e+01    0.1420651    0.1038514  -9.63 0.0002418089    1.525    0.344
        48  -7.8933     97.3075    201.1131   8.6591136509e+01   1.8959086168e+01    0.2862886    0.1165922 -51.24  0.001079607    2.482    0.597
        49  -8.4578      1.6292    191.1847   1.1154999152e+02   3.2371362696e+01    0.3039186    0.1530413 -84.29  0.001459403    1.836    0.455
        50 -10.6480     29.3653    188.3542   1.0378209092e+02   3.0692096574e+01    0.7910835    0.5123191  44.59  0.004036122    1.471    0.320
        51  -8.9336     26.1584    180.8867   1.0397647716e+02   3.2926768308e+01    0.2623129    0.2417759 -75.04 0.0004383097    1.080    0.074
        52  -8.5122     29.3392    180.6944   1.0303882013e+02   3.2670075109e+01    0.2491496    0.1904801  43.52  0.001346371    1.273    0.215
        53  -9.8149     11.8303    182.2515   1.0816439263e+02   3.3834330033e+01    0.4371742    0.3250013   5.10  0.002418674    1.614    0.380
        54  -8.6117      2.0492    182.3345   1.1087314844e+02   3.4561699656e+01    0.3012722    0.1573255 -52.04   0.00122665    2.025    0.506
        55  -7.3515     69.6270    180.4523   9.1217103874e+01   2.7993309306e+01    0.1433935     0.140497 -77.10 0.0001146835    1.034    0.033
        56  -9.6909     43.9952    176.4710   9.8255931014e+01   3.2231277683e+01    0.4571124    0.3016039 -42.68  0.001534471    1.674    0.403
        57  -7.2310    116.6078    177.5384   7.7496379740e+01   2.1539722811e+01    0.1462061    0.1446127   7.44 8.143671e-05    1.057    0.054
        58 -10.5204    101.0036    175.9972   8.1482620528e+01   2.4449747358e+01    0.2130745    0.2073763  16.18  0.001163188    1.007    0.007
        59  -7.7334    149.2119    175.0715   6.8803081127e+01   1.6628410313e+01    0.2176515    0.1814187 -17.63 0.0003996809    1.207    0.172
        60  -8.5442     26.1894    174.5020   1.0333187984e+02   3.4590515481e+01    0.3927581    0.1431459  46.04 0.0008227728    2.794    0.642
        61  -9.0264    175.4073    172.4262   6.2436998533e+01   1.2834199438e+01    0.2669124    0.2443631 -11.33 0.0007086748    1.040    0.039
        62  -7.3859     35.5034    172.5595   1.0033539129e+02   3.4181053131e+01    0.1417431    0.1327555  78.08 0.0002163684    1.017    0.016
        63  -8.0575      1.3187    171.7755   1.1034995768e+02   3.7313027286e+01    0.1921397    0.1021046 -68.18 0.0004208378    1.680    0.405
        64  -9.3289     51.3481    170.3106   9.5232372945e+01   3.2996749142e+01      0.28256    0.2508502 -13.76 0.0004439742    1.255    0.203
        65  -9.1007     16.6837    170.5548   1.0576712711e+02   3.6470449296e+01    0.2476109    0.2005304 -20.83  0.001380116    1.466    0.318
        66  -8.7584     11.5943    170.2274   1.0724390370e+02   3.6966522732e+01    0.2976594    0.1792917 -12.22  0.001379372    2.274    0.560
        67  -8.4807      5.3377    168.9840   1.0897827762e+02   3.7756941050e+01    0.4940177     0.135289  56.43  0.001364125    5.554    0.820
        68  -7.9468     30.3238    164.2966   1.0095891875e+02   3.6896350323e+01    0.1469108      0.10222 -36.64  0.000379036    1.623    0.384
        69  -9.4061     24.9262    162.2030   1.0240242306e+02   3.7963722923e+01    0.4042561    0.2280359  58.26  0.001327573    1.964    0.491
        70  -8.7939    247.0069    161.7063   4.7963175680e+01   4.2901656160e+00    0.2449885    0.1313411 -56.65  0.001191793    2.697    0.629
        71  -7.9459     85.2675    162.0343   8.3533770021e+01   3.0457348654e+01    0.2095487    0.1968082 -56.57 0.0002978869    1.070    0.066
        72  -8.5000     64.0343    160.9943   8.9893021252e+01   3.3836122179e+01    0.2238263     0.212644 -38.03 0.0003193652    1.076    0.070
        73  -7.8241     95.0510    157.2220   7.9696556250e+01   3.0111848606e+01    0.2186817    0.1969991  27.42 0.0006519596    1.107    0.096
        74  -9.2749     49.2055    156.7486   9.3947640488e+01   3.6867958720e+01     0.402281    0.2642421  18.01  0.001283415    1.666    0.400
        75  -9.8045     73.0070    154.7815   8.5995619157e+01   3.4203634468e+01    0.5704594    0.3755104  -9.98   0.00232779    2.167    0.539
        76 -10.1757     21.3354    150.3863   1.0219473983e+02   4.1443533017e+01    0.6854534    0.2745187 -57.16   0.00241042    2.191    0.544
        77  -8.2020     51.0056    150.4422   9.2373966119e+01   3.8340353162e+01    0.2395309    0.1975799 -67.98 0.0006322524    1.183    0.154
        78 -10.7524     69.0996    144.6927   8.5378289380e+01   3.7431202299e+01     0.833445    0.5576434  64.44  0.003024184    1.934    0.483
        79  -9.3365     72.7613    142.5021   8.3749728997e+01   3.7460405891e+01    0.2854518    0.2610089 -57.66   0.00037789    1.083    0.076
        80  -8.1506     89.4896    142.4823   7.8387830986e+01   3.4782607956e+01     0.154444    0.1524668 -17.22 0.0002396994    1.003    0.003
        81  -9.3277     11.1015    150.8283   1.0557837440e+02   4.2131490202e+01    0.3078703    0.2086408 -53.10 0.0003737896    1.414    0.293
        82  -7.7330      8.2977    142.3540   1.0562290582e+02   4.4585112116e+01    0.1500637   0.08853323 -45.39 0.0007035257    1.695    0.410
        83  -8.2215    234.4749    147.5126   4.7144890214e+01   8.2986100326e+00    0.2354496    0.1029375  27.00 0.0008102388    5.671    0.824
        84  -7.0180     56.6637    151.7093   9.0720413109e+01   3.7285940566e+01     0.156731      0.11242 -27.03 0.0001916104    1.638    0.390
        85  -9.1962    247.3102    136.1483   4.3279206766e+01   8.3408141811e+00    0.1939767    0.1245189 -30.03 0.0006766121    1.455    0.313
        86  -8.5124     24.3085    136.0311   9.9328817247e+01   4.5044873928e+01     0.208791    0.1695576 -66.11 0.0005982436    1.133    0.118
        87  -8.6886     12.4917    135.0972   1.0336670146e+02   4.6231447738e+01    0.3759821    0.1131507  36.76   0.00132327    3.285    0.696
        88  -9.7201    245.5025    128.9601   4.2182382808e+01   9.7444471302e+00    0.3987914   0.09612824 -40.48  0.001496333    3.304    0.697
        89  -7.9981     67.0017    129.9644   8.3122856692e+01   4.1596122912e+01    0.2525925    0.1807978 -23.85  0.001124392    1.656    0.396
        90  -7.4354     17.9335    129.0638   1.0064220831e+02   4.7437133500e+01     0.166259     0.154363 -64.77 0.0003510243    1.019    0.018
        91  -7.3122     45.7896    128.0434   9.0282483293e+01   4.4960549120e+01    0.1957296    0.1165999 -63.92 0.0008439875    1.627    0.385
        92  -7.4756     80.0443    122.4741   7.6982834523e+01   4.1430211296e+01    0.2018828     0.135771  -2.39 8.142748e-05    2.144    0.534
        93  -8.2202     21.7013    122.0267   9.8208786194e+01   4.9005139036e+01    0.1948339    0.1696179 -61.89 0.0002718671    1.055    0.052
        94  -8.9865    249.1588    117.6647   3.9644639787e+01   1.0994442818e+01    0.1721897    0.1381144 -67.86 0.0007046919    1.375    0.273
        95  -7.8183     32.4623    115.0818   9.2869019602e+01   4.9844983659e+01    0.2072787    0.1879691  11.72 0.0003517255    1.156    0.135
        96  -8.1785     13.7582    115.5170   1.0026086876e+02   5.1330528995e+01    0.1856443    0.1245318  35.16 0.0004803316    1.623    0.384
        97  -8.6063    242.4919    114.4947   3.9847683840e+01   1.2489226415e+01    0.1214122   0.09602215 -44.76 -6.489686e-05    1.014    0.014
        98  -7.3986     39.4570    114.5474   9.0036621123e+01   4.9237674000e+01    0.1456338    0.1375204 -43.32 8.226792e-05    1.013    0.013
        99  -8.2703    248.3322    113.3313   3.8939461579e+01   1.1790282485e+01    0.1131573   0.08526681 -16.14  0.000701136    1.724    0.420
       100  -8.8305     65.8873    112.7648   7.9631400595e+01   4.6148160180e+01    0.2595571    0.2283559 -26.56 0.0002828116    1.143    0.125
       101  -8.9490    249.1907    104.3947   3.7186988301e+01   1.3034820869e+01    0.2349622   0.07511011 -38.76  0.001017304    2.613    0.617
       102  -8.1371     13.0841    106.2004   9.9066293085e+01   5.3798487122e+01    0.2265121    0.1635773 -40.15 0.0007296369    1.292    0.226
       103  -8.2130      3.6838     94.1596   1.0106430244e+02   5.7430295934e+01    0.2029958    0.1776326  22.83 0.0002327682    1.286    0.223
       104  -7.2129     40.5453     86.5580   8.3072056948e+01   5.6057222847e+01    0.1419619     0.131706 -19.40 6.835453e-05    1.023    0.022
       105  -8.0163      3.5597     81.2575   9.8838053449e+01   6.0606933892e+01    0.1911957    0.1013494 -53.51 0.0004439607    1.558    0.358
       106  -7.2174    104.2456     72.7062   5.5364508458e+01   4.7606242008e+01    0.1369484    0.1135949 -81.18 0.0002508032    1.478    0.323
       107  -7.1026    209.2856     69.7167   3.4858458597e+01   2.5195209325e+01    0.1256871    0.0817476 -66.52 0.0001998824    1.523    0.343
       108  -7.1648    221.4815     66.4362   3.2824090382e+01   2.3366161429e+01    0.1201271   0.09908737 -60.70 0.0001132315    1.032    0.031
       109  -7.9996    105.6445     60.1123   5.0981026336e+01   4.9463653322e+01    0.1880848    0.1763963 -37.07 0.0004653227    1.144    0.126
       110  -7.5978      5.2952     54.6581   9.1759686013e+01   6.6575165946e+01    0.1175622   0.09790649  59.02 0.0007031234    1.661    0.398
       111 -11.3324    234.8407     35.8266   2.5668536289e+01   2.4971789197e+01    0.8606669    0.5303875  37.31     0.004493    3.763    0.734
       112  -7.6524     30.1536     41.3252   7.3233796073e+01   6.6750457939e+01      0.17865    0.1061732  35.72 0.0003557424    1.696    0.410
       113  -7.4681     43.6951     22.2813   5.7969512631e+01   6.7580888612e+01    0.1114526   0.09916808  64.40 0.0002795893    1.555    0.357
