#   1 NUMBER                 Running object number                                     
#   2 MAG_AUTO               Kron-like elliptical aperture magnitude                    [mag]
#   3 X_IMAGE                Object position along x                                    [pixel]
#   4 Y_IMAGE                Object position along y                                    [pixel]
#   5 X_WORLD                Barycenter position along world x axis                     [deg]
#   6 Y_WORLD                Barycenter position along world y axis                     [deg]
#   7 A_WORLD                Profile RMS along major axis (world units)                 [deg]
#   8 B_WORLD                Profile RMS along minor axis (world units)                 [deg]
#   9 THETA_WORLD            Position angle (CCW/world-x)                               [deg]
#  10 FWHM_WORLD             FWHM assuming a gaussian core                              [deg]
#  11 ELONGATION             A_IMAGE/B_IMAGE                                           
#  12 ELLIPTICITY            1 - B_IMAGE/A_IMAGE                                       
         1 -14.6956    135.5105    129.2488   1.1331940966e+02   2.9966858619e+01     1.914337    0.4409877 -49.60  0.005141784    5.213    0.808
         2 -14.9476    159.6403     43.5057   8.3223168913e+01   3.9666335448e+01     1.451985     1.097898 -22.73  0.003878492    1.412    0.292
         3 -13.8477    170.5630     15.2005   7.1851856889e+01   4.0124942560e+01     0.951024    0.5870679 -89.75  0.003964908    1.724    0.420
         4 -14.5621    172.9937      8.3282   6.9245713091e+01   4.0133221001e+01     1.212601    0.7403338  79.97  0.003930042    1.584    0.369
         5 -12.6732    189.5874     13.9743   6.9314567006e+01   3.5074528159e+01    0.4287016    0.2394231 -34.58  0.001844966    1.686    0.407
         6 -10.7393    151.0118    241.6600   1.2727681913e+02   9.0260664474e+00     0.161826    0.1269047  20.90  0.000636796    1.245    0.197
         7 -20.2012     79.9059    177.4949   1.3510640958e+02   2.9696759465e+01     14.80987     6.922113 -69.94   0.07129941    2.472    0.596
         8 -11.8876    204.0483    171.2683   1.0716137624e+02   9.8631776723e+00    0.4167674    0.2030118  33.90  0.001847306    1.852    0.460
         9 -12.7142    138.1954    242.3760   1.2970329447e+02   1.0722219613e+01     0.291127    0.2804877  78.53  0.001926731    1.435    0.303
        10 -13.3461    177.6670    170.9121   1.1211713674e+02   1.4533819905e+01    0.4063109    0.3489285  -0.80  0.002560036    1.190    0.159
        11 -12.0795    230.3802    167.1263   1.0186541967e+02   6.0025111733e+00    0.2296015    0.1445241 -39.10  0.001313566    1.950    0.487
        12 -11.8365    201.1649    164.6318   1.0645537253e+02   1.1260244704e+01    0.3790339    0.2712919 -42.51   0.00186679    1.724    0.420
        13 -11.0160    222.3571    161.5920   1.0214764423e+02   7.9998007958e+00    0.2164624    0.1761122 -45.10 0.0007815924    1.697    0.411
        14 -14.8132    143.4028    143.8956   1.1444511648e+02   2.5555334963e+01     1.032801    0.5613385 -55.52  0.004458719    2.320    0.569
        15 -15.4869    134.1736    146.8555   1.1721926407e+02   2.6774903001e+01     1.521972    0.7824996 -55.00  0.006109066    2.342    0.573
        16 -11.0631    160.4678    247.4505   1.2620444441e+02   7.0291655569e+00    0.2737159    0.1418372  19.76 0.0009126433    2.326    0.570
        17 -11.3142     14.0379    155.4613   1.4983417273e+02   4.1784428645e+01    0.1680291    0.1499375 -74.34  0.001225426    1.331    0.248
        18 -10.8293     16.4008    249.9468   1.5254642516e+02   2.4228395191e+01    0.1228875   0.07499023  75.86 0.0009782261    1.498    0.333
        19 -13.5340    162.8623    200.8166   1.1989182184e+02   1.2659118534e+01    0.6896744    0.4391779 -70.53  0.001746186    3.511    0.715
        20 -12.9166     11.7754    206.0888   1.5225420954e+02   3.1922276317e+01    0.4842061    0.2180649  30.18   0.00268323    2.041    0.510
        21 -12.6596    174.1598    149.0654   1.0868645671e+02   1.8612747757e+01    0.3866312     0.305671 -38.12  0.001648963    1.401    0.286
        22 -13.3554    155.3186    190.4168   1.1987455009e+02   1.5431546618e+01    0.4217881    0.2821793  45.22  0.002002729    1.330    0.248
        23 -13.2537    153.7890    185.5450   1.1944687941e+02   1.6445610668e+01    0.4951572    0.2298961  39.41  0.002358604    1.770    0.435
        24 -12.6887    134.7131    109.4767   1.0892667288e+02   3.4110664962e+01     1.072873     0.178068 -45.88  0.002426638    6.502    0.846
        25 -13.6644    156.1962    199.1599   1.2098065500e+02   1.3974159432e+01    0.7130855    0.4856077 -83.89  0.003498915    3.295    0.697
        26 -12.7073     27.4968    145.4528   1.4565958025e+02   4.2817711941e+01    0.3362957    0.3042277  48.54  0.001332291    1.211    0.175
        27 -11.8703    174.9382    141.2890   1.0692351258e+02   1.9735764088e+01     0.204125    0.1690822  35.80 0.0005638704    1.095    0.087
        28  -9.8419     20.2571    134.3122   1.4690449883e+02   4.5991353360e+01    0.1133107   0.08542815 -56.18 0.0002345383    1.528    0.345
        29 -12.8502    160.6203    128.3009   1.0717638689e+02   2.4923622058e+01     0.385733    0.3385843 -45.29  0.001554977    1.251    0.201
        30 -12.1222    169.9207    195.3335   1.1768883582e+02   1.2291275118e+01    0.2369017    0.1762545  32.66 0.0006705627    1.072    0.067
        31 -12.9163    180.5417    193.3201   1.1531931990e+02   1.0831873575e+01    0.3464427    0.3054089 -64.67  0.001583813    1.711    0.415
        32 -14.9428    174.2801    187.5434   1.1561137974e+02   1.2677406630e+01     1.128848     0.588721 -45.15  0.005522343    2.408    0.585
        33 -13.1759    164.1551    157.5145   1.1244084950e+02   1.9138653575e+01    0.4069862    0.2673952  43.03 0.0009020481    1.358    0.264
        34 -11.2812    136.2281    196.8402   1.2476706966e+02   1.7554066406e+01    0.3057815    0.2147213  69.54  0.001724128    1.949    0.487
        35 -10.1925     28.5672    240.4540   1.5011201883e+02   2.4513159753e+01    0.1065382   0.06632692  53.17 0.0002510377    1.080    0.074
        36 -14.0041    166.0135    188.8843   1.1746652099e+02   1.3871167052e+01    0.7166724    0.3567728  37.29  0.003608525    1.653    0.395
        37 -10.9409     21.8527    238.7267   1.5127996719e+02   2.5445308640e+01    0.1332323    0.1056203  72.79 0.0006843921    1.304    0.233
        38 -10.7836    205.4969    110.1827   9.4004599131e+01   1.8294572898e+01    0.2493268    0.1917127  43.33 0.0006436552    1.288    0.224
        39 -11.7990    126.9848    250.4356   1.3253234370e+02   1.1223389526e+01    0.1524028   0.09286488  37.56  0.001048903    1.141    0.124
        40 -10.8841    163.1721    250.1789   1.2602318071e+02   6.3505278371e+00    0.1622099    0.1100384  25.70 0.0004423406    1.196    0.164
        41 -11.5966     27.2007     98.2057   1.4124207978e+02   5.4032785026e+01    0.3792224    0.3343311 -19.59  0.002414811    1.398    0.285
        42 -10.5047     22.9465    156.2942   1.4758751802e+02   4.0836998819e+01    0.1644536    0.1311313  55.96 0.0004757033    1.094    0.086
        43 -14.1671    206.7472    177.7448   1.0784185470e+02   8.5641759790e+00    0.5796421     0.530039  16.32  0.003183412    1.245    0.197
        44 -12.7065     47.1887     92.6349   1.3297584808e+02   5.3406464959e+01     0.453299    0.2774854  10.76  0.002107657    2.269    0.559
        45 -11.3983    139.7112    249.9415   1.3017880145e+02   9.5684675732e+00    0.2613271    0.2145175 -81.59  0.002056518    1.879    0.468
        46 -12.4743    134.1062    244.8584   1.3070384700e+02   1.0969044123e+01    0.3606991    0.2003712 -39.24  0.002262404    2.706    0.630
        47 -10.8767    103.6167     81.9316   1.1032085708e+02   4.6640182458e+01    0.2417164    0.2024168  37.02 0.0002969741    1.221    0.181
        48 -10.7126    142.9756     80.3155   9.8794244312e+01   3.7907165946e+01    0.2221371    0.2022093  51.13 0.0005644462    1.065    0.061
        49 -11.8395    149.7883     36.0241   8.2443558396e+01   4.3395582160e+01    0.7455764     0.363044  85.08  0.002308147    3.536    0.717
        50 -14.3666    149.0201     57.9818   9.0262013991e+01   4.0296139397e+01     1.118251    0.9341487 -14.25 0.0009731849    1.333    0.250
        51 -13.8398    195.2233    169.8649   1.0853070138e+02   1.1579926667e+01    0.6949928    0.4125953 -46.09  0.002660336    2.219    0.549
        52 -13.2558    163.5392     34.8924   7.9602152437e+01   3.9770756983e+01    0.4582709    0.4544464   6.92 0.0008865087    1.070    0.065
        53 -10.6212     13.6406     59.9322   1.4143959934e+02   6.4386656403e+01    0.1801535    0.1394098 -76.88 0.0004620272    1.126    0.112
        54  -9.9600     12.4124    243.5188   1.5309348164e+02   2.5582249518e+01    0.0987713   0.06634731  53.95 0.0001234989    1.042    0.040
        55 -11.4089    139.3978    201.2031   1.2468894485e+02   1.6360657504e+01    0.2690255    0.2491884  -1.39 0.0006095609    1.282    0.220
