#   1 NUMBER                 Running object number                                     
#   2 MAG_AUTO               Kron-like elliptical aperture magnitude                    [mag]
#   3 X_IMAGE                Object position along x                                    [pixel]
#   4 Y_IMAGE                Object position along y                                    [pixel]
#   5 X_WORLD                Barycenter position along world x axis                     [deg]
#   6 Y_WORLD                Barycenter position along world y axis                     [deg]
#   7 A_WORLD                Profile RMS along major axis (world units)                 [deg]
#   8 B_WORLD                Profile RMS along minor axis (world units)                 [deg]
#   9 THETA_WORLD            Position angle (CCW/world-x)                               [deg]
#  10 FWHM_WORLD             FWHM assuming a gaussian core                              [deg]
#  11 ELONGATION             A_IMAGE/B_IMAGE                                           
#  12 ELLIPTICITY            1 - B_IMAGE/A_IMAGE                                       
         1 -15.9019      6.7880     68.2677   1.2201171718e+02   6.0635839350e+01     2.462118    0.6783248 -70.92   0.01068046    2.716    0.632
         2 -16.1695     11.5944     23.8671   1.1020006454e+02   6.9855187231e+01     1.948379     1.031849 -40.69   0.00836891    1.585    0.369
         3 -15.1639     42.0976      6.5295   8.7267952799e+01   7.0080191893e+01     1.964773     1.085421 -28.36   0.01074808    1.643    0.391
         4 -14.4549     22.1878     13.8357   1.0096953898e+02   7.1006240052e+01    0.7969857    0.3465336  33.83   0.00412243    2.774    0.639
         5 -12.9831    119.0594     27.7170   6.9881134621e+01   5.2545084534e+01    0.8789214    0.5137563  26.16  0.003638901    2.204    0.546
         6 -14.8095    122.1725     37.0983   7.2767932666e+01   5.0425891102e+01     1.325377    0.7817838  47.09  0.002820145    1.670    0.401
         7 -13.4789      8.7058      3.1794   1.0385500354e+02   7.3991128230e+01    0.5935792    0.4421663  28.57  0.003132705    1.715    0.417
         8 -14.4429    166.4638     30.3652   6.0721998608e+01   4.0133961696e+01     1.026583    0.7066545  73.24  0.003092517    1.545    0.353
         9 -14.6347    146.4618     30.7080   6.4682267248e+01   4.5344901360e+01     1.242839    0.6609995  61.13  0.004013859    1.872    0.466
        10 -13.6133    188.9190     26.1177   5.5742700919e+01   3.4644748109e+01     1.351725    0.5745876 -55.65  0.004336324    3.502    0.714
        11 -15.7116     98.4972     12.8325   6.9069693667e+01   5.9197692540e+01     1.647502    0.8145166  50.27  0.004131753    1.945    0.486
        12 -12.9769    218.9008     15.1957   4.8812335022e+01   2.7985994104e+01    0.3941137    0.3543393 -58.16  0.001525254    1.056    0.053
        13 -12.5710    214.4899      9.9253   4.7760421455e+01   2.9664294602e+01    0.4253151     0.320548  67.50  0.001091423    1.304    0.233
        14 -12.6608    186.4912     14.2687   5.2291154592e+01   3.6624716321e+01    0.2810832    0.2404128  23.75 0.0007248394    1.283    0.221
        15 -11.7995    232.4994      1.7287   4.3894412030e+01   2.5920464130e+01    0.2547834    0.1872314  66.45  0.000777117    1.378    0.274
        16 -12.8442    222.8673      5.3472   4.5681746121e+01   2.7976232253e+01    0.6411629    0.3433582 -19.39  0.002925487    1.980    0.495
        17 -10.9567    153.0488      8.4659   5.5200017771e+01   4.6221988264e+01    0.2204601    0.1393113  68.82 0.0008254761    1.543    0.352
        18 -11.7303    119.4409      3.1046   5.9403957526e+01   5.5395562461e+01     0.388183    0.2327358 -60.97  0.001649966    2.508    0.601
        19 -11.3934     67.7331      3.6082   7.4644370978e+01   6.6489131179e+01    0.2881494     0.186919   8.87  0.001524327    1.710    0.415
        20 -10.5016    192.7783      3.0162   4.7973551915e+01   3.6052234062e+01    0.1793167    0.1163927 -22.54 0.0003294757    1.605    0.377
        21 -11.9062     81.1041      1.7306   6.8964146542e+01   6.4165294125e+01    0.5048231    0.1325054  48.43   0.00181614    3.353    0.702
        22 -10.8815     62.4742      1.4976   7.5533808543e+01   6.7682052162e+01    0.1873996    0.1086697  33.57 0.0006986106    1.737    0.424
        23 -11.3314     59.4767      1.4872   7.6735814810e+01   6.8193305785e+01    0.2267536    0.1421272  32.09 0.0007982298    1.598    0.374
        24 -11.8888    249.6005    181.7786   8.4666128450e+01  -2.5564528853e-01    0.1572273     0.105769 -32.08 0.0009563622    1.690    0.408
        25 -12.3123     51.6674    246.6811   1.2692300990e+02   2.1190207791e+01    0.2324749    0.2134514   5.77  0.002024486    2.059    0.514
        26 -11.8537     59.7216    245.1243   1.2557210775e+02   2.0489084412e+01    0.2589874   0.09176742 -71.97  0.001527663    3.148    0.682
        27 -13.2869     28.5389    246.2882   1.3045606512e+02   2.3752567810e+01    0.3691677    0.2125474  67.06  0.003005058    1.229    0.186
        28 -12.0327      2.7328    249.7917   1.3435599715e+02   2.5728192308e+01    0.2950046    0.1215413  52.47  0.001941732    1.534    0.348
        29 -14.1021      8.9064    245.5463   1.3334711001e+02   2.5788963268e+01    0.6390702    0.2729303  57.02  0.003215517    1.504    0.335
        30 -11.2131    122.2429    181.6505   1.0825352284e+02   2.2216397087e+01     0.255784    0.1402284  87.01 0.0009584703    4.203    0.762
        31 -11.5236     49.0223    181.5658   1.2319099723e+02   3.2565539367e+01    0.2078802     0.141837 -63.57  0.001395294    1.645    0.392
        32 -13.6264     29.8559    169.5478   1.2615294435e+02   3.6958980478e+01    0.3920636    0.2964155 -61.35 0.0006455121    1.593    0.372
        33 -12.8224    124.0163    166.9839   1.0573705564e+02   2.4606529383e+01    0.5059977    0.3479644 -83.66  0.002680325    1.863    0.463
        34 -10.6298    192.6819    164.6844   9.1357394011e+01   1.2196182419e+01    0.1376987   0.09676384  15.31 0.0007038703    1.652    0.395
        35 -12.4246     77.3467    157.1525   1.1465517058e+02   3.3877327190e+01    0.3399814    0.2573708  43.99   0.00130019    1.324    0.244
        36 -13.1443     73.6769    153.8785   1.1507636991e+02   3.5061118430e+01    0.5442041    0.4158907  36.22  0.003380454    1.463    0.316
        37 -12.2648    110.3283    154.7750   1.0683333026e+02   2.9306879033e+01    0.4557624    0.2654107 -88.89  0.001944684    2.802    0.643
        38 -12.0925    188.7036    155.9946   9.0431929492e+01   1.4316844332e+01    0.1916064     0.179484  12.54  0.001092549    1.077    0.072
        39 -11.6836    103.3192    150.0605   1.0768663693e+02   3.1422122394e+01    0.2990324    0.2384779 -31.79   0.00169274    1.716    0.417
        40 -11.9271    246.0084    149.2832   7.8893262596e+01   4.2099898621e+00    0.1909452    0.1572146  22.04  0.001187271    1.090    0.082
        41 -12.0889    148.5499    141.0723   9.5753882631e+01   2.4963203348e+01    0.3088258    0.1864365 -51.89   0.00144465    1.825    0.452
        42 -12.2196     40.4823    137.0000   1.2092422314e+02   4.2652719466e+01      0.57693    0.2416608  22.64  0.002511685    3.788    0.736
        43 -10.7789     11.1336    134.1956   1.2767902504e+02   4.5879754194e+01    0.1511485     0.100776  69.54 0.0004125872    1.283    0.220
        44 -10.6173    138.6191    132.7330   9.6285394954e+01   2.8551051159e+01    0.1430514    0.1113373  14.97 0.0005182387    1.688    0.408
        45 -12.2120     40.9796    130.6960   1.2009880918e+02   4.3977445058e+01    0.1633404    0.1374926  74.24 0.0003859759    1.098    0.089
        46 -13.8772     33.2970    111.6209   1.1979743051e+02   4.8970671853e+01    0.5649088    0.2581122 -77.85  0.002799585    2.003    0.501
        47 -13.7969     29.4276    122.3321   1.2209569123e+02   4.6936788236e+01    0.6952864    0.2523912 -67.24  0.003346318    2.225    0.550
        48 -14.4377    104.7058    122.7344   1.0247454608e+02   3.6961254803e+01      1.77866       1.0016  43.70  0.008332834    1.755    0.430
        49 -14.8377    106.7945    106.9026   9.8533303988e+01   4.0020058540e+01      1.24668     0.949121  82.37  0.005964982    1.585    0.369
        50 -13.4548    112.1024    100.7477   9.5646213698e+01   4.0360753145e+01    0.4297584    0.3769851  73.53  0.001461953    1.197    0.165
        51 -13.1605     85.1548    115.4757   1.0617476209e+02   4.1751556073e+01    0.9121106    0.5818708  23.96  0.004393255    2.148    0.535
        52 -14.1216     92.5996    109.9327   1.0303849722e+02   4.1803890532e+01     1.438486    0.7651852  41.49  0.006591977    1.928    0.481
        53 -11.6964    185.1972    124.4054   8.4317866030e+01   2.0266502785e+01      0.20248    0.1369645  58.28 0.0004643897    1.619    0.382
        54 -12.3012      4.1594    119.9635   1.2829373202e+02   4.9414046836e+01    0.4349786    0.2159485  23.78    0.0023678    2.539    0.606
        55 -15.0053     18.0557    110.6375   1.2384205865e+02   5.0470169647e+01    0.9881809    0.9501022 -70.66  0.006674116    1.296    0.228
        56 -14.2192      2.4267     97.2645   1.2682967124e+02   5.4460770860e+01     1.126608    0.3452563 -80.49  0.003752127    2.748    0.636
        57 -15.6014     25.4798     94.9148   1.1980801145e+02   5.3411845172e+01     1.904051     1.362131  -9.04   0.01174595    2.068    0.516
        58 -11.8265     25.5040    127.1723   1.2359447542e+02   4.6221578444e+01    0.2024997    0.1820241 -65.39 0.0008677082    1.303    0.232
        59 -11.8289     45.2401    110.7309   1.1636416463e+02   4.7990523721e+01    0.4257268    0.3536168 -56.97  0.002799082    1.249    0.199
        60 -12.1641     61.5517    108.6368   1.1143803923e+02   4.6583279719e+01     0.463885    0.2617029 -73.22  0.002314061    1.751    0.429
        61 -11.5397    121.3616    111.9808   9.5907307041e+01   3.6195073389e+01    0.2574481    0.1963794  60.80    0.0012675    1.378    0.275
        62 -12.6728    136.0089    103.5600   9.0190993726e+01   3.4955673149e+01    0.5300375     0.275673  48.90  0.001705255    1.916    0.478
        63 -12.6994    120.3212    102.2324   9.3838193688e+01   3.8451026533e+01    0.2851309    0.2518972  62.35  0.001394629    1.149    0.130
        64 -12.5653     62.4446     99.4816   1.0949531541e+02   4.8550177665e+01    0.5999041    0.3377542  75.39  0.002566965    2.795    0.642
        65 -11.8190    180.5979    121.3460   8.4532078817e+01   2.1806577328e+01    0.3002646    0.1787225  44.94  0.001034245    1.606    0.377
        66 -12.8665     49.5325     95.0606   1.1254007322e+02   5.1089755346e+01    0.3455288    0.2119648 -83.99  0.001669606    1.762    0.432
        67 -12.5737     47.0810    100.0086   1.1414304855e+02   5.0229282299e+01    0.4948351    0.3020566  70.55  0.002581026    1.965    0.491
        68 -12.4611     52.3354     98.1913   1.1226206824e+02   5.0062111490e+01    0.4135962     0.271789 -40.63  0.001640167    1.772    0.436
        69 -12.8005    137.7810     95.7480   8.7715998688e+01   3.6145130948e+01    0.4158554    0.3611613 -73.34  0.001092172    1.276    0.216
        70 -11.3257    128.6501     96.3045   9.0164062772e+01   3.7984500636e+01    0.1533439    0.1177757  87.60 0.0004174481    1.701    0.412
        71 -11.1836     60.4042    125.0545   1.1438664552e+02   4.3030000194e+01     0.250058    0.1710999   7.21   0.00128335    2.497    0.599
        72 -12.6042    178.6480     85.4799   7.5647263979e+01   2.8518095159e+01    0.5985266    0.2210392 -47.04  0.001850389    3.351    0.702
        73 -11.4118    125.4805     86.5010   8.8315361289e+01   4.0650896211e+01    0.2803617    0.2149305 -85.14  0.001308673    1.735    0.424
        74 -11.6526     89.2393     87.1526   9.8708875017e+01   4.7395661070e+01     0.348377    0.1996285  48.11  0.001602671    1.888    0.470
        75 -13.4668    187.9175     84.7171   7.3605066223e+01   2.6383211499e+01    0.6747133    0.3289955  43.16  0.001685788    2.150    0.535
        76 -12.3927    132.4890     86.0666   8.6374506265e+01   3.9230233069e+01    0.2406559    0.2075839  48.62  0.001036457    1.164    0.141
        77 -13.4883    163.9795     71.4510   7.4606517151e+01   3.4541958528e+01    0.9690764    0.4846773  39.60  0.003583434    2.295    0.564
        78 -14.2447    161.1626     80.6277   7.7956921904e+01   3.3621771065e+01      1.23723    0.6920121  26.64  0.004128593    2.880    0.653
        79 -14.6889    173.0040     77.0288   7.4375430436e+01   3.1348923530e+01     1.490913    0.6109486  56.52   0.00518049    2.526    0.604
        80 -10.4769     98.5985     84.2609   9.5177092935e+01   4.6401815165e+01    0.1459723    0.1097215  76.76 0.0006965184    1.723    0.420
        81 -12.5528    216.9566     81.5906   6.7623399842e+01   1.9844641462e+01    0.4192954    0.2886698 -53.22 0.0006014134    1.688    0.408
        82 -12.4819    210.6270     78.1554   6.7733849896e+01   2.1875727588e+01    0.4461148    0.2765562 -62.49   0.00180823    2.347    0.574
        83 -14.8697     56.8722     73.4556   1.0557813941e+02   5.5121320047e+01     1.390811     1.060997 -77.41  0.004892938    1.380    0.275
        84 -13.0825     39.0653     67.9113   1.1047233876e+02   5.8311306436e+01    0.8289132    0.3347811  28.53  0.003821771    2.900    0.655
        85 -13.6318     91.3387     57.8984   8.9446671725e+01   5.3189053457e+01    0.8456857    0.5255976 -56.55  0.003905145    1.816    0.449
        86 -13.5629     79.0431     71.9159   9.7782442333e+01   5.2360808081e+01    0.8769912    0.5922593  -5.00  0.003158634    2.493    0.599
        87 -13.4607     87.3686     65.8921   9.3303075381e+01   5.2267322388e+01    0.5237758    0.4132631 -36.59  0.001370454    1.233    0.189
        88 -11.4778     40.5551    243.2780   1.2848563623e+02   2.2935275277e+01     0.168904    0.0786513 -88.08  0.001150901    2.152    0.535
        89 -13.0201     95.2336    237.6736   1.1925684227e+02   1.7103755735e+01    0.2189666    0.1974713  34.58  0.001098461    1.504    0.335
        90 -11.9039    113.9491     80.1012   8.9610084766e+01   4.4342094200e+01    0.4256697    0.3136747 -55.34  0.002089762    1.401    0.286
        91 -11.7305     90.3738     80.2634   9.6545220805e+01   4.8704474284e+01    0.4207093    0.3097999   1.43  0.002021852    2.020    0.505
        92 -12.0618    237.6576     79.9178   6.4041792033e+01   1.5283814083e+01    0.2742437    0.2217798  70.29   0.00148104    1.433    0.302
        93 -11.9926     41.9361     77.1358   1.1148317735e+02   5.5959550035e+01    0.3150272    0.2182689 -61.70  0.001206221    1.212    0.175
        94 -12.0540     24.1735    216.8475   1.2989773621e+02   2.8866246676e+01    0.4228956    0.2449931  76.36  0.003179404    1.347    0.257
        95 -11.8150    128.4831     72.5408   8.3393607395e+01   4.2762279511e+01     0.456124    0.2854196 -20.37  0.001849843    2.181    0.542
        96 -13.2408    134.8666     66.5915   7.9869480996e+01   4.2431818100e+01    0.7524741    0.5917966  55.18  0.002723527    1.308    0.235
        97 -13.4271    199.6184     70.0708   6.7338732913e+01   2.5811512730e+01    0.7034171    0.3866767  52.45  0.001835575    1.797    0.443
        98 -11.8433    158.5652     64.2284   7.3539120377e+01   3.7120657901e+01    0.3048909    0.1428439 -38.64  0.001136436    2.105    0.525
        99 -11.4482     99.6420     64.7392   8.9092900166e+01   5.0277089001e+01    0.3035027    0.2433139 -80.71  0.001533239    1.613    0.380
       100 -13.4116     78.9126     61.1845   9.4613497363e+01   5.4652515801e+01    0.4980692    0.4647952 -22.71  0.002678649    1.083    0.076
       101 -13.7363    177.8628     58.0252   6.7671396513e+01   3.3205573760e+01    0.7638412    0.6339376 -57.33  0.002181426    1.309    0.236
       102 -11.7969     38.9594     60.5145   1.0874851258e+02   5.9957700210e+01    0.2938805    0.2014955  67.44  0.001630099    1.987    0.497
       103 -12.7385     24.5317     60.0501   1.1406890622e+02   6.1312314790e+01    0.2895453    0.1851999 -59.09 0.0008353764    1.244    0.196
       104 -14.9007    119.8603     54.7886   7.9870357609e+01   4.7990619749e+01    0.8878534    0.5900351  36.76  0.001853907    1.618    0.382
       105 -12.4488    109.5662     54.1347   8.2553050618e+01   5.0335251046e+01    0.4979149    0.3155423 -36.76  0.001675525    1.534    0.348
       106 -13.7425    103.1932     50.8140   8.3268702283e+01   5.2262352694e+01    0.4691902    0.3669834 -45.33  0.000813104    1.275    0.216
       107 -13.3525     97.7750     50.2562   8.4738084193e+01   5.3445211795e+01    0.9401535    0.4282812 -47.69  0.003496551    2.299    0.565
       108 -13.1465     63.1206     56.6693   9.8721603558e+01   5.7952994420e+01    0.4238344    0.2870902 -67.22  0.001726022    1.703    0.413
       109 -13.4521     66.4272     49.4836   9.5173520747e+01   5.8965592729e+01    0.5814626    0.4707353 -47.45  0.002395935    1.129    0.115
       110 -11.2139    135.9821     49.9725   7.4005124767e+01   4.5074832701e+01    0.2482309     0.180803  20.31    0.0010976    1.666    0.400
       111 -13.6461     25.6402    227.5735   1.3013355434e+02   2.6954685583e+01    0.5099043    0.2710802 -66.07  0.003652108    2.270    0.559
       112 -12.4755     72.1657     75.0615   1.0088871034e+02   5.2715959288e+01    0.3943479    0.2909154  30.63  0.001399347    1.547    0.354
       113 -12.3750    153.4790     46.7125   6.8874642727e+01   4.1234044547e+01    0.5766273    0.2241838  54.48  0.001849495    2.440    0.590
       114 -13.0509    158.7343     43.3499   6.6634413569e+01   4.0383914126e+01    0.6615691    0.3312641  54.47  0.002125201    1.909    0.476
       115 -12.8475    198.8605     37.5144   5.7844146707e+01   3.0599904593e+01    0.5852381    0.3465889 -70.13  0.002238167    2.345    0.574
       116 -13.8743    217.4385     42.0586   5.6614620048e+01   2.5223601680e+01     1.182146    0.4861165  62.80  0.004167984    2.417    0.586
       117 -13.0056    205.1120     40.3198   5.7789683565e+01   2.8606819317e+01    0.6183822     0.371484 -80.33  0.002271027    2.360    0.576
       118 -13.3940     20.6824    224.9171   1.3081785174e+02   2.7878960794e+01     0.343573    0.2707062  43.06  0.001921074    1.541    0.351
       119 -13.1488    131.9852     33.2753   6.8864253823e+01   4.8638892580e+01     0.734186    0.4766363 -19.00  0.002785324    1.665    0.399
       120 -14.1492    111.5717     40.5171   7.6968017915e+01   5.2288929079e+01    0.9465834    0.5812069  17.28  0.002578206    2.487    0.598
       121 -13.1804     67.2914    223.1589   1.2292866262e+02   2.2985247250e+01    0.4192025    0.3995388 -48.64  0.003522273    1.688    0.408
       122 -13.0649    135.3754     79.6009   8.3761289723e+01   3.9858302966e+01     0.856629    0.3917807  52.38  0.003197254    2.281    0.562
       123 -12.4341    241.2795     36.0035   5.2136523980e+01   2.0109475828e+01    0.4478429    0.2050921  66.99   0.00190416    2.295    0.564
       124 -12.2505    105.2996     35.7503   7.6920934548e+01   5.4429720642e+01     0.514501    0.2749975 -24.99  0.002153214    2.063    0.515
       125 -13.1981     76.1497     37.5033   8.7194593928e+01   5.9738622963e+01    0.3610373    0.2815752  43.99  0.001040392    1.428    0.300
       126 -12.4130     70.5158     36.5251   8.8879918899e+01   6.0844108482e+01    0.3145222    0.2589593 -18.02 0.0007327645    1.177    0.150
       127 -11.3675     35.3894     36.7637   1.0331706366e+02   6.5341394863e+01     0.315421   0.08431462 -51.17   0.00124333    2.821    0.645
       128 -11.2075     94.4989    218.4961   1.1775374737e+02   2.0155489538e+01    0.1138128    0.0852887  58.22 0.0008106463    1.014    0.013
       129 -12.4772     46.0575     33.9113   9.7688543562e+01   6.4751715240e+01    0.5134068    0.2498678 -35.49   0.00244069    2.065    0.516
       130 -14.0146     62.7540    214.7861   1.2312830739e+02   2.4930833711e+01    0.5423633    0.2944838  61.96  0.003537103    1.504    0.335
       131 -12.7100    139.3381     21.9745   6.2886370570e+01   4.8305051215e+01    0.7181021    0.4727769  82.76 0.0005991829    1.957    0.489
       132 -13.2850    152.4944     31.5037   6.3742839841e+01   4.3672872853e+01     0.468611    0.3900595  11.11  0.001285717    1.305    0.234
       133 -11.6755    200.3036    215.0323   9.8427618018e+01   4.0411343275e+00    0.1621945    0.1374591  25.02  0.001113141    1.114    0.103
       134 -10.9904    211.4446     33.4819   5.4927495593e+01   2.7824746501e+01    0.1453619    0.1368743 -56.76 5.198864e-05    1.035    0.034
       135 -13.4284      9.1567    210.9385   1.3214645765e+02   3.1295675226e+01    0.5785436    0.2116551  42.83  0.003706027    2.097    0.523
       136 -11.5715    194.9318     23.7064   5.4153816990e+01   3.3321513914e+01    0.3096128    0.2738308  10.42 0.0009956475    1.244    0.196
       137 -11.0583     89.1628     30.1377   7.9659371767e+01   5.8639173317e+01    0.2039711    0.1721212   0.32 0.0002636881    1.178    0.151
       138 -11.5116    216.3134     29.6433   5.3214414227e+01   2.7033225001e+01    0.1585411   0.09933951 -57.26 0.0007044182    1.741    0.426
       139 -13.2023     55.9009     27.4255   9.0932510786e+01   6.4694274311e+01    0.4641217    0.3021557  40.50  0.001461111    1.770    0.435
       140 -11.4327     97.5432     26.8866   7.5601912928e+01   5.7457982296e+01     0.261109    0.2300725 -72.53  0.001461265    1.466    0.318
       141 -11.4100    223.3213     21.4724   5.0113208519e+01   2.6183590308e+01    0.2987994    0.1917253  40.69 0.0009806022    1.811    0.448
       142 -12.3585    215.8148     20.8496   5.0751647283e+01   2.8166359867e+01     0.219659    0.1954908  28.58 0.0009422397    1.249    0.199
       143 -11.7202    248.9927    215.9894   9.0605833110e+01  -3.6767264107e+00    0.1529612    0.1360508  48.35  0.001147162    1.716    0.417
       144 -12.2761     60.9908     17.8744   8.4538975497e+01   6.5567470041e+01    0.2443971    0.1673944 -34.09 0.0003801351    1.308    0.236
       145 -11.2618    246.4347     17.2309   4.6770501235e+01   2.0995933831e+01    0.2029479    0.1055718 -38.12 0.0009559556    1.685    0.406
       146 -11.4080     70.9373     16.9418   8.0177430232e+01   6.4067200268e+01    0.1968231    0.1748911  -9.36 0.0004547058    1.042    0.040
       147 -10.6518    148.9986    207.0000   1.0646728367e+02   1.3612184486e+01    0.2052829   0.05659191  42.65 0.0005904128    2.912    0.657
       148 -12.3634     57.2694    203.8788   1.2332692127e+02   2.7479912017e+01    0.3515635    0.1665478  81.61  0.001932479    2.363    0.577
       149 -11.6510    249.3907    199.2650   8.7791584378e+01  -2.0850841789e+00    0.1910969    0.1432295 -24.66  0.001313179    1.518    0.341
       150 -12.4660     16.7831    195.8854   1.3019364644e+02   3.3230711966e+01    0.3973665    0.1992202 -68.71   0.00264151    2.054    0.513
       151 -12.5455     40.5081    194.8901   1.2580474196e+02   3.1016198639e+01    0.2755474    0.1186293  82.80  0.001463247    2.485    0.598
       152 -13.5045     23.2003    162.2286   1.2701698140e+02   3.9056892948e+01     2.439431     1.070409  20.62   0.01168541    4.000    0.750
       153 -12.0637     14.2118    157.1018   1.2856349441e+02   4.0885529502e+01     1.011635    0.3484935 -58.11  0.004944441    3.264    0.694
       154 -13.4260     22.3276    181.2406   1.2839549192e+02   3.5419330042e+01    0.5116208    0.3697655 -67.38  0.003328629    1.580    0.367
       155 -14.8574      7.5288    184.3124   1.3133212338e+02   3.6176433309e+01     1.042677    0.7398336  76.64  0.008360114    1.040    0.039
       156 -14.1426     15.7726    175.4566   1.2933200228e+02   3.7129106786e+01     1.291488    0.2664315  53.79  0.005545469    3.818    0.738
       157 -11.9743    201.2931    191.4086   9.4542358204e+01   6.8317148928e+00    0.3109278    0.1914293  36.18  0.001765489    1.361    0.265
