#   1 NUMBER                 Running object number                                     
#   2 MAG_AUTO               Kron-like elliptical aperture magnitude                    [mag]
#   3 X_IMAGE                Object position along x                                    [pixel]
#   4 Y_IMAGE                Object position along y                                    [pixel]
#   5 X_WORLD                Barycenter position along world x axis                     [deg]
#   6 Y_WORLD                Barycenter position along world y axis                     [deg]
#   7 A_WORLD                Profile RMS along major axis (world units)                 [deg]
#   8 B_WORLD                Profile RMS along minor axis (world units)                 [deg]
#   9 THETA_WORLD            Position angle (CCW/world-x)                               [deg]
#  10 FWHM_WORLD             FWHM assuming a gaussian core                              [deg]
#  11 ELONGATION             A_IMAGE/B_IMAGE                                           
#  12 ELLIPTICITY            1 - B_IMAGE/A_IMAGE                                       
         1 -13.6209     65.0659     52.5624   7.1015676866e+01   5.8773121981e+01     2.221078     1.257155 -12.43  0.009123878    2.837    0.648
         2 -15.0561      6.2181     68.9584   1.0156319702e+02   6.2304908504e+01     1.328825    0.7279077 -61.66  0.005536135    1.633    0.387
         3 -14.1507    166.7569     29.5355   3.8790191017e+01   3.9632149831e+01    0.9869604    0.6751791  69.94  0.003663906    1.304    0.233
         4 -14.5081    147.3226     29.1267   4.1576459218e+01   4.4247849313e+01     1.175661    0.7409257  69.83  0.005130065    1.436    0.304
         5 -13.0527      8.0281      2.8323   7.6547000233e+01   7.3841119781e+01    0.5381154    0.3755048  30.10  0.002700334    1.613    0.380
         6 -13.6347      3.2742     11.5427   8.3851081665e+01   7.3109758760e+01    0.7237409    0.4012863 -41.70  0.004570902    1.739    0.425
         7 -15.9212     12.3049     22.1873   8.3320144906e+01   7.0699176162e+01     1.852694    0.9993896 -21.96  0.008713977    1.763    0.433
         8 -13.2533    189.1703     26.2712   3.5228275379e+01   3.4880830573e+01     1.002339    0.3535725 -55.52  0.003896105    3.341    0.701
         9 -11.8951    194.7043     23.5620   3.4015436846e+01   3.3964625612e+01    0.3342644    0.3165972  18.79  0.002322736    1.487    0.328
        10 -13.2933    187.6426     11.1448   3.1892897344e+01   3.6891175340e+01    0.9415863    0.3743899 -41.65  0.004640217    2.346    0.574
        11 -12.5457    120.7442     26.0850   4.5483883685e+01   5.0824341760e+01    0.4987361    0.3159499  54.55  0.001943321    1.371    0.270
        12 -11.9283    223.9083      5.2058   2.7706154569e+01   2.9811306808e+01    0.3155093    0.2064773  37.52   0.00179226    2.952    0.661
        13 -12.7963    214.7613     20.1176   3.1388355547e+01   3.0045033955e+01    0.4668883    0.3500262 -25.09  0.002994704    1.797    0.444
        14 -12.1106    222.8506     10.7292   2.8856801325e+01   2.9432835965e+01    0.3117215    0.1626913 -60.51  0.001570135    1.633    0.388
        15 -13.4414    216.1603     12.0068   2.9614707886e+01   3.0664649810e+01    0.7848395    0.3686619 -60.00  0.002802638    1.923    0.480
        16 -15.0254     98.9554     11.7309   4.5267321341e+01   5.7193556459e+01     1.308676    0.7054068  60.68  0.005348855    1.601    0.375
        17 -12.4159     85.2988     14.2957   4.9602854354e+01   5.9905695277e+01    0.3491183    0.3141692 -16.17  0.001747789    1.265    0.209
        18 -12.3381     70.0324     16.1870   5.4880480649e+01   6.2817155010e+01    0.3701333    0.2833121  66.07  0.001910543    1.611    0.379
        19 -11.5131     46.7073     13.1380   6.2095516834e+01   6.7357206103e+01    0.2604187    0.2016152  29.58  0.001347091    1.120    0.107
        20 -10.7926    123.2951     11.6901   4.0408533752e+01   5.1677590841e+01    0.1677609     0.125935  45.01 0.0006107669    1.304    0.233
        21 -13.8673     41.6070      4.5954   6.0137480669e+01   6.9085791458e+01    0.7160129    0.4668563  21.24  0.004561446    1.338    0.253
        22 -11.7136     59.2525     16.4924   5.8724537749e+01   6.4813392041e+01    0.2950696    0.2694035  45.67  0.002042826    1.311    0.237
        23 -11.3849    152.8909      9.0048   3.5206283971e+01   4.5034251497e+01    0.2294362    0.1585754  59.32  0.001180159    1.329    0.248
        24 -11.1023    133.4181      8.7817   3.7861678204e+01   4.9588768674e+01    0.2230131    0.1458748  68.30 0.0005211577    1.284    0.221
        25 -10.1911     59.2787      7.6767   5.4800990162e+01   6.5698623456e+01    0.1029088    0.0952501 -75.54 0.0003517218    1.587    0.370
        26 -11.3512    120.1912      3.6282   3.8386376666e+01   5.3080426006e+01    0.2281491     0.136081  69.90 0.0007941553    1.438    0.304
        27 -10.9683    117.2548      1.5824   3.8222013549e+01   5.3912883911e+01    0.2328624    0.1056482  70.28 0.0009070193    1.945    0.486
        28 -10.0859     67.3300      4.3093   5.0678258361e+01   6.4457620515e+01    0.1293281   0.07380858  30.71 0.0007040937    1.665    0.399
        29 -10.9048    232.8946      1.8424   2.6489814754e+01   2.8382624629e+01    0.1609596    0.1309632 -86.75 0.0008892198    1.213    0.175
        30 -11.4157     61.3248      1.5691   5.1364987736e+01   6.5846627310e+01    0.3081685    0.1180962  54.68  0.001454376    2.286    0.563
        31 -13.2574     55.4895     27.2972   6.4821982721e+01   6.4182197863e+01    0.6969137    0.3304583  41.86  0.003339652    1.923    0.480
        32 -11.2660     81.8898      1.4146   4.5426174265e+01   6.1726092187e+01    0.4283784   0.08993794  58.98  0.001533518    3.623    0.724
        33 -13.9608     25.2417     13.9833   7.2503883584e+01   7.0421321698e+01    0.6755047    0.2915088  29.69  0.003514015    2.128    0.530
        34 -13.2075     40.4286    195.1544   1.0964320689e+02   2.8071850364e+01    0.4785578     0.253748  86.10   0.00212594    2.148    0.534
        35 -12.7180    107.6764    246.4123   9.9685760611e+01   7.4693947320e+00    0.6903592    0.5021956  87.71   0.00386003    1.786    0.440
        36 -13.1355     98.3028    238.6605   1.0083471736e+02   1.0377878360e+01     0.849178    0.4357223  32.46  0.004033842    1.790    0.441
        37 -13.8373     91.1926    231.5531   1.0159473410e+02   1.2892988036e+01    0.6636702    0.6341466 -12.07   0.00423251    1.230    0.187
        38 -13.2731     28.3409    245.9500   1.1653822478e+02   1.7902964792e+01    0.4831285    0.3189135  64.64  0.003042861    1.263    0.208
        39 -12.3706      2.9977    249.3614   1.2164441278e+02   1.9822757824e+01    0.4112201    0.2810285  62.14  0.002137559    1.117    0.105
        40 -13.5973      9.5184    245.9149   1.2023994717e+02   1.9884487216e+01    0.7759632    0.3819813  58.26  0.003661718    1.654    0.395
        41 -13.1551     98.6774    187.6103   9.3587608710e+01   2.1829842830e+01    0.4356377    0.3499835   6.65  0.002182212    1.515    0.340
        42 -12.3948    156.0618    184.7661   7.8789154160e+01   1.2523523269e+01    0.4579825    0.3126177 -24.89  0.002095651    1.726    0.420
        43 -13.1423     90.8023    182.3979   9.4811567873e+01   2.4372638458e+01    0.4526749    0.2400458  55.62  0.001761635    2.304    0.566
        44 -12.2424     49.0550    181.9966   1.0592868120e+02   3.0340487131e+01    0.4071389     0.261581 -56.05  0.002029906    1.541    0.351
        45 -13.2739    196.7441    179.4996   6.8924441631e+01   6.4920089782e+00    0.6957319    0.4993003 -79.60  0.003092153    2.648    0.622
        46 -11.0269    122.1771    181.4649   8.6437738647e+01   1.9327910412e+01    0.4831993     0.273645  79.37  0.001227959    6.187    0.838
        47 -13.4654    124.2218    166.8873   8.3099019050e+01   2.2443401227e+01    0.7358919    0.4625215 -69.25  0.002991086    2.056    0.514
        48 -14.4900     15.7304    175.3749   1.1396827215e+02   3.5504066882e+01      1.06477    0.6240295  57.62  0.005100853    1.711    0.416
        49 -11.2292      1.8786    159.0368   1.1614413283e+02   4.0691102936e+01    0.3200701    0.1600641 -77.05  0.001576663    1.664    0.399
        50 -12.5133    237.6727    159.7048   5.7579239126e+01   3.5198278144e+00    0.4296335    0.1141716  39.75   0.00146419    4.751    0.790
        51 -12.3130     77.1206    156.9183   9.4254472528e+01   3.2985530371e+01    0.5963929      0.35512  27.76  0.001864387    1.843    0.457
        52 -13.6327     73.4955    153.7491   9.4746600571e+01   3.4350754516e+01    0.8392211    0.6037502  21.07  0.003381224    1.594    0.373
        53 -11.9605    111.1902    155.6865   8.4303068637e+01   2.7571464798e+01    0.5421429    0.3120376 -83.12  0.001671755    3.802    0.737
        54 -12.7929    208.8080    154.2595   6.1437348823e+01   9.3018600493e+00    0.6431711    0.4828892  33.76    0.0034681    1.485    0.326
        55 -11.2198    101.9902    161.4778   8.8016217713e+01   2.7762352930e+01     0.243305    0.1520694  35.76  0.001041821    1.619    0.382
        56 -11.8082     55.6674    155.9871   1.0041256703e+02   3.6231343992e+01    0.3675926    0.2341412 -17.00  0.001543693    2.438    0.590
        57 -12.0624     85.9629    152.9333   9.0922057311e+01   3.2626150339e+01    0.6007097    0.2838877 -43.83  0.002214144    2.316    0.568
        58 -11.6787    103.2235    150.0450   8.5353773558e+01   3.0416477909e+01    0.4214294    0.2817984 -31.03  0.001777075    1.838    0.456
        59 -12.8251     60.3586    147.7772   9.7630358580e+01   3.7761246132e+01    0.4658526    0.3857863  -2.73  0.002215406    1.453    0.312
        60 -11.6106     12.5235    148.9351   1.1217162108e+02   4.2470829557e+01    0.2123373     0.113294 -72.85  0.001030559    1.586    0.370
        61 -11.6918     74.0846    145.3648   9.2998951896e+01   3.6435732295e+01    0.3060976    0.2258726 -70.12 0.0009490002    1.381    0.276
        62 -11.4631     38.2533    145.9817   1.0410322112e+02   4.0886094572e+01    0.2058577    0.1714244 -67.05 0.0005537712    1.076    0.070
        63 -11.3450      8.2038    144.5331   1.1294674787e+02   4.3910601710e+01    0.3657069    0.1699355 -22.38  0.001425275    3.705    0.730
        64 -12.7434    246.8827    134.2479   5.1156516974e+01   6.5023826133e+00    0.4565637    0.3526928 -56.52  0.002800974    1.306    0.234
        65 -12.4978     45.3661    134.8313   1.0006127022e+02   4.2999584795e+01    0.4202993    0.2726912 -62.00  0.002011431    1.387    0.279
        66 -13.8852    233.8163    128.9411   5.1992326548e+01   9.6055607835e+00    0.8998896    0.6188098 -48.66  0.005018607    1.282    0.220
        67 -12.2755    111.8827    131.7170   7.8778857315e+01   3.3327749556e+01    0.4251563    0.3171324 -29.00  0.001834681    1.536    0.349
        68 -12.3690    223.0022    128.1252   5.3491632595e+01   1.1666743516e+01    0.4252004    0.3183167 -75.16  0.002267252    1.715    0.417
        69 -13.6747     85.1659    114.4480   8.2659748197e+01   4.2424904520e+01     1.313069    0.9791907  25.64  0.005260378    1.445    0.308
        70 -13.3628    111.8210    116.9450   7.5148683469e+01   3.6841781127e+01    0.7655513     0.417202  32.43  0.002840542    2.091    0.522
        71 -13.3701     95.3300    110.6858   7.8472939280e+01   4.1490842147e+01     1.055529    0.6890189 -63.32  0.004524018    1.805    0.446
        72 -14.4056    106.6051    105.5707   7.3676713277e+01   4.0480078598e+01     2.235001     1.133438 -34.11  0.008118998    2.455    0.593
        73 -12.5948     28.3095    122.0138   1.0349198687e+02   4.8051302792e+01    0.3239745     0.270259 -62.96  0.001882726    1.055    0.052
        74 -11.9674    181.4627    120.9840   5.9287527784e+01   2.1197026310e+01    0.2867351    0.2124015  69.95 0.0009576501    1.639    0.390
        75 -11.9395      4.0865    119.8487   1.1128963395e+02   5.0403985992e+01    0.5024235    0.2012078  16.16  0.002213746    2.965    0.663
        76 -11.7064     34.8688     86.5345   9.3725371687e+01   5.6055442502e+01    0.3709327    0.2385694 -32.67   0.00093939    1.516    0.340
        77 -13.4057      2.3562     97.1498   1.0861502958e+02   5.6052726004e+01    0.7526782     0.417509 -72.80  0.003062072    1.634    0.388
        78 -12.2871     36.6319     93.1164   9.4637713666e+01   5.4346389955e+01    0.5209384    0.3563666  -1.72   0.00182523    1.689    0.408
        79 -14.2616     18.1650    111.2439   1.0518881401e+02   5.1604748259e+01    0.9718595    0.6949648 -44.79  0.005073509    1.274    0.215
        80 -13.8480     11.6454    103.8947   1.0629490458e+02   5.3875750627e+01    0.6514732    0.6077314  47.05  0.004288273    1.264    0.209
        81 -14.6448     23.1456     95.0352   1.0029642021e+02   5.5160561484e+01     1.304649    0.9927686   6.17   0.00635234    1.451    0.311
        82 -12.4186    120.9727    112.1833   7.1329249647e+01   3.6056004774e+01    0.4809655    0.3643967 -84.17  0.001313114    1.805    0.446
        83 -11.1299     44.8283    111.9585   9.5832581821e+01   4.8884648082e+01     0.526387    0.2186914 -30.51  0.001549373    4.641    0.785
        84 -11.8642     62.2704    110.9914   8.9484969469e+01   4.6878114870e+01    0.4253148    0.2850943  58.53  0.001913375    1.973    0.493
        85 -10.7383     10.8276    133.8693   1.1091327076e+02   4.6436288887e+01    0.1960589     0.155873 -54.49  0.000423166    1.167    0.143
        86 -12.5064    135.7970    132.5039   7.2478357012e+01   2.8341827025e+01    0.6100508    0.2822031  41.44  0.002225527    2.217    0.549
        87 -13.0774     29.5442     89.3671   9.6533276286e+01   5.5928765157e+01    0.9249243    0.5084686  61.05  0.003609423    3.577    0.720
        88 -12.6662    134.1808    102.9863   6.5378925788e+01   3.5215099546e+01     1.225448    0.3503508  50.42  0.003456452    3.869    0.742
        89 -13.3505    121.4995    102.0829   6.8476545853e+01   3.8157395303e+01     0.663298    0.3681087  41.57  0.002700412    1.833    0.454
        90 -10.9023     48.5003    100.9976   9.2031100585e+01   5.1123633360e+01    0.3378032    0.2763236  27.31  0.001793927    1.308    0.236
        91 -11.6682     52.4506     97.8612   8.9802167900e+01   5.1368703693e+01    0.3746456    0.2303045 -21.22  0.001472909    2.084    0.520
        92 -12.5730     49.1135     93.6875   8.9993594997e+01   5.2771524326e+01    0.8233777    0.4588806 -36.12  0.003690286    1.855    0.461
        93 -12.1063    163.4913     98.4096   5.7408075740e+01   2.9581167318e+01    0.3318813    0.2993316  78.93 0.0006115551    1.134    0.118
        94 -11.9331     61.2126     98.1245   8.6662499000e+01   5.0106298505e+01    0.3651247    0.2946054  73.49  0.001862418    1.651    0.394
        95 -12.6068    136.4040     95.0714   6.2672593391e+01   3.6344806134e+01    0.4406403    0.3386441  45.80  0.001549296    1.305    0.234
        96 -10.3396    119.4733     96.4763   6.7479405762e+01   3.9776244328e+01    0.1518918     0.148231   4.53 0.0003624356    1.041    0.040
        97 -13.9426    108.3228    124.3351   7.8019761791e+01   3.5790152787e+01     1.413767    0.7782274  31.90  0.005511876    2.041    0.510
        98 -11.6090     42.6514     90.8793   9.1754676051e+01   5.4202497225e+01    0.2894717    0.2301364 -69.08 0.0006486669    1.401    0.286
        99 -11.1640     89.7075     87.5378   7.3818755453e+01   4.7694377083e+01    0.3737405    0.1417967  43.18  0.001308946    2.662    0.624
       100 -12.8229    188.1936     84.5192   4.9321779669e+01   2.6598767515e+01    0.6547433    0.3161396  43.90  0.002271801    2.595    0.615
       101 -13.1141    237.5836     80.5573   4.1539830850e+01   1.7090903239e+01    0.4342088    0.2738548 -88.86  0.002321849    1.970    0.492
       102 -12.3243    159.8309     68.1558   5.0181461420e+01   3.5837426237e+01    0.8223239    0.2641173 -46.33  0.002522843    3.293    0.696
       103 -13.0391    164.3012     71.5818   5.0256740844e+01   3.4231422794e+01     1.276702    0.4629592  51.40  0.004662889    2.716    0.632
       104 -13.5664    160.7070     81.2242   5.3500400041e+01   3.3407506772e+01     1.178707    0.6741266  26.03  0.004036405    3.716    0.731
       105 -13.9911    169.4987     77.1457   5.0749352482e+01   3.2091343039e+01       1.3664    0.4201322  54.38  0.004613256    3.162    0.684
       106 -11.2204    209.6630    249.6743   7.8883732666e+01  -7.4923089985e+00    0.1286032   0.07852112  -3.71 0.0007051491    1.722    0.419
       107 -13.4492     87.1996     65.3024   6.7645885077e+01   5.2508461981e+01     1.050117    0.6099086  15.42  0.004004203    2.945    0.660
       108 -13.3008     91.8440     58.1633   6.3758974457e+01   5.2812418050e+01    0.5001546    0.4478836 -25.02  0.001831954    1.153    0.133
       109 -13.5442     52.6547     69.8923   8.1809705082e+01   5.7485071030e+01      1.43822    0.6156335  40.46  0.005919211    2.572    0.611
       110 -14.0431     61.1853     75.7319   8.0300079477e+01   5.5043529923e+01     0.741416    0.4807872 -33.73  0.001598195    1.534    0.348
       111 -13.0484     71.3486     75.1040   7.6320767818e+01   5.3538280531e+01    0.6280971    0.4185965   8.04  0.002223927    1.936    0.483
       112 -12.2882     77.1653     73.3236   7.3678107070e+01   5.2881694258e+01     0.505294    0.3125989 -24.24  0.001515193    1.966    0.491
       113 -11.8733     47.3730     81.7758   8.7473024877e+01   5.5683589689e+01     0.390676    0.2717989 -53.39  0.001625369    1.408    0.290
       114 -11.5903    249.6405     80.6412   4.0205802235e+01   1.4864533743e+01    0.3214717   0.08335796 -43.82  0.001246151    2.954    0.661
       115 -12.5040    218.5521     74.6886   4.2625188122e+01   2.1755173562e+01    0.4566966    0.2057601 -50.43  0.002058909    2.025    0.506
       116 -12.9479    211.3336     77.9267   4.4292240370e+01   2.2726136425e+01    0.5536835    0.3644659 -87.79  0.002820943    1.817    0.450
       117 -12.5304    114.6410     80.3513   6.4139486653e+01   4.4042950389e+01    0.3329769    0.3176033 -79.03 0.0004932754    1.126    0.112
       118 -12.5833    135.6292     79.8045   5.8582299986e+01   3.9449453758e+01    0.7051649     0.362469  53.75  0.002621738    1.934    0.483
       119 -11.8526     42.1728     77.1021   8.8240164165e+01   5.7340448180e+01     0.515249    0.2263251 -57.26  0.002133108    2.381    0.580
       120 -14.1342    170.5270    242.4730   8.5563239410e+01  -1.0617628404e+00     1.047602     0.750469   6.16  0.005874075    1.410    0.291
       121 -13.3795    199.0325     70.1058   4.4227306496e+01   2.6607109490e+01    0.7417879    0.4636523  47.95   0.00274473    1.887    0.470
       122 -12.5112    134.9316     66.3778   5.4850434659e+01   4.1950751202e+01    0.5426149     0.377573  41.22  0.001740114    1.502    0.334
       123 -12.2178     31.4358     63.2054   8.8691474415e+01   6.1456303923e+01    0.5547037    0.3022591 -57.75  0.002711661    1.993    0.498
       124 -11.0243     99.9977     65.5342   6.3722774816e+01   4.9875409270e+01    0.2224965    0.1359596  46.72 0.0005784431    1.571    0.364
       125 -11.5164    199.9492     62.4250   4.2317607569e+01   2.7598322057e+01    0.2804709    0.1914195 -44.43  0.001459294    1.380    0.276
       126 -13.3291    178.0208     58.1466   4.4454373179e+01   3.3173356717e+01    0.6793664    0.5124303 -52.99  0.002332366    1.276    0.216
       127 -10.6814    162.6400     62.6656   4.8192576926e+01   3.6056867182e+01    0.1440986    0.1088147  26.98 0.0007039541    1.809    0.447
       128 -12.9093     78.1170     59.6538   6.8792264121e+01   5.5234997320e+01    0.6455429    0.5744706 -40.07  0.003791017    1.225    0.184
       129 -12.8764     82.3100     54.5690   6.5591719860e+01   5.5298064527e+01    0.4786023    0.4449407  11.04  0.002470216    1.037    0.036
       130 -11.0226     39.1133     60.3242   8.4390364929e+01   6.1157730173e+01     0.243819    0.2061931  63.47  0.001428736    1.752    0.429
       131 -12.1943     24.8350     59.3363   9.0483538854e+01   6.2899756973e+01    0.4363609    0.2624593 -44.69  0.001693408    1.444    0.308
       132 -13.9543    101.5895     49.9756   5.8085007545e+01   5.2054803724e+01     0.993403    0.7256898  75.30  0.002914946    1.809    0.447
       133 -11.2631    111.5460     59.5215   5.8512633210e+01   4.8392672288e+01    0.2441247    0.2262661  38.43  2.08104e-05    1.025    0.024
       134 -14.4825    120.5642     54.9586   5.4758569953e+01   4.7078924583e+01    0.8478796      0.55362  41.04  0.002103985    1.544    0.352
       135 -11.3726     17.7981     55.8170   9.2696673671e+01   6.4233138472e+01    0.3231512     0.152316 -52.74  0.001609966    1.892    0.472
       136 -11.8629    247.4499     54.0179   3.5255388761e+01   1.9187166312e+01    0.4394843    0.1573302 -54.84  0.001946575    2.637    0.621
       137 -11.6761    249.1248     49.0987   3.4167260716e+01   1.9556514503e+01    0.2558855    0.1985733  55.83  0.001372108    1.711    0.416
       138 -12.9968     54.5255     82.1091   8.4768768983e+01   5.4662003346e+01    0.5634291    0.4097246 -47.02  0.002229666    1.306    0.234
       139 -11.8040     36.4039     53.4759   8.3283040837e+01   6.2790363394e+01    0.5287084    0.2703095  -3.41  0.002060062    3.413    0.707
       140 -11.5664     26.4721     74.6809   9.4141710860e+01   5.9528559092e+01     0.479218    0.2947016 -73.99  0.002318242    2.218    0.549
       141 -10.2141     23.4959     50.4242   8.8249038483e+01   6.4766698909e+01    0.1994771    0.1407765  -4.01 0.0005912386    1.356    0.262
       142 -12.0714    136.1757     49.9736   4.9716039551e+01   4.4191523492e+01    0.4650692    0.2852307  41.13  0.001719328    1.777    0.437
       143 -13.1743    157.4862     44.4014   4.4152991301e+01   3.9931529907e+01    0.8462723    0.4114911  45.95  0.003639847    2.330    0.571
       144 -13.2215    204.9861     40.2938   3.6673846370e+01   2.9636968740e+01     1.091859    0.4523924  88.84  0.003762873    4.393    0.772
       145 -12.3878    211.8513     44.5126   3.6850184770e+01   2.7600267517e+01    0.3530375    0.3350425 -75.58  0.001541921    1.252    0.202
       146 -13.6459    219.4536     41.7338   3.5463076901e+01   2.6378661544e+01    0.6026008    0.4027939  85.80  0.002139347    1.425    0.298
       147 -12.3588     11.6171     43.7385   9.1903381979e+01   6.7065198182e+01    0.4906311    0.2320507  -6.28  0.002286076    2.682    0.627
       148 -12.9481      3.7447     43.4188   9.5870301641e+01   6.7679666059e+01    0.4971678    0.3121101 -11.12  0.003054294    1.504    0.335
       149 -12.4039     57.8911    246.7440   1.1049748541e+02   1.4232456455e+01    0.4671787    0.2230512  27.03  0.002206451    2.321    0.569
       150 -12.6220    147.5049    239.0014   8.9949818057e+01   2.9491779124e+00    0.2854582    0.2286883 -75.99  0.001126169    1.747    0.428
       151 -13.0325    137.8532     21.8556   4.1028076937e+01   4.7283171601e+01    0.7159874    0.2819466  66.98  0.002788782    2.305    0.566
       152 -12.4260    109.3647     42.0891   5.3350839673e+01   5.1463800282e+01    0.5059821     0.213324  55.79  0.001471422    2.201    0.546
       153 -13.0650    132.0294     32.9213   4.5396261554e+01   4.7406924250e+01    0.5038946    0.3568406  54.01  0.001691808    1.278    0.218
       154 -13.9110    122.0197     36.9763   4.8710558623e+01   4.9244467833e+01    0.9124173    0.4606607  42.92  0.002999631    2.043    0.510
       155 -12.9902    113.6374     38.0633   5.0965181507e+01   5.1029688576e+01    0.4355624    0.3355775  69.87  0.002270417    1.338    0.253
       156 -11.5631    135.1999     39.7849   4.6860325805e+01   4.5807416366e+01    0.3405089    0.1768934  63.23  0.001497681    1.799    0.444
       157 -12.4283     75.5017     37.3765   6.1563735056e+01   5.9204596942e+01    0.3918642    0.2197315  45.58  0.001006473    1.640    0.390
       158 -11.7857     70.7330     36.5723   6.2898169220e+01   6.0219193121e+01    0.2661679    0.2517039  -7.64 0.0008197303    1.181    0.153
       159 -12.8450    242.1435     36.1061   3.2281259026e+01   2.2594580171e+01    0.5310249    0.2531389  75.10  0.002232179    2.131    0.531
       160 -10.6238    104.4056     37.1538   5.2934012263e+01   5.3217870370e+01    0.1848351    0.1226483 -44.77 0.0009498216    1.741    0.425
       161 -12.8533     44.4911     32.8203   7.1752638833e+01   6.5165949266e+01    0.6556244    0.4831357  29.19  0.004058581    1.272    0.214
       162 -10.5881     35.1326     35.1468   7.6984207325e+01   6.6110978229e+01    0.1802853    0.1632639  -6.95  0.000696526    1.227    0.185
       163 -13.2267    238.0058    231.2509   7.0669886099e+01  -8.2444051994e+00    0.6643368     0.412748 -54.06  0.003487926    2.823    0.646
       164 -12.5990     24.8091    217.2175   1.1528123752e+02   2.4544222672e+01    0.5389813    0.3147536  61.00  0.002954329    1.548    0.354
       165 -14.0264     25.9779    227.0519   1.1574652907e+02   2.2206351352e+01     0.860561    0.3817412 -56.27  0.004105886    2.567    0.610
       166 -13.6305     20.2517    224.2787   1.1677889895e+02   2.3424107484e+01    0.5565251    0.4581169 -80.65  0.002532018    1.219    0.180
       167 -12.2992     13.9959    222.0169   1.1796280791e+02   2.4557812883e+01    0.3993797    0.2489782  83.79  0.001819809    1.405    0.288
       168 -13.8298     64.9251    223.3347   1.0671591031e+02   1.8358393025e+01    0.9131138    0.6977106  42.71  0.005319854    1.206    0.171
       169 -11.6649     64.1491     24.8244   6.0506936505e+01   6.2962370344e+01     0.474775    0.2880157 -18.76  0.002575658    1.823    0.451
       170 -12.7116     94.1603    218.5778   9.9272110539e+01   1.5284652810e+01    0.2975227    0.2746583  62.80  0.001333067    1.040    0.038
       171 -11.1478     30.7218     25.7599   7.5151290986e+01   6.8103918480e+01    0.2895336    0.1392378  18.93  0.001394123    2.345    0.573
       172 -10.9752     36.1207     23.7992   7.1682195757e+01   6.7656652832e+01    0.2544321    0.1703177 -30.18  0.001564239    1.477    0.323
       173 -11.9227    156.9887    214.0798   8.3902617375e+01   6.2517955326e+00    0.3582237    0.1927746 -46.25  0.001631816    1.929    0.482
       174 -12.9275     59.4878    213.0022   1.0688974692e+02   2.1444188223e+01    0.4239107    0.2000987 -60.50  0.001200603    2.104    0.525
       175 -11.8766    185.5111    213.5193   7.7639375597e+01   1.8433550082e+00    0.2314291     0.129669 -54.76  0.001037805    2.341    0.573
       176 -11.8175     46.7137     20.8056   6.5594950701e+01   6.6456592808e+01    0.3775866    0.2411249  21.82  0.002207653    1.453    0.312
       177 -11.2301     51.5192     20.5496   6.3490182063e+01   6.5699426876e+01    0.2188207    0.1505146  30.10  0.000651066    1.249    0.199
       178 -12.4352    223.8514     20.8705   3.0788547637e+01   2.8082625469e+01    0.2667124    0.2057027  70.16  0.001462968    1.405    0.288
       179 -12.1111      4.3369    211.9968   1.1940644723e+02   2.7724504532e+01    0.4475604    0.2218316 -77.84  0.002394967    1.757    0.431
       180 -11.1999    136.4431    211.2461   8.8134649141e+01   1.0190732519e+01    0.1870486    0.1410342 -67.25 0.0008753404    1.608    0.378
       181 -14.1731     64.2330    214.7694   1.0595231505e+02   2.0407611354e+01    0.7566915    0.4428548  47.06  0.003780223    1.565    0.361
       182 -11.2201    249.2079    225.3930   6.7751321952e+01  -8.6967431060e+00    0.1489596    0.1037038  32.95    0.0009599    1.707    0.414
       183 -10.8536    178.5147     17.4446   3.4314339461e+01   3.8282335079e+01    0.1251796    0.1038949  89.87 2.620976e-05    1.018    0.017
       184 -10.9031    150.6832    207.1534   8.4142144502e+01   8.6926653989e+00     0.285142    0.1675159  24.44  0.001267333    1.838    0.456
       185 -11.9748     41.2996    206.8685   1.1060161540e+02   2.5137432751e+01    0.2231615    0.1489614  78.85  0.001192546    1.462    0.316
       186 -12.6609     57.6764    203.6150   1.0628784554e+02   2.3906410441e+01      0.54932    0.2950223 -88.43  0.002383461    2.252    0.556
       187 -13.7361     15.4881    197.5827   1.1590821150e+02   3.0076864175e+01    0.8534141    0.3784757 -64.32  0.004086765    2.048    0.512
       188 -13.0951    216.7693     28.7014   3.2992913277e+01   2.8603805652e+01    0.3651708    0.2136249 -55.33  0.001675979    1.480    0.324
       189 -13.5658    165.4965    196.4017   7.8848002527e+01   8.4196148086e+00    0.7759135    0.5445354 -89.58  0.003226244    2.865    0.651
       190 -13.4140     22.4991    166.7099   1.1130826520e+02   3.7084999000e+01    0.5324812    0.3198805  30.82  0.002746984    1.798    0.444
       191 -13.8895     11.4860    159.7704   1.1360234937e+02   3.9794065149e+01     2.152843    0.6684262 -44.00  0.006964335    4.675    0.786
       192 -13.8607     29.8688    169.3904   1.0959549840e+02   3.5689688146e+01     1.044807     0.589573 -36.22  0.003903264    2.396    0.583
       193 -13.9189     22.1583    181.2681   1.1287002667e+02   3.3440381419e+01     1.030294    0.3921604 -57.87  0.004349767    2.420    0.587
       194 -15.2026      8.1481    183.3779   1.1655871003e+02   3.4171613924e+01     1.354047     1.050165 -79.33  0.008474091    1.123    0.110
       195 -12.8232    179.2788    196.6285   7.5874017230e+01   6.0570467511e+00    0.3352634    0.2972952  49.74  0.001918115    1.331    0.249
       196 -12.6731     36.6631    195.1438   1.1057759830e+02   2.8499652220e+01    0.3567075    0.2224945 -75.43  0.001859006    1.480    0.324
       197 -12.3957    201.0312    191.9771   7.0504306630e+01   3.4115861888e+00    0.4227414    0.2744187 -26.65  0.001399664    1.536    0.349
       198 -11.1481     80.0419    193.1036   9.9277671023e+01   2.3371299742e+01    0.4095238    0.1405731  43.10  0.001435317    2.776    0.640
