#   1 NUMBER                 Running object number                                     
#   2 MAG_AUTO               Kron-like elliptical aperture magnitude                    [mag]
#   3 X_IMAGE                Object position along x                                    [pixel]
#   4 Y_IMAGE                Object position along y                                    [pixel]
#   5 X_WORLD                Barycenter position along world x axis                     [deg]
#   6 Y_WORLD                Barycenter position along world y axis                     [deg]
#   7 A_WORLD                Profile RMS along major axis (world units)                 [deg]
#   8 B_WORLD                Profile RMS along minor axis (world units)                 [deg]
#   9 THETA_WORLD            Position angle (CCW/world-x)                               [deg]
#  10 FWHM_WORLD             FWHM assuming a gaussian core                              [deg]
#  11 ELONGATION             A_IMAGE/B_IMAGE                                           
#  12 ELLIPTICITY            1 - B_IMAGE/A_IMAGE                                       
         1 -12.0200    199.1582     43.7714   4.0920123922e+01   3.0507897259e+01    0.7623128    0.6839092 -52.12  0.003577217    1.114    0.102
         2 -11.9538    208.5217     34.9437   3.7849960713e+01   2.9607620204e+01    0.5592117     0.521517 -44.14  0.001302133    1.225    0.183
         3 -11.4939     21.2166     23.6628   8.4024615208e+01   7.0865185064e+01      0.47774     0.180212 -36.75  0.002103142    2.569    0.611
         4 -11.2958     32.7562     12.5799   7.1623291875e+01   7.1029319859e+01     0.642957    0.1468881 -33.53  0.002115097    5.054    0.802
         5 -12.0071    234.0909      8.4916   3.0187063414e+01   2.7393265831e+01    0.7641407    0.5780938 -62.31  0.005255889    1.024    0.023
         6  -9.3244     73.6055    238.5068   1.0839584869e+02   1.4976042373e+01    0.2650944    0.1064055 -59.32  0.001230478    2.737    0.635
         7 -16.6992      9.3995    242.6246   1.2231432200e+02   2.1037243775e+01      12.0668     5.048043 -80.41   0.03134724    2.383    0.580
         8 -15.7393      6.6758    204.3877   1.2112144234e+02   2.9267576792e+01     12.99556     1.386062 -77.85  0.008565589    7.937    0.874
         9 -10.5201     54.5047    206.4747   1.0983851701e+02   2.4024339000e+01    0.3079793    0.1971413  49.12  0.001169171    1.424    0.298
        10 -10.5669    108.5293    212.4939   9.7343560950e+01   1.5546492169e+01    0.2595691    0.1704285  31.52  0.001348064    1.368    0.269
        11 -10.6691    119.7567    212.5085   9.4679063097e+01   1.3906323272e+01    0.2718534     0.185358  51.85   0.00140028    1.633    0.388
        12  -8.4783     75.7250    209.5305   1.0494073369e+02   2.0710784956e+01     0.192083    0.1078968  42.70 0.0009331481    1.598    0.374
        13  -9.6563     41.1023    207.8812   1.1323092701e+02   2.5215367389e+01    0.3183565    0.1820073  70.53 0.0008935246    1.864    0.464
        14 -10.7443    110.2248    204.1669   9.5762243906e+01   1.7037797476e+01    0.3491444     0.218289  18.36  0.001510426    1.767    0.434
        15  -9.7647    123.2875    200.5552   9.2042994871e+01   1.5821231386e+01    0.2695213    0.1782242 -72.57 0.0008790643    2.149    0.535
        16 -11.3019    106.0975    249.1735   1.0234644163e+02   8.8656603909e+00    0.6079437    0.2318503  29.48  0.002713651    2.266    0.559
        17  -8.8519     58.9418    196.5282   1.0770528766e+02   2.5771401602e+01    0.2079429    0.1766057 -60.10 0.0003806777    1.256    0.204
        18 -11.1982     57.6282    185.6671   1.0682823826e+02   2.8499537704e+01    0.7560936    0.4195468 -62.43  0.003303471    1.787    0.440
        19 -10.4922     53.5764    184.2734   1.0775277246e+02   2.9321156889e+01    0.5668375    0.2719814 -65.17  0.002039328    2.034    0.508
        20  -8.3894     85.1478    185.7544   9.9490541778e+01   2.4829467537e+01    0.2846001    0.1854372  73.41  0.001273063    2.052    0.513
        21  -8.8432     82.5819    182.2755   9.9675450525e+01   2.6016225016e+01     0.210154    0.1671244 -18.57 0.0005875582    1.538    0.350
        22  -8.9538     99.2253    180.7873   9.4997000375e+01   2.3901071970e+01    0.1967308     0.167751 -16.54 0.0006667227    1.322    0.243
        23  -9.2502     41.1240    178.4438   1.1048305123e+02   3.2144990480e+01    0.2424156     0.213171 -45.06 0.0005552347    1.278    0.217
        24  -9.6832    103.0146    172.1682   9.2547110329e+01   2.5322427563e+01    0.2575804    0.1574811  56.48  0.001086779    2.022    0.506
        25 -10.3384     69.6681    170.7164   1.0156783760e+02   3.0610736430e+01    0.4695315    0.3011944 -27.70  0.001579003    2.154    0.536
        26 -10.4658     73.9647    166.0325   9.9643481724e+01   3.1183384930e+01    0.3525023    0.3188285 -26.50 0.0007168901    1.217    0.178
        27  -8.7241     34.2955    171.2295   1.1161770235e+02   3.4636127727e+01    0.2583864     0.135719  52.29 0.0009798654    1.932    0.482
        28 -11.0168     81.8514    158.6290   9.6152935690e+01   3.1887697618e+01    0.5146281    0.4781713  42.30  0.002176517    1.065    0.061
        29 -11.7669     70.6907    152.7436   9.8469984787e+01   3.4981160801e+01    0.5167134    0.4349145 -45.17 0.0009752511    1.219    0.180
        30 -11.6765     70.0731    144.6394   9.7257882119e+01   3.7131839049e+01    0.7260497    0.4992543  60.30  0.002145541    1.701    0.412
        31 -10.3226     88.4344    151.9422   9.3023672932e+01   3.2540785930e+01     0.551298    0.3455622 -22.13  0.001454497    2.392    0.582
        32 -10.1363    134.1543    146.6731   7.9242612356e+01   2.5775542002e+01     0.572251    0.2065122 -51.92  0.001856035    3.017    0.668
        33  -8.9962     39.1924    146.6673   1.0727911574e+02   4.0392448548e+01    0.2773345    0.1890121  56.35 0.0008921541    1.560    0.359
        34 -10.5935     31.5429    144.2922   1.0937407887e+02   4.1763951350e+01    0.4924955    0.2981057  34.47  0.002433289    1.688    0.407
        35 -11.2462    140.2686    229.0057   9.2363514657e+01   7.8143087711e+00    0.3459961     0.235671  -7.30  0.001850392    1.771    0.435
        36  -9.4410    101.9828    139.0210   8.6427653237e+01   3.3459150430e+01    0.2951199    0.2262599 -36.27 0.0006803875    1.371    0.271
        37  -9.8192    105.7561    131.6640   8.3685133020e+01   3.4555745195e+01    0.6439017     0.276897 -46.84  0.002314435    2.305    0.566
        38 -10.3987     90.4347    137.0858   8.9478340390e+01   3.5906894310e+01    0.2871616    0.2562405 -31.40  0.000461834    1.156    0.135
        39 -10.7680     59.4912    134.4962   9.8824544832e+01   4.1177200395e+01    0.4160064    0.2746439  63.52  0.001862736    1.881    0.468
        40  -9.7658    111.9846    128.9722   8.1249489414e+01   3.4037517871e+01    0.2554189     0.192105  -6.71  0.001133435    1.730    0.422
        41 -10.2012     33.0017    129.4917   1.0687691075e+02   4.5471259817e+01    0.4718062   0.08432167 -63.54  0.001386818    3.957    0.747
        42  -9.7410     54.9575    128.5217   9.9247816950e+01   4.3301421025e+01    0.2175936    0.1448926  27.74  0.001025705    1.572    0.364
        43  -9.3606     98.9864    124.7975   8.4120966860e+01   3.7432186019e+01    0.3203685    0.2444263   7.41 0.0007161874    1.601    0.376
        44  -8.6948    163.7769    121.9577   6.6417295196e+01   2.5169525658e+01    0.2026971    0.1182442 -40.89 0.0005544839    1.648    0.393
        45  -8.1951    108.0167    118.0331   7.9755295764e+01   3.7350857236e+01    0.1840069    0.1732364  29.87 0.0003069413    1.065    0.061
        46  -8.4492    231.0133    113.7554   5.2654308398e+01   1.3766763205e+01    0.1723559    0.1582612 -34.14 0.0009568554    1.090    0.082
        47 -10.2603    114.6370    108.2286   7.5283443818e+01   3.8274503092e+01    0.5313075    0.1441094 -45.68  0.001505848    3.655    0.726
        48 -10.4538     32.3811    109.4274   1.0382508869e+02   5.0722371200e+01    0.2752677     0.201732 -75.71   0.00143538    1.364    0.267
        49 -10.2699     45.1616    105.9919   9.8318304246e+01   5.0258305330e+01    0.2493455    0.2125867  21.40 0.0009239076    1.244    0.196
        50  -9.4089     55.8259    222.5225   1.1099677820e+02   2.0363700582e+01    0.3171304    0.2032099  54.66  0.001561593    1.440    0.306
        51 -11.2091     32.5346     97.9461   1.0156352942e+02   5.3621366546e+01     0.628743    0.1933626 -64.00   0.00217095    2.981    0.665
        52 -10.2197     72.9737    217.8692   1.0651609144e+02   1.9262788484e+01    0.3064342    0.2165205 -88.11   0.00118378    1.625    0.384
        53  -9.2953     59.7394    218.2688   1.0969683522e+02   2.0809058474e+01    0.2744015    0.1967496 -76.11 0.0006732158    1.485    0.327
        54 -10.9970    187.7413     52.3833   4.4465679883e+01   3.1872850416e+01    0.3192103    0.3073527 -40.40 0.0009008892    1.164    0.141
        55  -9.6574     72.1869    249.2477   1.0965177945e+02   1.3105597743e+01    0.2373951    0.1800781  77.59  0.001003643    1.460    0.315
        56  -9.6398     83.7330    245.3725   1.0681013546e+02   1.2410618370e+01    0.2080402    0.1507751  86.68  0.001042367    1.699    0.411
        57 -11.3046     58.0696    211.2101   1.0942606324e+02   2.2546419963e+01    0.6904738    0.3434836  38.79  0.003363825    1.738    0.425
        58 -10.1686     72.0103    244.9805   1.0932396569e+02   1.3927019534e+01    0.3177812     0.228815  63.00  0.001079767    1.405    0.288
        59 -10.5938     49.2052    249.3475   1.1452559120e+02   1.5739425954e+01    0.2176034    0.1817567  77.65 0.0005516535    1.216    0.177
