#   1 NUMBER                 Running object number                                     
#   2 MAG_AUTO               Kron-like elliptical aperture magnitude                    [mag]
#   3 X_IMAGE                Object position along x                                    [pixel]
#   4 Y_IMAGE                Object position along y                                    [pixel]
#   5 X_WORLD                Barycenter position along world x axis                     [deg]
#   6 Y_WORLD                Barycenter position along world y axis                     [deg]
#   7 A_WORLD                Profile RMS along major axis (world units)                 [deg]
#   8 B_WORLD                Profile RMS along minor axis (world units)                 [deg]
#   9 THETA_WORLD            Position angle (CCW/world-x)                               [deg]
#  10 FWHM_WORLD             FWHM assuming a gaussian core                              [deg]
#  11 ELONGATION             A_IMAGE/B_IMAGE                                           
#  12 ELLIPTICITY            1 - B_IMAGE/A_IMAGE                                       
         1 -12.9325      3.1322     61.8221   9.7594116317e+01   6.4263438022e+01     1.205164    0.4393752 -63.54   0.00286305    2.487    0.598
         2 -12.7023     26.6145     50.3382   8.1564181486e+01   6.4958493063e+01     1.750743    0.9495444 -70.14  0.006753223    4.001    0.750
         3 -13.0529     38.2783     49.4488   7.5113448500e+01   6.3755861643e+01    0.9164973    0.6729417 -28.62  0.005202251    1.285    0.222
         4 -11.9948    129.5361     22.2567   3.4898004761e+01   4.8892246821e+01    0.6503178    0.4040122  -3.83  0.002446055    2.411    0.585
         5 -11.9717    128.7140     11.2705   3.1706263348e+01   5.0117925469e+01    0.3800927    0.2650778 -72.97   0.00218635    1.625    0.385
         6 -12.2593      3.9074     17.3436   8.2830997801e+01   7.3045294070e+01    0.4239884    0.3906662  85.52  0.002262609    1.947    0.486
         7 -11.0166     18.7360     16.6115   7.2347752643e+01   7.1703604664e+01    0.6272884    0.3146945  -4.70  0.002818663    2.721    0.632
         8 -10.5950     15.1185     13.6551   7.3253572095e+01   7.2561939968e+01    0.2205883    0.1604948   2.45 0.0006399535    1.059    0.056
         9 -12.0348    160.3839     21.8035   3.0153381489e+01   4.1775810600e+01     0.485824    0.3517326   6.44  0.001584258    2.093    0.522
        10 -11.3392     95.4332     21.5906   4.1942116728e+01   5.6908939506e+01    0.6351992    0.4316784  79.53  0.002561553    1.850    0.459
        11 -10.9547     29.7327     19.2860   6.6971323903e+01   6.9885801189e+01    0.3689085    0.2113612 -18.00 0.0009082095    1.878    0.468
        12 -10.6821     34.3871     15.8591   6.2685362817e+01   6.9664289124e+01     0.398408     0.230107 -11.66  0.002082004    1.995    0.499
        13 -10.8667     30.9425     12.7030   6.2988450893e+01   7.0598718084e+01    0.2329288    0.2055475 -34.98 0.0003851258    1.618    0.382
        14 -12.3631    237.9111     17.5125   2.2216638290e+01   2.6411939545e+01    0.3010128    0.1862685 -76.18 0.0003932469    1.426    0.299
        15 -11.7469    234.8122     10.5270   2.1149552316e+01   2.7672430804e+01    0.2556777    0.1652561 -45.09 0.0007834237    1.374    0.272
        16 -12.1449    234.2127      5.6788   2.0314277406e+01   2.8254105046e+01    0.4752405    0.3330819  28.10  0.003050095    2.931    0.659
        17 -10.6948     55.0292     13.0931   5.1543439295e+01   6.6379938726e+01    0.3093598    0.2126053 -21.73  0.001043329    1.626    0.385
        18 -10.6016     50.7502     16.2942   5.4874325388e+01   6.6829695025e+01    0.5147449    0.2243569 -36.87   0.00239118    2.749    0.636
        19 -10.8427     40.0978     12.0135   5.7776909241e+01   6.9213290363e+01    0.6525306    0.5145172 -30.07  0.003886507    1.552    0.356
        20 -10.1102     83.9404     13.5630   4.1946766512e+01   6.0284615819e+01    0.1783796     0.161419  27.70  0.000267037    1.149    0.130
        21 -10.2969     74.0241      6.9949   4.2104352797e+01   6.3051300823e+01    0.2521749    0.1541316  11.80  0.000731506    2.018    0.504
        22 -11.4327     70.7302     14.2119   4.6241308608e+01   6.3088809219e+01     0.425841    0.2491909 -12.20  0.002217302    2.104    0.525
        23 -11.6888     78.0552     10.6207   4.2433416032e+01   6.1853758382e+01    0.6352526    0.1913557  52.98  0.002205845    2.462    0.594
        24 -11.4280    155.5734     11.0536   2.7964626544e+01   4.3904916696e+01    0.5114132    0.1876434 -32.98  0.002375574    2.811    0.644
        25 -11.2489    118.5396     12.1743   3.3698810671e+01   5.2430274407e+01    0.3271202    0.2604226  15.18  0.001952441    1.543    0.352
        26 -10.3146    118.4529      7.9603   3.2362315008e+01   5.2808944175e+01     0.212408    0.1670359  72.34 0.0006732742    1.102    0.092
        27 -10.0122     64.6138     13.1484   4.7891087778e+01   6.4467037295e+01     0.219368    0.1524372  17.69 0.0006878271    1.470    0.320
        28 -10.8512     60.7431     13.4178   4.9441694546e+01   6.5223324977e+01    0.3489234    0.2614889  53.25  0.002102241    1.354    0.262
        29 -10.4673    138.1709     10.9309   3.0190687858e+01   4.7933509489e+01    0.2364271    0.1550867 -49.76  0.001364358    1.679    0.405
        30  -9.9194     95.9170     12.0244   3.8291851977e+01   5.7714651697e+01    0.1941367    0.1462076 -78.71  0.001104062    1.731    0.422
        31 -11.9496      7.3102     10.1211   7.6925169270e+01   7.3908558698e+01    0.5483671    0.2646738   8.88  0.001336288    2.010    0.502
        32 -11.5880    145.8425      7.5266   2.8214554105e+01   4.6447501199e+01    0.3248581    0.2643332  -8.54  0.001746229    1.610    0.379
        33 -10.6413    176.1304     10.2140   2.5554467893e+01   3.9394057632e+01    0.2855963    0.1198608  55.10  0.001401687    2.401    0.583
        34  -9.7978    107.7708     10.2661   3.5099124673e+01   5.5119537516e+01    0.1768625    0.1267467  41.80  0.001039171    1.338    0.253
        35 -12.6029    213.2194      5.1559   2.1502145462e+01   3.2219487989e+01    0.7115424     0.344029 -70.31  0.004106407    1.987    0.497
        36 -10.8913    164.7838      6.5220   2.5800339781e+01   4.2230362154e+01    0.3292791    0.1727665 -26.20  0.001593615    2.266    0.559
        37 -10.6165     11.2136      3.1622   7.0347511632e+01   7.4489704417e+01    0.2712114    0.1901919  10.02  0.001093735    1.088    0.081
        38 -11.1838     27.5408      3.1007   5.9761833155e+01   7.2273060921e+01    0.5963224    0.2621272  47.24  0.002770705    2.723    0.633
        39 -11.0013     31.0922      1.1823   5.6693678464e+01   7.1914644827e+01    0.4993348   0.08690291  43.60  0.001624428    4.651    0.785
        40 -10.8288     23.2916      7.1691   6.4556367316e+01   7.2416533275e+01     0.374898     0.277315  51.04  0.001560081    2.223    0.550
        41 -11.2911     16.6069      4.1449   6.7168842610e+01   7.3700819038e+01    0.4630519    0.2554765  30.72  0.002702289    1.575    0.365
        42 -10.9911    190.1980      6.0969   2.3381808432e+01   3.6770089625e+01    0.3146119    0.2482548 -65.76  0.002262921    1.130    0.115
        43  -9.7002    112.7414      8.3318   3.3495605322e+01   5.4118421531e+01    0.2575452    0.1341881  55.22   0.00133075    1.551    0.355
        44  -9.7522    100.4291      6.7649   3.5373925506e+01   5.7117494690e+01    0.1594118    0.1154671  14.91 0.0004733717    1.671    0.402
        45 -10.1940    150.9026      5.7168   2.7115532797e+01   4.5438066126e+01    0.1696212    0.1288213  78.82  0.000366711    1.094    0.086
        46 -10.0486    131.0662      5.5459   2.9639299785e+01   5.0047594115e+01    0.1708569     0.150383  70.78 0.0003626872    1.079    0.073
        47  -9.5743     92.2939      5.9666   3.6873501322e+01   5.9054855002e+01    0.3270086    0.1183973  38.92  0.001290653    3.061    0.673
        48 -10.0326     68.8230      5.3316   4.2985988713e+01   6.4311092158e+01    0.1846113    0.1643032 -23.56 0.0006316212    1.388    0.280
        49  -9.5468    109.1217      5.4905   3.3211939117e+01   5.5194723200e+01    0.1885589    0.1037266  64.07 0.0004683147    1.468    0.319
        50  -9.5068     58.2822      5.3716   4.6621900490e+01   6.6496772871e+01    0.1703763    0.1043299  56.17 0.0004345081    1.563    0.360
        51 -11.3414    243.2218      2.6820   1.9304246716e+01   2.6955589411e+01     0.241383    0.1230989 -54.87  0.001384558    1.520    0.342
        52 -10.0955    201.2427      3.9672   2.2089907327e+01   3.4697683217e+01    0.1483646    0.1224795 -72.42 0.0003280835    1.075    0.070
        53 -10.3708    178.4609      3.5361   2.3798453280e+01   3.9491066714e+01    0.2227661    0.1384879  87.55 0.0007756187    1.394    0.283
        54  -9.4859     98.3959      2.8367   3.4381341501e+01   5.7893349807e+01    0.1500075    0.1155445  15.24 0.0004325827    1.529    0.346
        55 -10.3595    195.1522      1.8772   2.2098920219e+01   3.6125501045e+01    0.1808259    0.1222342 -73.49 0.0007692368    1.261    0.207
        56 -10.5145    148.8060      1.8566   2.6334167455e+01   4.6234969406e+01    0.1746126    0.1420153  63.85 0.0004412765    1.170    0.146
        57  -9.0320    103.2970      2.6772   3.3346115279e+01   5.6768694836e+01    0.1209728    0.0897122 -75.61 0.0002532599    1.622    0.383
        58 -10.0824     73.8617      1.8477   3.9949284781e+01   6.3505447876e+01    0.2561992    0.1479886  73.64 0.0009523384    2.112    0.526
        59 -10.4580      3.3401      1.5566   7.5338135617e+01   7.5549183169e+01    0.1817424    0.1258865  27.75  0.001011141    1.601    0.375
        60  -9.7525    126.1910      2.5612   2.9453060239e+01   5.1423076885e+01    0.1751257   0.09104834  58.60 0.0003879841    1.564    0.361
        61  -8.9285     90.7181      1.7336   3.5625760966e+01   5.9740340011e+01    0.1265694   0.07611519  42.08            0    1.488    0.328
        62 -10.3005      5.2627    168.5777   1.1072028892e+02   3.7652535133e+01    0.1700671    0.1232945  -8.34 0.0009465425    1.622    0.383
        63 -10.6611    247.5067    250.1594   6.3101579347e+01  -7.6328258121e+00    0.1998723    0.1261437  10.71  0.001405184    1.353    0.261
        64 -12.3696    226.4123    245.3752   6.6040507706e+01  -4.9771358452e+00    0.6850283    0.3288589  -8.01  0.003446925    2.402    0.584
        65 -12.1932    236.3480    247.2395   6.4563090777e+01  -6.2113773228e+00     0.601728    0.2639435   0.59  0.002747778    3.172    0.685
        66 -11.9303    232.6165    244.9985   6.4870672854e+01  -5.5466376411e+00    0.4704028    0.1905599 -27.08  0.002423631    2.238    0.553
        67 -11.8660     89.1528    249.3232   9.6281862300e+01   1.0823720533e+01    0.3585715    0.2397874  25.72 0.0008881879    1.254    0.202
        68 -10.2705     72.3771    250.1299   1.0029076326e+02   1.2643690354e+01    0.2328039    0.1604748   8.11  0.000972323    1.570    0.363
        69 -12.0746     28.8070    246.5835   1.0997676677e+02   1.7923655886e+01    0.5742114    0.3263525  74.80  0.003208027    1.926    0.481
        70 -12.4702     18.8406    237.1433   1.1166036306e+02   2.0760561672e+01    0.5590246    0.3214011  35.75  0.003255548    1.473    0.321
        71 -12.7792      6.1259    245.6895   1.1484888031e+02   2.0094559489e+01    0.6939364    0.4472921  79.46  0.003443385    1.497    0.332
        72 -12.8364     15.4707    245.9155   1.1286239614e+02   1.9263367114e+01    0.7136322    0.3397071  50.23  0.002862646    1.784    0.440
        73 -10.7881     44.6953    162.5260   9.8112222672e+01   3.5969760631e+01    0.5797828    0.1723986 -47.40  0.001854849    3.475    0.712
        74 -11.7012     51.8300    162.4924   9.5849483249e+01   3.5210655457e+01    0.7574164    0.4604591 -83.61  0.003299821    2.026    0.506
        75 -10.5843     55.4926    161.4490   9.4534634234e+01   3.5061937721e+01    0.2723745    0.2571679  70.77  0.001136674    1.120    0.108
        76  -9.1727    210.7764    166.0220   5.5000209400e+01   9.4788611716e+00    0.1720874   0.09551704 -38.78 0.0006487017    1.596    0.373
        77  -9.8356     67.1982    165.3784   9.1449701358e+01   3.2627434184e+01    0.2239066    0.1260148  36.51 0.0009535579    1.725    0.420
        78  -9.5325    111.7782    164.0074   7.7758565685e+01   2.6346158398e+01    0.2021628    0.1262528 -50.97 0.0006292388    1.656    0.396
        79  -9.7531    221.3034    161.2765   5.2232930796e+01   8.7371236836e+00    0.1265191   0.08834058  -9.02 0.0002279996    1.544    0.352
        80 -12.3377     20.9935    157.3641   1.0498276362e+02   3.9424144571e+01    0.5865095    0.4162861   4.82  0.003109426    1.564    0.361
        81  -9.6976    247.6593    157.3315   4.7352236217e+01   5.7329175851e+00    0.1123056   0.08784991 -59.21   0.00070515    1.746    0.427
        82  -9.1845     10.3455    162.2822   1.0872388815e+02   3.8914165259e+01    0.1377581      0.09011 -38.54 0.0007014226    1.640    0.390
        83 -10.8035     10.2387    152.8080   1.0791069955e+02   4.1334227945e+01    0.3241484     0.210055  29.70 0.0006571699    1.606    0.377
        84  -9.2501    222.7792    152.0487   5.0199857464e+01   1.0060755509e+01    0.1718973   0.09047504 -39.38 0.0006228263    1.633    0.388
        85  -9.4551    169.9845    152.0000   6.0331454106e+01   1.8760439288e+01    0.2304903   0.08127869  39.42 0.0007976088    2.909    0.656
        86  -9.7822    176.9432    149.9875   5.8388451063e+01   1.7925557774e+01    0.2095253    0.1812771 -88.77 0.0007107988    1.655    0.396
        87 -10.4144    207.0457    146.6864   5.1824991825e+01   1.3427355484e+01    0.1835168    0.1652102  -2.59 0.0007683251    1.104    0.094
        88 -10.5797      9.5160    144.7420   1.0736787492e+02   4.3448135035e+01    0.3498209    0.1360794 -34.60  0.001301025    3.149    0.682
        89  -9.4537    204.5260    141.5314   5.1217678132e+01   1.4745165695e+01    0.1337721    0.1180103 -27.16 9.397807e-05    1.023    0.023
        90 -10.4386    219.1921    144.5524   4.9316661118e+01   1.1861972906e+01    0.2869495    0.1158502  33.85  0.001158987    3.325    0.699
        91  -9.4924    143.7632    137.0482   6.3225047671e+01   2.6680652599e+01    0.1935619    0.1255503 -44.48 0.0004105893    1.545    0.353
        92  -9.7745     43.6723    137.3017   9.4721118539e+01   4.2626952973e+01    0.1496197    0.1082594  57.77 0.0003521248    1.643    0.391
        93  -9.1104     17.3529    137.2588   1.0392189259e+02   4.4886521678e+01    0.1439529   0.09225886 -34.09 0.0006970281    1.610    0.379
        94 -10.7993      9.2323    136.2213   1.0658610737e+02   4.5659070503e+01      0.22671     0.192227 -71.28 0.0002730317    1.086    0.079
        95 -10.3002      2.6083    135.5247   1.0875614451e+02   4.6186335967e+01    0.3623006    0.1125048 -73.85  0.001345178    2.808    0.644
        96 -10.4146    241.0776    134.2290   4.3989088471e+01   1.0228080874e+01    0.2066381    0.1460876 -37.07 0.0005262404    1.158    0.136
        97 -10.0233     21.2700    135.1321   1.0229558278e+02   4.5164791535e+01    0.2692636    0.1547191  48.90  0.001225716    2.011    0.503
        98  -9.6255    249.5005    133.5317   4.2715435026e+01   9.1291012021e+00    0.1189814   0.09513904 -33.40 8.993861e-05    1.010    0.010
        99 -11.2235     54.9347    132.4036   8.9861784927e+01   4.2630995617e+01    0.6376401    0.2679574  23.49  0.002358222    2.419    0.587
       100 -11.2976     73.7142    129.0319   8.2544815918e+01   4.0961989713e+01    0.3590841    0.3313269  16.45  0.001295543    1.065    0.061
       101 -11.1238     14.9304    125.6742   1.0333493533e+02   4.8042969313e+01    0.5432782    0.2263538  25.29  0.002281394    2.434    0.589
       102 -11.2890     10.5935    123.0141   1.0458117233e+02   4.8984892136e+01    0.3566344    0.2817341 -84.00  0.002021245    1.286    0.222
       103 -11.0322     36.7247    130.3223   9.6066274191e+01   4.5130080787e+01      0.47448    0.2330917 -52.70  0.002016906    1.829    0.453
       104  -9.8593    219.8614    123.9231   4.5065520035e+01   1.5180236802e+01    0.1915089    0.1571753 -19.43 0.0005610761    1.228    0.185
       105 -10.6980      2.7495    123.4936   1.0748155684e+02   4.9258677920e+01    0.3127131    0.1614629 -37.83    0.0014735    1.894    0.472
       106  -9.6330    243.5530    122.4737   4.1425294597e+01   1.1674027916e+01    0.1199772   0.09760098 -36.39 0.0001023052    1.011    0.011
       107 -10.7545     19.4446    121.5144   1.0109693676e+02   4.8820794047e+01    0.2315942      0.21226 -49.30 0.0005969768    1.019    0.019
       108 -10.2918     72.7415    116.9617   8.0164741489e+01   4.4086575174e+01    0.4367364    0.2601351 -76.25  0.001478033    2.847    0.649
       109 -12.4764     15.6438    115.1542   1.0162029658e+02   5.0703217436e+01    0.8985086    0.2812757 -68.59 0.0005033373    2.862    0.651
       110 -11.3395      9.6631    111.4287   1.0341147693e+02   5.1998184631e+01    0.4773044    0.2270473 -34.80  0.002105701    2.083    0.520
       111 -10.1491      1.3797    118.5471   1.0743592552e+02   5.0580097680e+01    0.2439625    0.1142668 -72.76 0.0001171691    1.900    0.474
       112 -10.1513     23.9901    117.3333   9.8733980658e+01   4.9569532128e+01    0.2853761    0.1574159 -41.68  0.001302796    1.700    0.412
       113  -9.6952    179.3139    115.9784   5.0353707637e+01   2.3891143394e+01    0.2034116    0.1745625 -36.97  0.001104223    1.105    0.095
       114 -10.2188    213.9845    115.1013   4.4153321277e+01   1.7621794978e+01    0.1932456    0.1716232 -33.55 0.0004785478    1.034    0.033
       115 -10.6561     52.1920    103.7744   8.4857765420e+01   5.0163666578e+01    0.2424121    0.2051871 -19.36 0.0006385113    1.115    0.103
       116 -10.4821     51.7893    112.9727   8.7102696722e+01   4.7946205333e+01    0.4215448    0.2162683 -64.04  0.001690512    2.144    0.534
       117 -11.4135     54.8619    109.2996   8.5089696992e+01   4.8473545603e+01    0.4449475     0.262499 -54.72  0.001170202    1.659    0.397
       118  -9.9501     86.1396    116.1616   7.5252815499e+01   4.2120342571e+01    0.2359286    0.2006406 -10.07   0.00032402    1.189    0.159
       119 -11.0934    249.5254    112.0508   3.8714655212e+01   1.2343193056e+01    0.2404303    0.1708552 -40.82 0.0005348208    1.136    0.119
       120 -10.5092     94.4250    112.3194   7.1486333606e+01   4.1558106717e+01    0.2837788    0.2772645  31.05 0.0008417884    1.121    0.108
       121 -11.1692      2.2586    107.1740   1.0574600431e+02   5.3423477823e+01    0.5370902    0.2288393 -61.89  0.002409249    1.892    0.471
       122  -9.5854    104.6521    109.3004   6.7395909442e+01   4.0321314503e+01    0.1548303    0.1244421  71.00 0.0002288545    1.687    0.407
       123 -10.8426     35.1780    108.4062   9.2723127190e+01   5.0891398024e+01    0.2644829    0.1951237 -52.86    0.0011215    1.259    0.206
       124  -9.2232    100.4161    107.5147   6.8269523840e+01   4.1524822692e+01    0.1555345    0.1440727   0.87 4.024292e-05    1.029    0.028
       125 -10.1903     83.0955    107.2403   7.4045587920e+01   4.4721523783e+01    0.3212997    0.1840998   9.49  0.001155819    2.610    0.617
       126 -11.4003     26.0456    104.4189   9.5681653922e+01   5.2690788897e+01    0.5254445    0.4011069 -31.27  0.002850296    1.216    0.177
       127 -10.2815    111.8887    105.9119   6.4270315159e+01   3.9631740417e+01    0.2550316     0.207703  36.03 -0.0009232552    1.184    0.155
       128  -9.1978    138.0345    103.0380   5.6305938081e+01   3.4801536448e+01    0.1697398     0.160671  27.51            0    1.026    0.026
       129 -10.2495     37.8602    102.7554   9.0463949806e+01   5.2038619593e+01     0.245228    0.2419377  66.18  0.001077073    1.186    0.157
       130  -9.3908     81.7318    101.2653   7.2943072338e+01   4.6319387397e+01    0.1397006    0.1208696  65.31 0.0006847218    1.464    0.317
       131 -10.9882    143.9704     98.6269   5.3702784329e+01   3.4379369277e+01    0.4028383    0.3280581 -81.25  0.001589772    1.595    0.373
       132 -11.3279     62.1161     98.5034   7.9597937693e+01   5.0079064901e+01    0.3609982    0.2838425 -20.40 0.0008556134    1.267    0.210
       133 -11.5109     66.9721     97.9817   7.7562970497e+01   4.9477027502e+01    0.2634631    0.2323737   3.59  0.001404934    1.058    0.055
       134 -10.3618     20.7676    100.0687   9.7076663824e+01   5.4176421350e+01    0.3577035    0.1665124  -3.35  0.001429262    2.615    0.618
       135  -9.6003    107.9030     99.4964   6.3732759604e+01   4.1780847829e+01    0.2212346    0.1462759  40.37 0.0003391025    1.456    0.313
       136 -11.1365     10.0394     98.5633   1.0134021165e+02   5.5215814607e+01    0.2951699    0.1800017 -67.47 0.0007847124    1.527    0.345
       137 -10.2414     95.1652     98.1674   6.7439054747e+01   4.4558939934e+01    0.2014744    0.1825955  59.41  0.000346087    1.288    0.223
       138 -10.2212     52.0003     97.2932   8.3358115214e+01   5.1746186544e+01    0.2866386    0.1734168 -32.42  0.001034751    1.709    0.415
       139 -10.7672     14.8593     96.9488   9.9024477226e+01   5.5342196286e+01     0.233705    0.1592014 -38.34  0.001237779    1.303    0.233
       140  -9.9509    100.9908     95.5358   6.4792630258e+01   4.3984490340e+01    0.2358248    0.1449265  38.87 0.0005362091    1.556    0.357
       141 -10.4914      1.5188     94.4327   1.0430954044e+02   5.6628652065e+01    0.3523073    0.1006896 -66.74  0.001323726    2.772    0.639
       142 -11.5944    162.4942     92.0559   4.7948084510e+01   3.1587362740e+01     0.628758    0.2186205 -41.67  0.002255833    2.825    0.646
       143 -12.1588    166.7970     83.7086   4.5013726934e+01   3.2067235804e+01    0.8023811    0.4642519  51.86  0.002897275    1.720    0.419
       144 -12.1146    158.1289     89.8815   4.8290667474e+01   3.2901348058e+01    0.4282577    0.2901962 -32.78  0.001903002    1.551    0.355
       145 -11.4013    155.8588     83.2073   4.7037651294e+01   3.4530773413e+01    0.6076421    0.4469131  36.17  0.002592732    1.481    0.325
       146  -9.7684     31.0682     92.5205   9.1110441773e+01   5.5195183634e+01    0.2272131    0.1688918 -52.07 0.0005208842    1.263    0.208
       147 -10.2110     36.2786     91.7061   8.8648196306e+01   5.4888016291e+01    0.2282063    0.2163223  39.54 0.0006691081    1.245    0.196
       148 -10.3021     10.8855     90.8176   9.9666849758e+01   5.7081020651e+01    0.2414113    0.1526748   8.93  0.001250725    1.647    0.393
       149  -9.0154      4.6887     91.7259   1.0253513862e+02   5.7163342923e+01    0.1417523   0.08067031 -37.21   0.00018423    1.554    0.357
       150 -10.7005     65.9161     93.0876   7.6647160817e+01   5.0757752630e+01    0.4677544     0.207067  28.24  0.001379545    2.258    0.557
       151 -10.2170      6.9049     41.3624   8.9909933156e+01   6.8401740205e+01    0.5499073    0.1700036 -45.30  0.002360077    2.480    0.597
       152 -11.9637     22.0509     86.1132   9.3721835943e+01   5.7491749041e+01     0.975226    0.5049884 -77.58  0.003683788    2.694    0.629
       153 -11.8636     12.1251     48.0365   8.8923124714e+01   6.6699003806e+01    0.9332395     0.441027 -54.95   0.00454299    2.018    0.504
       154 -11.6628     21.9538     75.6464   9.1349047004e+01   5.9954530423e+01    0.5267969    0.3684374 -75.12  0.002730248    1.805    0.446
       155 -12.2066      6.5585     73.1772   9.8304304661e+01   6.1513648182e+01    0.8091444    0.4705975  -2.68  0.004104219    1.727    0.421
       156 -10.1181    109.6957    248.8150   9.1394951983e+01   8.3886398984e+00    0.1987645    0.1546141 -21.92  0.001165426    1.408    0.290
       157 -11.5426     13.3992     76.8017   9.5745437858e+01   6.0289885135e+01    0.3999342    0.3586452 -62.98  0.001648827    1.240    0.194
       158 -14.0678     16.6478     67.4043   9.1919016509e+01   6.2224778443e+01    0.5036747    0.3755277 -27.73  0.001048293    1.141    0.124
       159 -12.1965     10.6282     61.5082   9.3544486449e+01   6.3934422613e+01    0.3408581    0.2815627  26.86 -0.0002311258    1.416    0.294
       160 -10.8664     11.9681     57.1537   9.1672864088e+01   6.4797119182e+01     0.203357    0.1789656  40.05 0.0003888934    1.478    0.323
       161 -10.5717     95.9422     89.0428   6.4564130105e+01   4.6317762227e+01    0.4407714     0.213672  40.52  0.001730059    1.964    0.491
       162 -10.3114     83.3032     88.4361   6.8751214923e+01   4.8842492491e+01    0.2575205    0.2237913 -15.01 0.0005049355    1.136    0.120
       163 -10.7334     77.8684     88.1597   7.0658804115e+01   4.9872868334e+01    0.4040307    0.3246176  11.53  0.001582452    1.226    0.185
       164 -11.2578     47.8385     88.1532   8.2747222979e+01   5.4414243576e+01    0.2511163    0.2460805 -73.58 0.0003021978    1.247    0.198
       165 -10.6888     65.6018     87.2598   7.5126823837e+01   5.2107080622e+01    0.2551439      0.23479   2.60 0.0007127945    1.049    0.046
       166 -10.5925     67.9810     83.6656   7.3126065618e+01   5.2506746807e+01    0.3461556    0.2229328   1.11 0.0008513182    1.980    0.495
       167 -10.3359      9.4227     86.0385   9.9457262861e+01   5.8320255549e+01    0.2444719     0.188297  47.33  0.000850064    1.619    0.382
       168 -10.1543      7.5791     81.2618   9.9413816466e+01   5.9560256333e+01    0.3714223    0.2058155 -48.13  0.001050863    1.484    0.326
       169  -9.2655    120.7125     86.6645   5.6373521367e+01   4.1642266960e+01    0.1517623    0.1158184   5.25 0.0007017582    1.630    0.386
       170 -10.2957      4.8876     86.1624   1.0152980285e+02   5.8509548310e+01    0.1920204    0.1268925 -32.32 0.0007217084    1.347    0.257
       171 -10.7286     27.0295     84.2625   9.1028042839e+01   5.7526852884e+01     0.224383    0.2025495 -25.41 0.0002121057    1.063    0.060
       172 -11.3073     30.3358     81.7459   8.8898645495e+01   5.7818121989e+01    0.3434356    0.2502032 -38.42 0.0009741448    1.224    0.183
       173  -9.7357    116.2571     83.6209   5.6734922948e+01   4.3169970872e+01    0.2221671    0.1322686  36.82 0.0009524355    1.680    0.405
       174 -10.2733     74.0947     82.0361   7.0251692375e+01   5.1822326250e+01    0.3079358       0.2119 -33.81 0.0009547817    1.488    0.328
       175 -10.0573     15.4501     83.5126   9.6200996194e+01   5.8575895926e+01    0.2625327    0.1289982  11.62  0.001086993    2.093    0.522
       176  -9.5101     86.8169     82.6116   6.5752444790e+01   4.9386759117e+01    0.2219077    0.1345729  45.74 0.0009613782    1.700    0.412
       177 -10.3320     42.2653     81.9870   8.3531408528e+01   5.6501402727e+01     0.237545      0.19065  43.87 0.0008091695    1.499    0.333
       178 -10.1065    101.2557     80.9852   6.0434070766e+01   4.6834821773e+01    0.2032374    0.1911871 -10.06            0    1.083    0.077
       179  -9.7091     92.6042     79.7991   6.2894573813e+01   4.8816053850e+01    0.1895677    0.1443369 -52.54 0.0002325615    1.544    0.352
       180  -9.4178    112.4502     79.5824   5.6628343413e+01   4.4733316458e+01    0.1484223    0.1373633  32.22 6.365019e-05    1.014    0.013
       181  -9.9713     59.4836     79.0406   7.5199301707e+01   5.4832117178e+01    0.4031655    0.1899531  12.54  0.001295939    3.598    0.722
       182 -12.7347     44.5486     74.5616   8.0388977463e+01   5.7873164626e+01    0.4876201    0.2937712  45.31 0.0002142375    2.127    0.530
       183 -10.3381    184.2865     75.0221   3.9887556621e+01   2.9709074375e+01    0.3973872    0.1248283 -42.47  0.001483999    2.978    0.664
       184 -10.0727    145.5022     74.4356   4.6872631293e+01   3.8278339032e+01     0.285147    0.1412567 -36.15  0.001197852    2.127    0.530
       185 -10.3710     75.1301     74.5841   6.7526740505e+01   5.3151663577e+01    0.4292612    0.2304019  19.59  0.001644996    2.440    0.590
       186 -10.6863    207.3926     73.1899   3.6179607204e+01   2.5311062009e+01    0.2011024    0.1795201 -86.72 0.0003728118    1.115    0.104
       187 -10.5950     54.6042     74.3604   7.5847960167e+01   5.6549233429e+01    0.3391318     0.178237  40.45 9.991124e-05    2.059    0.514
       188 -12.0183     50.8955     68.2606   7.5559175727e+01   5.8350196766e+01    0.5495713    0.3967421  -3.67 0.0007909054    1.406    0.289
       189 -10.5285     52.1907     61.9243   7.2869291305e+01   5.9426659854e+01    0.3737724    0.2363773 -16.19  0.001547925    1.820    0.451
       190 -10.8695     47.0636     60.1791   7.4632998673e+01   6.0511864318e+01     0.443543    0.2995106 -33.90  0.001066936    1.440    0.306
       191  -9.4723     47.2222     55.0009   7.2743071803e+01   6.1482579138e+01    0.2250038    0.1627813   1.07  0.001194604    1.343    0.256
       192 -10.4298    101.8270     72.2631   5.7556901858e+01   4.8324125133e+01    0.3914679    0.2293425  65.05  0.001480252    2.782    0.641
       193 -10.7130     93.7543     72.6130   6.0252672509e+01   4.9939892463e+01    0.3154085    0.1784294 -26.88  0.001299322    2.190    0.543
       194 -12.9681    167.7332     69.5519   4.1282933609e+01   3.4085781069e+01    0.2842528    0.2730916 -84.33 0.0004849731    1.017    0.017
       195 -10.2428    122.6262     69.5814   5.0856640119e+01   4.4228904196e+01    0.2984015     0.207448  24.78 0.0008530954    1.731    0.422
       196 -10.4211     77.2250     69.4448   6.5059460062e+01   5.3761040996e+01    0.3955649    0.2205134  48.36 0.0009948494    1.998    0.499
       197  -9.1862     69.2398     69.9422   6.8318321039e+01   5.5103099333e+01    0.1714583    0.1216381 -41.76  0.000270454    1.485    0.327
       198  -9.2586    194.7109     69.6699   3.7106248187e+01   2.8340764974e+01    0.1201602    0.1004054  13.17 0.0002619833    1.621    0.383
       199  -9.6972    144.4828     69.5066   4.5734381945e+01   3.9294355589e+01    0.1395522    0.1326902  58.93 -3.411244e-05    1.003    0.003
       200  -9.6468    220.6789     67.9121   3.3460085955e+01   2.3526586497e+01    0.1613807    0.1317753 -53.82 0.0003073567    1.061    0.058
       201 -10.5651    129.0342     66.8264   4.8449628201e+01   4.3227030413e+01    0.4012093    0.3431179  40.19  0.002227898    1.125    0.111
       202  -9.9326    105.3299     68.3138   5.5246604786e+01   4.8264086941e+01    0.1523679    0.1098783  15.55 0.0006412561    1.675    0.403
       203 -10.1965     42.8125     67.7175   7.9105129754e+01   5.9552580593e+01    0.2514726    0.2152094 -28.50  0.001450435    1.129    0.114
       204 -11.8792     44.3841     38.9678   6.7961730387e+01   6.4725734689e+01     0.477866    0.3460517 -22.46  0.002725455    1.358    0.263
       205 -10.6970     33.4943     32.7819   7.1020477029e+01   6.7305671696e+01    0.5414298    0.1809583  29.67  0.002082455    2.767    0.639
       206 -12.1133     36.9999    242.8949   1.0789644059e+02   1.7882331318e+01    0.5800072    0.3227957  79.49  0.002009968    2.130    0.530
       207 -10.5638    250.0170    246.4844   6.2116730750e+01  -7.3892761341e+00    0.1797539    0.1129434 -22.08  0.001257057    1.217    0.178
       208 -11.4889     34.5264     42.4548   7.4415483554e+01   6.5518048146e+01    0.6641447    0.3383657   4.24  0.002271296    2.730    0.634
       209 -11.4830     28.5045     66.0189   8.5543100839e+01   6.1524827715e+01    0.3275953    0.2526003 -28.69 0.0005571491    1.134    0.119
       210 -11.4690     32.4360     63.8668   8.2934036029e+01   6.1580621276e+01     0.305833    0.2385592  35.79 0.0005295028    1.490    0.329
       211 -12.8794     27.6150     37.8204   7.6373504493e+01   6.7191656501e+01    0.3196197     0.275174   0.09 0.0003867842    1.148    0.129
       212 -11.8021     24.5209     34.5171   7.6817095045e+01   6.8128749190e+01     0.261686    0.1893362   0.48 0.0004944002    1.169    0.144
       213 -10.9991    213.3629     66.9605   3.4110789858e+01   2.5034260618e+01    0.1948785    0.1655661  81.52 0.0002458149    1.202    0.168
       214 -10.2306     93.9094     66.5181   5.8228583952e+01   5.0997886558e+01    0.2102674    0.1948735  -1.36 0.0004251582    1.092    0.084
       215 -11.2017    119.0437     65.2607   5.0474622659e+01   4.5737584183e+01    0.3676794     0.235301 -38.41   0.00175581    1.680    0.405
       216 -11.6510    122.9812     63.9830   4.9081471145e+01   4.5050919752e+01    0.4247879    0.2930466 -68.55            0    2.129    0.530
       217 -10.0234     80.9780     65.7104   6.2423830331e+01   5.3738741503e+01    0.2160367    0.1762895  33.07  0.001152715    1.125    0.111
       218  -9.5439    155.8430     63.8250   4.1936020837e+01   3.7586997973e+01     0.187281    0.1546019 -81.94 0.0004413561    1.322    0.243
       219 -10.4673    202.1365     62.1210   3.4439005917e+01   2.7894942618e+01    0.2343497    0.1611745 -29.39 0.0008737989    1.603    0.376
       220  -9.9648     76.9245     62.3381   6.2773011200e+01   5.5121285505e+01    0.2065482    0.1627056  29.95 0.0003339535    1.145    0.127
       221 -10.0923    113.4601     61.0262   5.0636577794e+01   4.7665186082e+01    0.2099352    0.1826614  47.50 0.0004420953    1.063    0.059
       222 -11.9682     96.4838     59.1420   5.4955682008e+01   5.1695141863e+01    0.4319392    0.3068305  59.75  0.002123209    1.598    0.374
       223 -10.9417     88.5667     54.0537   5.5764519279e+01   5.4184322725e+01    0.2984371    0.2736554   6.06  0.001220501    1.097    0.089
       224 -10.4137     85.6796     57.6610   5.8000147746e+01   5.4197287259e+01    0.2522117    0.2016425 -11.01 0.0008457717    1.349    0.258
       225  -9.9245    169.0326     59.9675   3.8647089995e+01   3.5192189086e+01    0.1908786    0.1819706  80.73 0.0003567782    1.050    0.047
       226 -10.0535     80.0000     56.9976   5.9775119377e+01   5.5448415094e+01    0.4848014    0.1315032 -38.74  0.001525905    4.036    0.752
       227  -9.6468     82.2638     54.3223   5.8017538278e+01   5.5437252237e+01    0.2107559    0.1678354  33.25 0.0004240328    1.114    0.102
       228 -10.0276    127.0191     58.9573   4.6585551720e+01   4.4900034733e+01    0.2100036    0.1892355  50.48  0.001208724    1.020    0.020
       229 -11.0743     58.9451     58.7901   6.8786448236e+01   5.8961193526e+01    0.3841299    0.3090308  28.42  0.001313022    1.174    0.148
       230 -10.5101     61.9388     53.4204   6.5564216605e+01   5.9419744508e+01    0.3479272     0.205503 -27.94  0.001091688    1.860    0.462
       231 -11.0124    147.1244     56.6767   4.1644957568e+01   4.0604260292e+01    0.2246456    0.2084006 -47.72 0.0002857792    1.141    0.124
       232 -12.3648     75.2639     55.0957   6.0848201439e+01   5.6691278835e+01    0.4930812    0.3366933 -32.12  0.002508356    1.563    0.360
       233 -12.9187    105.4724     52.2803   4.9996496321e+01   5.0786908913e+01    0.4385925    0.3288877  25.91  0.001333503    1.417    0.294
       234  -9.8956    230.5632     54.5956   2.9768675899e+01   2.3468742964e+01     0.198439    0.1025194 -33.57 0.0006098512    1.936    0.483
       235 -11.7923    129.6256     49.0922   4.3024074907e+01   4.5703170665e+01    0.4192959    0.3661949 -24.05  0.001499703    1.287    0.223
       236 -10.7526    119.8855     52.7397   4.6382620832e+01   4.7447729491e+01    0.2302921    0.2032302  30.93 0.0003004779    1.143    0.125
       237 -10.6461     52.5354     51.6347   6.9039185064e+01   6.1293584437e+01    0.3611112    0.2398687 -43.34  0.001428778    1.656    0.396
       238  -9.8623     96.0147     52.2238   5.2749545056e+01   5.2880065593e+01    0.1948413    0.1634947  37.64            0    1.056    0.053
       239 -10.1562     57.4048     50.8955   6.6580324563e+01   6.0631013730e+01    0.2465074    0.2074908   6.79  0.001195252    1.038    0.037
       240 -10.6981     59.5428     48.0503   6.4572034148e+01   6.0750698716e+01    0.4807771    0.3997921  81.53  0.002543953    2.082    0.520
       241  -9.9731    205.4079     49.4093   3.1290453371e+01   2.8907912012e+01    0.2527682    0.1921075  11.90  0.001474386    2.167    0.539
       242 -10.1992    181.8024     49.6723   3.4234467889e+01   3.3784814619e+01    0.1979824    0.1652384 -58.36 0.0002971604    1.144    0.126
       243 -11.1953     84.1752     61.2779   5.9772573266e+01   5.3891167322e+01     0.651067    0.2997781  24.14  0.002001519    4.070    0.754
       244 -10.2585     78.4986     47.0433   5.6712515880e+01   5.7341565264e+01    0.2776497    0.1693641 -34.01  0.001192777    1.797    0.443
       245  -9.1478    199.7462     47.3018   3.1468281531e+01   3.0316413051e+01     0.121325   0.08001341 -64.18            0    1.504    0.335
       246 -10.1754    104.4715     46.6449   4.8384638631e+01   5.1819404456e+01    0.2677045    0.1565724  48.58 0.0007068436    1.501    0.334
       247 -10.5742    143.0239     45.3540   3.9243014990e+01   4.3079810902e+01    0.2329864    0.1989195 -35.11 0.0006126785    1.290    0.225
       248  -9.5529    120.6573     46.3334   4.4186685149e+01   4.8156989681e+01    0.2260082    0.1424294  27.43 0.0007878037    2.042    0.510
       249 -10.5246     98.3929     38.7972   4.7360451965e+01   5.4239625321e+01    0.2887412    0.2492339  22.69  0.001107352    1.164    0.141
       250 -10.8998     91.6763     43.4109   5.0985905116e+01   5.5103811007e+01    0.4731567    0.2163669 -39.56  0.002010564    2.491    0.599
       251 -10.7892     95.8281     42.8789   4.9542511411e+01   5.4267550964e+01    0.3095876    0.2436956  15.24 0.0004195239    1.381    0.276
       252 -10.8870     85.5965     44.8746   5.3463193266e+01   5.6198155361e+01     0.341473     0.261297  26.67  0.001085534    1.241    0.194
       253 -10.8136     81.3645     41.9351   5.3798509572e+01   5.7506082137e+01    0.2705214    0.2115458  43.34 0.0006693049    1.154    0.134
       254  -9.5849    151.4719     45.5051   3.7780023493e+01   4.1106167921e+01    0.1323109    0.1202843  74.05 0.0001886977    1.004    0.004
       255 -10.0411    113.2777     44.7500   4.5452775499e+01   5.0072700047e+01    0.2933797    0.1776707  27.93  0.001322343    2.105    0.525
       256 -11.4108     59.4591     21.7588   5.3704415176e+01   6.4544490753e+01    0.5141881    0.2823657  49.75  0.001991291    1.731    0.422
       257 -10.1117     60.8993     28.4149   5.6023485058e+01   6.3433668384e+01    0.2521566    0.1757318 -26.17 0.0006856725    1.571    0.363
       258 -11.4831     53.7651     40.4896   6.4148948074e+01   6.2969799701e+01    0.6529544    0.3534617 -18.04   0.00283438    2.496    0.599
       259 -12.5582     57.7148     34.0183   5.9735949149e+01   6.3255242437e+01     0.308953    0.2595331   4.69 0.0005135951    1.110    0.099
       260  -9.7773    187.2064     43.1722   3.2015922512e+01   3.3443641602e+01     0.170793    0.1279106 -73.01 0.0004269684    1.300    0.231
       261 -11.6855    131.1799     41.5932   4.0439058483e+01   4.6319658551e+01    0.2818281    0.2497018 -64.07 0.0005683475    1.235    0.191
       262  -9.9620     72.7343     42.8393   5.7240649151e+01   5.9123678142e+01    0.2605633    0.2149456 -73.97 0.0007995356    1.933    0.483
       263  -9.4269    158.4255     42.5386   3.5844143315e+01   3.9885019289e+01    0.1288173    0.1168083  81.61 8.069225e-05    1.008    0.008
       264 -10.6984    148.8542     39.7067   3.6632350475e+01   4.2432571116e+01    0.2824072    0.2124631 -34.89  0.000849014    1.459    0.314
       265  -9.3666     67.2822     41.2933   5.8742465836e+01   6.0410734730e+01    0.1380024   0.09607235  12.86 0.0002690124    1.535    0.348
       266 -10.6813     69.7254     37.4324   5.6263659122e+01   6.0499498407e+01    0.3874999    0.2290428  15.79 0.0007880224    2.214    0.548
       267 -11.3744     74.4349     35.0993   5.3592906099e+01   5.9877833402e+01     0.403435     0.352784  36.76  0.001195051    1.106    0.096
       268 -11.0821    221.7429     31.8617   2.6100780455e+01   2.7822059442e+01     0.247957    0.1495785 -46.58 0.0002906012    1.440    0.305
       269 -11.4410    225.2089     37.9742   2.7006507616e+01   2.6471545421e+01     0.300008    0.1945926 -86.08 0.0003420911    1.532    0.347
       270 -11.1700    226.1264     33.1130   2.5983627439e+01   2.6859813306e+01     0.192833    0.1528125 -62.55 0.0002718149    1.039    0.038
       271 -10.0050    161.9182     38.1757   3.4173763626e+01   3.9619688934e+01    0.2337366    0.1591229  62.85  0.001316397    1.341    0.254
       272 -10.0585    249.0302     37.4619   2.5036442072e+01   2.2311719134e+01    0.1475139    0.0950899  80.39  0.001032241    1.600    0.375
       273 -10.0143    101.9412     36.3691   4.5537653902e+01   5.3746677706e+01    0.2403662    0.1930362 -68.63  0.001327656    1.637    0.389
       274  -9.5970      1.5663     36.9969   9.1830094845e+01   6.9584071836e+01    0.2047486    0.1624311 -56.00  0.001320217    1.425    0.298
       275 -10.7055    110.8326     35.2157   4.2897834089e+01   5.1847730718e+01    0.2492395    0.2058931  38.71 0.0005712291    1.155    0.134
       276 -11.3343     85.3872     34.4809   4.9657516792e+01   5.7657900518e+01    0.5851139      0.27703  31.26  0.002012984    2.627    0.619
       277  -9.4593    184.6599     35.6881   3.0585106880e+01   3.4881733457e+01    0.1192597   0.09023704  39.32 0.0007045993    1.695    0.410
       278  -9.3720    134.5089     34.9768   3.7814952093e+01   4.6340786087e+01    0.1837582   0.09920935 -56.14 0.0008083173    2.438    0.590
       279 -12.3134      8.5573     31.6703   8.5511948174e+01   7.0153222364e+01    0.3724725     0.322844 -19.86 0.0007434907    1.210    0.174
       280 -10.8557     17.7973     31.1131   7.9458293415e+01   6.9441206960e+01      0.41991    0.1861555  24.16  0.001896595    2.051    0.513
       281 -10.2117    233.8439     33.8480   2.5509973794e+01   2.5366417916e+01    0.1553042    0.1009593 -63.22 0.0003982203    1.319    0.242
       282  -9.8218    177.4808     34.0326   3.1053512636e+01   3.6630049496e+01      0.17588    0.1191965 -35.23 0.0009293841    1.570    0.363
       283 -10.7135    205.9211     32.9949   2.7742479402e+01   3.0774317583e+01    0.1787025    0.1458438 -68.11 0.0005981163    1.049    0.047
       284 -10.3321    122.0264     32.7642   3.9596793393e+01   4.9525838063e+01    0.3793316    0.1342785  52.09  0.001512193    2.360    0.576
       285  -9.9555    166.6082     32.2264   3.1997719666e+01   3.9249247949e+01    0.1612778    0.1236228 -15.70 0.0009522784    1.688    0.408
       286 -11.2643     49.7909     31.0252   6.2005957928e+01   6.5077800285e+01    0.2386471    0.2188754  19.13 0.0003798015    1.254    0.203
       287 -11.6718     49.1215     26.0571   6.0122258889e+01   6.5889787994e+01    0.2511524     0.208308  35.14            0    1.250    0.200
       288 -10.5575    144.3177     26.9543   3.3816417840e+01   4.4940637400e+01    0.4333153    0.1321946 -37.26  0.001719664    3.258    0.693
       289 -10.7578    102.3345     29.3425   4.2972561416e+01   5.4492519111e+01    0.3168207    0.2531241  83.39  0.001049047    1.480    0.324
       290 -11.0910     79.8784     28.4953   4.9111997632e+01   5.9580525962e+01    0.4157386    0.2400797 -23.92  0.002077909    2.015    0.504
       291 -11.4151    237.5807     29.2102   2.4368457876e+01   2.5218641204e+01    0.2486681    0.1270764  52.93  0.001446993    2.596    0.615
       292 -11.2493    198.1488     27.9691   2.7415805549e+01   3.2915166385e+01    0.3034677    0.1430156  60.52  0.001612037    2.068    0.517
       293 -11.2617    204.8560     26.8629   2.6551789324e+01   3.1671381964e+01    0.2112377    0.1607956 -80.71  0.001445695    1.148    0.129
       294 -10.9462    193.7294     25.3527   2.7274620413e+01   3.4115397120e+01    0.2457535    0.1211006 -51.84  0.001128407    1.929    0.482
       295  -9.6201    116.3400     26.4107   3.8745528413e+01   5.1563680122e+01    0.3455929    0.1191125  62.86  0.001314819    2.654    0.623
       296 -11.2156    112.0459     27.3437   3.9983456141e+01   5.2467051752e+01    0.3085313    0.2205525 -12.56  0.001702222    1.737    0.424
       297 -10.3558    113.4120     21.5673   3.7763020142e+01   5.2751620453e+01    0.3646209    0.1800081  45.46   0.00116684    1.885    0.469
       298 -10.6963    107.2996     27.5381   4.1135420657e+01   5.3549317518e+01    0.2201365    0.1905581  53.55 0.0002300203    1.019    0.018
       299 -10.9602     22.5211     24.4133   7.3661802268e+01   7.0049190813e+01     0.374012    0.2081545 -23.20  0.001648954    1.800    0.445
       300 -10.4088     24.5498     21.5171   7.1089887196e+01   7.0251711538e+01    0.2354166    0.1956347 -31.67 0.0008491494    1.436    0.304
       301 -10.1598    214.4905     25.1297   2.5363454834e+01   2.9954817513e+01    0.1938799    0.1653061  53.50  0.000750974    1.488    0.328
       302  -9.5349    180.1740     26.4394   2.8936441362e+01   3.6886435534e+01    0.1628726    0.1024563  88.51 0.0004151149    1.560    0.359
       303  -9.8144    172.4614     25.9650   2.9709490290e+01   3.8629904788e+01    0.1669652    0.1186422 -35.15 0.0004787241    1.529    0.346
       304  -9.7233    109.8535    242.8043   9.0630124924e+01   9.4970900246e+00    0.1808741    0.1369935  41.83 0.0004278244    1.343    0.256
       305 -10.6480     61.8258    242.0946   1.0204598621e+02   1.5436856277e+01     0.396819    0.1356602  45.06  0.001600132    2.759    0.638
       306 -10.4086     70.0967     25.7981   5.1376947499e+01   6.1947155969e+01    0.4587302    0.1364868  40.80  0.001629615    3.086    0.676
       307 -10.5348      1.8198     25.6863   8.7730436797e+01   7.1725276789e+01    0.2508164    0.1703281 -38.05  0.001057808    1.283    0.220
       308  -9.6120     97.8943    242.1174   9.3409671103e+01   1.1141607765e+01    0.1876323    0.1390893   6.65  0.000569874    1.348    0.258
       309 -10.1524      9.7247     15.6352   7.7919705586e+01   7.2819579965e+01    0.2951158     0.150206  -6.67  0.001472849    2.141    0.533
       310 -11.2141     88.7340    240.9834   9.5486679535e+01   1.2500991949e+01    0.2590851    0.1637247 -43.41  0.001378841    1.822    0.451
       311 -10.0978    195.3396    238.3188   7.0869930965e+01  -5.4367232996e-01    0.2330086     0.155559  -7.19  0.001291449    1.286    0.223
       312 -11.5653     13.3056     23.3863   7.9043417319e+01   7.1209374524e+01    0.4514026    0.2136559   4.27  0.001126164    2.344    0.573
       313 -10.4103      7.2272     24.7820   8.3689080153e+01   7.1502296953e+01    0.2607956    0.1359736   9.15  0.001400038    1.737    0.424
       314  -9.0139    219.3062     25.2865   2.5005012673e+01   2.9010911384e+01   0.09700502   0.08376638  46.96 0.0003015024    1.567    0.362
       315  -9.9234    134.5462    237.9456   8.4140914214e+01   7.2006926823e+00    0.1917007   0.09651294 -27.21 0.0008088099    2.611    0.617
       316 -11.0427    165.6310     16.6970   2.8225700558e+01   4.1099934492e+01    0.1852154    0.1554127  61.40 0.0006201828    1.219    0.179
       317  -9.5078    186.4159     23.1554   2.7513507035e+01   3.5892277053e+01    0.1683031   0.09409292 -48.05 0.0009458111    1.700    0.412
       318 -11.7727     22.4871    248.7603   1.1148890623e+02   1.8072731343e+01    0.3868408    0.2406228  36.76  0.001470304    1.331    0.249
       319 -10.9296     84.6068     21.6914   4.4964784208e+01   5.9324740580e+01    0.5076351    0.1696759  48.46  0.002038675    2.362    0.577
       320 -10.1325    168.0214     20.9492   2.9003008125e+01   4.0141389333e+01    0.2021631    0.1263507 -70.89 0.0007030678    1.689    0.408
       321 -10.7920     66.7203     20.5405   5.0374310273e+01   6.3247788310e+01    0.2487951    0.1997691  50.28  0.001103582    1.252    0.201
       322 -13.3009     74.4228    238.5625   9.8692370074e+01   1.4712589548e+01    0.8518813    0.7707509 -59.90  0.005551402    1.275    0.215
       323 -10.4433    159.9592    235.6966   7.7985362219e+01   4.2755272264e+00    0.1910513    0.1445196  11.48 0.0004343703    1.085    0.078
       324 -11.2281     30.4480    234.2085   1.0882580114e+02   2.0319561368e+01    0.4363041    0.1824704  82.47  0.001795234    3.393    0.705
       325  -9.8072    177.3850    234.8135   7.4040475903e+01   2.2000368287e+00    0.1815413    0.1040903 -28.88 0.0009495687    1.699    0.412
       326  -9.4943    221.3072    234.3428   6.5220933015e+01  -2.8815296922e+00    0.1284744   0.07210815 -10.43 0.0004033784    1.691    0.409
       327 -10.8259     86.7388    232.8494   9.5063657464e+01   1.4394068420e+01    0.2774413    0.1363358  46.64  0.001232406    2.143    0.533
       328  -9.8760     38.5531    232.3178   1.0678497766e+02   1.9936149716e+01    0.1468524    0.1167115 -61.57 0.0002992047    1.399    0.285
       329  -9.9608     24.0961    232.1257   1.1016798009e+02   2.1347728572e+01      0.17059    0.1590874 -32.44 0.0005567197    1.288    0.223
       330 -10.3743     46.7128     16.6958   5.6894772963e+01   6.7510975947e+01    0.2109681    0.1437141  17.90 0.0002332228    1.340    0.254
       331 -11.1280     41.8697     18.6676   6.0174348811e+01   6.8098121703e+01    0.3716679    0.2161956  41.53  0.001328389    1.607    0.378
       332  -9.4328     58.5189    229.5021   1.0170462456e+02   1.8436809995e+01    0.1301377     0.115181  35.91 0.0008103784    1.007    0.007
       333 -10.7681    194.9903     16.7879   2.5289219377e+01   3.4744372746e+01    0.1747313    0.1428172 -65.05 0.0003215219    1.103    0.093
       334 -10.7316    144.0423     16.3174   3.0879297148e+01   4.6074492675e+01    0.2293089    0.1870351  54.80 0.0007796034    1.208    0.172
       335  -9.8551    108.5260     17.1462   3.7299421404e+01   5.4325182661e+01    0.1604363    0.1315154 -20.24 0.0003220634    1.452    0.311
       336 -10.9851      4.1339    226.6826   1.1443603560e+02   2.4179006670e+01    0.2915937     0.170776  80.12  0.001688158    1.659    0.397
       337 -10.1871     76.0436     15.6200   4.5118495952e+01   6.1816065326e+01    0.3636494     0.137702  50.30  0.001179472    2.067    0.516
       338  -9.4921    190.5209    226.4787   6.9938476695e+01   1.9260350587e+00    0.1327556    0.1016935  -3.37 3.676313e-05    1.038    0.037
       339 -10.6712    120.9690    226.0180   8.5709195120e+01   1.1302680847e+01    0.2116211    0.1592741  52.89 0.0008095335    1.660    0.398
       340 -11.1638     21.3854    220.2036   1.1005648568e+02   2.4177040547e+01    0.2193449    0.1507934  83.35  0.001285373    1.466    0.318
       341 -10.7301    247.8215     15.3769   2.1239712831e+01   2.4912142713e+01    0.1338774   0.08305636  69.72 0.0009587622    1.730    0.422
       342  -9.7405    142.6682    220.6756   7.9646450157e+01   9.3512576855e+00    0.1471712   0.09616704  -8.31 0.0007050598    1.705    0.414
       343  -9.3361    126.3401    220.6654   8.3605224261e+01   1.1632695641e+01    0.1397153    0.1035532  53.72 -0.0001169162    1.753    0.430
       344 -10.7015     15.8283    221.7327   1.1147668366e+02   2.4313993651e+01    0.3231801      0.12017  35.80  0.001504351    2.189    0.543
       345 -12.2484      5.6042    208.7366   1.1318725290e+02   2.8023342868e+01     0.473425    0.3266502 -75.33  0.002006219    1.414    0.293
       346 -11.7618     10.3551    216.8414   1.1249399258e+02   2.5839742334e+01    0.4345853    0.2745968  10.21  0.002449955    1.835    0.455
       347  -9.5653    100.3876     12.8341   3.7560869943e+01   5.6612631505e+01    0.1674934    0.1206482   4.86 0.0009535923    1.735    0.424
       348  -9.8815     12.5326    212.5062   1.1172085079e+02   2.6638682771e+01    0.2445169    0.1147257 -78.89 0.0007870499    2.109    0.526
       349 -10.7807     11.1358    207.9312   1.1178879917e+02   2.7788715889e+01    0.2740526    0.2046424 -84.67 0.0008464442    1.294    0.227
       350  -9.9369     38.2471    217.3846   1.0569738310e+02   2.3241385827e+01     0.188615    0.1017354  36.20 0.0009415831    1.623    0.384
       351 -11.2660     29.0272    215.5821   1.0786480543e+02   2.4527653737e+01     0.271786    0.2233431  28.97  0.001137694    1.177    0.150
       352 -11.4693    236.0083    214.1780   5.9265007369e+01  -1.5306136325e+00    0.2177521    0.1423371 -27.81 0.0006755132    1.248    0.199
       353  -9.6990    136.6174    215.6991   8.0318245563e+01   1.1177081183e+01    0.1515579   0.09834062  -5.92 0.0007021306    1.777    0.437
       354 -10.4150     20.4509    211.7734   1.0972855420e+02   2.6152659178e+01    0.2560198    0.1487613  69.51  0.001329123    1.793    0.442
       355 -11.0962    237.4193    209.2329   5.8185460711e+01  -9.5469015635e-01    0.2352363   0.09060989 -34.35  0.001137456    2.171    0.539
       356  -9.6007    185.3274    208.3121   6.7930402673e+01   5.6907435368e+00    0.1420007   0.08974449  -7.67  0.000166774    1.665    0.400
       357 -10.4716    246.3326    202.6655   5.5588762821e+01  -9.7200797542e-01    0.1807716    0.1631052 -77.91  0.001214904    2.277    0.561
       358  -9.1170    188.2934    204.7003   6.6669164551e+01   5.9189102665e+00    0.1133231    0.1090439  52.99 0.0003773251    1.568    0.362
       359 -10.6855    175.3262    202.3219   6.9022092125e+01   8.1711136219e+00    0.2377206    0.2054958   7.81 0.0004335344    1.117    0.105
       360 -10.9058     19.9909    200.1094   1.0902505847e+02   2.8897733903e+01    0.5300198    0.1938827 -69.76  0.002247694    2.556    0.609
       361 -10.0683    117.0863    201.5012   8.2979260332e+01   1.6968788675e+01    0.2224742    0.1323713  27.97 0.0005881217    1.531    0.347
       362  -9.4284    238.5173    200.5171   5.6502014731e+01   2.2711510601e-01    0.1223823   0.09184614 -16.27  0.000288906    1.006    0.006
       363  -9.8960     58.1409    196.0545   9.8312482397e+01   2.6106795216e+01    0.2405069    0.1408603 -37.78  0.001025607    2.025    0.506
       364 -11.4346     16.1792    192.9814   1.0950520153e+02   3.0901421640e+01    0.4402713    0.2521915  20.20  0.002162867    1.798    0.444
       365 -10.2659    244.9265    188.4164   5.3344911655e+01   1.3119147381e+00    0.2177244    0.1436601 -42.32 0.0007194377    1.555    0.357
       366  -9.3022      2.3113    187.3208   1.1278872992e+02   3.3252320627e+01    0.1279562   0.08630296 -44.43 0.0004317988    1.649    0.393
       367 -10.4685    168.3151    183.6706   6.7133259582e+01   1.2772156663e+01    0.3257207    0.2568682 -88.62  0.001551951    2.394    0.582
       368  -9.7061     61.8315    184.8477   9.5873003710e+01   2.8407231985e+01    0.2005579    0.1647433  66.75  0.001045451    1.338    0.253
       369 -11.5936     15.8178    181.7558   1.0874858922e+02   3.3658804932e+01    0.4478103    0.2643362  62.90  0.002179981    1.787    0.440
       370  -9.1787      1.3923    180.2649   1.1259828694e+02   3.5012791636e+01    0.1290521   0.08676836 -36.92   0.00069788    1.710    0.415
       371  -9.4403    120.4924     20.9856   3.6159194030e+01   5.1147495246e+01    0.1673455    0.1323115 -23.66 0.0003492985    1.500    0.333
       372  -9.7647    244.5658    178.2044   5.1591569538e+01   2.9112477243e+00    0.1834609   0.08984725 -29.25 0.0009570544    1.784    0.439
       373  -8.9592    222.6772    178.3535   5.5226473827e+01   5.7071035031e+00    0.1159489   0.09971082 -62.44 0.0001421597    1.758    0.431
       374 -10.1843     46.8069    177.1817   9.9328787209e+01   3.2010852695e+01    0.2496738    0.2387242  62.66  0.001479064    1.047    0.045
       375 -10.4693     18.3689    172.9293   1.0728144430e+02   3.5661877695e+01    0.2373205    0.1712674  39.15   0.00125541    1.381    0.276
       376  -9.7850     58.8639    181.8680   9.6350642900e+01   2.9495743843e+01    0.2212907    0.1904451 -23.52 0.0008214177    1.238    0.192
       377 -11.1272     35.3390    161.2001   1.0089800302e+02   3.7229242191e+01    0.5787571    0.2882836  10.12 0.0002848344    2.365    0.577
       378 -11.7581     37.1045    165.8459   1.0090825599e+02   3.5868523773e+01     0.549587     0.471357 -44.48  0.002663193    1.172    0.147
       379 -10.0234     33.3348    166.2977   1.0212489717e+02   3.6102455428e+01    0.2091776    0.1815328 -44.97 0.0002673609    1.160    0.138
       380  -9.4984    177.4120    168.5186   6.2130890732e+01   1.4259407158e+01    0.1433426    0.1240592 -12.91  7.78858e-05    1.023    0.023
