#   1 NUMBER                 Running object number                                     
#   2 MAG_AUTO               Kron-like elliptical aperture magnitude                    [mag]
#   3 X_IMAGE                Object position along x                                    [pixel]
#   4 Y_IMAGE                Object position along y                                    [pixel]
#   5 X_WORLD                Barycenter position along world x axis                     [deg]
#   6 Y_WORLD                Barycenter position along world y axis                     [deg]
#   7 A_WORLD                Profile RMS along major axis (world units)                 [deg]
#   8 B_WORLD                Profile RMS along minor axis (world units)                 [deg]
#   9 THETA_WORLD            Position angle (CCW/world-x)                               [deg]
#  10 FWHM_WORLD             FWHM assuming a gaussian core                              [deg]
#  11 ELONGATION             A_IMAGE/B_IMAGE                                           
#  12 ELLIPTICITY            1 - B_IMAGE/A_IMAGE                                       
         1  -8.6494    214.0283     11.7915   8.9130939589e+00   3.1164795593e+01    0.1809064    0.1367297 -52.82 0.0002290224    1.130    0.115
         2 -10.2389    247.3056      8.1312   6.2855092321e+00   2.5269675808e+01    0.2251375    0.1564675 -28.39  0.001542861    1.640    0.390
         3  -9.8765     10.3244      8.3068   5.9127070687e+01   7.5219477122e+01    0.1898608    0.1380171 -20.93  0.001227246    1.217    0.179
         4  -8.2222     98.1278      1.4088   1.8820019150e+01   5.8762218876e+01    0.1905818    0.1092433  68.12 0.0003360829    1.504    0.335
         5  -8.9491    133.8435    246.1542   7.1314975994e+01   6.2577784770e+00    0.1849669    0.1499639  35.45 0.0008102159    1.235    0.191
         6  -8.0178    234.7947    250.6057   5.2712682866e+01  -5.8893869665e+00    0.1347553   0.08427642  26.84 0.0004829611    1.663    0.399
         7  -9.1918    102.2399    249.3864   7.8537550288e+01   9.6620692746e+00    0.2114095    0.1813607  27.09  0.000276113    1.051    0.049
         8  -8.8522     88.5537    244.4254   8.1062215569e+01   1.2231662382e+01    0.2658359    0.1883258  58.72  0.001594908    1.563    0.360
         9  -8.9575     27.4451    243.2544   9.4504669447e+01   1.9218627248e+01    0.1983884    0.1593634  25.37 0.0003461062    1.288    0.223
        10  -8.5751     11.7808    242.9608   9.7822769224e+01   2.0728157873e+01    0.1529878     0.119954  61.90  0.001090148    1.083    0.077
        11  -9.8012    247.1605    237.3334   4.8750083222e+01  -5.4786144860e+00    0.1753776    0.1202392 -36.82  0.001254111    1.756    0.431
        12  -7.4342    127.2920    231.2867   7.0844970259e+01   9.6681252359e+00    0.1258709   0.09048919  -4.11 0.0002774389    1.541    0.351
        13  -8.7383     55.9916    219.9930   8.6344418158e+01   2.0977459280e+01    0.2349908    0.1798387 -82.74  0.001414682    1.418    0.295
        14  -9.1592     56.0750    215.3241   8.5904610532e+01   2.1972725191e+01    0.2365186    0.1792239 -71.07 0.0008635616    1.428    0.300
        15  -8.0835     29.8593    219.3361   9.2551447865e+01   2.3895853520e+01    0.1682926    0.1413481  37.22 0.0005924698    1.135    0.119
        16  -7.3234     35.5363    217.4782   9.1073410205e+01   2.3730504859e+01    0.1224222    0.1105599  51.44 1.966077e-05    1.073    0.068
        17  -8.6232    101.0288    214.9693   7.4829654313e+01   1.6354033706e+01    0.1924068    0.1686824  23.55  0.001169769    1.038    0.037
        18  -8.3953     10.5124    214.4796   9.6816482520e+01   2.6719494614e+01    0.1200108    0.1021986  60.57 4.710515e-05    1.034    0.033
        19  -7.5819     65.7250    209.9837   8.2983585443e+01   2.1999085915e+01    0.1479367     0.116557 -71.68 0.0003305215    1.378    0.274
        20  -9.6980    117.6970    198.7727   6.8474694731e+01   1.7333261844e+01    0.2526315    0.2232706 -30.25 0.0005554557    1.187    0.157
        21  -8.4936    138.9894    198.9873   6.3413433744e+01   1.4103580863e+01    0.1913029    0.1701552  10.55            0    1.002    0.002
        22  -9.2034    132.9862    198.9654   6.4817812645e+01   1.5009765590e+01    0.1940174    0.1740887  12.49  0.001151764    1.003    0.003
        23  -7.5878     50.0139    199.0504   8.5907843403e+01   2.6314647493e+01    0.1552929    0.1385146  49.54            0    1.018    0.018
        24  -7.3373    123.7038    197.2674   6.6772388778e+01   1.6749118420e+01    0.1327742    0.1038439  55.78 0.0002510842    1.515    0.340
        25  -9.0918    222.9816    188.0145   4.4568391191e+01   3.9636247042e+00    0.1732126    0.1374456 -14.40            0    1.002    0.002
        26  -8.7617    249.5325    184.4837   3.9763782055e+01   1.2122257758e+00    0.1160372   0.08764524 -19.34 0.0008095343    1.012    0.012
        27  -8.7061     61.0675    183.0086   8.1177876928e+01   2.8802254162e+01    0.1977784    0.1883292  36.95 0.0002890947    1.058    0.055
        28  -7.9766    206.2740    178.9907   4.5832824109e+01   7.6649055578e+00    0.1741404    0.1421197 -23.76 0.0004329905    1.084    0.078
        29 -10.4241    100.9962    175.9995   6.9141366724e+01   2.4879592840e+01    0.2035515    0.1936076  25.01  0.001156765    1.002    0.002
        30  -9.1132    249.5978    167.3814   3.6727327574e+01   3.6377802033e+00    0.1878786    0.1618879 -16.99 0.0006264674    1.172    0.147
        31  -8.0068     27.0755    164.0070   8.8871554950e+01   3.7233244568e+01    0.1962567    0.1807734  69.38 0.0004092645    1.026    0.025
        32  -7.4986     72.4370    159.3876   7.4563175343e+01   3.3130092697e+01    0.1423482    0.1388364  22.74 0.0002316062    1.042    0.040
        33  -8.6344    132.9790    154.7887   5.6747642425e+01   2.4336654528e+01     0.327709    0.2258392 -19.42 0.0009326531    1.825    0.452
        34  -9.1362    249.9916    148.9968   3.3308613741e+01   6.2627386356e+00    0.1784304    0.1307621 -54.38  0.001136248    1.715    0.417
        35  -9.4123    244.4729    142.0088   3.2745313533e+01   8.0531293092e+00    0.1875088   0.09646007 -36.47 0.0004205386    1.560    0.359
        36  -7.2679    112.2711    138.2340   5.8745366734e+01   3.1827275920e+01    0.1426623    0.1164621  -4.58  0.000168635    1.425    0.298
        37  -8.5557     18.7788    137.9951   8.8782988933e+01   4.4659384390e+01    0.2027829    0.1907574  39.14 0.0002736505    1.131    0.116
        38  -7.4803     53.6898    137.6882   7.6951861737e+01   4.1184575407e+01    0.1520206     0.108124 -31.02 0.0003515459    1.627    0.385
        39 -10.1319    248.1176    133.6291   3.0664113151e+01   8.7852690436e+00    0.2782053    0.2218982  88.75  0.001795909    2.025    0.506
        40  -8.3201    223.0159    125.9626   3.2613934918e+01   1.3792935877e+01    0.1816738    0.1515371 -31.62  0.001161376    1.022    0.021
        41 -10.2948     40.9862    125.3509   7.9293585332e+01   4.5899934997e+01    0.2500288    0.2334964 -43.04  0.000251568    1.071    0.066
        42  -9.1116    248.7151    120.4349   2.8055140110e+01   1.0643276854e+01    0.1987549    0.1203429  57.93   0.00116352    2.257    0.557
        43  -7.3214     92.7087    117.6938   5.9857017925e+01   4.0246964036e+01    0.1549475     0.119655 -15.72 0.0001981229    1.576    0.366
        44  -7.8751    129.8815    106.9007   4.6355398861e+01   3.5327316244e+01    0.1918979    0.1734899  85.70 0.0009942275    1.248    0.198
        45  -8.9611    245.9485    103.0000   2.4976727634e+01   1.3609136781e+01    0.1632401   0.06937673  54.98 0.0008017927    2.938    0.660
        46  -8.3525    188.0198    100.9191   3.2614196133e+01   2.4308480423e+01    0.2002636    0.1845306 -43.53  0.000319601    1.008    0.008
        47  -7.4887    200.9618     98.2659   2.9926693565e+01   2.2212876819e+01    0.1437331     0.117674  60.21 0.0002635705    1.370    0.270
        48  -9.0855    248.7925     96.6097   2.3398967674e+01   1.4077374200e+01    0.1471896    0.1112864  82.71 0.0009628364    1.746    0.427
        49  -8.0207    114.9126     94.1419   4.6902595363e+01   4.1151468932e+01    0.2148398    0.1989939  89.16 0.0002669729    1.186    0.157
        50  -8.3630    128.0491     91.0094   4.2499461413e+01   3.8943616354e+01    0.2110313    0.2037943 -79.09  0.001156399    1.066    0.062
        51  -7.1012      9.7302     85.7761   8.5088548541e+01   5.8798436055e+01    0.1286667   0.08732167 -36.10            0    1.412    0.292
        52  -8.8691    249.1956     83.6332   2.0803458841e+01   1.5828857283e+01    0.1428498    0.1067676  47.28 0.0009508854    1.731    0.422
        53  -8.2284     87.0550     79.1056   5.1038544346e+01   5.0033495952e+01    0.2107136    0.2044293   2.10 0.0002741362    1.013    0.013
        54  -7.5062    155.5630     78.4079   3.2809415751e+01   3.5092626198e+01    0.1403081    0.1343083 -75.89 9.613976e-05    1.014    0.014
        55  -8.0184    137.6558     60.0932   3.1177064737e+01   4.2231533231e+01    0.1900013    0.1784057 -43.74 0.0004627435    1.100    0.091
        56  -8.6494    249.4689     54.4888   1.5051630664e+01   1.9628572062e+01    0.1160809   0.08723426 -52.83 0.0001556575    1.045    0.043
        57  -9.1515    172.0031     50.0048   2.2353207378e+01   3.5710579317e+01    0.1891126    0.1715635 -73.08  0.001165069    1.004    0.004
        58  -8.6260    176.0162     42.0182   1.9708856235e+01   3.5860139018e+01    0.1917112    0.1721385 -77.92  0.001209633    1.020    0.020
        59  -8.3261    174.0445     33.9751   1.7848806562e+01   3.7309369340e+01     0.185025    0.1632887 -76.16            0    1.005    0.005
        60  -7.9962    222.0866     21.9095   1.0517888548e+01   2.8498831572e+01    0.1697278     0.116334 -61.80  0.001117618    1.203    0.169
        61  -8.2543     17.9031     21.1019   6.0659941142e+01   7.2260326506e+01    0.1684293    0.1503166  -1.63  0.001136264    1.164    0.141
        62  -8.8904     14.9735     17.9930   6.1076815423e+01   7.3124121469e+01    0.1793537    0.1470674  -5.69            0    1.011    0.011
        63  -7.7685     94.8413     12.8744   2.4121742610e+01   5.8549524855e+01    0.1629776    0.1444751 -76.01  0.001002732    1.257    0.205
        64  -9.4500    246.3080    248.8404   5.0602453668e+01  -6.7645949481e+00    0.1489297    0.1069616   3.30  0.001167037    1.162    0.140
        65  -9.0934    185.3639    246.1536   6.0847414281e+01  -4.6516413059e-02    0.2284172   0.08904237 -33.85    0.0010937    2.718    0.632
        66  -7.9406    200.4296    250.5845   5.8665065404e+01  -2.3533904931e+00    0.1154933   0.08369278   1.77 0.0007998112    1.047    0.045
