#   1 NUMBER                 Running object number                                     
#   2 MAG_AUTO               Kron-like elliptical aperture magnitude                    [mag]
#   3 X_IMAGE                Object position along x                                    [pixel]
#   4 Y_IMAGE                Object position along y                                    [pixel]
#   5 X_WORLD                Barycenter position along world x axis                     [deg]
#   6 Y_WORLD                Barycenter position along world y axis                     [deg]
#   7 A_WORLD                Profile RMS along major axis (world units)                 [deg]
#   8 B_WORLD                Profile RMS along minor axis (world units)                 [deg]
#   9 THETA_WORLD            Position angle (CCW/world-x)                               [deg]
#  10 FWHM_WORLD             FWHM assuming a gaussian core                              [deg]
#  11 ELONGATION             A_IMAGE/B_IMAGE                                           
#  12 ELLIPTICITY            1 - B_IMAGE/A_IMAGE                                       
         1 -12.2799    216.1351     43.6279   2.9803872877e+01   2.6149431104e+01     1.298334     0.874377 -16.54  0.007105408    1.567    0.362
         2 -11.1317    224.5071     35.9998   2.7119439906e+01   2.5268439847e+01    0.5865836    0.4060189  49.94  0.001152917    1.734    0.423
         3 -11.8052    234.2412     28.2308   2.4474171988e+01   2.4129207759e+01    0.7297792    0.5597291 -40.06  0.002706919    1.064    0.060
         4 -11.5779      3.3946     24.5181   9.5462050097e+01   7.4412299766e+01    0.6479592    0.5009532 -68.97  0.003958417    1.201    0.167
         5 -10.8653      2.2714      9.6842   9.1293341977e+01   7.7909274339e+01    0.6055761    0.3242224 -70.65  0.003116309    1.853    0.460
         6  -7.6595    124.2839    202.3061   8.1562802350e+01   1.7737345474e+01    0.1201627   0.08891853   0.40 0.0002394311    1.562    0.360
         7 -13.1187      8.6920    207.5500   1.0872200875e+02   3.0007098163e+01     1.456823    0.8493593 -69.59  0.007987575    2.017    0.504
         8 -11.6451     24.3392    197.1733   1.0473082499e+02   3.0713159043e+01    0.4078905    0.3987836   9.59  0.000944587    1.330    0.248
         9 -14.0744     35.0826    188.1912   1.0162701078e+02   3.1543685050e+01     8.260505     2.598114  71.53    0.0264465    5.520    0.819
        10 -10.7456      2.1562    164.3687   1.0912692970e+02   3.9499365990e+01    0.7609792    0.1287409 -84.40  0.002377106    5.583    0.821
        11 -10.5775      2.3870    180.5290   1.0951134340e+02   3.5954802528e+01    0.3381995    0.2363435  11.10   0.00215272    1.702    0.412
        12 -10.6127      2.0107    190.0373   1.0983493248e+02   3.3998994989e+01    0.5105041    0.2027026 -88.37  0.002610372    2.465    0.594
        13 -11.0197      6.4158    187.8322   1.0871642889e+02   3.4123192411e+01    0.4534876    0.2587826  51.69  0.002421224    1.357    0.263
        14  -7.4427     99.3226    181.3048   8.4674979364e+01   2.5120127321e+01    0.1290146   0.09936285  -4.89 0.0007031717    1.638    0.390
        15  -9.1838    238.1499    175.8545   5.5776440078e+01   5.4615767207e+00    0.1650754      0.10742  -0.09 0.0007776569    1.354    0.261
        16 -10.3941     60.5406    167.4514   9.3207098733e+01   3.3245362385e+01      0.32901    0.2815117 -15.81  0.001084634    1.479    0.324
        17  -8.0757    103.3280    172.3226   8.2434596818e+01   2.6326417201e+01    0.1348644    0.1025306  -7.22 0.0002997561    1.692    0.409
        18 -10.6932     54.8263    172.5419   9.5274965447e+01   3.2796666861e+01    0.4269147    0.3023003 -24.67  0.002242034    2.044    0.511
        19  -8.7804    110.7114    167.9084   7.9905912392e+01   2.6087470418e+01    0.2467392    0.1787764  40.87 0.0004482042    1.240    0.194
        20 -14.1261      9.1017    243.1961   1.0945691243e+02   2.3631031068e+01     5.437721     1.703404  15.90   0.01927717    6.587    0.848
        21 -12.5523     68.4062    144.7188   8.8147664871e+01   3.7475093446e+01     2.061841     1.019912  70.68  0.007329457    3.409    0.707
        22 -10.2943     71.4619    158.7544   8.9138369799e+01   3.3804755894e+01    0.3418967    0.3032721 -51.89 0.0006883793    1.275    0.216
        23 -11.4716     78.8574    152.8378   8.6225724943e+01   3.4125444438e+01    0.8679014    0.6368796 -22.01  0.002406923    1.866    0.464
        24 -12.9527     54.5433    234.3611   9.9850815405e+01   2.0851360069e+01     1.803017     1.098599  23.20  0.006528974    1.546    0.353
        25 -11.8692     58.0205    154.1870   9.2462564613e+01   3.6586041079e+01    0.5226403    0.3460254 -36.59  0.001295464    2.008    0.502
        26  -8.2087     72.5082    204.0116   9.3668950584e+01   2.4248122596e+01    0.1699813    0.1212083 -81.39  0.001045004    1.664    0.399
        27  -9.4660     96.0526    139.0334   7.9013448490e+01   3.4626909146e+01    0.5467659    0.3488067 -17.22  0.002201123    2.716    0.632
        28 -10.5259     82.5996    138.0963   8.2822297993e+01   3.6985355815e+01    0.2936129    0.2770952 -53.33 0.0004289112    1.143    0.125
        29  -9.4258    106.5482    130.4748   7.4341427888e+01   3.4753197864e+01     0.380799    0.3316551   1.08  0.001074165    1.302    0.232
        30  -7.8427    114.6622    123.7019   7.0604516379e+01   3.4760620080e+01    0.1509839    0.1174065  -1.44 0.0007033132    1.658    0.397
        31  -8.2005    105.0586    118.6440   7.2228429331e+01   3.7684753778e+01    0.2074333    0.1809784  34.14 0.0004063439    1.125    0.111
        32  -8.3505    231.0426    114.0879   4.4746870093e+01   1.4252875308e+01    0.1929396    0.1597021 -19.07  0.001012732    1.020    0.020
        33  -9.7243     53.1525    112.8140   8.8272382764e+01   4.7403505198e+01    0.3552168    0.1409984 -55.70  0.001349861    2.410    0.585
        34  -8.2194    205.5317    110.4902   4.7722722577e+01   1.9252883499e+01    0.2179828    0.1158317  37.31 0.0007775212    2.107    0.525
        35  -8.6296     94.3913    110.3132   7.3583414760e+01   4.1573577202e+01    0.3966378    0.1951755  48.78  0.001514048    2.157    0.536
        36  -8.3256     59.6896    108.3066   8.5073177710e+01   4.7688518140e+01    0.1534048    0.1061755  64.96 0.0005212278    1.616    0.381
        37  -8.1472     67.0336    104.0107   8.1513674274e+01   4.7712251019e+01    0.1829624    0.1684457  44.49 0.0007555979    1.079    0.073
        38  -9.0650     52.4150    104.2237   8.7024409834e+01   4.9707846610e+01    0.2102194     0.136122 -83.02 0.0009542492    1.699    0.412
        39  -8.4364     53.3209     91.6462   8.4127279558e+01   5.2831618136e+01    0.1581536    0.1075224  67.89 0.0006337759    1.753    0.430
        40  -8.1257     42.0028     89.0181   8.8306579899e+01   5.4928152323e+01    0.1707042    0.1652246  61.48 0.0004608741    1.058    0.054
        41  -8.5265    162.8212     85.3564   4.8977677105e+01   3.2115592937e+01    0.2135086    0.1310423  42.73 0.0009456247    1.721    0.419
        42 -10.8555      2.0112     60.9408   1.0310413754e+02   6.5334419991e+01    0.8225444    0.1671513 -81.36   0.00240409    4.718    0.788
        43 -10.5172      2.0895     49.6666   1.0158133422e+02   6.8224842677e+01    0.5163917    0.1530323 -75.65  0.001936724    2.858    0.650
        44  -9.5613     13.3175     60.2172   9.6749038569e+01   6.4990683283e+01     0.253208    0.2111155 -64.56 0.0006347217    1.073    0.068
        45 -12.3264    207.9060     48.2347   3.1850677099e+01   2.7362842220e+01     1.207495    0.7120481  38.92  0.005828672    2.216    0.549
        46  -9.7663     79.8104    242.1999   9.5092991653e+01   1.6839715336e+01    0.3549986    0.2364572  56.41  0.002413955    1.498    0.332
        47  -8.7740     29.3872    218.7344   1.0450162646e+02   2.6099534477e+01    0.2719424    0.1209429  33.21  0.001535822    1.690    0.408
        48  -7.4757     26.5006     51.5847   8.7193696128e+01   6.6177939373e+01    0.1366229    0.1264267 -47.19 0.0001369876    1.019    0.019
        49 -10.0004    128.0591    230.2290   8.4083029112e+01   1.2858842108e+01    0.2736523    0.2210056   9.60  0.001971146    1.223    0.182
        50 -11.1417     15.8957    249.0100   1.0826449086e+02   2.2116625281e+01     0.248839    0.1643022  50.53 0.0009784795    1.108    0.097
        51  -8.3116    198.0203     23.7232   2.6175247156e+01   3.2427134617e+01    0.1840373    0.1634724 -53.85 0.0006291547    1.013    0.013
