#   1 NUMBER                 Running object number                                     
#   2 MAG_AUTO               Kron-like elliptical aperture magnitude                    [mag]
#   3 X_IMAGE                Object position along x                                    [pixel]
#   4 Y_IMAGE                Object position along y                                    [pixel]
#   5 X_WORLD                Barycenter position along world x axis                     [deg]
#   6 Y_WORLD                Barycenter position along world y axis                     [deg]
#   7 A_WORLD                Profile RMS along major axis (world units)                 [deg]
#   8 B_WORLD                Profile RMS along minor axis (world units)                 [deg]
#   9 THETA_WORLD            Position angle (CCW/world-x)                               [deg]
#  10 FWHM_WORLD             FWHM assuming a gaussian core                              [deg]
#  11 ELONGATION             A_IMAGE/B_IMAGE                                           
#  12 ELLIPTICITY            1 - B_IMAGE/A_IMAGE                                       
         1 -10.8353     57.5275     47.9973   8.9800542699e+01   6.1185415477e+01     2.090279     1.153761  58.64  0.009190884    2.589    0.614
         2 -12.7964     13.5496    106.3857   1.1632112658e+02   5.2527035259e+01     2.447542    0.7466605 -57.89   0.01064999    3.314    0.698
         3 -12.4333     60.7083      5.6980   6.9054999442e+01   6.8651589020e+01     1.535447     1.110657  34.46  0.004582619    1.477    0.323
         4 -13.4138    114.6153     66.2197   7.6980666653e+01   4.6761919513e+01     2.345822     1.792431  30.29  0.002172884    1.558    0.358
         5 -11.4527     13.8195     36.7292   1.0612338451e+02   6.8445464498e+01     1.222131    0.6097937 -50.90  0.005093125    1.738    0.425
         6 -12.1567     32.3627     43.4272   9.9088172527e+01   6.5334143933e+01     0.819532    0.5978667 -31.45  0.004851587    1.594    0.373
         7 -12.4939     87.7842     56.3693   8.1730805308e+01   5.4278221385e+01     1.790241     1.525306 -33.92   0.00672809    1.232    0.189
         8 -11.7375    102.7470     54.3200   7.6366270599e+01   5.1650554277e+01     1.257019    0.8965586   3.33  0.005457418    2.283    0.562
         9 -11.3346     24.9990     22.3245   9.5633426222e+01   7.0694098746e+01     1.178494    0.3402181 -46.16  0.004590897    3.083    0.676
        10 -13.1893     70.3859     31.0506   7.8149390344e+01   6.2543006713e+01     3.623095     1.742417  47.37   0.01576699    2.285    0.562
        11 -11.7029     19.6386     13.7310   9.5155095549e+01   7.3001589770e+01    0.6033239    0.3767155  22.62  0.003574926    1.940    0.485
        12 -12.1188     25.3265      6.4179   8.7972581430e+01   7.3878130220e+01    0.7156494    0.3066006 -48.86  0.003492692    1.925    0.480
        13 -12.4565     44.0575     14.4753   8.1797750871e+01   6.9949594343e+01     1.906198     1.163816 -63.67  0.009184776    2.304    0.566
        14 -11.3825    155.2862     43.1735   5.9595578589e+01   4.0729255131e+01     1.410003    0.7852546 -32.06  0.005833501    1.755    0.430
        15 -12.3190     99.6642      6.4890   5.6541771500e+01   6.0077151576e+01     1.855971     1.014996  56.39  0.006779836    1.792    0.442
        16 -11.8319     30.4749     24.4269   9.3510269087e+01   6.9685967461e+01     1.209439    0.4233823 -49.94  0.005240945    2.313    0.568
        17 -13.6653      6.7600      9.7163   1.0178426485e+02   7.4852206395e+01      1.43316    0.8521103 -44.11  0.006913904    1.451    0.311
        18 -11.3995    192.7219     32.3404   4.9930215228e+01   3.2119590310e+01    0.5364843    0.4051152  14.68 0.0003967168    1.532    0.347
        19 -12.1853      8.7238     26.1656   1.0604400184e+02   7.1153263541e+01    0.7302918    0.4066845  -0.64   0.00402109    2.547    0.607
        20 -10.2666    125.5457     15.5605   5.4803269429e+01   5.2394038218e+01    0.9213794    0.4645178  -9.14    0.0015175    2.643    0.622
        21 -11.3276    119.1127     12.6814   5.4899645587e+01   5.4429157710e+01     1.281393    0.6619804  40.36  0.004201647    2.136    0.532
        22 -10.3693    132.0692     13.5136   5.2605121309e+01   5.0900759719e+01    0.5385809    0.3924037 -76.21    0.0015808    1.642    0.391
        23 -10.2427    110.4198     17.6080   5.9198116096e+01   5.6011557419e+01    0.2984332    0.2775438 -64.80  0.000740419    1.155    0.134
        24 -11.8593    113.9837     24.0075   6.1175908747e+01   5.4230311148e+01    0.9241335    0.5784866  58.37  0.004186894    1.617    0.381
        25 -10.1242    239.4101     17.0930   4.0577858425e+01   2.1851788188e+01     1.338958          nan -31.09  0.003621881    4.962    0.798
        26 -10.2067    243.5475     12.3430   3.8974434709e+01   2.1313534046e+01    0.4300666    0.2965352   5.01   0.00139287    1.666    0.400
        27  -9.8554    243.9193      4.8455   3.6927334019e+01   2.1889747495e+01    0.4225899    0.2053984  -9.48  0.001613322    2.262    0.558
        28  -9.6396    248.0937      1.5175   3.5782679613e+01   2.1199933641e+01    0.2830132    0.2299851  81.38   0.00148919    1.333    0.250
        29  -9.4342    186.4444     22.3033   4.7460577554e+01   3.4952981805e+01     1.454638    0.4117563 -29.09  0.004690098    2.986    0.665
        30 -10.7161    176.5936     20.3762   4.8089608984e+01   3.7865220203e+01    0.6873981    0.5174673 -10.98  0.003092291    1.409    0.290
        31 -11.3145    164.5744      5.7630   4.4383437723e+01   4.2717380289e+01     1.351248    0.7879079  61.43  0.005919957    1.636    0.389
        32 -11.2943    163.7644     15.2011   4.8012882672e+01   4.1987584380e+01     1.969887    0.8181278  30.41  0.005579946    4.404    0.773
        33 -10.7694    176.8057     15.0321   4.6193657208e+01   3.8381184540e+01    0.3744473    0.2416507  69.83 0.0002944313    1.540    0.351
        34  -9.9241    147.7291     11.2977   4.8934262409e+01   4.6865353056e+01    0.3957645    0.3363205  13.06  0.001116386    1.261    0.207
        35 -10.1851    170.5826     14.1507   4.6688046230e+01   4.0201297348e+01    0.6180663    0.3006342 -65.04  0.001993595    2.917    0.657
        36  -9.9080    173.2505     10.6427   4.5083865293e+01   3.9816754930e+01      0.46083     0.323728  48.69  0.001631788    1.451    0.311
        37 -10.0371    153.8552     17.7926   5.0500609339e+01   4.4449626475e+01    0.4328684    0.2504512  39.15 0.0002884728    1.929    0.482
        38 -10.9605    149.7992     16.1587   5.0528306329e+01   4.5756600178e+01     0.974376    0.4188828  42.29   0.00254752    2.676    0.626
        39 -10.2076    231.6128     19.2017   4.1802981683e+01   2.3528204941e+01    0.4944432     0.389746 -29.88  0.002754349    1.152    0.132
        40 -10.7687    232.9132     10.5754   3.9270322779e+01   2.4019905195e+01    0.4540087    0.3034397 -12.95   0.00132619    1.502    0.334
        41  -9.9399    211.0560     17.3760   4.3145841602e+01   2.8895804972e+01    0.4275439    0.2988198  60.73  0.001248681    1.468    0.319
        42  -9.8593    204.8337     16.5347   4.3506768459e+01   3.0612713269e+01    0.4868021    0.3638606  13.57  0.002417081    1.543    0.352
        43 -10.2462    212.8504     11.8625   4.1300673835e+01   2.8963427176e+01    0.6905047    0.3518285  77.75  0.002940836    2.092    0.522
        44  -9.9347    221.7178     12.0184   4.0576743141e+01   2.6672581963e+01     0.436067    0.2757695 -42.45  0.001706731    1.464    0.317
        45  -9.4684    226.0763      8.6079   3.9233764915e+01   2.5888620112e+01    0.3690915    0.2042555  14.10  0.001532168    2.515    0.602
        46  -9.8572     31.3663     12.1582   8.7425718365e+01   7.2073506155e+01    0.2925405    0.1670353 -45.41  0.001193147    1.470    0.320
        47 -10.5932     86.3220      7.9199   6.1070557142e+01   6.3034172337e+01    0.5036975    0.3872954  26.46  0.002299818    1.376    0.273
        48  -8.7330     82.7702      2.7792   5.9327649704e+01   6.4486972488e+01    0.4177561    0.2145739 -51.16  0.001679086    2.671    0.626
        49  -8.6081     76.8098      9.8270   6.5239782071e+01   6.4846503049e+01    0.4168907    0.2670751  21.67  0.001638561    2.008    0.502
        50  -9.4861     77.4956      5.1140   6.2365993301e+01   6.5350935243e+01    0.3001108    0.1867458 -16.34 0.0009939059    1.681    0.405
        51 -10.0280    200.2638      7.7237   4.1169488964e+01   3.2679230586e+01    0.7060689    0.2919705 -15.75  0.002613134    2.548    0.608
        52 -10.0460    199.6860      4.3441   4.0140636532e+01   3.3141347359e+01    0.5391467    0.3664015  83.25  0.002137661    1.511    0.338
        53  -9.7739    133.3453      4.7600   4.8584452731e+01   5.1502451813e+01      1.01084    0.5785716 -74.22  0.003965262    2.405    0.584
        54 -10.2666    138.9123      4.4677   4.7531222844e+01   5.0003630284e+01    0.3955905    0.3229516 -80.99  0.001339644    1.321    0.243
        55 -10.4974    139.0212      1.4379   4.6223418200e+01   5.0262389335e+01    0.3627322    0.1966038  86.89 0.0003290301    2.202    0.546
        56  -9.1814    250.0277      7.6077   3.7271958250e+01   2.0232429498e+01    0.2953385    0.1601737 -54.01  0.001112659    1.829    0.453
        57 -10.2214    217.6149      5.4220   3.8962115680e+01   2.8321138741e+01    0.3915054    0.2562776  26.48  0.001092767    1.867    0.464
        58 -10.5515    209.5786      4.1374   3.9222366736e+01   3.0525677806e+01     0.507645    0.3836035 -60.76  0.001983383    1.312    0.238
        59  -9.3754    189.8995      6.1182   4.1653107634e+01   3.5640893347e+01    0.4388576    0.2162818 -37.22  0.001813368    1.889    0.471
        60 -10.4375    182.2768      4.9392   4.2038676686e+01   3.7850535019e+01    0.5953224    0.4117279  79.33  0.002240219    1.457    0.314
        61  -9.0500    175.9364      3.7914   4.2320962007e+01   3.9718775884e+01    0.3278883    0.1523197  57.91 0.0008849788    2.041    0.510
        62 -11.2959     31.1613     72.2588   1.0622388468e+02   5.8819681091e+01    0.6953693    0.3776361 -53.31  0.002297949    1.760    0.432
        63 -10.5632    235.2922    249.4341   8.8718710798e+01  -7.9693552473e-01    0.3238177    0.1044623  41.93  0.001913184    2.259    0.557
        64  -9.3862    183.4029    249.8551   9.6248736929e+01   6.0413243667e+00    0.1829505   0.08268549  38.44  0.001217376    1.509    0.337
        65  -8.7030    162.3479    250.3124   9.9484889891e+01   8.8617600787e+00   0.09942226   0.06043467  25.68 0.0007046259    1.716    0.417
        66  -9.1466    124.9743    249.8372   1.0525655811e+02   1.3936247085e+01     0.161163   0.09416551  27.02  0.001084193    2.109    0.526
        67 -11.6493     67.8631     74.5766   9.3761825607e+01   5.3746281190e+01    0.8858266    0.4923263 -58.59  0.002100203    1.658    0.397
        68 -12.5068     55.7340     66.0546   9.5815769835e+01   5.7416840289e+01     1.247123    0.7791047 -62.65   0.00651173    1.442    0.307
        69 -11.8088     40.3700     65.6259   1.0143450032e+02   5.9407778866e+01    0.7633356    0.6861545 -40.34  0.005006093    1.278    0.217
        70 -11.4930     23.3919     51.5606   1.0516014708e+02   6.4316800705e+01    0.6289106    0.3650478  85.44  0.002625462    2.021    0.505
        71 -10.1829     14.5328    237.1625   1.2222510393e+02   2.8381266214e+01    0.1899227    0.1226112  81.53  0.001137487    1.433    0.302
        72 -11.3263     36.6588     27.1062   9.1408195547e+01   6.8420613540e+01    0.2702169    0.2122572 -41.21 0.0003398402    1.165    0.141
        73  -8.9356    184.3156    236.3230   9.4632437733e+01   7.1760600886e+00    0.1030453   0.06244529  23.33 0.0007042153    1.663    0.399
        74  -8.7974     20.9888    232.2933   1.2105618295e+02   2.8469297563e+01    0.1315751   0.08200361  53.29  0.000483759    1.095    0.086
        75  -9.1922     12.6800    231.9637   1.2238426273e+02   2.9306109043e+01    0.2077087   0.05712651  49.08   0.00132566    2.006    0.501
        76  -9.1848    219.1953    230.8529   8.8711673142e+01   2.7608157170e+00    0.1543253    0.1095566  38.86   0.00053811    1.264    0.209
        77  -9.2637    202.1164    228.9716   9.1028556606e+01   5.3320252986e+00    0.1567343     0.109267  32.39  0.000411017    1.015    0.015
        78  -8.7230    137.2066    224.4249   1.0095558153e+02   1.5262175420e+01    0.1505328   0.07449768  47.95 0.0005649762    1.525    0.344
        79 -12.4751     48.9419     39.2701   9.0329872309e+01   6.4277823833e+01    0.5020198    0.4154952  70.05  0.000468309    1.439    0.305
        80 -11.8937     56.6977     37.6464   8.6408284127e+01   6.3507879727e+01    0.4505894    0.3659479  -3.05  0.001025513    1.559    0.359
        81  -9.6239     66.2600    138.9644   1.0569386324e+02   3.9807856579e+01    0.1714691    0.1443285  79.56 0.0005290898    1.055    0.052
        82  -9.1945     55.2077    136.7791   1.0816337681e+02   4.1688487082e+01    0.2169387     0.167013 -65.33 0.0006301292    1.403    0.287
        83 -10.6828     52.4700    132.7968   1.0839896371e+02   4.2861591183e+01    0.3918548    0.2326177  38.43  0.002247847    1.681    0.405
        84  -8.7471     41.5584    135.7329   1.1145869925e+02   4.3506991238e+01    0.1529883   0.09587201  86.12 0.0004342701    1.427    0.299
        85  -9.0819    236.9682    135.4930   7.0272812606e+01   9.2413480877e+00    0.1891611     0.113423  46.65  0.001040356    1.617    0.382
        86 -11.3289     19.0677     71.5200   1.1056999945e+02   6.0042359419e+01      0.47456    0.2994742  88.46  0.001294258    1.446    0.308
        87 -11.1982     60.2439    120.3794   1.0478794752e+02   4.4548717663e+01     0.421543    0.3102671  65.19  0.002564847    1.228    0.186
        88 -11.7200     67.6121    123.0376   1.0320611368e+02   4.2980994418e+01      0.98265    0.4574705 -51.27  0.004537295    2.490    0.598
        89 -12.4836     43.7148     95.1811   1.0583642002e+02   5.2210528271e+01     1.786263    0.9070645  55.64   0.00572012    2.071    0.517
        90  -9.8915     73.0319    129.5490   1.0274698621e+02   4.0832669804e+01    0.2222833    0.1707906 -76.80 0.0003910671    1.249    0.199
        91 -10.3440     56.1032    125.9953   1.0664096307e+02   4.3864271652e+01    0.3484788    0.1951227 -68.36 0.0009627794    1.686    0.407
        92  -8.8105     81.4019    124.3883   9.9818386387e+01   4.0684005504e+01    0.1725695    0.1558336 -23.87 0.0008057297    1.539    0.350
        93 -10.5352     91.0227    122.3224   9.7004704548e+01   3.9597603410e+01    0.5260367     0.382433 -82.80  0.002152274    1.443    0.307
        94  -9.2988     94.5424    120.3941   9.5762832892e+01   3.9417484250e+01    0.2210963    0.1948859  70.22 -2.283153e-05    1.018    0.018
        95 -11.4425     75.5601    120.0503   1.0064489085e+02   4.2485612047e+01    0.2438225    0.2025219  59.38  0.001507837    1.119    0.106
        96 -10.3731     19.5400    118.6289   1.1565536593e+02   4.9346099118e+01    0.3475392    0.2413337 -73.35  0.001604649    1.343    0.255
        97  -9.8131    105.1981    117.6151   9.2538465201e+01   3.8144670451e+01    0.4356203    0.2524439  64.52  0.001959985    2.091    0.522
        98 -10.0171    116.1294    116.4805   8.9602300905e+01   3.6360669770e+01    0.2399748    0.2235017 -87.34 0.0001883727    1.069    0.064
        99  -9.0676     41.1862    221.2306   1.1726662147e+02   2.8054484060e+01     0.127118    0.1018065 -27.05 0.0009427635    2.746    0.636
       100  -9.8819    107.7553    110.7882   9.0500982744e+01   3.9077842655e+01    0.4926276    0.1557447 -51.74  0.001727544    3.250    0.692
       101  -9.5997     99.3555    113.2015   9.3156036997e+01   4.0092003672e+01    0.3135757    0.2358902 -73.56  0.001588802    1.377    0.274
       102  -9.4657     63.7429    113.6194   1.0282784592e+02   4.5562520222e+01    0.2416421    0.1539425  41.08 0.0008585152    1.581    0.367
       103 -10.2403     58.7300    112.8663   1.0411040252e+02   4.6395507379e+01    0.3782696    0.2931789 -37.63  0.002221912    1.782    0.439
       104  -9.8977     63.3625    107.2061   1.0189870635e+02   4.7035210925e+01    0.3635438    0.1641399 -57.28 0.0009238384    2.125    0.529
       105  -9.6903     62.0631    102.9732   1.0155601958e+02   4.8158822291e+01    0.2155496    0.1970143  79.95  0.001392102    1.100    0.091
       106  -8.9558     91.3697    112.8398   9.5177960673e+01   4.1537333282e+01    0.2967987    0.1555768  56.25  0.001330051    2.029    0.507
       107  -9.1508    128.1558    111.3511   8.5599661709e+01   3.5015784924e+01    0.2946831    0.1236109  40.08  0.001101991    2.578    0.612
       108  -9.1461    133.6369    110.2528   8.4062485421e+01   3.4109075913e+01    0.1875795     0.134432 -36.22 0.0004195447    1.592    0.372
       109 -10.6845     69.2737    105.3042   9.9872996053e+01   4.6628498296e+01    0.6141162    0.3120508 -39.26  0.002454977    3.364    0.703
       110 -10.7483     76.8930    101.8386   9.7033528622e+01   4.6258113411e+01    0.4301102    0.3527713  48.32  0.001825757    1.242    0.195
       111  -9.6813    149.0848    107.2387   7.9861649705e+01   3.1400261794e+01     0.383419     0.212094 -36.91  0.001677803    1.991    0.498
       112  -8.5747    104.1044    109.1540   9.1094631610e+01   4.0085392026e+01    0.1906599    0.1506016  73.28 0.0008037595    1.298    0.229
       113  -9.8451    113.3537    107.2342   8.8308609970e+01   3.8747925057e+01    0.3317428    0.2459042  88.96  0.001674895    1.629    0.386
       114  -9.4170     74.6477    107.1703   9.8683181269e+01   4.5424237975e+01    0.2397943    0.1901607  37.37  0.001027011    1.402    0.287
       115  -9.9678    133.7822    102.8009   8.2275040874e+01   3.5494271033e+01    0.3427533    0.2204528 -52.48  0.001056681    1.658    0.397
       116 -11.1643    141.5085    101.8813   8.0256446957e+01   3.4014457165e+01    0.4190288    0.2919708  32.81 0.0003014019    1.642    0.391
       117  -9.4679    146.6950     99.6646   7.8532489923e+01   3.3286471996e+01     0.222974    0.2018024  -8.55 0.0004708683    1.252    0.202
       118  -8.4560     96.3756    103.2305   9.1878351688e+01   4.2719971473e+01    0.1291149    0.1090334  13.59 0.0006897182    1.609    0.378
       119  -9.3477     39.4716    102.9277   1.0826991946e+02   5.0914008304e+01    0.2356988    0.1790457  20.68 0.0007817842    1.738    0.425
       120 -10.7790      4.4111     98.5145   1.1840270585e+02   5.4931671988e+01    0.6636628    0.2497569 -84.85  0.003283988    2.201    0.546
       121 -10.6668      4.3547     87.5110   1.1754392125e+02   5.7401542038e+01     0.622367    0.3188808 -67.80  0.002612537    1.659    0.397
       122 -10.7963    110.8724    100.6333   8.7440437350e+01   4.0574652097e+01     0.237156     0.216598 -69.07 0.0002573199    1.091    0.083
       123 -11.3986     56.1332     82.2739   9.9460870853e+01   5.3656762571e+01       1.7169     1.127995 -14.50  0.007667133    3.102    0.678
       124  -9.5782     87.7971     97.4304   9.2996888061e+01   4.5457154517e+01    0.2983974    0.2218069  53.51  0.001311038    1.321    0.243
       125  -9.5225     63.7294     98.3122   1.0022633023e+02   4.8978576996e+01    0.3890651     0.151109  45.96  0.001631851    2.549    0.608
       126 -10.2612    156.4194     95.5803   7.5362445589e+01   3.1830666016e+01    0.4462983    0.3597892   3.47  0.001857779    1.543    0.352
       127  -8.8034    151.9783     96.2118   7.6484549739e+01   3.2726236279e+01    0.3328449    0.1752948  64.89  0.001252805    2.553    0.608
       128 -10.7481    115.7804     95.1480   8.4843125309e+01   4.0724389067e+01    0.5999626    0.3477184  56.48  0.001638212    1.816    0.449
       129 -11.1921    124.0443     91.9578   8.1924409964e+01   3.9655561095e+01    0.5784529      0.52728  38.21  0.002692973    1.163    0.140
       130  -9.8156     81.9635     97.1447   9.4609194375e+01   4.6489304823e+01    0.2619476     0.184784  47.02 0.0003242389    1.416    0.294
       131  -9.9199    104.9175     92.1521   8.6983873339e+01   4.3483848898e+01    0.4110886    0.2766097  21.27  0.001807519    2.345    0.574
       132 -10.2842    107.3783     86.1226   8.4766914591e+01   4.4258876945e+01    0.5436473     0.357693 -23.78  0.001398507    2.421    0.587
       133 -10.0503     74.5630     89.8003   9.5215511734e+01   4.9297697840e+01    0.7452478    0.2334205  48.98  0.002544125    3.637    0.725
       134 -10.6101     87.9214     89.8532   9.1230552977e+01   4.7087517292e+01    0.4972076    0.2734234 -58.93  0.001027153    1.799    0.444
       135 -10.7090     83.2185     89.9866   9.2649365873e+01   4.7858879538e+01    0.3638642     0.244794  34.80   0.00108743    1.702    0.412
       136 -10.2908     91.4743     87.7282   8.9678294052e+01   4.6923631645e+01    0.4281699    0.2887485 -84.89  0.001476176    1.922    0.480
       137  -8.6932    187.7828     89.8138   6.7692402835e+01   2.5487108067e+01    0.1858884    0.1679121 -73.28 0.0003437483    1.284    0.221
       138  -8.4916    213.4268     89.2038   6.3261741258e+01   1.9678912260e+01    0.1992639    0.1234838 -37.54 0.0009472635    1.629    0.386
       139  -8.5222    194.0142     89.4786   6.6507708287e+01   2.4084176989e+01    0.2109481      0.13785  51.81 0.0004100093    1.501    0.334
       140  -9.7913    145.5827     87.5336   7.5596548214e+01   3.5736489564e+01    0.3842733    0.2770478  25.75  0.001022347    1.748    0.428
       141  -9.7044    146.8457     82.1618   7.3813406382e+01   3.6410619556e+01    0.5048541    0.2096083 -28.29  0.001352885    3.582    0.721
       142 -10.7821    144.1487     76.2480   7.2709087908e+01   3.8102744873e+01    0.8936402     0.378796  42.50            0    2.654    0.623
       143 -10.2002    132.8942     80.1509   7.6498274215e+01   3.9997030907e+01    0.6404517    0.2080014  49.22  0.002089564    3.008    0.668
       144  -9.4505    155.5877     85.7950   7.2915648571e+01   3.3721731388e+01    0.2878587    0.2139542  28.24 0.0009859088    1.570    0.363
       145  -9.2687     83.0833     84.6867   9.1426731989e+01   4.9048598542e+01    0.2618502    0.1977755 -50.12   0.00122238    1.334    0.251
       146  -9.2132     75.7131     84.0292   9.3538834289e+01   5.0405928661e+01    0.2274952    0.1770417  63.59 0.0006210033    1.319    0.242
       147 -10.9561     38.3690     78.9462   1.0485937286e+02   5.6539027603e+01    0.6473334    0.3856955  79.07  0.003325608    1.905    0.475
       148  -9.9562     45.5845     78.1917   1.0220457490e+02   5.5908835098e+01    0.3275346    0.2848271 -59.90  0.001776036    1.177    0.150
       149 -10.2026    162.4995     81.3705   7.0228832509e+01   3.2832466362e+01    0.7098775    0.2373201  51.27   0.00236542    2.833    0.647
       150 -10.4127    118.9109     86.5793   8.1811076430e+01   4.1805928123e+01    0.3289397    0.2605206  53.64  0.001093182    1.244    0.196
       151  -9.8342    188.4195     78.0880   6.4402467093e+01   2.7075735123e+01    0.4133578    0.2242436  42.75  0.001471791    1.915    0.478
       152  -9.6905      4.8994     77.1277   1.1639460056e+02   5.9727159032e+01    0.2690554    0.1625571  73.01  0.001063266    1.508    0.337
       153  -9.9828      3.4021     73.4047   1.1654936950e+02   6.0666255260e+01    0.4664024    0.1874195 -45.87  0.002161015    3.054    0.673
       154  -9.3996    214.3756     76.1504   5.9714873028e+01   2.1166839200e+01    0.3128628    0.2668853  11.28  0.001737443    1.181    0.153
       155  -9.6629    152.7493     75.7186   7.0645762515e+01   3.6138125677e+01    0.5143861    0.3258017  24.68  0.002069001    2.297    0.565
       156  -9.8688    248.2007     76.2063   5.5227376292e+01   1.3680678654e+01    0.1858715    0.1463144 -41.71 0.0006782827    1.347    0.258
       157  -9.4864    131.9885     74.7442   7.5131289224e+01   4.1218925203e+01    0.3378749    0.2483326 -50.11  0.001528945    1.389    0.280
       158 -11.2346    140.1792     69.9110   7.1705037757e+01   4.0180026735e+01     0.819761    0.4926428  53.69   0.00296924    1.650    0.394
       159  -9.6949    131.6544     67.1291   7.2866311160e+01   4.2706292363e+01    0.3491207    0.2053277  45.25 0.0007910742    1.750    0.428
       160 -11.1886    150.3447     67.1364   6.8562044728e+01   3.8191420619e+01     1.247507    0.4983771 -33.76  0.004369241    2.571    0.611
       161 -10.7395    142.4088     43.2167   6.2226453997e+01   4.4097780570e+01     1.081469    0.4784301 -19.73  0.003345486    3.201    0.688
       162 -10.0799    136.3889     41.9722   6.3087801090e+01   4.5842671906e+01    0.4308354    0.3006431 -79.58  0.001848559    1.942    0.485
       163  -9.8413    160.6486     50.2134   6.0974424089e+01   3.8276369769e+01    0.4412794    0.3179971  70.17  0.001459674    1.485    0.327
       164  -8.5094    224.6978    215.3526   8.5829505600e+01   3.2983753533e+00   0.09044297   0.07806732  53.19 0.0007039252    1.702    0.413
       165 -10.8067    165.9990     69.3519   6.6014199258e+01   3.3938160893e+01    0.5725809    0.3461925 -24.82  0.002440941    1.810    0.448
       166 -11.3431    165.4803     58.9685   6.2903371283e+01   3.5695751972e+01     1.086952    0.4922644 -31.99  0.002248657    2.177    0.541
       167 -10.6938    147.7449     34.7723   5.8032240838e+01   4.3939786346e+01    0.8099189     0.311993  63.60  0.002530927    2.676    0.626
       168 -10.2267    155.9860     31.1686   5.5163786168e+01   4.2213271584e+01    0.4159659    0.2947764  -1.69  0.001771251    1.684    0.406
       169 -10.4863    143.7848     58.0359   6.7072714566e+01   4.1356549595e+01     0.394242    0.2758148  61.01  0.001541239    1.463    0.316
       170 -11.9367    147.5077     53.5519   6.4756164063e+01   4.1154479245e+01    0.4919428    0.3801609  41.99 3.254889e-05    1.344    0.256
       171 -10.3562    144.9760     48.9902   6.3729590067e+01   4.2532212688e+01    0.3871434    0.3371619  30.80 0.0003154902    1.226    0.184
       172  -9.5297    176.4233     68.1870   6.3692495352e+01   3.1511104638e+01     0.357969    0.2381278 -53.47 0.0009855075    1.733    0.423
       173  -8.6324    170.9213     70.2982   6.5346066803e+01   3.2561399055e+01     0.214184    0.1885906  48.99 0.0005535895    1.125    0.111
       174  -9.8805     25.0896     66.5702   1.0747760897e+02   6.0695875655e+01    0.3345491    0.1438202 -66.18    0.0014213    1.877    0.467
       175 -11.0912     19.1334     61.0606   1.0883568178e+02   6.2464100601e+01    0.5521404    0.3936483  13.70  0.003343038    1.844    0.458
       176  -9.4721     26.9638    212.5081   1.1935902447e+02   3.0887688883e+01    0.1485627   0.07328783  41.38  0.001036127    1.600    0.375
       177  -8.8361      7.3298     47.0333   1.1139089050e+02   6.6505026669e+01    0.2002014    0.1172332 -70.86 0.0005219763    1.340    0.254
       178 -10.3378      4.4415     51.6560   1.1343023991e+02   6.5604590986e+01     0.300674    0.1544109 -51.67  0.001066093    1.827    0.453
       179  -9.9647     10.8086     62.9362   1.1246282989e+02   6.2622819097e+01    0.3997651    0.1937979 -68.69  0.001569959    1.625    0.385
       180  -8.4501    238.4996     65.5270   5.3693567940e+01   1.6964860167e+01    0.1382736    0.1223773   1.59 0.0008088403    1.079    0.073
       181  -9.1666    138.2923     59.0947   6.8671797985e+01   4.2538235085e+01    0.3119956    0.2151249  36.05 0.0005511364    1.649    0.394
       182  -9.4587    134.6865     62.8755   7.0765815434e+01   4.2752795487e+01    0.4042973    0.2029052  52.02  0.000980273    1.971    0.493
       183 -10.3885    132.6691     56.0087   6.8956594411e+01   4.4450165597e+01     1.024175    0.6312802   9.31   0.00351424    3.361    0.702
       184  -9.4025    135.3695     50.5474   6.6421230106e+01   4.4713561902e+01    0.3591525    0.2488406 -37.18  0.001529893    1.424    0.298
       185  -9.2039    206.9888     61.1873   5.6670121002e+01   2.4869251218e+01    0.2512746    0.2027724 -23.40 0.0006253645    1.193    0.162
       186  -8.9220    186.8212     61.8182   5.9980086558e+01   2.9822187527e+01     0.206958    0.1705304 -60.52 0.0004342507    1.348    0.258
       187 -11.5850     33.9298     58.9206   1.0242780694e+02   6.1639101244e+01    0.5453994     0.357847 -31.80  0.001625063    2.000    0.500
       188 -10.6252     41.7868     53.9510   9.7986857474e+01   6.1924416229e+01    0.2359925    0.2104611  24.76  0.000508276    1.343    0.255
       189 -11.2220     44.1725     49.8204   9.5828006223e+01   6.2573512385e+01    0.4356507    0.2790032  46.22  0.001712903    1.765    0.433
       190  -9.2710    212.1654     60.1236   5.5636318286e+01   2.3740035871e+01     0.222322    0.1896784  12.87 0.0005450133    1.217    0.179
       191  -9.0110    201.3141     59.9776   5.7155378467e+01   2.6430112891e+01    0.2793148    0.1868061  60.79 0.0009605619    1.540    0.350
       192  -9.3133    192.2388     44.5953   5.3870148884e+01   3.0745934768e+01    0.6858975       0.4265  29.17  0.002873033    1.997    0.499
       193 -10.2993    174.0418     57.3577   6.0815072303e+01   3.3734074308e+01     1.158343    0.5807791   0.09  0.002943168    5.839    0.829
       194  -9.1420    201.9772     48.0487   5.3542217420e+01   2.7795210103e+01    0.2809782    0.2234154  30.93  0.000600397    1.355    0.262
       195  -9.6846    206.6718     46.0637   5.2315248056e+01   2.6845784070e+01    0.3802994    0.1900725  57.54   0.00105901    1.984    0.496
       196 -10.3208    194.8205     53.8323   5.6315254556e+01   2.8879205196e+01    0.8458993    0.5731937  35.59  0.003131459    1.634    0.388
       197 -10.3876    193.8872     49.9174   5.5268767531e+01   2.9632375123e+01    0.5368865    0.3236608  68.68  0.002259461    1.791    0.442
       198 -10.9164    185.4048     55.7981   5.8391537826e+01   3.1027364227e+01     0.439361    0.3891501  24.50  0.000531775    1.181    0.153
       199 -11.4243    183.5208     51.9225   5.7498859244e+01   3.2049734766e+01       0.5362    0.3314002  60.86 0.0004518662    1.629    0.386
       200  -9.0068    233.9635    199.9650   8.2209145126e+01   3.2899497502e+00    0.1735389    0.1302369  -8.12  0.001314398    1.384    0.277
       201 -10.0024    222.6749     56.4212   5.3210700876e+01   2.1662922498e+01    0.4080699    0.3587207  18.96  0.002316253    1.167    0.143
       202  -9.7161    154.4902     50.0717   6.2130727999e+01   3.9903897733e+01    0.4230795     0.250415 -21.60 0.0004202894    1.896    0.473
       203  -9.6083    244.0543     55.7973   5.0526881606e+01   1.6816799764e+01    0.3551777    0.1814081 -27.79  0.001648157    1.711    0.416
       204  -9.4866    118.1237     42.2669   6.7613919318e+01   5.0341308088e+01     0.598525    0.2214563 -37.20  0.002071844    2.579    0.612
       205 -10.8510    120.8281     53.5316   7.1056636237e+01   4.7728599017e+01    0.6106555    0.4861172  38.02  0.002854269    1.352    0.261
       206 -10.5086    116.2602     49.9581   7.0984475566e+01   4.9440805130e+01    0.5620576     0.449317  28.17  0.002791332    1.448    0.309
       207 -10.4924     37.8175     51.0087   9.8835983763e+01   6.3040980198e+01      0.29891     0.228576 -43.85   0.00141609    1.331    0.248
       208  -8.3263    203.4459     56.4421   5.5814782476e+01   2.6358783212e+01    0.1459213    0.1382181   5.98 0.0002823298    1.050    0.047
       209 -10.7364      3.6673     56.9040   1.1450741294e+02   6.4439509358e+01    0.5099719    0.2102969  36.27  0.002666646    2.602    0.616
       210 -10.1239    234.2500     55.0621   5.1437903904e+01   1.9111061247e+01    0.2606134    0.2169758  80.14  0.001470241    1.393    0.282
       211  -9.2579    211.4176     50.6139   5.3022108606e+01   2.5101213945e+01    0.4716642    0.1982397 -14.01  0.001596074    3.093    0.677
       212  -8.9836     77.0238     51.6058   8.3736026990e+01   5.7251769705e+01    0.3163279    0.2043564  52.42 0.0008533786    1.714    0.416
       213  -9.4498     10.0419     52.1352   1.1107508820e+02   6.5166948381e+01     0.210741    0.1467343  37.50 0.0006512862    1.659    0.397
       214 -10.3842    172.3766     46.8732   5.7741818987e+01   3.5673224158e+01    0.5654261    0.3540517 -39.12  0.002487715    1.569    0.363
       215 -10.7399     66.7603     44.3568   8.4909536577e+01   6.0521065963e+01    0.4677246    0.3831387 -51.75  0.002295338    1.113    0.102
       216  -9.7773     75.6590     46.1854   8.2278126304e+01   5.8612821473e+01    0.4013025    0.2892011  31.12  0.001722422    1.647    0.393
       217 -10.2392     76.7131     41.3555   8.0059384383e+01   5.9392335873e+01    0.2786083    0.2604952 -35.32  0.000571127    1.057    0.054
       218  -8.5734    220.5118     46.4986   5.0698133938e+01   2.3348142579e+01     0.265827    0.1328023 -24.63 0.0009078966    1.864    0.463
       219  -9.1542    219.8479     42.8772   4.9744358387e+01   2.3926402398e+01    0.2228398    0.2028994 -22.69 0.0006572402    1.034    0.033
       220  -9.4750    179.1303     44.6959   5.5908483465e+01   3.4183783210e+01    0.2765692    0.2163164 -14.11 0.0003316975    1.344    0.256
       221  -8.9088    128.5174     45.1116   6.6079997090e+01   4.7323734048e+01    0.3646369    0.1989952  76.23  0.001275444    2.896    0.655
       222  -9.2189     27.3971    193.6054   1.1847230779e+02   3.3955469065e+01    0.1812341    0.1338825 -80.95  0.001448773    1.491    0.329
       223 -10.1430    214.8210     40.5526   4.9667082097e+01   2.5441068262e+01    0.5047483    0.3064795 -10.03  0.001311164    1.809    0.447
       224  -9.0018    179.9949     68.5315   6.3149955395e+01   3.0565116010e+01    0.3697423    0.2106758  50.89  0.001522841    1.721    0.419
       225  -8.7686    123.6710     36.3237   6.3897106701e+01   4.9951566709e+01    0.2323332    0.1988768  60.48 0.0006503459    1.189    0.159
       226  -9.6373    130.3451     40.2837   6.3837014301e+01   4.7647622442e+01    0.3308616    0.2708882 -42.20  0.001657308    1.213    0.175
       227  -8.9739    127.0000     39.0160   6.4143480924e+01   4.8691733663e+01    0.2810269    0.2152219  -6.03  0.001274594    1.553    0.356
       228  -9.0769     22.7031     41.1227   1.0292796988e+02   6.6761236423e+01    0.2258234    0.1602094  87.05  0.001107022    1.534    0.348
       229  -8.3496    241.3412     48.2963   4.8846775214e+01   1.8237396343e+01    0.1414121   0.09750985  25.67 0.0001957236    1.662    0.398
       230  -8.6497    112.4918     41.4988   6.8817564782e+01   5.1811390156e+01    0.1491426    0.1433093 -57.09 -9.916749e-05    1.042    0.040
       231  -9.0991    235.7038     39.3824   4.7029711368e+01   2.0493601676e+01    0.2265708    0.1580176   6.50 0.0005523597    1.630    0.386
       232  -9.2624    191.0636     40.0192   5.2602560315e+01   3.1630823904e+01    0.3810869    0.2339533  40.51  0.001651238    1.794    0.443
       233 -10.0965     11.2886    192.4717   1.2145323907e+02   3.5690493611e+01    0.2604595    0.1138505  46.91  0.001754137    1.618    0.382
       234  -9.3781    173.7956     39.1481   5.4939471516e+01   3.6345093405e+01    0.3247416    0.2843226  73.32  0.001281194    1.170    0.146
       235 -11.0015    220.1420     34.5793   4.7319709387e+01   2.4779281539e+01    0.5461639    0.3984829 -26.72  0.001139777    1.273    0.214
       236  -8.3930    110.4566     38.4521   6.8171505055e+01   5.2809822221e+01     0.148109    0.1420633 -55.72 0.0001427487    1.048    0.046
       237 -10.4460    198.8616     34.4304   4.9792409980e+01   3.0250500783e+01    0.5579574     0.296991 -15.75  0.002267801    2.031    0.508
       238  -8.3000    215.9775    189.5130   8.3337338151e+01   7.0598121527e+00    0.1702837   0.07281966  28.94 0.0008100237    2.513    0.602
       239  -8.5396      1.6661    188.6691   1.2313323863e+02   3.7185240481e+01   0.08264278   0.07143826 -65.62 0.0007052154    1.727    0.421
       240  -9.3568      7.7213    186.2848   1.2191924010e+02   3.7077663194e+01    0.1568292   0.08518824  72.57 0.0001747533    1.385    0.278
       241 -10.0269     11.6372    184.8206   1.2111835605e+02   3.6985785302e+01    0.1976159    0.1702856  49.32 0.0007241903    1.422    0.297
       242 -11.7222    105.8548     34.1580   6.7702835353e+01   5.4606171380e+01    0.3560845    0.3051839  69.54 0.0002533659    1.266    0.210
       243  -8.4352     18.3023    182.6351   1.1973578630e+02   3.6757626973e+01    0.1157518   0.05052467  62.30 0.0007035505    1.734    0.423
       244 -10.4392    113.1071     32.9712   6.5222903690e+01   5.3080779417e+01    0.3361016    0.2370339 -32.71 0.0004344353    1.388    0.280
       245 -10.3725    108.9216     29.6651   6.4952131944e+01   5.4610945007e+01      0.78573    0.3723895  64.95   0.00291137    2.610    0.617
       246 -10.6623     26.1543    177.0070   1.1790311785e+02   3.7010711766e+01    0.3176197    0.2494806 -70.15  0.002481468    1.580    0.367
       247 -10.4051    129.1136     23.4774   5.7421655593e+01   5.0435468604e+01    0.3239282     0.215802  62.27 0.0005353112    1.508    0.337
       248 -11.1025    131.4374     20.0677   5.5507891977e+01   5.0269530215e+01    0.6285329    0.3177141  58.11  0.001351295    1.899    0.473
       249  -9.1012      2.7061     34.9963   1.1136120377e+02   6.9502652510e+01    0.3495364    0.1289944 -42.40   0.00161384    2.896    0.655
       250 -10.8513    210.9969     30.7229   4.7196334346e+01   2.7515142678e+01    0.7564183    0.5816043   0.44  0.003856896    1.417    0.294
       251 -10.0735    215.5347     21.2939   4.3887870637e+01   2.7345371971e+01    0.4418039     0.290291  71.59  0.001021399    1.590    0.371
       252  -9.6737    214.7033     29.3119   4.6364712480e+01   2.6720157281e+01    0.2831142    0.2335967 -34.84 0.0007701971    1.137    0.120
       253 -10.3245    215.0249     25.3139   4.5139791768e+01   2.7061844903e+01    0.3574055    0.3243697  84.67 0.0009507304    1.153    0.133
       254  -9.6155    182.6485     33.9391   5.1844936335e+01   3.4626969903e+01    0.6416811     0.172044  56.33  0.001985842    3.246    0.692
       255 -10.1011    135.0145     34.3020   6.0486802780e+01   4.7364341905e+01    0.3502851    0.2714864  16.45  0.001010209    1.532    0.347
       256  -9.2722    138.4963     30.9786   5.8454662854e+01   4.6930475800e+01    0.2618971     0.235444  54.32 0.0006924835    1.110    0.099
       257 -10.8079    227.3116     28.3875   4.4799658295e+01   2.3663239054e+01    0.9202418    0.5116131  79.91  0.004125483    2.092    0.522
       258 -10.5528    245.5129     33.3491   4.4458830279e+01   1.8844921467e+01    0.6217279    0.2991882  74.66  0.002738115    2.457    0.593
       259 -10.5272     30.5105    172.0310   1.1673352878e+02   3.7486983663e+01    0.2667119    0.2100728  80.68  0.001211498    1.175    0.149
       260  -8.9928     36.4951    179.4558   1.1594387882e+02   3.5500459155e+01    0.1107471   0.07836558  63.89 9.188326e-05    1.030    0.030
       261  -9.7855      1.9068    178.0345   1.2278247116e+02   3.9033169207e+01    0.2075725    0.1078338  77.68  0.001453312    1.489    0.328
       262  -8.3621     65.4733    173.4647   1.0950770803e+02   3.3193877423e+01    0.1167206   0.08872402  63.18 0.0001094053    1.015    0.014
       263 -10.4841    235.2680     33.2048   4.5376240934e+01   2.1244634539e+01    0.4678035    0.3155949  16.75  0.001767707    1.782    0.439
       264 -10.0796    238.2206     26.4001   4.3230842941e+01   2.1234683248e+01    0.3832794    0.2978519  64.24  0.001579565    1.393    0.282
       265 -10.6368    168.5683     24.0080   5.0512237742e+01   3.9662642505e+01     1.479074    0.1452897  57.88  0.003590573    5.154    0.806
       266 -10.0073    173.3833     30.6546   5.2114429634e+01   3.7541789620e+01    0.4206738    0.2722649  34.40 0.0008720194    1.784    0.439
       267 -10.6350    179.3300     26.8031   4.9925205336e+01   3.6382821195e+01    0.5915902    0.4044087  65.41  0.002751293    1.460    0.315
       268  -9.4149      1.3263    170.5228   1.2266655811e+02   4.0442613749e+01    0.2174759    0.0723478 -79.68  0.001179651    2.661    0.624
       269  -8.6641    245.7038    171.2868   7.5783154805e+01   4.1025065389e+00   0.09283078   0.08993495  34.00 0.0006968423    1.549    0.354
       270  -9.9046     18.8782    165.8467   1.1884149400e+02   3.9784254903e+01     0.202971    0.1264099  86.47  0.001080837    1.351    0.260
       271 -10.3884      2.2198    159.3030   1.2210325595e+02   4.2469613280e+01    0.3466647    0.1330801  82.10  0.001211716    2.189    0.543
       272 -10.7814     19.2743    158.8504   1.1839286680e+02   4.1086266728e+01    0.4860656     0.122636  44.66  0.002404621    2.666    0.625
       273  -9.1206     28.8512    158.1965   1.1624265007e+02   4.0289480030e+01    0.1708527    0.1111904  63.82 0.0003831491    1.186    0.157
       274 -11.0042     14.0370    151.5797   1.1917269788e+02   4.2980686245e+01    0.3336768    0.2172321  61.88  0.002376731    1.176    0.150
       275 -10.2207     30.5051    151.4661   1.1541597880e+02   4.1450765170e+01     0.216929    0.1656213 -75.95  0.000837848    1.372    0.271
       276  -8.7488      7.8633    151.7038   1.2056484110e+02   4.3481367969e+01    0.1359991    0.1257614  53.48 0.0004915802    1.416    0.294
       277  -8.4572     45.8019    150.3955   1.1179359813e+02   4.0017244842e+01    0.1379555    0.1057039  33.48 0.0004039098    1.534    0.348
       278  -9.4899    203.2948     29.0557   4.7575503180e+01   2.9698194387e+01     0.336787    0.2149355 -15.35  0.001335572    1.617    0.381
       279  -9.5368    205.1651     25.1851   4.6161936317e+01   2.9629574295e+01     0.489793     0.279533 -32.41  0.001924062    1.615    0.381
       280  -9.3748    145.9906     29.1628   5.6258541233e+01   4.5181406148e+01    0.4426443    0.2911087  61.58  0.001983785    1.506    0.336
       281 -10.1205    147.4386     23.9724   5.3989734520e+01   4.5465902922e+01    0.3651522    0.2913395  63.61  0.001068108    1.245    0.197
       282  -8.9741     53.5638     29.8229   8.4574101139e+01   6.5578382073e+01    0.3852338     0.210644  23.34  0.001304199    2.817    0.645
       283  -8.6263    167.8728     29.2618   5.2484167811e+01   3.9218026916e+01    0.2018407    0.1949057  59.94 0.0003634274    1.040    0.038
       284  -8.9763    140.0067     24.6948   5.5676456490e+01   4.7382055673e+01    0.4396906    0.1409653 -23.90  0.001329694    3.368    0.703
       285  -8.6684    136.2716     25.2905   5.6661760450e+01   4.8301356937e+01    0.3463756    0.1868064  -3.91  0.001213766    2.835    0.647
       286  -8.8559    250.0413     25.4924   4.1989780975e+01   1.8588033001e+01     0.179285    0.1338077  76.36 0.0004128344    1.507    0.336
       287  -9.4173     96.7951     22.4796   6.5187147135e+01   5.8569546436e+01    0.3979279    0.2208982  43.77  0.001174557    1.903    0.475
       288  -8.7929     82.4112     21.2601   6.9201983067e+01   6.1918404311e+01     0.363355    0.2742781  21.99  0.001870717    1.554    0.356
       289  -8.2627     79.9993     19.0000   6.8924267721e+01   6.2785340354e+01    0.2669956    0.2265682  46.04   0.00150656    1.244    0.196
       290 -11.1199     22.8731    146.4367   1.1684346791e+02   4.3206201912e+01     0.394218    0.2405828  83.86   0.00182318    1.357    0.263
       291 -10.3701     17.9422    147.6710   1.1806590490e+02   4.3411892422e+01    0.2917593    0.1437627  79.19 0.0009730032    1.740    0.425
       292 -10.2052    245.2791     18.7124   4.0561052075e+01   2.0322276388e+01    0.3391079    0.2148488  69.16  0.001761979    1.717    0.418
       293  -9.8503     15.4812    143.0101   1.1836917191e+02   4.4570648019e+01    0.2985732    0.1529014  86.56  0.001810442    1.646    0.392
       294  -9.4017     67.2826    147.9748   1.0652037077e+02   3.7839445756e+01    0.1740817    0.1410221  79.02 0.0008386049    1.076    0.071
       295 -10.0949     40.9568    147.0826   1.1264001589e+02   4.1229659025e+01     0.402602    0.1865177  43.66  0.002242166    1.841    0.457
       296  -9.6322    198.2476     16.1472   4.4070855409e+01   3.2407049857e+01    0.4175765    0.1984064  64.18   0.00169601    2.046    0.511
       297  -8.6727     85.8954     16.2974   6.5577242317e+01   6.1948669288e+01    0.3030413    0.1772884  74.03 0.0006161134    2.691    0.628
       298 -10.4544     38.0847    142.9662   1.1297110023e+02   4.2382499179e+01    0.2952548     0.237019  31.40  0.000730677    1.535    0.349
       299  -9.9358      5.3224    147.3081   1.2094302205e+02   4.4555336600e+01    0.1934465    0.1515907  48.74  0.000693319    1.308    0.235
       300 -10.9131      6.0540    142.8728   1.2057383011e+02   4.5383370931e+01    0.3409678    0.2785599  63.03 0.0005687092    1.190    0.160
       301  -9.8748     46.6282    144.2597   1.1103563196e+02   4.1165969856e+01    0.2735934    0.2296225   0.95  0.001818218    1.917    0.478
       302  -9.6208     47.7113    139.4837   1.1030526784e+02   4.2025282532e+01    0.2564244    0.1736226  88.57    0.0016139    1.315    0.240
       303 -10.9384     30.2961    143.1306   1.1485394641e+02   4.3157517835e+01     0.392934    0.2215693 -55.48  0.002087442    2.203    0.546
       304 -11.0382     24.9474    137.7816   1.1574839246e+02   4.4782812072e+01    0.5594214    0.2209822  54.60   0.00291764    2.152    0.535
       305  -8.9159     70.6865    142.8574   1.0510285469e+02   3.8409254714e+01    0.1710258    0.1376901  77.31  0.000537801    1.074    0.069
       306 -13.1184     37.6814    120.9946   1.1096270693e+02   4.7084533227e+01     1.759057     1.280704  68.82   0.01144349    1.175    0.149
       307  -9.4028    211.0141    249.7566   9.2181124904e+01   2.3389119313e+00    0.1374697    0.0576035  40.09 0.0008930889    1.632    0.387
       308 -12.8114     12.3860    126.9340   1.1814766613e+02   4.8165212451e+01    0.6725029    0.3566463  87.54  0.001071936    1.560    0.359
       309  -9.8866    107.7320    248.1317   1.0785609018e+02   1.6382577710e+01     0.156387    0.1000326  63.45  0.001227977    1.495    0.331
       310  -9.0734      3.1748    246.7645   1.2418714602e+02   2.8069759308e+01    0.1308596   0.09535091 -68.00  0.001214017    2.131    0.531
       311 -11.6750     82.0964     75.5603   8.9385664887e+01   5.1221699110e+01    0.8841537    0.5319265  65.20  0.003913364    2.189    0.543
       312 -10.1507    141.8496    243.6178   1.0204933961e+02   1.2363586135e+01    0.2601011    0.1466169  34.61  0.001519999    1.497    0.332
       313  -8.9708     55.4425    237.7652   1.1567084498e+02   2.4077457346e+01    0.1074376   0.08417785 -75.36 0.0009472949    1.698    0.411
       314 -11.7420     19.9724     83.4101   1.1190331034e+02   5.7221295695e+01    0.9524373    0.6359636  13.61  0.005732463    2.061    0.515
