#   1 NUMBER                 Running object number                                     
#   2 MAG_AUTO               Kron-like elliptical aperture magnitude                    [mag]
#   3 X_IMAGE                Object position along x                                    [pixel]
#   4 Y_IMAGE                Object position along y                                    [pixel]
#   5 X_WORLD                Barycenter position along world x axis                     [deg]
#   6 Y_WORLD                Barycenter position along world y axis                     [deg]
#   7 A_WORLD                Profile RMS along major axis (world units)                 [deg]
#   8 B_WORLD                Profile RMS along minor axis (world units)                 [deg]
#   9 THETA_WORLD            Position angle (CCW/world-x)                               [deg]
#  10 FWHM_WORLD             FWHM assuming a gaussian core                              [deg]
#  11 ELONGATION             A_IMAGE/B_IMAGE                                           
#  12 ELLIPTICITY            1 - B_IMAGE/A_IMAGE                                       
         1 -11.9063    223.9813     32.0683   3.2413256477e+01   2.6936774584e+01     1.633545    0.8555343  40.46  0.006894392    4.417    0.774
         2 -11.1012    239.2540     18.7692   2.8619043730e+01   2.5525083171e+01    0.6177874     0.413063 -63.80  0.002796504    1.158    0.136
         3  -7.4967     11.6653      5.3287   7.4768761856e+01   7.3314134753e+01   0.09447951   0.08703056  24.91  0.000525173    1.724    0.420
         4  -8.6908      3.2935      4.1257   7.9314116530e+01   7.4327495207e+01    0.1815891    0.1079638 -17.72  0.000928234    1.420    0.296
         5  -8.6355     49.1368    235.6890   1.1122317511e+02   1.7557258752e+01    0.3748541    0.2468018 -16.32  0.001778851    2.987    0.665
         6 -11.5046     24.5043    227.4655   1.1591251429e+02   2.2168408266e+01     1.346339    0.7517492  86.82   0.00470648    1.710    0.415
         7 -11.7465     40.9137    248.9733   1.1401272000e+02   1.5724668238e+01     2.010489    0.5740184  31.52  0.008092281    3.251    0.692
         8 -11.8304     28.3948    248.4574   1.1651477169e+02   1.7246387221e+01     1.300146    0.5908747  49.61  0.006935799    1.792    0.442
         9 -12.4069      2.8783    209.4838   1.1941034210e+02   2.8335420845e+01     1.523806    0.9469639  43.71  0.006296928    1.522    0.343
        10 -11.8674      3.4989    248.4240   1.2135690244e+02   1.9804623883e+01    0.7152051    0.3087875  39.15   0.00349272    1.946    0.486
        11 -11.3977      1.8325    230.8575   1.2081943334e+02   2.3645942342e+01     0.303387     0.176735 -88.03 0.0008410696    1.479    0.324
        12 -12.8537      2.7539    222.1148   1.2016646179e+02   2.5480777016e+01     0.953622    0.5836829  44.41  0.005854168    1.490    0.329
        13 -12.3130     13.9119    245.2066   1.1919118875e+02   1.9443517610e+01    0.6942939    0.3447054  68.83  0.002009213    1.815    0.449
        14 -12.6963      3.5485    238.4265   1.2086349831e+02   2.1870973090e+01    0.6626158    0.3679775  77.34  0.002339011    1.540    0.351
        15 -12.5968      9.4908    235.2754   1.1951986993e+02   2.1975569447e+01     1.055923    0.4167476  70.51  0.004252784    2.616    0.618
        16 -11.5208     13.2525    230.7537   1.1849338579e+02   2.2587595797e+01    0.5523065     0.357111  43.75  0.003430353    1.406    0.289
        17  -9.3120    201.4692    240.0646   7.8523891915e+01  -4.9024345143e+00    0.2364404    0.1978344 -10.76 0.0003600787    1.102    0.093
        18  -8.3494     92.8135    240.9430   1.0206709515e+02   1.0646777822e+01     0.185899    0.1711025  -6.44 0.0004437573    1.288    0.224
        19  -8.1505     37.4948    238.8452   1.1397574335e+02   1.8248769648e+01    0.1754315     0.173849  34.73  0.001098633    1.325    0.245
        20  -8.5939     63.0056    237.9723   1.0838739075e+02   1.5325505451e+01    0.2112643    0.1273569  62.09 0.0004751925    1.656    0.396
        21  -9.7376     99.0664    234.5170   9.9884990067e+01   1.1082022405e+01    0.3546543    0.2118827  23.20   0.00105053    1.841    0.457
        22  -8.7560    169.6026    235.0926   8.4234629800e+01   3.9276939627e-01     0.207893    0.1664373  32.11 0.0003645886    1.220    0.180
        23  -8.1852     57.7825    233.7796   1.0914803817e+02   1.6900950951e+01    0.1833475    0.1294838  67.64 0.0005484764    1.344    0.256
        24  -9.9241     35.0570    232.8266   1.1404000194e+02   1.9831863630e+01    0.5799505    0.2773481  47.44  0.002221464    1.787    0.440
        25  -9.1016     83.5804    232.7103   1.0321021338e+02   1.3684155761e+01    0.2746248    0.2143987 -16.81  0.001151746    1.779    0.438
        26  -9.4322     90.2615    230.5205   1.0141754444e+02   1.3207767593e+01    0.3414719     0.202836 -61.67  0.001513598    1.809    0.447
        27  -8.7367    121.0082    232.2856   9.4572022720e+01   8.2704353115e+00    0.1963794    0.1634618  33.01  0.001138638    1.085    0.078
        28  -9.8165    112.0412    230.6135   9.6398924896e+01   9.9730907406e+00    0.4184008    0.2312538  41.73  0.001871167    1.644    0.392
        29  -9.4055    107.8298    225.8681   9.6730305317e+01   1.1613612996e+01    0.3877579    0.2836053 -84.46  0.002018053    1.714    0.417
        30  -9.3527    111.3013    224.2582   9.5693802980e+01   1.1430139025e+01    0.3586422    0.2120136  55.71  0.001324426    1.973    0.493
        31  -8.2311    170.3210    231.0008   8.3421195282e+01   1.0217286866e+00    0.1838968     0.163817 -13.30 0.0006039719    1.104    0.094
        32  -8.5944     36.0176    227.0747   1.1338231377e+02   2.0999691785e+01    0.2215077    0.1892951 -52.79 0.0009609984    1.435    0.303
        33  -9.3162     37.3960    222.9698   1.1274119790e+02   2.1771096916e+01    0.4172509    0.2280835  49.90  0.002179372    1.627    0.385
        34  -8.3382     35.5749    219.4862   1.1285965966e+02   2.2774207338e+01    0.2172021    0.2017405  67.18 0.0007215309    1.157    0.136
        35  -9.3280     29.9820    218.9882   1.1407803534e+02   2.3504127328e+01     0.336853    0.2252723  76.40  0.001373184    1.366    0.268
        36  -8.1588     32.6512    217.2838   1.1333841142e+02   2.3607070854e+01    0.2397427    0.1533526  76.53 0.0006553279    1.480    0.324
        37  -8.0067     55.3109    225.1960   1.0888662376e+02   1.9120936638e+01    0.2207768    0.1558462  89.79 0.0007754234    1.415    0.293
        38  -7.4809     52.9774    222.5106   1.0916121709e+02   2.0022665052e+01    0.1825699     0.104951  47.03 0.0003255276    1.560    0.359
        39  -9.2434    136.9165    222.6099   8.9488356813e+01   7.7834507682e+00    0.3822605    0.2080269 -51.44  0.001757583    1.976    0.494
        40  -7.4506     77.2889    232.3329   1.0460447990e+02   1.4639258716e+01    0.1254292    0.1022957 -25.66 0.0001483619    1.627    0.385
        41  -8.0788     61.0012    222.5405   1.0730882044e+02   1.8998055758e+01    0.2581285    0.2109872  52.74  0.001543426    1.099    0.090
        42  -7.1441    130.6627    220.2872   9.0573758572e+01   9.2526480523e+00    0.1414562    0.1045679  60.21 0.0003084396    1.633    0.388
        43  -8.1545     89.3097    217.3099   9.9982817263e+01   1.6275450456e+01    0.2149827      0.20566 -18.25  0.000626173    1.195    0.163
        44  -7.7080     55.9931    216.9509   1.0790275070e+02   2.0926940511e+01    0.1597687    0.1325512  48.36            0    1.132    0.116
        45  -7.8018     97.1924    214.8309   9.7744450633e+01   1.5664530027e+01    0.3447342    0.1891038   5.87  0.001113228    4.330    0.769
        46  -8.6559    153.8336    214.1405   8.4236310680e+01   6.8101762428e+00    0.2140285    0.1934634  53.18  0.001231803    1.273    0.215
        47  -7.3135     75.7621    212.9697   1.0271153511e+02   1.9222352917e+01    0.1743902    0.1135477 -66.26 0.0008664912    1.566    0.362
        48  -7.3982     48.8023    213.1275   1.0921415484e+02   2.2714250139e+01    0.1617987    0.1535956 -53.17 0.0005440338    1.256    0.204
        49 -10.2951     30.1250    210.6938   1.1336758202e+02   2.5422593821e+01    0.8063301     0.515458   6.36  0.004056519    2.421    0.587
        50  -9.8835     27.5562    181.7502   1.1131878920e+02   3.2786420793e+01    0.4545542    0.3361618  -3.41  0.001844734    1.886    0.470
        51  -9.7994     23.0781    198.7592   1.1401679343e+02   2.9010322398e+01    0.2933455    0.2638561 -57.72 0.0005040308    1.287    0.223
        52 -10.5635     22.9421    204.9328   1.1456092584e+02   2.7536529287e+01    0.3331266    0.3044251 -33.74 0.0007328519    1.421    0.297
        53 -12.3276     32.2925    195.8130   1.1151036553e+02   2.8783819568e+01     1.229645     1.139245 -75.67  0.007879805    1.163    0.140
        54  -8.9950     46.6131    207.1178   1.0913263627e+02   2.4409041993e+01    0.3350031    0.2551425 -18.35  0.001401793    1.912    0.477
        55  -7.7631    158.7586    206.9749   8.1872546228e+01   7.4682849556e+00    0.1799364    0.1179098 -45.12  0.000489897    1.553    0.356
        56  -7.1533    118.7085    205.2878   9.1055256339e+01   1.4448398381e+01     0.143069    0.1099852  65.91 0.0006961278    1.542    0.351
        57  -7.5662     76.7437    204.8153   1.0143348611e+02   2.1017383352e+01    0.2098416    0.1620778 -47.86  0.000465195    1.426    0.299
        58  -7.9887    118.4377    208.5157   9.1637684163e+01   1.3764660774e+01    0.1420665    0.1354773  38.32 0.0001160139    1.014    0.014
        59  -8.2641     78.9055    198.7315   1.0006779674e+02   2.2180451485e+01    0.4095685    0.1814289 -61.35  0.001106776    2.228    0.551
        60  -8.3790    113.4820    200.0046   9.1490226363e+01   1.6514535934e+01    0.2965802    0.2093532  12.48   0.00126342    1.750    0.429
        61  -8.8148     47.6856    199.6161   1.0808094309e+02   2.6103472060e+01    0.4022716     0.258838  19.87  0.001101726    1.891    0.471
        62  -7.8659    109.0521    198.2867   9.2322739644e+01   1.7638484464e+01    0.2005346    0.1841962  47.05 0.0004078679    1.056    0.053
        63  -8.4083     88.5131    197.3191   9.7404233771e+01   2.1101450561e+01    0.3198122    0.2415656   4.17 0.0008750673    1.730    0.422
        64  -8.0111     82.8371    197.1786   9.8841480623e+01   2.1984947595e+01     0.213164    0.1819856  66.96 0.0002846098    1.161    0.138
        65  -8.2758     84.5289    211.3783   1.0036671578e+02   1.8342195358e+01    0.2854673    0.1941188 -14.00 0.0009824372    2.382    0.580
        66  -7.9996     57.3064    193.5493   1.0494036862e+02   2.6413350605e+01    0.2836653    0.1439211 -54.08   0.00124084    1.990    0.497
        67  -8.1630     71.9206    191.5629   1.0088123911e+02   2.4947033841e+01     0.205821    0.1867646  88.03 0.0004936582    1.048    0.046
        68  -7.5068     95.5835    211.2343   9.7635092070e+01   1.6731829040e+01    0.1908238    0.1295392 -48.81 0.0009091479    1.588    0.370
        69  -9.4865     20.3299    188.8881   1.1383005947e+02   3.1699610712e+01     0.362865     0.233744  88.70  0.001262657    1.414    0.293
        70  -7.6377     16.3734    188.8014   1.1479905221e+02   3.2088407195e+01    0.2042357    0.1122959 -75.93 0.0008245467    1.582    0.368
        71  -8.3625    120.9547    188.2879   8.7600563681e+01   1.8011187069e+01    0.2312816    0.2052423 -52.78 0.0003937961    1.147    0.128
        72  -8.0738     64.9815    188.6826   1.0231055759e+02   2.6625590553e+01    0.2005575    0.1721135  52.11 0.0004778003    1.136    0.120
        73  -8.0021     80.7984    187.8311   9.8001200622e+01   2.4599313798e+01    0.2033895    0.1624042  69.22 0.0003233016    1.313    0.238
        74  -7.1797     87.6754    185.3137   9.5782262285e+01   2.4190401820e+01    0.1562001    0.1099102  67.50 0.0004194467    1.663    0.399
        75  -7.9788    169.4865    184.2236   7.5171878043e+01   1.0385830675e+01     0.203544    0.1391532 -42.29 0.0005179489    1.416    0.294
        76  -8.9312     11.2043    183.4441   1.1562858361e+02   3.3869464350e+01    0.2647487    0.2161838  55.37 0.0009518814    1.219    0.180
        77  -9.6148      7.3282    180.9696   1.1639059625e+02   3.4804369736e+01    0.2467465    0.2382722 -45.86 0.0006691084    1.286    0.223
        78  -7.1501     53.2586    183.3578   1.0472246535e+02   2.9498317408e+01    0.1430369    0.1006818 -43.26 0.0006972009    1.620    0.383
        79 -10.1604     52.5014    178.8731   1.0434333543e+02   3.0741641828e+01    0.6047186    0.3908065 -25.35  0.002558065    2.299    0.565
        80  -7.7713     78.0180    182.0427   9.7863929164e+01   2.6469384354e+01    0.2171605    0.1706559 -28.53 0.0003381533    1.552    0.355
        81  -8.3825     80.9702    179.5181   9.6666165818e+01   2.6672672050e+01    0.2392627    0.2026308 -63.05 0.0003566142    1.155    0.135
        82  -7.7097     90.8358    180.6507   9.4174574288e+01   2.4867780558e+01    0.2139931    0.1886855 -49.68  0.001129077    1.159    0.137
        83  -9.2271     43.7886    179.5033   1.0677817138e+02   3.1618893504e+01    0.4138061    0.1692134 -67.37  0.001608748    2.214    0.548
        84  -8.2347     64.0991    208.8976   1.0507063912e+02   2.1776361576e+01    0.2149512     0.164575 -29.57  0.001128252    1.743    0.426
        85  -8.8451     36.9204    178.7752   1.0853180908e+02   3.2571718142e+01    0.3695517    0.2069019 -39.55  0.001637307    2.318    0.569
        86  -7.3394    117.2010    177.9938   8.6679184778e+01   2.1127270730e+01    0.2009016    0.1202758 -54.32 0.0004743194    1.678    0.404
        87  -7.4052     86.5288    178.4631   9.4979173325e+01   2.6093347408e+01    0.1471744    0.1437117 -59.16 7.753111e-05    1.061    0.057
        88  -8.5561     22.9698    177.2083   1.1205658088e+02   3.4382191440e+01    0.2488784    0.1722221 -89.88 0.0003251795    1.317    0.241
        89  -8.9059     18.2679    174.7131   1.1304441356e+02   3.5446095660e+01    0.3479131    0.2039645   8.04  0.001512867    2.410    0.585
        90  -8.1674     64.6223    176.9571   1.0075763114e+02   2.9665540589e+01    0.2193245    0.1979292  11.74 0.0007915692    1.276    0.216
        91  -9.1984      2.0086    175.6070   1.1729712711e+02   3.6546917455e+01    0.3148599    0.1495159  83.21  0.001453866    2.091    0.522
        92  -7.3531     76.5917    176.4346   9.7375747151e+01   2.8110355386e+01    0.1467895    0.1376491  89.23 8.790589e-05    1.020    0.020
        93  -9.5080     59.7026    172.7758   1.0151131341e+02   3.1402705162e+01     0.344643    0.2449048 -62.01 0.0007098741    1.324    0.245
        94  -9.2009    175.1432    172.2864   7.1499308451e+01   1.1899709229e+01    0.2948654    0.2693996  -2.82 0.0006678199    1.076    0.071
        95  -9.2470     16.8669    170.6491   1.1301891254e+02   3.6602061984e+01    0.2906804    0.2294552  -3.94  0.001322991    1.675    0.403
        96 -10.1705     28.9178    170.1540   1.0971188610e+02   3.5614985675e+01     2.571594    0.9112352  68.28  0.003964892   18.476    0.946
        97  -8.9876     23.3884    170.7695   1.1128204189e+02   3.5986139451e+01    0.2963272    0.2567233  -8.87  0.001270812    1.463    0.317
        98 -10.4922     26.5477    163.7284   1.0963107635e+02   3.7504967769e+01    0.4255054    0.2583603 -68.55 0.0001560776    1.431    0.301
        99 -10.5644     23.7278    156.5358   1.0958389938e+02   3.9631815031e+01    0.8178226    0.5581965 -86.87  0.004322158    1.385    0.278
       100 -10.3289     20.3474    153.7459   1.1022974586e+02   4.0652610720e+01    0.8042029    0.3968445  53.08  0.003558015    2.312    0.567
       101  -8.5549     39.6650    166.9913   1.0634368318e+02   3.5318655507e+01    0.4177247    0.2410555 -18.15  0.001459131    3.024    0.669
       102  -7.3302     42.9871    168.9603   1.0566622252e+02   3.4436250060e+01    0.1614423     0.151571  67.32 0.0009491827    1.097    0.089
       103  -8.5131     32.8580    162.8845   1.0774782358e+02   3.7106011343e+01    0.4055052    0.1505381 -63.40   0.00117812    2.252    0.556
       104  -7.6596     36.4157    162.4915   1.0668305437e+02   3.6841190138e+01    0.1952614    0.1209973  44.29 9.996559e-05    1.676    0.403
       105  -8.1439     92.0987    163.8856   9.0860380625e+01   2.8928284944e+01    0.2330113    0.2005471  72.17  0.000415854    1.252    0.201
       106  -8.9657     70.9559    163.1705   9.6794731725e+01   3.2365210710e+01    0.2433152    0.2062861 -69.55 0.0003509206    1.127    0.113
       107  -7.4927    153.4294    162.9822   7.4508296963e+01   1.7989423937e+01    0.2206093     0.147181 -49.07 0.0003345827    1.477    0.323
       108  -9.3125     57.6217    159.8455   1.0014004639e+02   3.5053965745e+01    0.6819946    0.3444202 -43.10  0.002687856    2.248    0.555
       109  -9.9541     12.7027    161.2668   1.1321342349e+02   3.9344232150e+01    0.4223138    0.2484184 -31.98  0.001342187    2.263    0.558
       110  -8.4401    248.3207    162.3489   5.5894926488e+01   1.7048138510e+00     0.132269   0.08788388 -15.36 0.0007048757    1.740    0.425
       111  -7.0243    163.3597    161.2425   7.1806848116e+01   1.6481482302e+01    0.1514994    0.1167497   3.06 0.0006929497    1.596    0.373
       112  -8.1374     34.2277    158.5710   1.0680132244e+02   3.8092761295e+01    0.3004991    0.1999542 -32.52  0.001458716    1.859    0.462
       113  -7.7709    122.0749    157.7139   8.1329434620e+01   2.5198110677e+01    0.2099461    0.1969433  33.92 0.0006896807    1.083    0.076
       114  -9.6772     78.4593    156.7975   9.3477720383e+01   3.2919457448e+01    0.5176023    0.3900802  -9.19   0.00153252    1.754    0.430
       115  -7.5043    169.5076    157.4648   6.9593655055e+01   1.6131275246e+01     0.151344    0.1427639 -27.96 5.202516e-05    1.003    0.003
       116  -7.8056      8.9643    154.9773   1.1361821789e+02   4.1240389957e+01     0.201138    0.1333249  68.00 0.0003852203    1.554    0.357
       117  -7.2672    117.2284    154.4047   8.1933808919e+01   2.6914323692e+01    0.2050395    0.1480121  47.86 0.0003448878    1.451    0.311
       118  -8.0150     55.3404    150.2460   9.9254647566e+01   3.7872826324e+01    0.4321438    0.2290975  71.72  0.001489897    3.295    0.696
       119  -7.8791     50.5646    150.9040   1.0081755935e+02   3.8290249335e+01    0.2267158    0.1330067 -65.57  0.001015986    1.566    0.361
       120  -8.3589    247.7001    148.3548   5.3266548039e+01   4.2036109210e+00    0.1281246   0.09080212 -60.57 0.0005396276    1.702    0.413
       121 -10.6151     68.4299    144.7582   9.4243133231e+01   3.7549555499e+01    0.7232508    0.4491521  59.06  0.002445403    2.033    0.508
       122  -8.3511    244.0320    144.4784   5.3046039736e+01   5.4429210011e+00    0.1717121    0.1090531  15.23 0.0008101237    2.664    0.625
       123  -8.2125     97.5940    142.1203   8.4843803195e+01   3.3556525400e+01    0.4233454    0.2578409 -72.85 0.0008029754    2.214    0.548
       124  -7.6852     94.4837    142.5007   8.5848904170e+01   3.4002872168e+01    0.2447385    0.1941873  75.39 0.0009754589    1.535    0.349
       125  -8.6004     81.8236    141.8327   8.9531101890e+01   3.6281418290e+01    0.2534957    0.2311338 -48.12 0.0003009676    1.062    0.059
       126  -7.7952     15.8652    142.1548   1.1015906319e+02   4.4020629665e+01    0.2085456    0.1628879  82.21  0.000720828    1.273    0.215
       127  -8.1837      6.2552    141.3852   1.1296633380e+02   4.4908949611e+01    0.1633691    0.1181662  39.35 0.0004883392    1.553    0.356
       128  -8.1171    246.0000    138.9709   5.1664670416e+01   6.0913810016e+00    0.2248299   0.06149792 -41.26  0.000805903    2.967    0.663
       129  -8.7254      6.1219    137.8403   1.1260931926e+02   4.5823628553e+01    0.1794674    0.1369187 -42.08 0.0005882483    1.365    0.267
       130  -8.2849     72.9261    136.8425   9.1261506664e+01   3.8950624344e+01    0.2314409    0.1955522 -29.68 0.0002873144    1.261    0.207
       131  -9.8203      9.8087    132.8464   1.1087244521e+02   4.6855684352e+01    0.3194052    0.2648503  89.30  0.000438039    1.170    0.145
       132  -9.4194     28.7466    133.4355   1.0489883357e+02   4.5196156286e+01    0.2705608    0.2185023 -71.98 0.0004525368    1.115    0.103
       133  -8.6382    250.4084    131.1437   4.9496392872e+01   6.7401026942e+00    0.3182177   0.09012637 -47.12  0.001141067    3.235    0.691
       134  -7.3267     72.6833    131.6976   9.0252287341e+01   4.0313279953e+01    0.1566402    0.1141919 -25.51 0.0001999559    1.620    0.383
       135  -8.1774     67.5711    129.3370   9.1400754006e+01   4.1675906341e+01    0.2716358    0.1726283 -49.66 0.0008286256    1.468    0.319
       136  -8.4032     65.9003    124.9000   9.0990549380e+01   4.3051603591e+01    0.2208839    0.2070476 -54.43 0.0004304687    1.022    0.022
       137  -7.7500     22.0041    122.2053   1.0536679946e+02   4.8674627930e+01    0.1625218    0.1115625  17.83 0.0003685016    1.684    0.406
       138  -7.8565     63.0688    119.1478   9.0661717764e+01   4.4911168075e+01    0.2739524     0.191045  88.88 0.0007989033    2.026    0.506
       139  -9.9566    248.4346    116.2562   4.6812481292e+01   9.5879728377e+00    0.4532912    0.2084783 -55.67  0.001990536    2.475    0.596
       140  -8.2499     37.1975    117.4784   9.9278362793e+01   4.8485907218e+01    0.2469449    0.1799374 -57.77 0.0005070377    1.209    0.173
       141  -8.4725     33.0751    115.4524   1.0034215960e+02   4.9410526501e+01    0.2358115    0.1861374 -69.06 0.0003772909    1.205    0.170
       142  -8.5704     59.0836    109.9937   8.9918658762e+01   4.7743273424e+01     0.218065    0.2011212 -42.42 0.0003407162    1.012    0.011
       143  -8.2980    129.3491    108.9198   6.7625030001e+01   3.5198221055e+01    0.2315741    0.2104313  61.23 0.0004317455    1.151    0.131
       144  -7.1168     13.3844    107.2555   1.0593725110e+02   5.3080189416e+01    0.1395601   0.08376916 -35.08  0.000696531    1.671    0.402
       145  -7.3431     22.5533    106.4892   1.0244590755e+02   5.2589758340e+01    0.1381541    0.1163988 -51.50 6.908209e-05    1.017    0.016
       146  -7.2152     93.0301    104.9931   7.7138227489e+01   4.3426247996e+01    0.1775871    0.1719576   4.97 0.0009520716    1.033    0.032
       147  -7.3724     88.4701    105.3816   7.8711603474e+01   4.4170797247e+01    0.1491549    0.1446128  -4.26 0.0002274563    1.028    0.027
       148  -9.4214     58.6624    102.4392   8.8214566778e+01   4.9633965698e+01    0.2506524    0.2399175 -42.95 0.0002694693    1.073    0.068
       149  -7.7861     81.1233    101.5663   8.0105884968e+01   4.6346294173e+01    0.2181784     0.146276  38.06 0.0009967185    1.534    0.348
       150  -7.5239    153.8490     98.1262   5.8786452762e+01   3.2020402034e+01     0.195489    0.1773276   7.44 0.0002617206    1.282    0.220
       151  -9.1411    249.7634    105.4156   4.4491575151e+01   1.1172261560e+01    0.2605549    0.1206619 -48.63  0.001262836    1.810    0.447
       152  -7.2735     41.4065     96.2213   9.3115253051e+01   5.3278757633e+01     0.142345   0.09708515 -17.66 0.0006863202    1.657    0.396
       153  -7.7500     42.0527     92.0954   9.1842826495e+01   5.4177677527e+01    0.2006416    0.1655817  68.18 0.0004051936    1.601    0.375
       154  -7.4068     87.5337     91.4181   7.5082366115e+01   4.7470375609e+01    0.1486859    0.1405627  -4.65   5.5153e-05    1.021    0.021
       155  -7.4485     52.4858     89.4623   8.7105858512e+01   5.3499270976e+01    0.1415361     0.129632 -29.14  0.000107892    1.030    0.029
       156  -7.0234     41.2980     87.2863   9.0898818752e+01   5.5374758826e+01    0.1425126   0.09495144 -26.36 0.0002808432    1.551    0.355
       157  -8.4253     38.9619     77.5204   8.9175907365e+01   5.7821841768e+01    0.2193823    0.1805751 -63.32 0.0003239158    1.383    0.277
       158  -7.1988     15.0779     77.2409   9.9250884890e+01   6.0086975182e+01    0.1452383    0.1048976   2.86 0.0003052911    1.476    0.323
       159  -7.8078      6.5069     68.4665   1.0093695920e+02   6.2586655979e+01    0.1264314      0.10263 -40.33 0.0004185759    1.018    0.017
       160  -7.4602     53.2974     63.9988   7.9015483431e+01   5.8755827907e+01    0.1818819    0.1586328 -19.63  0.000310744    1.049    0.047
       161  -7.1610     24.6641     63.6664   9.1359532138e+01   6.2237410172e+01    0.1424074   0.08159558 -26.27 0.0003150448    1.740    0.425
       162  -7.1238    147.6381     54.7406   4.8105777953e+01   4.0978418994e+01    0.1412364    0.1023132  35.95 0.0004129803    1.630    0.387
       163  -7.1705     23.2687     49.0199   8.7300342761e+01   6.5257620027e+01    0.1552427   0.09644434 -44.04 0.0004915673    1.452    0.311
       164  -7.1979    181.2932    246.3766   8.3578434501e+01  -3.1977117845e+00    0.1339476   0.08651228  -8.20   0.00053222    1.740    0.425
       165  -8.3445     14.4907     26.0406   8.3033004662e+01   7.0084159950e+01     0.174536    0.1312207   2.74 0.0003544669    1.146    0.127
       166 -10.1026     71.0456    244.2849   1.0723288892e+02   1.2942807538e+01    0.4951311    0.3260684  19.72   0.00253375    1.833    0.454
       167  -7.7546     43.9032     22.4979   6.6711104037e+01   6.6848928656e+01    0.1811142    0.1062662  36.34   0.00087094    1.544    0.352
       168  -7.7942     29.7280     17.8951   7.1229085934e+01   6.9498660825e+01     0.160183    0.1281004  -4.03 0.0004688199    1.088    0.081
       169  -7.3288    161.9754     16.9833   3.5452656673e+01   4.2286623905e+01    0.1443229    0.1270915 -85.27  0.000361889    1.068    0.063
       170 -10.0974     56.8334    240.5168   1.0997141880e+02   1.5568395198e+01     0.451185    0.2330867  56.89  0.002245978    1.869    0.465
