#   1 NUMBER                 Running object number                                     
#   2 MAG_AUTO               Kron-like elliptical aperture magnitude                    [mag]
#   3 X_IMAGE                Object position along x                                    [pixel]
#   4 Y_IMAGE                Object position along y                                    [pixel]
#   5 X_WORLD                Barycenter position along world x axis                     [deg]
#   6 Y_WORLD                Barycenter position along world y axis                     [deg]
#   7 A_WORLD                Profile RMS along major axis (world units)                 [deg]
#   8 B_WORLD                Profile RMS along minor axis (world units)                 [deg]
#   9 THETA_WORLD            Position angle (CCW/world-x)                               [deg]
#  10 FWHM_WORLD             FWHM assuming a gaussian core                              [deg]
#  11 ELONGATION             A_IMAGE/B_IMAGE                                           
#  12 ELLIPTICITY            1 - B_IMAGE/A_IMAGE                                       
         1 -10.6875      1.8421     46.6936   1.1070708658e+02   6.8536575976e+01    0.7938804   0.06469995 -69.82  0.002160466    5.633    0.822
         2 -11.9696    225.3860     20.5782   3.6072554130e+01   2.7110127942e+01    0.7401709    0.6497803 -42.54  0.002820134    1.104    0.094
         3 -12.1727    208.9279     37.3753   4.1867135964e+01   2.8783184049e+01    0.9160392    0.7001466 -39.29  0.004222093    1.143    0.125
         4 -10.2225      1.8227     10.9846   9.9634416470e+01   7.6706418955e+01    0.6225505    0.1099774 -61.57  0.002064893    4.460    0.776
         5 -10.5560      2.0032     20.6979   1.0352414393e+02   7.4603018242e+01    0.5739445    0.1448601 -66.64  0.002101152    3.533    0.717
         6 -10.2096    247.3928      2.3721   3.0448958450e+01   2.4447361214e+01    0.4640269    0.2439018  86.49  0.002650642    2.047    0.512
         7 -11.1416    142.5769    228.7823   9.5083816560e+01   9.7974375721e+00    0.4765747    0.3136111  31.83  0.003049772    1.227    0.185
         8 -12.2041      2.9860    180.3215   1.2178197835e+02   3.5605962749e+01     2.348749     0.429759 -84.13  0.007822504    5.172    0.807
         9 -13.7158     40.5781    194.0814   1.1369977753e+02   2.9179904640e+01     5.937335     1.598399  59.55   0.01823555    5.586    0.821
        10  -9.7734    164.0375    224.8517   9.0453522798e+01   7.4761493450e+00    0.2203096    0.1970154  68.28  0.001579175    1.630    0.387
        11  -8.5531     48.6402    225.1210   1.1394625616e+02   2.2201444160e+01    0.1891073    0.1190083  47.77  0.000250196    1.224    0.183
        12 -11.4062     33.0442    204.7282   1.1607746002e+02   2.7767169842e+01    0.4148061    0.3394244 -50.26  0.001001311    1.632    0.387
        13 -11.9772     31.9256    248.8236   1.1841194436e+02   1.9796485928e+01     1.224268    0.3956216  33.51  0.006589658    2.279    0.561
        14 -10.4921     44.2727    217.7847   1.1441503261e+02   2.4040520297e+01    0.4090471    0.2192159 -83.80  0.001056195    1.999    0.500
        15  -7.5197     28.3104    235.2929   1.1854765948e+02   2.2463180380e+01   0.08895522   0.08287306  -9.53  0.000382346    1.588    0.370
        16  -9.5654     48.6507    217.7341   1.1348297517e+02   2.3576397733e+01    0.2143058    0.1464655  38.79 0.0008936577    1.245    0.197
        17  -7.6645    109.5363    200.4997   9.8475845971e+01   1.9135502094e+01    0.1267916    0.1096944  40.60 0.0001518672    1.004    0.003
        18 -13.8825      6.2522    140.3655   1.1907036416e+02   4.4625930166e+01     7.842796      1.58396 -89.47   0.02022994    6.867    0.854
        19 -10.1219     20.1539    193.7382   1.1838618325e+02   3.1276582163e+01    0.3323211    0.2370312  58.41  0.001767136    1.109    0.099
        20  -7.8813    193.3132    194.6703   8.0428412010e+01   7.6824014607e+00    0.1070334   0.09848152  67.06 0.0007043882    1.673    0.402
        21  -9.6394     13.7386    192.5002   1.1978727715e+02   3.2111185825e+01     0.208113    0.1419325  85.85  0.001173693    1.315    0.240
        22  -7.8836     99.3311    180.7161   9.8259245719e+01   2.4512689863e+01    0.1377884   0.09243926  60.09 0.0007008444    1.613    0.380
        23 -10.3376     60.8022    177.6812   1.0740535591e+02   3.0414666486e+01    0.3818091    0.2879591 -24.42  0.001792174    1.939    0.484
        24 -10.1050     66.1277    172.2591   1.0547039789e+02   3.0957344851e+01    0.3012994    0.2542263 -23.64 0.0007463084    1.571    0.364
        25  -7.9871    114.4755    173.4491   9.3562000861e+01   2.3697292835e+01    0.1353476    0.1233969  44.30 0.0001276786    1.017    0.017
        26  -7.5873     73.2715    172.6868   1.0369182245e+02   2.9924665665e+01    0.1362306   0.09073524  65.38 0.0002217168    1.553    0.356
        27  -9.8012     32.9041    168.9799   1.1374886961e+02   3.5515728729e+01    0.3813633    0.2331159 -79.91  0.001990315    1.546    0.353
        28 -11.5754     68.3806    144.2892   1.0123307478e+02   3.7230208375e+01    0.8402826    0.5428967  70.60  0.002958396    1.756    0.430
        29 -10.0279     75.9694    162.6958   1.0172388132e+02   3.1819518550e+01    0.2780112    0.2608791  44.55 0.0004328748    1.114    0.102
        30 -11.5018     80.8585    155.8888   9.9457604389e+01   3.2699474298e+01     1.213941    0.6841438  37.48  0.002382313    1.674    0.403
        31 -11.7486     63.0753    158.8189   1.0469144579e+02   3.4449054777e+01    0.4814241    0.3272709 -43.02  0.001278638    1.818    0.450
        32  -8.7217     95.5071    169.4893   9.7623835094e+01   2.7465683935e+01    0.1357674    0.1246204  52.97 8.177953e-05    1.007    0.007
        33  -8.4261    134.1944    146.7573   8.4044759630e+01   2.5884481125e+01    0.3201663    0.1138527 -55.08  0.001029072    3.582    0.721
        34 -10.7436     85.7021    140.8917   9.5710326114e+01   3.5513435083e+01    0.3553835    0.2782906 -42.40 0.0007241422    1.428    0.300
        35 -11.8456     17.4827    217.8672   1.2001507851e+02   2.6687666071e+01    0.7303131     0.372063  49.24  0.002687766    1.456    0.313
        36  -9.5402     98.9627    140.7907   9.1979464718e+01   3.3397365104e+01    0.5651566    0.3540131 -13.86  0.002073657    3.352    0.702
        37  -8.4718     76.0591    136.8431   9.7809300431e+01   3.7955887696e+01    0.2281399    0.1806078  68.30 0.0005659632    1.290    0.225
        38 -10.7086     59.4806    135.1990   1.0252004889e+02   4.0664617072e+01    0.6683612     0.318649 -79.67  0.002628708    2.507    0.601
        39  -8.0154     24.0072    133.4721   1.1323781682e+02   4.4951948903e+01    0.2015327   0.07409105  48.29 0.0008089641    2.601    0.616
        40  -9.2652    107.8030    131.0453   8.7610812984e+01   3.4126532353e+01    0.4831849    0.2490123  36.00  0.001885874    1.994    0.499
        41  -9.3755     96.3534    127.2311   9.0048318779e+01   3.7035488804e+01    0.3217909     0.265155 -17.33 0.0009027197    1.526    0.345
        42 -13.0952     58.0057    246.4484   1.1335110098e+02   1.7479505158e+01     1.914258    0.7070997  28.58  0.004663247    2.521    0.603
        43  -8.6871    115.3892    125.7637   8.4393997459e+01   3.3941297971e+01    0.2169124    0.1369541 -41.46 0.0006921524    1.677    0.404
        44  -8.1679    106.4729    119.5298   8.5456721547e+01   3.7040876515e+01    0.1481389    0.1459394 -73.90 9.268554e-05    1.024    0.023
        45  -7.6176    205.5697    110.4740   6.1148271201e+01   1.8802989987e+01    0.1385179    0.1217453 -23.48 0.0001629972    1.015    0.015
        46  -7.8767    134.6410    104.3079   7.4062747110e+01   3.4779693526e+01    0.1577516    0.1221007 -89.80 0.0005374085    1.733    0.423
        47 -10.1312      9.3348    103.6071   1.1525705264e+02   5.3696205617e+01     0.236224    0.2103453 -27.22  0.001506548    1.349    0.259
        48  -7.7626     41.5686     92.2076   1.0127050309e+02   5.3887747804e+01    0.1971988     0.117309 -55.37 0.0003851883    1.529    0.346
        49 -13.7083      7.3009    240.6885   1.2272467941e+02   2.3460926758e+01     1.731366     1.112163  85.51   0.01305703    1.511    0.338
        50  -7.5981    234.3112     86.3230   5.1306255926e+01   1.6931989202e+01    0.1287208   0.09544469   2.93 0.0004306852    1.653    0.395
        51 -10.7336     86.2312    223.3122   1.0596146828e+02   1.8111608729e+01    0.4391617    0.2674429  73.15  0.001029699    2.062    0.515
        52  -9.4352     13.2242     59.8552   1.0724641632e+02   6.4680569445e+01    0.2217827    0.1878414 -70.34 0.0005189503    1.057    0.054
        53 -12.4395    110.4463    229.5247   1.0156859645e+02   1.3949220019e+01     1.336252    0.3658032  32.17  0.005328357    3.179    0.685
        54 -11.4844    104.0701    238.1318   1.0368832442e+02   1.3387260640e+01    0.6218109    0.3282503  19.84  0.003282321    2.289    0.563
        55 -11.0471    217.1485     28.6718   3.8793378406e+01   2.7992332456e+01    0.5853238    0.3906281  42.28  0.001122159    1.959    0.490
        56 -11.7625    200.7145     42.3114   4.4100810657e+01   3.0029989186e+01    0.8429568    0.5602826  84.48    0.0034093    1.700    0.412
        57 -11.0427    112.9855    236.2381   1.0173988644e+02   1.2552164832e+01    0.3611962    0.3141701  37.09  0.002196209    1.100    0.091
        58  -8.5183    135.8639     42.3441   5.4128836502e+01   4.6034605315e+01    0.2521366    0.1928522 -45.85 0.0004510502    1.292    0.226
        59 -10.5196    194.1744     50.7535   4.7260890775e+01   3.0413364183e+01    0.3349127    0.2537773 -39.89  0.001805159    1.182    0.154
        60 -12.8032      9.2667    207.3109   1.2134143761e+02   2.9470906903e+01    0.9575322    0.7165983  13.74  0.004727301    1.759    0.431
        61 -11.6381    129.7568    232.2673   9.8004950814e+01   1.0980203296e+01    0.7182719    0.5117648  75.06  0.004411113    2.184    0.542
