#   1 NUMBER                 Running object number                                     
#   2 MAG_AUTO               Kron-like elliptical aperture magnitude                    [mag]
#   3 X_IMAGE                Object position along x                                    [pixel]
#   4 Y_IMAGE                Object position along y                                    [pixel]
#   5 X_WORLD                Barycenter position along world x axis                     [deg]
#   6 Y_WORLD                Barycenter position along world y axis                     [deg]
#   7 A_WORLD                Profile RMS along major axis (world units)                 [deg]
#   8 B_WORLD                Profile RMS along minor axis (world units)                 [deg]
#   9 THETA_WORLD            Position angle (CCW/world-x)                               [deg]
#  10 FWHM_WORLD             FWHM assuming a gaussian core                              [deg]
#  11 ELONGATION             A_IMAGE/B_IMAGE                                           
#  12 ELLIPTICITY            1 - B_IMAGE/A_IMAGE                                       
         1  -7.7657     86.2311      3.9970   3.3533875492e+01   6.1995308398e+01    0.1684328    0.1457654  10.69 0.0003441209    1.078    0.072
         2  -6.9700    210.2840      2.6897   1.1568992740e+01   3.2008616611e+01    0.1395206   0.08627909 -65.49 0.0005027422    1.571    0.363
         3  -7.2609     59.4475    244.5332   9.2960326697e+01   1.7844542355e+01    0.1123773   0.08251156  66.22 3.574269e-05    1.056    0.053
         4  -7.3850    169.2036    250.7044   7.3993953437e+01  -1.1268250824e-01     0.167186   0.08571447  38.65 0.0003908421    1.566    0.362
         5  -7.4041    141.6565    250.6947   7.8968669662e+01   4.4199328214e+00    0.1599477   0.08459939  46.92 0.0008889366    1.445    0.308
         6  -7.0168     27.4024    242.4534   9.8151191212e+01   2.2152697236e+01    0.1067174   0.07317315  70.97 0.0003346606    1.028    0.027
         7  -8.7866     59.2218    231.2234   9.2026299645e+01   2.0278122030e+01    0.1992494    0.1507643  65.48  0.000209443    1.080    0.074
         8  -8.6610    237.8917    230.3793   5.8750227598e+01  -8.5945714671e+00    0.2024825    0.1528598  -3.87 0.0005411428    1.283    0.220
         9  -8.8672    132.3143    230.2349   7.8285121774e+01   9.2544063249e+00     0.215586    0.1652253  57.25 0.0002780433    1.092    0.084
        10  -8.1417    117.9830    225.6916   8.0497856841e+01   1.2456637373e+01    0.2135217    0.1603259 -71.72 0.0009293934    1.501    0.334
        11  -6.8126    162.7100    224.3006   7.1635375341e+01   4.9499235144e+00    0.1248697   0.09115797  66.16 0.0003332345    1.563    0.360
        12  -7.3101    237.9114    211.8388   5.5603082462e+01  -6.2711000224e+00    0.1594788    0.1349565  40.69 0.0005782616    1.339    0.253
        13  -7.3389    155.5893    210.4857   7.1002942896e+01   8.5607854550e+00     0.133063    0.1148299  47.07   7.2963e-05    1.030    0.029
        14  -8.0894     59.6644    207.5241   8.9982591946e+01   2.4818342131e+01    0.1967235     0.156681 -86.95 0.0003114704    1.206    0.171
        15  -7.4725     65.5287    204.8209   8.8576653980e+01   2.4572904148e+01    0.1694441    0.1076134 -76.47 0.0009996167    1.499    0.333
        16  -7.5660     40.9739    204.7221   9.3357218570e+01   2.7748546489e+01      0.16225    0.1235463  64.65 0.0005714805    1.131    0.116
        17  -7.0488    244.4671    204.5086   5.3155611348e+01  -6.3670485456e+00    0.1231877    0.1046092  12.44 -7.452294e-06    1.052    0.050
        18  -7.2560    102.9673    200.0192   8.0374673194e+01   1.9868537378e+01    0.1832498    0.1657107 -10.51  0.000935451    1.674    0.403
        19  -6.7744    137.0000    196.9673   7.2772361807e+01   1.4492439373e+01    0.1984335   0.07917663 -53.62 0.0004104397    2.819    0.645
        20  -7.2075     65.7521    196.9891   8.7758418918e+01   2.6163761369e+01    0.1571572   0.09500965 -74.52 0.0008801249    1.568    0.362
        21  -7.7440     94.0159    194.5316   8.1567967356e+01   2.2459384362e+01    0.1938428    0.1580468 -88.45 0.0001066537    1.161    0.139
        22  -9.7089    144.3015    178.6150   6.8188878338e+01   1.6756273630e+01    0.2726609    0.2472807 -60.16 0.0003850885    1.200    0.167
        23  -6.8116     22.7277    177.3383   9.4838490805e+01   3.5494818497e+01    0.1233372   0.06756242  72.85 0.0003150202    1.605    0.377
        24  -7.9626    150.0826    176.0486   6.6460981606e+01   1.6134619291e+01    0.2475602    0.1882507  46.48 0.0003516428    1.203    0.169
        25  -6.7422    156.6723    172.3093   6.4325685067e+01   1.5562636042e+01    0.1496484    0.1111307  76.52 0.0007039752    1.660    0.398
        26  -8.9958     87.8681    168.4533   7.9408075966e+01   2.9125136933e+01    0.2524213    0.2029412 -84.10 0.0002630935    1.151    0.131
        27  -7.2551    150.1383    169.3548   6.5214443889e+01   1.7489915084e+01      0.21366    0.1254758  53.29 0.0003398767    1.669    0.401
        28  -7.0211    175.3033    168.7232   5.9611092669e+01   1.2434545349e+01    0.1422874    0.1130926  77.12 0.0001611212    1.544    0.352
        29  -7.0729    142.5780    167.5439   6.6574455892e+01   1.9390585655e+01    0.1464791    0.1343083  64.65 2.571036e-05    1.010    0.010
        30  -6.9000    201.7461    155.3322   5.1387325981e+01   9.3892802649e+00    0.1395085    0.1152981 -75.72 0.0003163777    1.560    0.359
        31  -7.4211     71.5408    154.9543   8.1340310458e+01   3.4686472049e+01    0.1882744   0.09821014 -45.44 0.0008087158    2.500    0.600
        32  -7.9864     52.1856    153.5602   8.5851454353e+01   3.7570471498e+01    0.2097725     0.155464 -77.60 0.0003591067    1.164    0.141
        33  -8.0162    230.0727    152.1548   4.5350654515e+01   4.1097098237e+00    0.1983892    0.1932895  17.17 0.0004017176    1.098    0.089
        34  -7.5017     83.0619    151.0569   7.7900666321e+01   3.3878959837e+01    0.2381867    0.1545464  75.72  0.001142925    1.751    0.429
        35  -7.8976     96.8873    143.9317   7.3187473160e+01   3.3290606212e+01      0.21127    0.1920953  78.48 0.0004767338    1.032    0.031
        36  -7.3552    242.8422    141.1211   4.0744898905e+01   3.4027589571e+00    0.1850511    0.1537859   6.09 0.0003772342    1.272    0.214
        37  -9.0308    155.7686    133.3962   5.6402519710e+01   2.3896702742e+01    0.3972723     0.281467 -34.12 0.0009330647    1.619    0.382
        38  -9.0206     41.0634    128.7463   8.5341871045e+01   4.4616766308e+01    0.2933041    0.2027739  71.58 0.0006744948    1.497    0.332
        39  -8.7493     76.8637    124.4490   7.4847308105e+01   4.1095718868e+01     0.300266    0.2112784   6.82 0.0007631904    2.316    0.568
        40  -7.0331    237.2290    119.0174   3.6720811072e+01   8.2378133537e+00    0.1867023    0.1123338 -35.87 0.0002617311    1.567    0.362
        41  -7.5469    134.2139    118.9074   5.8213821719e+01   3.1812529611e+01    0.2097766    0.1964833 -64.68 0.0003558317    1.061    0.057
        42  -7.0908    197.5155    116.4975   4.3284138714e+01   1.7647085770e+01    0.1506785    0.1505116  -0.56 0.0008103911    1.022    0.021
        43  -8.0209     73.3154    115.9092   7.4165656420e+01   4.3632071152e+01    0.1940837    0.1646878 -65.93 0.0004117786    1.068    0.064
        44 -10.3610     62.0285    113.9404   7.7032385394e+01   4.5642863173e+01    0.2897483    0.2206624 -66.21 0.0003033515    1.167    0.143
        45  -7.0718     90.6928    113.6394   6.8717567231e+01   4.1446636570e+01    0.1477038    0.1114215 -26.07 0.0007040052    1.735    0.424
        46  -7.3621    244.5120    107.5186   3.2913869579e+01   8.6163531445e+00    0.1405838    0.1303401 -35.07 0.0002798878    1.022    0.021
        47  -7.8807    112.9139    100.6335   5.9264611676e+01   4.0321457255e+01    0.2436323    0.2010303 -38.36 0.0003858502    1.259    0.205
        48  -7.0087     29.1846     99.3833   8.4191467258e+01   5.2546959306e+01    0.1518004    0.1097456  46.11 0.0004125462    1.594    0.373
        49  -7.0858    176.6663     94.2557   4.1817226371e+01   2.6985971773e+01    0.1576586    0.1221459 -87.45 0.0002590902    1.566    0.362
        50  -7.1179     80.3867     82.7296   6.4160195873e+01   5.0119186507e+01    0.1396042    0.1081235  74.97 0.0006991029    1.709    0.415
        51  -7.4949    138.8867     77.8543   4.5862548294e+01   3.9393502622e+01    0.2110131    0.1812772 -83.63  0.001041948    1.321    0.243
        52  -8.3285    205.8789     74.3101   3.0920542474e+01   2.3255056260e+01    0.2476689    0.2150058 -36.28 0.0003900806    1.184    0.155
        53  -8.2646    132.1897     75.0014   4.6714241949e+01   4.1503744172e+01     0.240278    0.2094058  47.31 0.0002653555    1.136    0.120
        54  -7.7068    100.9313     75.4832   5.5657450952e+01   4.8036982936e+01    0.1997321    0.1432842  40.95 6.706433e-06    1.437    0.304
        55  -7.8156    218.3014     70.9803   2.8063091355e+01   2.0723993951e+01    0.1998234    0.1812504 -48.40 0.0002616201    1.081    0.075
        56  -6.9767    104.7138     70.2953   5.2921757795e+01   4.8336051595e+01    0.1399344    0.1159439 -83.69            0    1.546    0.353
        57  -9.0735    102.7361     63.3553   5.1293821821e+01   5.0063948425e+01     0.378776    0.2492087 -32.43 0.0002565263    1.573    0.364
        58  -6.7979    171.6719     61.3085   3.3527123363e+01   3.4202150230e+01    0.1604427    0.1169764 -75.17  0.000215358    1.659    0.397
        59  -7.4855    243.5303     64.5816   2.2966923470e+01   1.5737043284e+01    0.1417263    0.1226028 -64.37 -4.396807e-05    1.052    0.050
        60  -7.6513    171.0642     54.5700   3.1648756096e+01   3.5452674217e+01    0.2183324    0.2025052 -39.56 0.0003749584    1.134    0.118
        61  -7.2843    192.8522     53.8312   2.7541898125e+01   2.9903747020e+01    0.2028524    0.1646914 -74.51            0    1.263    0.208
        62  -6.8994     99.6138     47.5201   4.6831552457e+01   5.3504381710e+01    0.1369172    0.1293304 -10.56 0.0001268417    1.040    0.039
        63  -6.9203     75.5581     42.5044   5.2899550854e+01   5.8743615880e+01    0.1314174    0.1184609 -12.75 5.800859e-05    1.024    0.023
        64  -8.1639    150.9749     38.9056   3.0782039062e+01   4.2975326107e+01    0.2109424    0.2017104  58.74 0.0003735413    1.026    0.025
        65  -8.5101    101.0500     22.3106   3.6884804166e+01   5.6909414044e+01    0.1975371    0.1655379  41.46  0.001165884    1.119    0.106
        66  -8.6287    187.3113     16.6230   1.7896787309e+01   3.6366687007e+01    0.2356983    0.2116227  63.02 0.0002703569    1.136    0.120
        67  -6.4574    137.7043     15.6466   2.5650084737e+01   4.9218337167e+01    0.1467887   0.09704241  31.15 0.0002861928    1.689    0.408
        68 -10.2093    108.0310    242.0243   8.4148499657e+01   1.1222184764e+01    0.2192617    0.1869928 -89.44 0.0005736688    1.289    0.224
