#   1 NUMBER                 Running object number                                     
#   2 MAG_AUTO               Kron-like elliptical aperture magnitude                    [mag]
#   3 X_IMAGE                Object position along x                                    [pixel]
#   4 Y_IMAGE                Object position along y                                    [pixel]
#   5 X_WORLD                Barycenter position along world x axis                     [deg]
#   6 Y_WORLD                Barycenter position along world y axis                     [deg]
#   7 A_WORLD                Profile RMS along major axis (world units)                 [deg]
#   8 B_WORLD                Profile RMS along minor axis (world units)                 [deg]
#   9 THETA_WORLD            Position angle (CCW/world-x)                               [deg]
#  10 FWHM_WORLD             FWHM assuming a gaussian core                              [deg]
#  11 ELONGATION             A_IMAGE/B_IMAGE                                           
#  12 ELLIPTICITY            1 - B_IMAGE/A_IMAGE                                       
         1 -13.0837     38.7722     51.7671   8.7837392265e+01   6.2306959551e+01     1.844059    0.4666257 -40.49  0.006304663    3.780    0.735
         2 -12.4199     76.0339     34.6249   6.6622923115e+01   5.9461645871e+01     1.253489    0.6185282  16.90  0.004251119    4.253    0.765
         3 -11.6430     19.8783     17.0573   8.3080120614e+01   7.0227576697e+01     0.428441    0.2760907   7.62  0.002742633    1.425    0.298
         4 -12.4940      8.1904      8.9678   8.5737056484e+01   7.2537960895e+01    0.4028522    0.2025693  29.54  0.001006747    2.146    0.534
         5 -11.8728      4.1083     17.7583   9.2030400618e+01   7.1509898182e+01    0.4055666    0.3737416  46.81  0.002476188    1.805    0.446
         6 -11.8445      9.9649     15.5179   8.7763229665e+01   7.1402045657e+01     0.251023    0.1581407 -19.48 0.0004310886    1.304    0.233
         7 -10.0788      5.4614     13.5152   8.9424040899e+01   7.2082033545e+01    0.1795859    0.1582543 -43.04 0.0005913507    1.573    0.364
         8  -9.5036     43.5323      8.4533   6.7525849186e+01   6.8280918279e+01    0.4350158    0.2053869 -31.35  0.002127551    2.144    0.534
         9 -11.0982     48.7450     15.6916   6.8781116328e+01   6.6621999038e+01    0.5247293    0.2987084  27.56  0.002924685    1.625    0.385
        10 -11.2165     40.0102     15.2939   7.2385320738e+01   6.7980666368e+01    0.3583051    0.2250246  23.48  0.001460967    1.435    0.303
        11 -10.3673     39.7388     11.0223   7.0454594199e+01   6.8550337853e+01    0.2300346    0.1854742 -15.47 0.0005492287    1.235    0.190
        12 -10.9175    159.1866     15.7855   4.0984965327e+01   4.2913586180e+01    0.3123676    0.1229323 -48.72   0.00124573    3.001    0.667
        13 -11.0536    156.4258      6.6056   3.8746257509e+01   4.4449321182e+01    0.2534898    0.2079076 -31.49  0.001237149    1.389    0.280
        14 -11.6849    233.9773     13.1044   3.2561404042e+01   2.6125253992e+01    0.4234315    0.1482404 -33.06   0.00194456    2.792    0.642
        15 -11.4024     73.7234     15.7009   5.9554533151e+01   6.2238561358e+01    0.4820896    0.4141726  57.64  0.001655706    1.399    0.285
        16 -10.9861     75.6916     11.3077   5.7039592368e+01   6.2307860208e+01    0.2963808     0.245873 -54.90  0.001594212    1.725    0.420
        17 -10.3836    118.0834     11.2817   4.6446125808e+01   5.3133283966e+01    0.3274745    0.1735454 -31.53  0.001636137    2.083    0.520
        18 -12.0323    128.8692     11.6040   4.4519564021e+01   5.0578837880e+01    0.4394989    0.2812988  81.98  0.002275829    1.736    0.424
        19 -10.2615     22.5692     13.2071   7.9866118194e+01   7.0489819921e+01    0.2077409   0.09518608 -33.58   0.00112079    1.957    0.489
        20  -9.8181    138.8183     12.0822   4.2969620427e+01   4.8169223237e+01    0.2264559    0.1434965 -37.66  0.001213791    1.739    0.425
        21 -11.3655    228.1274     11.7990   3.2741917705e+01   2.7496375282e+01    0.3507595    0.1650631  63.05  0.001848591    2.113    0.527
        22 -10.3397    100.2537     11.9631   5.0592251952e+01   5.7107051681e+01    0.1708394    0.1494221  28.83 0.0002512996    1.081    0.075
        23 -11.1741     79.0359     10.6381   5.5737082249e+01   6.1708511791e+01    0.2448205     0.178067  27.82  0.000463821    1.222    0.181
        24 -10.6308    164.2295      9.0350   3.8422217306e+01   4.2359041768e+01    0.2300812    0.2192637 -54.43 0.0003506424    1.180    0.153
        25 -10.1501    164.5784      5.5174   3.7415107505e+01   4.2599392844e+01     0.225484    0.1692059 -74.16 0.0005452511    1.329    0.247
        26 -11.8444    146.1436      6.6825   4.0186919748e+01   4.6904088754e+01    0.4828248    0.3589161 -22.60  0.002402412    1.572    0.364
        27 -10.9580    147.9603      1.7456   3.8466852210e+01   4.6888646944e+01    0.4773722    0.1737876  76.05  0.001872639    2.864    0.651
        28 -10.4598     33.3190      1.7932   6.8733670696e+01   7.0528703972e+01     0.242886    0.1625411  31.83 0.0008034633    1.368    0.269
        29 -10.4335     16.9966      8.5289   8.0555190528e+01   7.1743439365e+01    0.3185049    0.1689868 -19.02  0.001105572    1.801    0.445
        30 -11.9248     12.5826      2.7117   8.0050712884e+01   7.2979390101e+01    0.4158479    0.2964927  29.25  0.002080127    1.635    0.388
        31 -11.0565     26.3396      2.5103   7.2518323499e+01   7.1399010617e+01    0.2777157    0.1788035  27.44 0.0008950852    1.400    0.286
        32 -10.6824     24.0121      8.0050   7.6554479431e+01   7.1018417933e+01     0.199454     0.168368  27.17   0.00078024    1.518    0.341
        33 -11.6381     20.9748      4.1620   7.6174479991e+01   7.1865728113e+01    0.4172769    0.1982598 -30.54  0.001631645    1.922    0.480
        34 -12.2222    214.6805      7.3415   3.2865337359e+01   3.0868956464e+01    0.4125021     0.266546  76.44  0.001964615    1.396    0.284
        35 -12.9847    213.1837      4.3845   3.2339713381e+01   3.1498706897e+01     1.007889     0.349413  82.38  0.004157214    3.110    0.678
        36 -11.3589    194.4078      2.0495   3.3410470496e+01   3.5935976668e+01    0.3561988    0.2141939  89.99  0.001305408    1.521    0.342
        37 -12.0626     98.0757      4.5216   4.8247668658e+01   5.8235207538e+01     0.343636    0.2389454  11.93   0.00200141    1.590    0.371
        38 -10.5061     91.3321      7.2914   5.0969245449e+01   5.9463343222e+01    0.2776657    0.1560308  48.62  0.001482923    1.477    0.323
        39 -10.1882     93.4616      4.4784   4.9320604727e+01   5.9243642809e+01    0.2085957    0.1748558  30.67 4.433248e-05    1.089    0.081
        40  -9.2534     86.0039      7.9417   5.2630371756e+01   6.0531478680e+01    0.1432061    0.1235354  22.23            0    1.087    0.080
        41 -11.4555    230.9496      6.4335   3.1419177048e+01   2.7477605545e+01    0.2376932    0.1739847 -79.81 0.0003603293    1.134    0.118
        42 -12.4128    179.1441      4.4205   3.5482260937e+01   3.9251951390e+01    0.3393908    0.2367354 -84.12 0.0003481455    1.335    0.251
        43  -8.8920     56.2920      5.7148   6.1085647355e+01   6.6467183977e+01   0.09923519   0.09748141 -80.65 0.0001970195    1.538    0.350
        44 -10.9764    247.0198      4.3142   2.9913691894e+01   2.4430095519e+01    0.1613965    0.1194512 -76.43  0.000254923    1.089    0.082
        45 -11.1148    191.4547      6.8327   3.4830617839e+01   3.6154936260e+01    0.3851333    0.3246315 -35.38   0.00187095    1.350    0.259
        46 -10.6386    126.5416      2.6045   4.1956203218e+01   5.1895145104e+01    0.2472052    0.2030131  28.87 0.0006126083    1.302    0.232
        47 -10.0510     74.4551      2.6323   5.3637154902e+01   6.3343944617e+01    0.2616225    0.1833568 -52.77  0.001161444    2.207    0.547
        48 -11.2441     67.4967      3.8160   5.6316958420e+01   6.4595730189e+01    0.2807395    0.1672184  47.79 0.0003525343    1.468    0.319
        49 -10.8890    243.1588      2.7019   2.9848182548e+01   2.5369166605e+01    0.1883505    0.1610533 -59.08 0.0003968532    1.212    0.175
        50 -10.5267    237.3636      2.6365   3.0211480754e+01   2.6548708758e+01    0.1939691    0.1030958 -64.40  0.001011511    1.646    0.392
        51 -10.5266    168.7616      2.1092   3.6010138367e+01   4.1908484340e+01    0.3522396    0.1692535 -84.05  0.001542059    2.568    0.611
        52  -9.1607    118.6016      3.7381   4.3732649773e+01   5.3656662794e+01    0.1399729   0.07626286  42.88 0.0006969374    1.718    0.418
        53 -10.6125    230.7123      1.7034   3.0472861193e+01   2.8017311840e+01    0.1840133    0.1338623  75.19 0.0005175158    1.340    0.254
        54  -9.2686    158.6251      2.2426   3.7236599531e+01   4.4304967236e+01    0.1299484   0.08462685 -78.43 0.0003361822    1.627    0.385
        55 -10.7607    108.1138      1.6576   4.5010717179e+01   5.6222142824e+01    0.2086727    0.1495093  52.01 0.0006511561    1.161    0.139
        56 -10.3942     81.4114      5.2387   5.2764596935e+01   6.1718419920e+01    0.2113734    0.1979968 -45.33  0.001451077    1.378    0.274
        57  -9.1027     82.3006      1.2935   5.0856233829e+01   6.1861331337e+01    0.1294474   0.07639157  32.01 0.0003084503    1.570    0.363
        58 -11.2684     40.0425    162.7214   1.1091630595e+02   3.6301622446e+01    0.3657095    0.2509575 -69.88  0.001092771    1.292    0.226
        59 -12.1433    234.9902    248.7841   8.0655610452e+01  -9.9540473855e+00    0.4976262    0.2870143  -9.20  0.002929299    1.769    0.435
        60 -11.3607    224.5972    247.9514   8.2383242088e+01  -8.5194579200e+00     0.382465     0.153597 -34.27  0.001915027    2.538    0.606
        61 -12.6151    228.3167    243.9739   8.1070049183e+01  -8.4824336684e+00     0.395352    0.2876886  -2.71  0.002659396    1.150    0.131
        62 -11.2687     88.9189    249.6545   1.0938231518e+02   1.0900792281e+01     0.288047    0.1982115  38.82 0.0008278416    1.273    0.215
        63 -10.0698     72.5738    250.1283   1.1265380947e+02   1.3032528036e+01    0.1903477    0.1615582   5.56  0.001266902    1.689    0.408
        64 -13.1797     19.3794    238.0154   1.2193073046e+02   2.1669537442e+01     1.654845    0.4502575  58.54  0.006680917    3.754    0.734
        65 -11.6635      5.1026    235.7154   1.2441385604e+02   2.3531405093e+01    0.5585996    0.2623917  46.06  0.002404448    1.737    0.424
        66 -13.2909      5.7491    245.3890   1.2475680708e+02   2.1604384281e+01    0.9013714    0.5041623  41.23  0.004469229    1.616    0.381
        67 -12.4520     22.2870    249.1124   1.2202536612e+02   1.9228346974e+01    0.6002777    0.2207118  37.29  0.001788813    2.328    0.570
        68 -11.1350     17.4825    247.4799   1.2279453778e+02   2.0038779552e+01    0.2064612    0.1657025  76.35 0.0006626737    1.136    0.120
        69 -12.0841     50.0765    161.6692   1.0812935903e+02   3.5425343473e+01    0.5888561    0.4155056  63.69  0.001419182    1.484    0.326
        70 -11.2968     44.8314    162.8724   1.0967813101e+02   3.5735635436e+01    0.3640932    0.2189362 -74.67  0.001410125    1.544    0.353
        71 -10.0670     99.1617    164.9162   9.5552475785e+01   2.7593590474e+01     0.218927    0.1923484  81.18 0.0003713227    1.189    0.159
        72  -9.7637     67.2124    165.4012   1.0410748820e+02   3.2324307704e+01    0.2033773    0.1203001  46.22  0.000948963    1.711    0.416
        73 -10.2676      9.9713    162.7409   1.1857360141e+02   3.9095428099e+01    0.3095779    0.1298295  39.45  0.001110456    2.383    0.580
        74  -9.0183    200.3323    162.6665   7.1225597097e+01   9.0929685739e+00    0.1399983    0.1166801 -80.77 0.0007052225    1.730    0.422
        75 -12.3886     22.3174    156.8263   1.1486261879e+02   3.9485519435e+01    0.5867072    0.5313688  -9.08  0.003877302    1.415    0.293
        76  -9.4047    216.3790    155.1983   6.6553177288e+01   7.5222113014e+00    0.1923516    0.1225194 -45.88 0.0003689583    1.574    0.365
        77  -9.5020    157.4978    155.0155   7.8837637161e+01   1.8984182721e+01    0.2298645     0.128684 -24.81 0.0008102083    2.713    0.631
        78 -10.0338     11.4029    153.4922   1.1734906718e+02   4.1197910808e+01    0.2268951    0.1250614  24.00  0.001210625    2.164    0.538
        79  -9.9040    177.3675    150.8727   7.3426061383e+01   1.5866399042e+01    0.2831185    0.2084906  68.10  0.001285328    1.874    0.466
        80 -10.0974     33.0570    148.0634   1.1092930883e+02   4.0634382892e+01    0.1989416    0.1683612 -72.11 0.0004134378    1.041    0.039
        81 -10.1884     17.8389    146.9314   1.1495924091e+02   4.2278345993e+01    0.2758401    0.1923276 -21.38 0.0009275159    1.962    0.490
        82 -10.3827    207.0866    146.3339   6.6360994196e+01   1.0893244844e+01    0.1950602    0.1837804  27.26 0.0007179482    1.132    0.117
        83  -9.1303     41.2810    146.2870   1.0838593962e+02   4.0232101642e+01    0.1325194   0.09494577 -42.04 0.0001690351    1.521    0.343
        84  -9.4913    220.4626    143.9485   6.3383463517e+01   8.8058984030e+00    0.2125471    0.1264128 -38.90  0.000652571    1.520    0.342
        85  -9.6905     82.4091    139.7874   9.5398502622e+01   3.6455265201e+01    0.2137332     0.129267 -47.64 0.0009407162    1.618    0.382
        86  -9.4344     10.9766    141.0000   1.1617174186e+02   4.4252153847e+01    0.1722589   0.07345849  21.07 0.0004144369    2.843    0.648
        87  -9.8309     56.1618    138.9912   1.0293891175e+02   4.0335271972e+01    0.3522447    0.1605088  46.69  0.001420267    2.492    0.599
        88 -10.5927      2.8101    137.4469   1.1803413251e+02   4.5667372776e+01    0.2702062    0.1338428 -73.06 0.0009403026    1.609    0.378
        89  -9.9302      9.4576    136.8722   1.1613802318e+02   4.5362375311e+01    0.1921936    0.1036278 -72.85  0.000385993    1.514    0.340
        90  -9.6833     20.6848    135.2225   1.1275509673e+02   4.4915224514e+01    0.1956819   0.09371883 -62.53 0.0009355837    1.699    0.411
        91 -10.0290    249.2932    133.9911   5.6556069990e+01   5.3933651664e+00    0.1941358     0.149613 -34.39 0.0007604783    1.095    0.087
        92 -10.5953    128.1730    132.5141   8.0980386940e+01   2.9943672982e+01    0.2684483    0.2140782 -47.10 0.0004145103    1.237    0.192
        93 -10.5790    111.8965    131.9874   8.5276122024e+01   3.3248586577e+01    0.3378423    0.2317284 -59.28  0.001505221    1.539    0.350
        94 -10.3221     55.2752    133.0113   1.0215065488e+02   4.1939137174e+01    0.3145778    0.1814363  41.20 0.0009889455    1.858    0.462
        95 -11.2634     73.9101    129.6804   9.5860094905e+01   4.0245699532e+01    0.3347983     0.287715  78.36  0.001148515    1.292    0.226
        96 -11.0511     37.0244    130.0812   1.0717864685e+02   4.4706435397e+01    0.3465407    0.2871971 -43.91  0.001521437    1.223    0.182
        97 -10.0268     38.3046    126.6301   1.0622559972e+02   4.5433952177e+01    0.2801364    0.1885352  64.64  0.001421157    1.798    0.444
        98 -10.2623     24.1547    126.0042   1.1046318048e+02   4.6895761440e+01    0.1955007    0.1666499 -67.51 0.0004988561    1.011    0.011
        99 -11.6799     13.3368    124.8163   1.1356505107e+02   4.8020996949e+01    0.6688398    0.3196641  41.96  0.002469138    2.372    0.578
       100 -11.2854     21.7404    121.1631   1.1049160724e+02   4.8280634876e+01    0.2801225    0.2109614 -20.00            0    1.598    0.374
       101  -9.6787    220.4428    124.4876   5.9069007096e+01   1.2311205260e+01    0.1418683    0.1267401 -34.77 8.631233e-05    1.007    0.007
       102 -10.8149      2.7201    122.9924   1.1649720571e+02   4.9148736086e+01    0.2440717    0.1994077  -1.27  0.001505961    1.549    0.354
       103 -10.0081      1.3985    119.0174   1.1642561357e+02   5.0177681758e+01    0.1884206   0.09931041 -73.94 0.0003316647    1.544    0.352
       104  -9.3894     32.2503    121.6314   1.0728203011e+02   4.7257785962e+01    0.1616451    0.1273133  -3.87 0.0002347653    1.552    0.356
       105 -10.4025     72.1278    117.2990   9.3734184058e+01   4.3544349816e+01    0.4003367    0.1685484 -64.54  0.001361464    2.976    0.664
       106  -9.9583    213.9949    115.6655   5.8147664175e+01   1.5184366306e+01    0.1897513    0.1797218  43.17 0.0004893179    1.156    0.135
       107 -10.7566     16.0698    115.8472   1.1148113469e+02   5.0005903179e+01    0.2074962    0.1752452 -36.97  0.000501795    1.251    0.201
       108 -10.9676    249.3038    112.1749   5.1958407199e+01   8.9890649483e+00     0.259662    0.1908697 -47.97 0.0004711674    1.224    0.183
       109  -9.9219     94.9695    112.4922   8.5464058224e+01   4.0963935174e+01    0.2459566    0.2005655 -49.63  0.001016034    1.185    0.156
       110  -9.9764     42.7310    111.4220   1.0204370254e+02   4.8716199198e+01    0.3248467    0.1546835 -36.41  0.001318191    2.518    0.603
       111 -11.5973     55.1361    110.4268   9.7717143066e+01   4.7523966785e+01    0.2746684    0.2483501 -39.95 0.0003797279    1.060    0.056
       112 -11.3370     36.4691    109.7874   1.0380999529e+02   4.9754203009e+01    0.3514451    0.2643473  78.53 0.0009306006    1.620    0.383
       113 -10.0089      5.6774    106.6559   1.1348459693e+02   5.2886706050e+01    0.1993348    0.1309057 -38.96 0.0008760913    1.522    0.343
       114 -10.3444      1.3190    108.8597   1.1518702151e+02   5.2604132365e+01     0.334718    0.1561563 -83.67  0.001400349    2.188    0.543
       115 -10.1286      2.4700    105.4907   1.1436467191e+02   5.3341455169e+01    0.1850801    0.1694191  51.03 6.831668e-05    1.313    0.238
       116 -12.0599     14.5934    108.4596   1.1083875975e+02   5.1892807430e+01     0.396725     0.347303 -31.86   0.00262415    1.230    0.187
       117  -9.1983     83.0000    108.9963   8.8300283725e+01   4.3836034238e+01    0.2529323   0.08132563 -52.32 0.0008041171    2.954    0.661
       118 -10.6960     25.0058    107.5125   1.0722772994e+02   5.1336239773e+01    0.2622283    0.2059426 -74.77    0.0015616    1.212    0.175
       119 -10.6127     25.4913    101.7982   1.0602541603e+02   5.2667330940e+01    0.4431226    0.2307694 -84.26  0.001880619    2.670    0.626
       120 -10.0411     50.7915    104.8669   9.7951659810e+01   4.9390857301e+01    0.3861884    0.1919935 -27.35  0.001422073    3.173    0.685
       121 -10.3204    243.9351    104.7185   5.1101073698e+01   1.1194019115e+01    0.1797152    0.1639287 -47.34 0.0005307969    1.068    0.064
       122  -9.1522    186.4818    104.4220   6.0424922121e+01   2.3150846692e+01     0.147829    0.1412791 -58.12 9.319647e-05    1.032    0.031
       123 -10.8252    120.7137    100.1410   7.4632050120e+01   3.8704041384e+01    0.5290514    0.2958073 -19.12  0.001682859    3.547    0.718
       124  -9.7055     87.9817    104.0301   8.5442878529e+01   4.4150874762e+01    0.1798049    0.1680595 -36.86 0.0004490461    1.017    0.017
       125  -9.9907     31.7545    103.6041   1.0421276208e+02   5.1691697298e+01    0.2604617    0.1647743  86.06  0.001232561    2.194    0.544
       126 -10.5041     37.0196    102.2539   1.0212469306e+02   5.1514662943e+01     0.345834    0.2310886  15.45   0.00126859    1.750    0.429
       127  -9.7392    247.3062    102.3019   5.0126198137e+01   1.0959633804e+01    0.1242985   0.09994111  -4.26 0.0004037117    1.597    0.374
       128 -11.2647      2.6147     97.2780   1.1313313817e+02   5.5267234151e+01    0.4591727    0.2349172  71.04  0.002059343    3.046    0.672
       129 -11.3607    143.1837     98.4962   6.8304812623e+01   3.4132816659e+01     0.610025    0.3970749  58.27  0.002630583    1.716    0.417
       130 -10.7305     61.9068     98.8673   9.2725858979e+01   4.9389698877e+01    0.3129419    0.2798631 -21.57 0.0009267246    1.111    0.100
       131 -12.8048    158.1873     89.5198   6.2329341430e+01   3.2437584742e+01    0.7283501    0.5050429 -52.39  0.003210085    1.531    0.347
       132 -12.6848    164.6014     83.6461   5.9341987057e+01   3.2014256244e+01     1.619137    0.6600461  55.50   0.00579838    2.541    0.607
       133 -10.8622     39.9759     96.2775   9.9799903509e+01   5.2631906218e+01    0.3501348    0.2230286  46.87  0.001130196    1.942    0.485
       134 -10.4778    153.5972     96.2454   6.5211080365e+01   3.2210670317e+01    0.2082681    0.1469958 -29.58 0.0003366093    1.533    0.348
       135 -10.2852     66.5877     98.2467   9.0967288416e+01   4.8877132634e+01    0.2368204    0.1988968  20.25 0.0005529039    1.271    0.213
       136 -10.9416     20.9915     92.9887   1.0592580981e+02   5.5104533781e+01    0.5702116          nan -58.12  0.001512685    5.594    0.821
       137 -11.6368     26.4362     91.9321   1.0373813833e+02   5.4917064779e+01    0.6845065    0.2851743 -72.81  0.002622786    3.080    0.675
       138 -10.9325     22.2315     87.1228   1.0427697254e+02   5.6370016660e+01    0.2527232    0.2324992   6.96 0.0009540429    1.246    0.198
       139 -10.1754    134.5175     93.4920   6.9072993607e+01   3.7084142585e+01    0.1526523    0.1497991  -0.61 0.0008103516    1.012    0.012
       140  -9.6624    108.6887     92.1456   7.5784999327e+01   4.2879507987e+01    0.3113768    0.1345476 -50.53  0.001090614    2.547    0.607
       141 -10.1951     58.3134     93.3206   9.2569559885e+01   5.1155537395e+01    0.1481083    0.1000332 -25.63 0.0003323021    1.653    0.395
       142  -9.4623     31.3804     93.1502   1.0220094969e+02   5.4201042548e+01    0.1778378    0.1162627 -70.55 0.0003821294    1.568    0.362
       143  -9.3028    127.6619     92.7024   7.0635263682e+01   3.8759012149e+01    0.1576414      0.12137   7.72 0.0003731323    1.657    0.397
       144  -9.5357     46.5458     92.5571   9.6576652264e+01   5.2783703777e+01    0.1358285    0.1226037 -47.00 6.157989e-05    1.053    0.050
       145 -10.9611     11.0529     90.5741   1.0906010468e+02   5.6350866273e+01    0.3065634    0.2853764  -6.16  0.001072458    1.249    0.199
       146 -10.6587     96.4996     89.5094   7.8709171114e+01   4.5823155250e+01    0.3098021    0.1471087  40.18  0.001206249    2.149    0.535
       147 -10.4290     83.0382     88.9322   8.2872953821e+01   4.8374949570e+01    0.2245613    0.2008176 -21.07 0.0005503288    1.077    0.071
       148 -10.7541     78.6539     88.0141   8.4073253192e+01   4.9312039863e+01    0.3509389    0.2200193 -53.09  0.001616839    1.631    0.387
       149 -10.2272     58.1676     89.5675   9.1639895334e+01   5.2029062951e+01    0.3360602    0.1407169  28.14  0.001320849    2.674    0.626
       150  -9.6720    250.0145     95.7410   4.8376429683e+01   1.1508380732e+01    0.1739852    0.1554702 -54.30 0.0004446117    1.076    0.071
       151 -10.2418     65.0099     87.4891   8.8641262793e+01   5.1543327945e+01     0.241939    0.2046789  30.34  0.001181439    1.261    0.207
       152 -10.1600     67.9635     84.0068   8.6609718074e+01   5.1871364442e+01    0.3554787      0.19316 -23.95  0.001369114    2.705    0.630
       153 -10.7776     46.1587     87.3761   9.5431140156e+01   5.4014991844e+01    0.3765666    0.2588424 -65.48  0.001609258    1.561    0.359
       154  -9.5903     42.9850     82.9741   9.5483340498e+01   5.5364448346e+01    0.2954491    0.1489006  42.50  0.001313227    2.472    0.595
       155 -10.4350     50.5668     99.1609   9.6725382097e+01   5.0772543648e+01    0.2234925    0.1947359   1.03 0.0003711056    1.240    0.194
       156  -9.2938    120.7118     87.3055   7.0940669093e+01   4.1356103081e+01    0.1483542    0.1223792 -82.79 0.0003891967    1.569    0.363
       157 -11.4322      5.6313     83.7242   1.0980702761e+02   5.8240081220e+01    0.5250037    0.2531693 -38.66  0.002697691    1.919    0.479
       158 -12.8275     44.5678     75.2052   9.2772370716e+01   5.6891654225e+01    0.5875652    0.4247069 -87.58 0.0005996556    2.265    0.558
       159 -12.3491     51.0138     68.0310   8.8127794477e+01   5.7611580912e+01    0.9847864    0.5247758 -54.27  0.003028481    1.951    0.487
       160 -11.2098     46.5358     54.4694   8.5489133203e+01   6.0853547216e+01    0.6923786     0.436631 -67.45  0.003132745    2.877    0.652
       161 -11.4516     43.1215     37.8997   8.0814353715e+01   6.4230314987e+01    0.6120294    0.3158688  47.01  0.002353141    2.952    0.661
       162 -13.0954     10.6780     75.9239   1.0633528798e+02   5.9707808634e+01     1.086106    0.6364523   2.90  0.005225062    2.017    0.504
       163 -11.7899     20.0321     61.2685   9.8912059427e+01   6.2224882199e+01    0.5275301     0.336897 -52.76  0.001744645    1.352    0.260
       164 -11.9543     35.5660     42.5722   8.5962529654e+01   6.4359801543e+01    0.7823048    0.4146412   7.08  0.002886457    2.461    0.594
       165 -11.8322     26.7275     56.3936   9.4585036506e+01   6.2652117445e+01    0.6660492     0.297913 -61.37  0.002155332    2.711    0.631
       166 -11.9061     26.7838     49.6555   9.2414649012e+01   6.3969865877e+01    0.6371378    0.4051694 -62.80  0.003449162    2.008    0.502
       167 -13.6571     16.2469     67.7764   1.0221302613e+02   6.1127697911e+01    0.4632373    0.3636251 -71.65  0.000743393    1.423    0.297
       168 -10.7015    249.4284    247.6419   7.7962048487e+01  -1.1570158130e+01    0.3515382    0.1768607  -4.86  0.001819921    2.442    0.591
       169 -12.2898     33.1896     49.5026   8.9498258404e+01   6.3353733271e+01    0.4240707    0.2860354 -25.47  0.001192785    1.334    0.250
       170 -12.9435      4.5770     65.2007   1.0647506929e+02   6.2403349485e+01    0.6352996    0.4296122  89.51  0.003648544    2.035    0.509
       171 -12.1323      5.1984     58.9072   1.0473533994e+02   6.3706509838e+01    0.3550042    0.2678998  50.45 0.0003271585    1.869    0.465
       172 -10.5111    115.4141     83.9552   7.1417103532e+01   4.3156054294e+01    0.3660046    0.2111128  38.04 0.0009268154    1.801    0.445
       173  -9.2814     56.4337     83.5941   9.0645617640e+01   5.3592654018e+01    0.1378489    0.1232372 -29.72 5.499917e-05    1.009    0.009
       174 -11.1963     30.1711     81.8530   1.0008304297e+02   5.6903970639e+01    0.2882387    0.2439768  16.94  0.001258159    1.325    0.245
       175 -10.0901     74.0643     82.3290   8.3979508217e+01   5.1282877030e+01    0.2332357    0.1783561   6.84  0.001190837    1.466    0.318
       176 -11.1420     14.7051     97.4381   1.0898236194e+02   5.4509292400e+01    0.4566959    0.1806664 -71.06  0.001943525    2.409    0.585
       177 -10.4373     86.4184     80.3830   7.9204339332e+01   4.9587888623e+01    0.2478068    0.2306208   0.09 0.0001743848    1.035    0.034
       178 -11.7171     21.6600     79.7559   1.0287945387e+02   5.8089758110e+01     0.502775     0.333394 -29.36   0.00265563    1.479    0.324
       179 -11.1469     22.1314     66.8643   9.9531534111e+01   6.0878488374e+01    0.2745584    0.1943371  44.65 0.0003569958    1.878    0.468
       180 -11.0051     61.0131     78.5479   8.7521205017e+01   5.4060868794e+01    0.3380928     0.213088 -52.39 0.0003137571    1.565    0.361
       181 -12.0271     62.3946     71.6231   8.4905648287e+01   5.5308690986e+01    0.4130603    0.2807798 -12.32 0.0002836724    1.743    0.426
       182 -10.1370     35.3844     78.9222   9.7343217754e+01   5.7064696206e+01    0.3198749     0.158744 -36.19  0.001465802    2.006    0.501
       183 -10.3541     74.4359     75.2001   8.1674369242e+01   5.2707887497e+01    0.2655047    0.2028363 -11.18 0.0006965123    1.424    0.298
       184 -10.8565     75.9164     70.4492   7.9640929419e+01   5.3413608948e+01    0.4679472    0.3606695  -5.05  0.002461314    1.410    0.291
       185 -10.5233     76.9591     64.2185   7.7212348627e+01   5.4433165962e+01    0.3585612    0.2708755 -47.93  0.001901812    1.430    0.301
       186  -9.9516     90.6560     75.3349   7.6240975982e+01   4.9826333154e+01    0.1448254     0.119074  88.61 -0.0001278508    1.765    0.433
       187 -10.7350    207.5735     73.3525   4.9104307982e+01   2.3805787485e+01    0.2263857     0.221876 -57.89 0.0003146679    1.118    0.106
       188  -9.7847    145.5505     74.0447   6.0746546423e+01   3.8209254119e+01    0.2272136    0.1469496 -37.11 0.0007183342    1.574    0.365
       189 -10.9234    100.8669     72.4963   7.2121157840e+01   4.8387060210e+01    0.3721166    0.2787562  75.13 0.0006843238    2.001    0.500
       190 -10.1039    129.0502     71.4499   6.3928867238e+01   4.2492723287e+01    0.2332862    0.2054503 -10.77  0.000416256    1.215    0.177
       191  -9.5963    194.5854     70.1702   5.0302403039e+01   2.7263698808e+01    0.1915339    0.1359309 -23.47 0.0007253535    1.653    0.395
       192  -9.2893    167.9334     69.7683   5.4841415031e+01   3.3611510707e+01    0.1839724      0.11878  55.73 0.0003870808    1.523    0.344
       193 -10.2024    110.1535     69.0285   6.8256460497e+01   4.7100960475e+01    0.2144257    0.2018286  11.43 0.0003491573    1.020    0.020
       194  -9.1807    189.4911     68.5158   5.0697792607e+01   2.8709786242e+01    0.1434242    0.1314743 -71.98 0.0003370737    1.036    0.035
       195 -10.7565     93.9789     66.2325   7.2212413584e+01   5.0919105772e+01    0.3825924    0.2658516  11.65  0.001169723    1.806    0.446
       196 -10.2820     99.5240     65.3466   7.0192544954e+01   4.9974263894e+01    0.2945142    0.2272014 -11.73  0.001493989    1.435    0.303
       197  -9.2374    127.5133     66.5274   6.2784580638e+01   4.3699135023e+01    0.1464078    0.1415513  34.52 0.0008098868    1.009    0.009
       198  -9.6315    222.7406     62.9523   4.4581301274e+01   2.2073208462e+01    0.1820531    0.1457962 -50.46 0.0001878052    1.119    0.106
       199 -10.7008    201.7550     62.1268   4.7201481464e+01   2.6860997136e+01    0.2438522    0.2038258 -74.80 0.0005450777    1.166    0.142
       200 -10.5755    108.7413     62.5962   6.6555197538e+01   4.8533908841e+01    0.2855551    0.2385896  54.08   0.00152291    1.257    0.205
       201 -10.8710     84.7789     60.8460   7.3380949780e+01   5.3648080620e+01    0.4902408    0.2639375 -20.57  0.001915151    2.691    0.628
       202 -10.2564    119.1726     61.1865   6.3228382425e+01   4.6485452122e+01    0.2202637    0.1900174  17.80 0.0005365126    1.206    0.171
       203 -10.6924    154.9577     59.9989   5.4598326303e+01   3.8289428905e+01    0.2373574     0.205076  78.52  0.001281788    1.190    0.159
       204  -8.9725     98.3029     60.2872   6.8861484850e+01   5.1110786613e+01    0.1445154    0.1074882  10.03 0.0001705655    1.562    0.360
       205 -11.0218     59.5939     58.6050   8.1689661761e+01   5.8275007756e+01     0.303528    0.2475795  -9.38  0.001578925    1.148    0.129
       206 -10.3685    147.0252     56.9810   5.5329189172e+01   4.0660841033e+01    0.2108954    0.2043147  82.98 0.0003230159    1.037    0.035
       207 -11.4553     75.3024     56.1450   7.4998507877e+01   5.6188462478e+01    0.2317558    0.2104943 -10.74 0.0002937339    1.056    0.053
       208  -9.7991     98.9970     55.9757   6.7168590621e+01   5.1695437933e+01    0.2369559    0.1659457  15.27  0.001131337    1.712    0.416
       209  -9.8991     68.4685     56.4504   7.7580357627e+01   5.7288586554e+01    0.1362715    0.1225706  -5.61 6.359484e-07    1.035    0.034
       210 -10.1085    131.8766     54.6291   5.7954762663e+01   4.4615147705e+01    0.3669894    0.1893568  37.79  0.001470217    2.235    0.552
       211 -11.5785      5.9404     51.2638   1.0243314266e+02   6.5239592369e+01    0.3676028    0.3279965 -38.63  0.002236653    1.180    0.152
       212 -11.4479     12.7732     51.4740   9.9360804074e+01   6.4762400584e+01    0.5561383    0.2793213 -56.86   0.00287562    1.780    0.438
       213 -10.6408     11.5691     44.7741   9.7906603767e+01   6.6164882647e+01    0.3239416    0.2447931  34.69  0.001806203    1.720    0.419
       214 -10.6885    120.2175     52.1898   5.9997594540e+01   4.7680414445e+01    0.2693996    0.2167709  22.52 0.0004562954    1.328    0.247
       215 -11.7793    105.1017     52.6478   6.4222958248e+01   5.0950109590e+01    0.3299485    0.2310674  46.26 0.0001552982    1.366    0.268
       216 -11.4623     87.9149     51.4292   6.9025131246e+01   5.4659480720e+01    0.3844768    0.2445752  36.10  0.001901449    1.522    0.343
       217 -10.1973     62.2120     52.3988   7.8486007143e+01   5.9009843680e+01     0.314214    0.1754135 -30.79  0.001501204    1.798    0.444
       218  -9.5968     56.5736     52.9204   8.0873840632e+01   5.9766352673e+01    0.1923674   0.09952961 -23.87 0.0006440378    2.440    0.590
       219  -9.8217    237.4854     51.5082   4.0344304822e+01   2.0605436616e+01    0.1274183    0.1078768 -62.37 0.0001619828    1.015    0.014
       220 -10.7381    128.2156     50.6179   5.7524254977e+01   4.6074074115e+01     0.312617    0.2564166  49.41 0.0009561404    1.147    0.128
       221 -10.9464    129.5093     47.4821   5.6204018490e+01   4.6228054189e+01     0.479193    0.2998421  27.56  0.002134393    2.037    0.509
       222  -9.7009    181.8266     49.8231   4.7012683226e+01   3.3325425499e+01    0.1922944    0.1502777 -69.80 0.0002410388    1.316    0.240
       223 -10.1369     52.8918     50.1558   8.1351313767e+01   6.0791540397e+01    0.3801407    0.1856879  26.20  0.001733682    2.220    0.550
       224 -10.5825     57.0111     46.3092   7.8269462986e+01   6.0862429201e+01    0.2139726    0.1612074 -10.61 0.0002390998    1.269    0.212
       225  -9.9766    198.4733     49.2008   4.4450413567e+01   2.9493175490e+01    0.2431669    0.1753334  71.12  0.000675476    1.356    0.263
       226 -10.5967     77.8026     46.1771   7.0479200939e+01   5.7410690826e+01    0.4033659    0.2133237 -47.91   0.00177784    2.379    0.580
       227 -10.2277    152.7107     47.3045   5.1288695001e+01   4.0707408701e+01    0.3022763    0.1375041  42.58 0.0009701478    2.534    0.605
       228  -9.9134    120.0401     47.2523   5.8392320868e+01   4.8454097083e+01    0.2111047    0.1749766  31.48  0.001151535    1.193    0.162
       229 -10.5796    142.8037     45.5935   5.2721382589e+01   4.3335322350e+01    0.2911298    0.2240842 -71.60  0.001497684    1.559    0.359
       230 -10.9689     91.8750     43.7824   6.4980688033e+01   5.5061576437e+01    0.3953837    0.3146859 -61.20  0.001905785    1.737    0.424
       231 -11.2827     96.1364     42.6329   6.3267648254e+01   5.4355216360e+01    0.5922123    0.3346172   4.12  0.002137706    3.368    0.703
       232  -9.4044     60.2985     33.6110   7.1964536920e+01   6.2362023511e+01    0.1686116    0.1176109  61.76 0.0008343704    2.477    0.596
       233 -11.5655     52.3494     39.9947   7.7724768922e+01   6.2604990402e+01    0.4437206    0.3281013  19.29  0.001159433    1.278    0.217
       234 -10.5268     56.0749     32.5107   7.3178726948e+01   6.3201282234e+01    0.4466703     0.235625 -45.84  0.001574494    2.366    0.577
       235  -9.0396     62.2986     44.2725   7.5422820763e+01   6.0381435490e+01    0.1324028   0.09298572   1.10 0.0002286585    1.528    0.345
       236  -9.3777    106.9685     43.1906   6.0389041969e+01   5.1962473352e+01    0.1883065    0.1023245  51.58 0.0003703512    1.742    0.426
       237 -12.1274     36.9046    243.8932   1.1902527398e+02   1.8620004310e+01     0.640278    0.3099389 -89.05  0.002910589    2.155    0.536
       238 -11.1342     70.9718     41.5049   7.1113240090e+01   5.9365495770e+01    0.3192187    0.1769602 -22.53  0.001145677    2.037    0.509
       239 -11.3490     69.3975     37.8322   7.0244274603e+01   6.0198044912e+01    0.3954086    0.2291005 -21.08   0.00193491    1.894    0.472
       240 -10.5099     23.9527     41.9790   9.1096088057e+01   6.5678685800e+01    0.2951886     0.239559 -88.66   0.00165774    2.216    0.549
       241 -10.0794     18.3548     42.3875   9.3891573036e+01   6.6098964673e+01    0.4141768    0.1378126 -39.77  0.001404002    2.536    0.606
       242 -11.0378     30.0116     33.2135   8.4923338842e+01   6.6596140701e+01    0.4482699    0.2275538  10.93  0.001886414    2.402    0.584
       243 -11.8920     28.3007     37.9605   8.7577565248e+01   6.5968599139e+01    0.3767111    0.2298335  19.37   0.00126624    1.655    0.396
       244 -11.6637     24.3257     35.0866   8.8382659719e+01   6.6873061349e+01    0.4410808    0.2359327  -4.40 0.0007473138    2.326    0.570
       245 -11.0671      6.7151     41.4474   9.9211590785e+01   6.7127364382e+01    0.2756877    0.1464428 -40.70 0.0006439104    1.458    0.314
       246 -10.6559    124.8769     42.3872   5.5600835591e+01   4.8022306337e+01    0.3127978    0.1699319  67.46  0.001308869    2.214    0.548
       247 -11.1684     80.8757     36.5295   6.5743067254e+01   5.8279106528e+01    0.6537651    0.3645322  -7.39  0.002747029    2.734    0.634
       248 -10.6597    232.3100     39.8608   3.8354609522e+01   2.3249334534e+01    0.1949713    0.1692311 -69.35 0.0003439081    1.057    0.053
       249 -11.4262    152.6143     39.1625   4.8878878194e+01   4.1825958601e+01    0.2607504    0.2381833 -62.93 0.0004616167    1.138    0.121
       250 -10.7357    224.9088     38.3164   3.8761395990e+01   2.5027290830e+01    0.2493259    0.1861182 -82.43 0.0005599879    1.257    0.204
       251  -9.5105    167.6452     39.1706   4.6328578699e+01   3.8178388411e+01    0.1747335     0.132999 -17.97 0.0003749733    1.578    0.366
       252 -10.1269    111.9736     46.3689   6.0158656171e+01   5.0401489472e+01    0.2858786     0.154928  41.60 0.0009476186    1.790    0.441
       253  -9.2324     85.7202     38.7174   6.5012256748e+01   5.7027259409e+01    0.1348384   0.09610269  14.47 0.0001762425    1.512    0.338
       254 -10.0347      1.6281     37.3291   1.0045091056e+02   6.8212790569e+01    0.2061878    0.1122458 -42.21  0.001240888    1.387    0.279
       255  -9.7521    134.5340     35.8803   5.1349548647e+01   4.6598028497e+01    0.1988466    0.1384469 -28.19  0.001022247    1.566    0.361
       256 -10.4730     50.9645     44.9851   8.0222469623e+01   6.1969064028e+01    0.2213497    0.1654954 -32.89 0.0006352424    1.248    0.199
       257 -10.5767     95.5413     34.7641   6.0521656307e+01   5.5567188081e+01    0.3076639    0.2070073 -45.34  0.001581668    1.795    0.443
       258 -10.8877     97.4272     31.1942   5.8641827424e+01   5.5626515723e+01    0.4054876     0.209511  52.94  0.001772458    1.823    0.451
       259 -11.2610    101.9327     28.7504   5.6500418949e+01   5.4953757840e+01    0.3884619    0.3207441  84.48 0.0006281307    1.569    0.363
       260 -10.1679     63.8126     35.3304   7.1316792844e+01   6.1526653402e+01    0.2101138    0.1658917 -10.71 0.0006237091    1.173    0.147
       261 -10.9082     22.3576     25.9574   8.5700291655e+01   6.8596598044e+01    0.3200535    0.2683744  -5.34  0.001418715    1.157    0.136
       262 -10.6227      8.8569     34.8860   9.5993028246e+01   6.8213589680e+01    0.4362306    0.3208059 -67.56  0.002156416    1.866    0.464
       263 -11.3577     16.0243     31.8878   9.1272992693e+01   6.8193073423e+01    0.5769862    0.2752356   8.90   0.00294432    2.417    0.586
       264 -10.7967    106.6609     35.0806   5.7571961292e+01   5.3128484833e+01    0.2359824    0.1789834  47.80 0.0004361098    1.207    0.172
       265  -9.6259    201.6172     34.2085   4.0367648933e+01   3.0749789599e+01    0.1737113    0.1497079  54.50 0.0003503027    1.306    0.234
       266 -10.6534    205.7667     32.5939   3.9502973525e+01   3.0001389330e+01    0.2082437    0.1904696 -60.99 0.0004668944    1.126    0.112
       267  -9.9998    166.4644     32.9725   4.4775243144e+01   3.9242015180e+01    0.1993398    0.1342614 -31.71   0.00103417    1.602    0.376
       268  -9.2311    221.6943     32.2764   3.7742529776e+01   2.6491030577e+01    0.1301519   0.08167218 -67.64  0.000185296    1.548    0.354
       269 -10.5230     89.3422     31.6530   6.1167185647e+01   5.7257083014e+01    0.2448618    0.2134144  11.23 0.0008705454    1.075    0.070
       270 -10.4201     48.3584     31.6571   7.6010488759e+01   6.4494989159e+01    0.2241598    0.1752204  10.84 0.0005173127    1.132    0.117
       271 -10.2106     50.0614     27.9669   7.3726528052e+01   6.4787651694e+01     0.254749    0.1716777  13.61 0.0009841354    1.437    0.304
       272 -10.4754    236.3122     30.3783   3.5957379055e+01   2.3616411696e+01     0.229858    0.1851209  45.52 0.0009818715    1.675    0.403
       273  -9.5290     44.4794     31.4462   7.7593280768e+01   6.5076355627e+01    0.1263631    0.1036672  -3.56 0.0001368235    1.009    0.009
       274  -9.2386    139.2080     30.6105   4.8740261065e+01   4.6121721494e+01    0.1335852   0.09620509 -56.08 0.0006814445    1.607    0.378
       275 -10.0448    145.0135     28.3086   4.6952373088e+01   4.4991789905e+01    0.3739166    0.1252001 -43.78  0.001335408    3.440    0.709
       276 -11.2691    129.0046     27.0062   4.9584597800e+01   4.8971344886e+01     0.414583    0.2644376  71.57  0.001566616    1.654    0.395
       277  -9.8559    111.7267     27.9217   5.3725734302e+01   5.2873087566e+01    0.1775488    0.1662135   0.30 0.0003379294    1.128    0.114
       278 -11.1869     69.5388     26.4702   6.5556218377e+01   6.1750726680e+01    0.3986475    0.2143915  28.44   0.00174308    1.937    0.484
       279 -10.4314     55.9541     24.3029   6.9729724824e+01   6.4372489321e+01    0.3473464    0.2091813  59.07  0.001600364    3.072    0.674
       280 -10.1766     60.1489     27.1278   6.9307092556e+01   6.3301947785e+01    0.2014481    0.1642868 -16.82            0    1.185    0.156
       281 -11.0390     62.3409     23.7518   6.7022735605e+01   6.3374102456e+01    0.2568983    0.1634737 -26.77  0.001013972    1.568    0.362
       282 -11.4244     59.4317     21.5446   6.7162357005e+01   6.4151875533e+01    0.3082582    0.1979424  24.38  0.001545645    1.455    0.313
       283  -9.0636    224.3341     26.2673   3.6161938423e+01   2.6652849245e+01    0.1134834   0.09167396  47.55 0.0002507708    1.587    0.370
       284 -11.0690    193.5007     25.9611   3.9296739695e+01   3.3628954910e+01    0.2688526      0.15087 -54.70  0.001344572    1.794    0.443
       285 -11.1004    185.6638     24.4306   3.9846425014e+01   3.5646333105e+01    0.3869839    0.2464562   7.53  0.001776263    2.870    0.652
       286 -10.0008    169.0320     25.9983   4.2455006143e+01   3.9443022285e+01    0.1606935    0.1416648  79.99            0    1.016    0.016
       287  -9.8908      1.4324     25.4251   9.6523718691e+01   7.0393739885e+01    0.2477694   0.09400783 -53.50  0.001246961    2.346    0.574
       288  -9.2563    119.2528     25.3517   5.1089191718e+01   5.1441248007e+01    0.1356398   0.09527247  24.84 0.0006954607    1.597    0.374
       289  -9.9247     14.8695     14.0919   8.4399030447e+01   7.1169501045e+01    0.1755635    0.1311798 -14.70 0.0004520831    1.026    0.025
       290 -10.2747     14.0355     20.9676   8.7916408037e+01   7.0190273124e+01    0.3522303     0.190569 -45.69  0.002064651    1.787    0.440
       291 -10.7410     25.0261     20.2168   8.1859066193e+01   6.9203406492e+01    0.2912842    0.2079162  -5.72  0.001557785    1.180    0.153
       292 -10.4363      7.1900     25.3529   9.3380194323e+01   7.0019236437e+01      0.29285    0.1646776  21.67  0.001385032    1.884    0.469
       293  -9.9868     10.6801     24.7058   9.1256281347e+01   6.9862381640e+01    0.2153803    0.1238933 -24.03 0.0001720419    1.501    0.334
       294 -12.9601     74.7089    238.2265   1.1113575015e+02   1.5016704401e+01     0.794011    0.5208084 -74.02  0.004736583    1.634    0.388
       295 -11.7664    164.9378     23.1385   4.2244592257e+01   4.0751226567e+01    0.2700057    0.2203225  62.37  0.001606758    1.140    0.123
       296 -10.6033     89.6077     20.8740   5.6859450117e+01   5.8489707805e+01    0.2886889    0.1870033  43.68  0.001219791    1.348    0.258
       297 -10.2980     94.3562     22.3179   5.6099085834e+01   5.7329645367e+01    0.2928443    0.2052845  20.69  0.001609227    1.490    0.329
       298 -10.4291     97.8049     23.6686   5.5685059058e+01   5.6439675416e+01    0.2633699    0.1637721  52.55 0.0006784567    1.463    0.316
       299 -10.4280     98.9765     20.5409   5.4183982570e+01   5.6529197695e+01    0.2103526     0.183933  -4.85 0.0003738793    1.200    0.167
       300  -9.5146    225.9712     22.4819   3.5191896366e+01   2.6749039825e+01     0.178432    0.1090511  74.60  0.000971235    1.556    0.357
       301 -11.2133    104.5000     20.1950   5.2663171334e+01   5.5351259414e+01    0.3915096    0.3004091 -81.51  0.001402211    1.829    0.453
       302 -10.9901    108.4120     17.6512   5.0795211790e+01   5.4737568006e+01    0.2617372    0.1958589  42.84  0.001015384    1.182    0.154
       303 -10.0459     68.7147     22.1402   6.4013268165e+01   6.2442382275e+01    0.2038625    0.1561445  43.29 0.0004547547    1.309    0.236
       304  -9.3125     50.3278    240.3084   1.1619188997e+02   1.7738574873e+01    0.1031665   0.09261708 -27.75 0.0007038931    1.658    0.397
       305 -10.0808    195.2404    238.8773   8.6450261968e+01  -3.1794414399e+00    0.2396472    0.1632391  16.22   0.00141102    1.343    0.255
       306 -10.5900    243.8992    237.3499   7.7216401584e+01  -9.6067288401e+00     0.191341    0.1441534 -25.72 0.0008865015    1.360    0.265
       307  -9.7634    135.3557    237.9691   9.8478244315e+01   6.1406727109e+00    0.2013644   0.09258655 -31.71 0.0007045823    4.509    0.778
       308 -11.0118    238.0611     18.3974   3.3329901416e+01   2.4683148493e+01    0.2221157    0.1525184 -41.36 0.0003161874    1.395    0.283
       309 -10.6657    172.6462     20.0110   4.0330769354e+01   3.9236823207e+01    0.1740929    0.1600518 -63.73 0.0003933147    1.125    0.111
       310 -11.8996    129.3532     19.2360   4.6946790262e+01   4.9725464440e+01    0.2777968     0.246139  54.29  0.000491309    1.015    0.015
       311 -10.8736     29.5208    232.9883   1.1970570232e+02   2.1594719724e+01    0.2842821    0.1583901  74.54  0.001667083    1.648    0.393
       312  -9.9767    159.7438    236.0002   9.3128696033e+01   2.6760900955e+00    0.1493076    0.1120357 -43.04 0.0005182233    1.521    0.342
       313 -11.0518     41.7935     19.3685   7.3484248112e+01   6.7192074320e+01    0.4783281    0.2138094  42.08  0.002343193    2.425    0.588
       314 -10.3034    109.4377    242.7735   1.0447615251e+02   9.2120337120e+00    0.2401503    0.1583481  55.96 0.0007081059    1.490    0.329
       315 -10.1157     38.2115    232.8012   1.1800178960e+02   2.0662948823e+01    0.1745857    0.1274085  67.59 0.0005671421    1.118    0.105
       316 -10.4292    151.3873     18.1793   4.2830900743e+01   4.4552000901e+01    0.1860581    0.1124313 -43.24 0.0009459555    1.782    0.439
       317  -9.8813     81.8042     17.7093   5.7867929991e+01   6.0432421449e+01    0.1594283    0.1498564  73.46 0.0006598064    1.364    0.267
       318  -9.9904     23.9879    232.4971   1.2073478897e+02   2.2286191499e+01    0.1912687    0.1391167 -68.96 0.0006559909    1.491    0.329
       319 -10.0449     62.9842    242.4577   1.1387658321e+02   1.5737621563e+01    0.1754723    0.1422458  71.58 0.0003700739    1.091    0.084
       320 -10.3174     33.1345     16.4857   7.6146394385e+01   6.8759267241e+01    0.4035401    0.1819833  13.81  0.001621953    3.697    0.730
       321  -9.4384    169.9908    229.0486   8.9947265770e+01   2.2385510131e+00    0.1570666    0.1379016  15.97 0.0005432878    1.032    0.031
       322  -9.8001    151.6751    229.3373   9.3814851442e+01   5.1035020570e+00    0.1309282   0.09893686  63.82 0.0007051327    1.721    0.419
       323  -9.9291    190.5082    226.4679   8.5360605194e+01  -5.4450856170e-01    0.2111203    0.1131653 -29.04 0.0008035788    2.113    0.527
       324 -10.9939    120.4058    226.6095   1.0012350023e+02   1.0584249389e+01    0.2160129    0.1739479 -60.59 0.0008835938    1.404    0.288
       325 -10.1562     65.9780    226.1906   1.1178396204e+02   1.8603151718e+01    0.1996936    0.1671876 -87.60 0.0005901946    1.177    0.150
       326 -10.1184     96.7794     14.0920   5.2267322216e+01   5.7664546109e+01    0.1815463    0.1782196  28.21  0.001221352    1.179    0.152
       327  -9.6337     17.5044    227.5083   1.2166736374e+02   2.3964468309e+01    0.1164923   0.08820578  71.36 0.0008105717    1.016    0.015
       328 -10.9255      4.3914    226.1154   1.2406488605e+02   2.5511309056e+01    0.2728803     0.121574  52.50  0.001576279    1.820    0.451
       329  -9.9158     31.0709     12.7108   7.5339534821e+01   6.9529308412e+01     0.160305    0.1209917   7.51 0.0004852545    1.087    0.080
       330 -11.6078     20.9887    222.5105   1.2067981976e+02   2.4640244652e+01    0.2778012    0.2056176 -82.24  0.001797387    1.255    0.203
       331 -10.1083    123.6979    221.6756   9.8723356340e+01   1.1023484511e+01     0.217039    0.1612867 -27.07  0.001166725    1.739    0.425
       332  -9.7061    142.6076    220.8101   9.4463895528e+01   8.1302276897e+00    0.2635447   0.09680709  34.59  0.001004396    2.561    0.610
       333 -11.6915      9.8198    217.3032   1.2254716667e+02   2.6821977101e+01    0.3225078    0.1876915  56.78  0.001643686    1.441    0.306
       334  -9.7697     37.9836    217.5193   1.1687959707e+02   2.3864206076e+01    0.1741638     0.109747  37.71 0.0009706987    1.561    0.359
       335 -11.3288     29.9213    215.8681   1.1841940989e+02   2.5105973569e+01     0.335094    0.2611298  20.53  0.001943317    1.701    0.412
       336 -11.5901    236.0013    214.4771   7.4637506062e+01  -5.4136187066e+00    0.3010728    0.1816424 -25.60 0.0009667372    1.509    0.337
       337  -9.1844    107.5044     10.5306   4.8389525557e+01   5.5621155788e+01    0.1309776    0.1105398  45.19 -3.160958e-06    1.020    0.020
       338 -11.4901    240.3378    211.6598   7.3362424396e+01  -5.6025428388e+00     0.323735    0.2112791  22.61  0.001932048    1.457    0.314
       339 -10.4916     23.8314    216.3971   1.1970146500e+02   2.5634037558e+01    0.1960037    0.1521126  14.18  0.001266853    1.849    0.459
       340 -10.4031     88.8432    241.3013   1.0855214385e+02   1.2470395913e+01    0.2180638    0.1538526 -33.92  0.001223655    2.128    0.530
       341 -10.3447     21.5426    212.7727   1.1991459049e+02   2.6642237787e+01    0.2952285    0.1356484  51.45  0.001572444    1.894    0.472
       342 -10.0164    208.8676    211.9292   7.9220346697e+01  -1.0398412356e+00    0.2031859    0.1528289  -1.63 0.0005248543    1.264    0.209
       343  -9.5075     76.3240    212.2972   1.0806449962e+02   2.0142077068e+01    0.1215878    0.1032067 -20.21 0.0003558075    1.625    0.385
       344 -12.2192      4.7532    207.8343   1.2299352091e+02   2.9290092927e+01    0.5778259    0.2759882  87.47  0.003172952    1.852    0.460
       345 -10.4680    107.8270    209.6128   1.0057381711e+02   1.6010731308e+01    0.2052511    0.1121168  46.06 0.0009117264    1.704    0.413
       346 -10.5702     10.8114    208.5231   1.2181647683e+02   2.8594821222e+01    0.2143718    0.1628875 -54.94 0.0005498828    1.626    0.385
       347  -9.2458    188.2433    205.3474   8.2141499319e+01   3.3741656468e+00    0.1361271   0.09672254  -9.30 0.0003913808    1.573    0.364
       348 -10.8324     19.8215    200.7464   1.1940756070e+02   2.9441478887e+01    0.3097375    0.1047267 -65.70  0.001264306    2.576    0.612
       349 -10.3247    175.4314    202.7843   8.4354933926e+01   5.9951601521e+00     0.241815    0.1797008  34.76 0.0005051473    1.267    0.211
       350  -9.6609    243.4763    202.4463   7.1126818890e+01  -4.6800888732e+00    0.1259394    0.1013999  -8.19 7.525978e-05    1.009    0.009
       351 -10.9280     16.6632    193.2613   1.1952752187e+02   3.1420211426e+01    0.2730212    0.2413939  21.83  0.001258561    1.477    0.323
       352  -9.4278    211.5920    188.8080   7.4352025002e+01   2.3830974867e+00    0.1877973    0.1230181 -45.96 0.0009526762    1.678    0.404
       353  -9.4982      2.1502    187.8302   1.2229547570e+02   3.3905435004e+01    0.1556531    0.1226263 -65.92 0.0006401552    1.339    0.253
       354 -11.4642     16.0736    183.2980   1.1887651675e+02   3.3751928312e+01    0.5191788    0.2369492  86.80  0.002438361    2.250    0.556
       355  -9.5496     61.6342    184.8243   1.0820637626e+02   2.8377174625e+01    0.1947737    0.1189472 -81.94 0.0009449642    1.716    0.417
       356 -10.1891    168.1260    183.9649   8.2406973221e+01   1.0908591471e+01    0.3136373    0.1927071  63.62  0.001227152    2.810    0.644
       357  -9.7296     58.6990    182.0579   1.0858199378e+02   2.9412708088e+01      0.19393    0.1641623 -78.03 0.0007907801    1.103    0.093
       358  -9.3846      1.5329    180.5228   1.2194037171e+02   3.5608952694e+01    0.1203829   0.09421579  86.35 0.0001639476    1.001    0.001
       359  -9.9276    244.2524    178.6792   6.6454991602e+01  -1.1209278368e+00    0.2062083   0.09164792 -28.12 0.0008877906    2.299    0.565
       360 -10.7086     46.4423    177.8482   1.1110467319e+02   3.1914331911e+01    0.3091195    0.2300872 -85.17  0.001240181    1.233    0.189
       361  -9.6220     69.7622    178.1719   1.0530123227e+02   2.8872629349e+01    0.1819567    0.1551746 -42.11  0.000502235    1.346    0.257
       362  -9.3121    200.6894    176.3218   7.4000623683e+01   6.4793718769e+00     0.132125    0.1151794 -82.74 0.0003852866    1.649    0.394
       363 -11.2618     34.2320    174.1696   1.1371119432e+02   3.4141682062e+01    0.2506175     0.192952 -72.22 0.0003664893    1.172    0.147
       364 -10.8172     18.0570    173.1234   1.1754126712e+02   3.5953141810e+01    0.3892789    0.1920162  66.74  0.001868869    2.196    0.545
       365 -10.2793     36.8120    157.8100   1.1115759438e+02   3.7849822367e+01    0.3454607    0.2080248  62.52  0.001148537    1.830    0.453
       366 -12.0988     36.2311    165.7219   1.1226519060e+02   3.5973798116e+01    0.6863646    0.4219117  84.58  0.003506786    1.695    0.410
