#   1 NUMBER                 Running object number                                     
#   2 MAG_AUTO               Kron-like elliptical aperture magnitude                    [mag]
#   3 X_IMAGE                Object position along x                                    [pixel]
#   4 Y_IMAGE                Object position along y                                    [pixel]
#   5 X_WORLD                Barycenter position along world x axis                     [deg]
#   6 Y_WORLD                Barycenter position along world y axis                     [deg]
#   7 A_WORLD                Profile RMS along major axis (world units)                 [deg]
#   8 B_WORLD                Profile RMS along minor axis (world units)                 [deg]
#   9 THETA_WORLD            Position angle (CCW/world-x)                               [deg]
#  10 FWHM_WORLD             FWHM assuming a gaussian core                              [deg]
#  11 ELONGATION             A_IMAGE/B_IMAGE                                           
#  12 ELLIPTICITY            1 - B_IMAGE/A_IMAGE                                       
         1 -15.6300     81.9902     66.8431   9.7014753960e+01   5.3078138015e+01     1.700398     1.003149  30.37  0.008248181    1.755    0.430
         2 -13.9341      5.8067     22.0776   1.1161319680e+02   6.9592249452e+01     1.277904    0.6857632 -28.79  0.008377478    1.487    0.327
         3 -12.6703     12.3319     15.0651   1.0567111759e+02   7.0029590960e+01    0.4309428    0.2540969  19.13  0.002555767    1.573    0.364
         4 -12.8493     87.4379      2.8014   7.2957219388e+01   6.0101286919e+01     0.559077    0.3495536  44.37  0.003039377    1.275    0.216
         5 -11.8837    124.0149     10.3872   6.7566881501e+01   5.1828259795e+01    0.2731144     0.189009  49.30 0.0006108173    1.238    0.192
         6 -11.0564    192.8382      8.3636   5.7333706681e+01   3.6331179017e+01    0.1778258   0.09039222  63.83 0.0006602019    1.697    0.411
         7 -11.4857    137.7602      5.5511   6.3761562797e+01   4.9169650321e+01    0.3351333    0.1796354  65.74   0.00112126    1.539    0.350
         8 -12.1133     75.5875     13.4174   8.0168990821e+01   6.1432082409e+01    0.2946722    0.2468186  37.31   0.00103556    1.134    0.118
         9 -11.9737     82.1472     14.0386   7.8500209512e+01   6.0159044178e+01    0.2948699    0.1952731  34.64  0.000892297    1.287    0.223
        10 -12.3707     87.1259     11.6654   7.6264508517e+01   5.9424279542e+01    0.4721889     0.301853  66.80  0.001729953    1.909    0.476
        11 -10.4334     33.2914      4.0091   9.1292397409e+01   6.8988407443e+01    0.1553127    0.1147544   7.57  0.000600152    1.023    0.023
        12 -11.4847     73.2301      1.4545   7.6236850132e+01   6.2892119704e+01    0.2211051    0.1073842  51.86 0.0004376945    1.754    0.430
        13 -12.0630    214.8835    142.7938   8.4711575780e+01   9.6939878037e+00    0.6226342    0.2772867  50.80  0.002432204    2.504    0.601
        14 -11.7714     75.9167    141.3422   1.1816814020e+02   3.7740956325e+01    0.2962739    0.2033642 -58.71  0.001433387    1.346    0.257
        15 -11.3883     33.5326    135.9825   1.2941666918e+02   4.4322049561e+01    0.1907677    0.1851124  44.29  0.001250884    1.206    0.171
        16 -10.9333    224.3235    134.3282   8.1186433180e+01   9.4771972248e+00    0.1423216    0.1126669  -6.07 0.0007049288    1.694    0.410
        17 -10.8997     82.3295    134.3369   1.1486107600e+02   3.8477296190e+01    0.1550954    0.1124011 -25.20 0.0007052009    1.731    0.422
        18 -11.1968     21.6010    133.7704   1.3248189696e+02   4.5937999115e+01    0.1877625    0.1082024 -77.49 0.0009526679    1.644    0.392
        19 -13.9158    203.8695    125.1367   8.2807767172e+01   1.5519662774e+01    0.8088422    0.4993154 -34.58  0.003579142    1.721    0.419
        20 -11.5683    122.1620    127.5778   1.0205746283e+02   3.2836432613e+01    0.3614875    0.3536391 -12.25  0.001415537    1.071    0.066
        21 -13.5202    218.5153    121.2403   7.9313827555e+01   1.3189180182e+01    0.6121565    0.2987729  45.84  0.002536659    2.323    0.570
        22 -11.0644    120.1292    103.8304   9.6503322984e+01   3.8561419930e+01    0.2135961    0.1854243  -3.90 0.0007329955    1.320    0.242
        23 -11.4072    141.1146     97.8208   8.9437250431e+01   3.5245688764e+01    0.2835028     0.234753 -26.17 0.0009840357    1.345    0.256
        24 -11.0953    113.9341     97.0071   9.6349489951e+01   4.1268168911e+01     0.338203    0.2387047 -58.14 0.0009079591    1.604    0.376
        25 -11.6741    187.8490     94.2584   7.8491819024e+01   2.5118126648e+01    0.3734343    0.2580632 -78.33  0.001685326    1.811    0.448
        26 -11.6591     68.0190     90.7202   1.0873700500e+02   5.0683632927e+01    0.3657976    0.1438409 -41.42  0.001403357    2.505    0.601
        27 -13.6409     34.1744     87.0573   1.1950113503e+02   5.5546953996e+01    0.6935923    0.5979485  56.23  0.004424373    1.515    0.340
        28 -13.2715     41.0918     82.4845   1.1587254770e+02   5.5804635928e+01    0.4706634    0.3720396 -36.74  0.002902395    1.083    0.076
        29 -12.2355      5.8654     83.8840   1.2888363792e+02   5.8375707429e+01    0.4991597   0.09832736 -52.67   0.00200577    2.937    0.660
        30 -10.7041    128.1944     82.0113   8.8274019171e+01   4.1177923554e+01    0.2514961    0.1740828 -70.57  0.001092389    2.076    0.518
        31 -12.7642    137.0178     78.5493   8.5096880357e+01   3.9834704813e+01    0.6128992    0.3261205  65.33  0.002324119    2.533    0.605
        32 -14.3300     95.0474     72.2808   9.4621424793e+01   4.9757882698e+01    0.9387441    0.6226398  19.91  0.001726803    1.821    0.451
        33 -14.4023     76.6621     75.0338   1.0131573825e+02   5.2483376890e+01     1.600253    0.3623456  42.90  0.004689783    4.898    0.796
        34 -11.7375    202.9927    172.7621   9.3447070906e+01   5.9675221064e+00    0.2794065    0.1834042 -30.00  0.001107315    1.632    0.387
        35 -12.8750     34.1819     69.8587   1.1500248153e+02   5.9046479900e+01    0.3712482    0.2922475  79.85  0.002144001    2.173    0.540
        36 -12.8691     36.5873     75.2129   1.1557843297e+02   5.7751201239e+01    0.3166702    0.1767592 -51.71  0.001673006    1.619    0.382
        37 -11.9610    144.4310     73.9106   8.2056544396e+01   3.8948405690e+01    0.2774202    0.2011999  47.78 0.0004476979    1.336    0.251
        38 -10.0755    250.3998     74.4718   6.4842571291e+01   1.4936730415e+01    0.1296484    0.1050731 -62.99 0.0001104472    1.026    0.025
        39  -9.9799    182.6062     72.1668   7.3973232327e+01   3.0243391175e+01    0.1814853    0.1390725 -28.41 0.0004315489    1.550    0.355
        40 -14.3267     59.8782     70.9528   1.0583890151e+02   5.5781032993e+01    0.7759817    0.4345855  30.99  0.003657602    1.838    0.456
        41 -11.8392    130.4938     67.0077   8.3337517080e+01   4.3286716329e+01     0.219678    0.1426463 -37.24  0.001045117    1.626    0.385
        42 -14.5559     47.3759     67.0666   1.0921090056e+02   5.8129710772e+01     1.153597    0.8397723  64.85  0.006017109    2.529    0.605
        43 -10.7065    169.9804     62.7415   7.3818563411e+01   3.4755422521e+01    0.2230568    0.2016316  86.37 0.0004415961    1.029    0.028
        44 -10.7783    165.9982     63.0047   7.4622354716e+01   3.5660668655e+01    0.2450112    0.1895344  62.77 0.0003575657    1.210    0.174
        45 -10.8478    214.6080     61.4876   6.6545779655e+01   2.4559851302e+01    0.2576069    0.2264935 -24.74   0.00153933    1.484    0.326
        46 -12.1151    124.6327     57.7079   8.1985873786e+01   4.6063696336e+01       0.5165     0.233582  46.98  0.001982082    2.053    0.513
        47 -13.0481     36.6510     55.8724   1.0985344661e+02   6.1381389628e+01    0.6521481    0.2631181 -33.43  0.002895993    2.566    0.610
        48 -13.0488     35.0216     47.8206   1.0786695966e+02   6.2932026639e+01    0.3923996    0.2987249  10.74  0.001768539    1.249    0.199
        49 -12.3820     53.4880     34.6730   9.5856230593e+01   6.2595885331e+01    0.5068101    0.2549514  30.80  0.001253618    1.888    0.470
        50 -12.9134     48.4916     38.7490   9.9284507979e+01   6.2713160001e+01    0.4052382    0.2749939  24.60  0.001821193    1.375    0.272
        51 -13.0173     42.1808     47.6879   1.0494803849e+02   6.2136808244e+01    0.3860296    0.2976148  16.55  0.001156509    1.247    0.198
        52 -12.9439     42.2333     42.3764   1.0306517899e+02   6.2971261018e+01    0.4760907    0.2631875  19.91  0.001454267    1.855    0.461
        53 -14.2989     68.9606     53.8202   9.7104215374e+01   5.7416435756e+01    0.6520035    0.4303973  28.88  0.001387993    1.461    0.316
        54 -10.6858    209.9601     54.6946   6.5647685307e+01   2.6632646399e+01     0.207336     0.147086  52.11  0.001124808    1.598    0.374
        55 -11.5851    133.2924     53.8414   7.8788147977e+01   4.4695739052e+01    0.3028212    0.2192825  49.59 0.0006672738    1.272    0.214
        56 -11.2448     92.3587     53.0815   8.9281172445e+01   5.3440554486e+01    0.2224528    0.1649713  30.79   0.00123543    1.276    0.217
        57 -11.4821    145.4424     50.8804   7.5314344403e+01   4.2319860185e+01    0.2631922    0.2543553  38.31 0.0008456982    1.110    0.099
        58 -10.2738    174.9006     56.4713   7.1333676692e+01   3.4542405372e+01    0.2065273    0.1283371  63.18 0.0005536775    1.500    0.333
        59 -12.5857     51.6390     46.2835   1.0078627938e+02   6.1152573676e+01    0.3419715    0.2396035 -55.04  0.001667878    2.068    0.516
        60 -12.4585      3.1407     46.7009   1.2099646930e+02   6.5779975350e+01    0.3121379    0.2715636 -33.20  0.001233709    1.227    0.185
        61 -11.2793    157.0945     43.8205   7.1112064818e+01   4.0550594503e+01    0.2214188    0.1976045  71.82 0.0004760438    1.001    0.001
        62 -13.6271     61.7156     66.9750   1.0395598429e+02   5.6257599421e+01    0.5941723    0.3328347  16.61  0.002761945    2.245    0.555
        63 -11.2762    198.2231    168.4045   9.3499872818e+01   7.7828730082e+00      0.20895    0.1416755  54.24 0.0009580794    1.689    0.408
        64 -11.0482    218.5068    157.4948   8.7208360508e+01   6.0642797623e+00     0.144508    0.1324705 -41.93 0.0001752257    1.028    0.027
        65 -11.1958    217.6035     38.7013   6.1221222282e+01   2.7175330055e+01    0.2675426    0.1804154  75.83 0.0008628998    1.344    0.256
        66 -11.3074     82.8794     33.6596   8.5457418290e+01   5.7886668981e+01    0.2680965    0.2248343   5.82 0.0007910142    1.127    0.113
        67 -12.1717     79.2290     30.3001   8.5367350600e+01   5.8962008216e+01    0.3400201    0.2743534  16.16 0.0006918341    1.111    0.100
        68 -12.4404     39.5675     33.4252   1.0085305462e+02   6.4626429906e+01     0.434916    0.2551743  19.74  0.002020568    1.640    0.390
        69 -10.7673    176.8445     33.3582   6.5192242991e+01   3.7225022443e+01    0.1896477     0.143256  70.23 0.0007588559    1.160    0.138
        70 -11.4008     83.5288     22.9164   8.1374855468e+01   5.9006213495e+01    0.2496692    0.1996291  24.34 0.0009335054    1.092    0.084
        71 -10.4970    241.9612     22.8208   5.5665328506e+01   2.4021037052e+01    0.2053576    0.1049985 -76.99 0.0008960408    1.943    0.485
        72 -11.3739     64.7559     18.1247   8.5425352574e+01   6.2850780101e+01    0.3643429    0.1686785  33.25   0.00183561    2.011    0.503
        73 -12.2408    202.4701    151.6565   8.9027034408e+01   1.0399355101e+01    0.3882606    0.3020523 -23.30  0.001920922    1.439    0.305
        74 -11.0177    232.8098    153.8089   8.3861261252e+01   4.1097008043e+00     0.194418     0.161861 -65.38  0.001077469    1.346    0.257
        75 -12.0952     19.1096    153.8028   1.3585864304e+02   4.1307792932e+01    0.2290091    0.1761319 -30.42  0.001382901    1.634    0.388
        76 -10.5770    240.3264    153.3448   8.2485644918e+01   2.8446496642e+00     0.140611    0.1036376 -10.31  0.000705054    1.744    0.427
        77 -10.7229    138.9594    152.3016   1.0346312349e+02   2.3558728076e+01    0.2246597    0.2110806  46.53 0.0006764571    1.082    0.076
        78 -11.9470    247.0167    145.9013   7.9868661657e+01   3.0424587592e+00    0.4404204    0.2718404  69.00  0.002020285    2.587    0.613
        79 -12.5902     58.2573    144.5664   1.2381619049e+02   3.9404575275e+01    0.6740094    0.4076305  56.58  0.003105844    2.001    0.500
        80 -13.4021     47.4643    142.1816   1.2646319502e+02   4.1315048826e+01    0.5454799     0.477558   4.69  0.003244814    1.389    0.280
