#   1 NUMBER                 Running object number                                     
#   2 MAG_AUTO               Kron-like elliptical aperture magnitude                    [mag]
#   3 X_IMAGE                Object position along x                                    [pixel]
#   4 Y_IMAGE                Object position along y                                    [pixel]
#   5 X_WORLD                Barycenter position along world x axis                     [deg]
#   6 Y_WORLD                Barycenter position along world y axis                     [deg]
#   7 A_WORLD                Profile RMS along major axis (world units)                 [deg]
#   8 B_WORLD                Profile RMS along minor axis (world units)                 [deg]
#   9 THETA_WORLD            Position angle (CCW/world-x)                               [deg]
#  10 FWHM_WORLD             FWHM assuming a gaussian core                              [deg]
#  11 ELONGATION             A_IMAGE/B_IMAGE                                           
#  12 ELLIPTICITY            1 - B_IMAGE/A_IMAGE                                       
         1 -16.1178    201.5616     57.0991   7.5614213007e+01   2.7434878546e+01     9.954319     6.191295 -82.78   0.04152559    2.159    0.537
         2 -17.4266    247.0739     21.8092   6.1297354794e+01   2.1081427178e+01      6.58338      3.65233 -20.10   0.01548595    2.277    0.561
         3 -13.8824    236.7012     18.1465   6.1326041124e+01   2.3908860843e+01    0.4018784    0.3539039 -27.38  0.001068666    1.312    0.238
         4  -9.0600    142.0000     15.0080   7.2323167056e+01   4.8335253872e+01    0.3697111    0.1029085 -32.50  0.001270349    3.390    0.705
         5 -10.9123    143.4595      6.7731   6.9167247969e+01   4.8757337541e+01      1.40323    0.3437264 -20.22  0.004300473    4.807    0.792
         6  -8.8661    177.4789     14.4770   6.6680451764e+01   3.9194343243e+01    0.2430899    0.2103261  68.98 0.0007807667    1.075    0.070
         7  -9.1105    166.3423     12.8820   6.7709868574e+01   4.2266064784e+01    0.3071621    0.2699268  -6.13  0.001450198    1.312    0.238
         8  -9.7517     92.4811     11.9576   8.2339675573e+01   6.0308959087e+01    0.2270398    0.1870153  71.58 0.0006662849    1.498    0.333
         9 -10.9627    180.3526      3.3672   6.3018037949e+01   3.9540169063e+01    0.4844012    0.3399757 -36.63  0.001258909    1.492    0.330
        10  -8.7202     79.4508      5.0131   8.2997784580e+01   6.3683923553e+01    0.1815283    0.1168555 -20.03 0.0004890006    1.549    0.355
        11  -9.2938    166.0446      1.4554   6.4150872045e+01   4.3416164772e+01    0.1952373    0.1360795  72.74 -4.726955e-05    1.275    0.215
        12  -8.4957    208.1741      1.4557   5.9690339836e+01   3.2629983116e+01    0.2707401    0.1193065  77.21  0.001181074    2.096    0.523
        13 -11.0707    224.0309    171.7496   9.9726407205e+01   3.1751294836e+00    0.8718516    0.3981404  57.17  0.003149864    3.689    0.729
        14  -8.9779     53.5329    250.6375   1.4341635387e+02   1.8173225311e+01    0.1856544   0.07966209  43.02 0.0002388451    1.886    0.470
        15  -9.4114    243.8794    173.7402   9.6652513647e+01  -7.0221699092e-01     0.217135    0.1823824  54.79  0.001312605    1.542    0.352
        16 -10.7111    230.5771    167.8587   9.7756289313e+01   2.5600562022e+00    0.3964506    0.2113111 -49.73  0.001714447    2.585    0.613
        17 -11.8748     69.2849    145.2270   1.2948501062e+02   3.7739919976e+01     1.320631    0.9238468  86.15  0.004725221    1.478    0.323
        18 -11.2365     50.0587    164.3239   1.3677996334e+02   3.5803414742e+01    0.3509032     0.340343  34.79  0.001225668    1.375    0.273
        19 -12.2144     57.2870    159.3391   1.3446830750e+02   3.6049260687e+01    0.8849054    0.7241779  81.75  0.003652392    1.050    0.047
        20 -11.6082     63.4034    154.7115   1.3236560532e+02   3.6323654797e+01     0.696439    0.4335127  79.22  0.001727836    1.749    0.428
        21  -8.4534    205.2984    163.2907   1.0147961525e+02   8.1833509139e+00    0.1420639    0.1057443   9.46 0.0001943137    1.560    0.359
        22  -8.2865     31.5212    229.0469   1.4584622080e+02   2.4596960926e+01    0.1455265   0.08814336 -83.17 0.0004162612    1.495    0.331
        23  -9.8667    176.1726    201.8986   1.1457864463e+02   7.2458972919e+00    0.2114597     0.183076  46.57  0.000315808    1.109    0.098
        24  -9.0337    148.7409    115.9253   1.0267102838e+02   2.9730746573e+01    0.5125143    0.3149061 -85.80  0.001598534    3.819    0.738
        25 -11.3327    168.2604    114.0710   9.7675208834e+01   2.5604076016e+01     0.506974    0.4627133  68.25 0.0006715017    1.133    0.117
        26 -10.3142    175.1151    114.7021   9.6340780634e+01   2.3867808162e+01    0.3799291     0.274953 -77.38   0.00161541    1.946    0.486
        27 -10.6074    134.8407    109.1141   1.0434664307e+02   3.4289080861e+01     1.173619    0.2546276 -45.32  0.002978008    4.581    0.782
        28  -9.5260    132.9579     98.3577   1.0190723855e+02   3.7000934384e+01    0.3481028    0.2560947 -52.22  0.001465292    1.386    0.278
        29 -11.2044    197.4898    111.3277   9.0918664663e+01   1.9238077822e+01    0.6437028    0.3730576 -49.41  0.002665427    1.856    0.461
        30  -9.0410    127.1760    112.2713   1.0715123222e+02   3.5253634065e+01    0.3058056    0.2013232 -72.64  0.001231563    2.129    0.530
        31  -8.8264    155.5308    111.4648   9.9898581422e+01   2.9106872399e+01    0.1560913    0.1520234 -88.95 0.0001713135    1.029    0.028
        32  -8.4744    140.4316    105.7087   1.0202375722e+02   3.3770860850e+01     0.218156    0.1506272 -33.47 0.0009469606    1.581    0.368
        33  -9.5197    146.1830    101.7614   9.9524833163e+01   3.3280291747e+01    0.3524084    0.2679453  48.08  0.001118866    1.317    0.241
        34  -9.8143    192.1742    152.0681   1.0166298547e+02   1.2875547606e+01    0.4373016    0.1849551 -52.98  0.001421653    3.571    0.720
        35 -11.9663    166.1495     96.5808   9.3445714931e+01   2.9562585547e+01     1.237212    0.7839466  87.82  0.004370038    2.893    0.654
        36 -10.7833    152.2221     86.5127   9.3731122665e+01   3.4898959063e+01    0.3778608    0.2895795 -31.39 0.0006415012    1.367    0.268
        37 -11.1677    158.7145     84.7444   9.1721396967e+01   3.3649558135e+01    0.6733656    0.4547993 -54.40  0.002220792    1.636    0.389
        38  -9.9386    171.5894     94.7663   9.1760976513e+01   2.8581482265e+01    0.3496835    0.2764658 -43.70 0.0006921588    1.258    0.205
        39 -11.4789    168.9644     87.2421   9.0199005896e+01   3.0645092265e+01     0.721235    0.6238012 -13.49  0.001846998    1.297    0.229
        40  -9.5245    134.0000    147.5162   1.1359791473e+02   2.6043288966e+01    0.4616079    0.1759156 -51.20  0.001613452    2.724    0.633
        41 -10.5887    154.7645     96.1853   9.5919223526e+01   3.2389611413e+01    0.5098681     0.328525  34.91  0.002116689    1.810    0.448
        42  -9.8706    139.4045     92.2813   9.8529795967e+01   3.6794565695e+01    0.5156153    0.3425363 -66.99  0.002095816    2.051    0.512
        43  -9.3432    129.3462     73.7775   9.5500465168e+01   4.2766654540e+01    0.2998021    0.1834792 -53.69 0.0009809396    1.886    0.470
        44 -10.0341    162.9788     83.3271   9.0359494347e+01   3.2859829768e+01    0.3974733    0.3044156  81.50  0.001183325    1.576    0.366
        45  -9.3222    151.2916     71.5028   8.9405646775e+01   3.7921264448e+01    0.2815897    0.2103008 -36.64 0.0005939112    1.352    0.260
        46 -10.6279      9.9223    198.2797   1.4797612535e+02   3.2757197510e+01    0.2216673    0.1849697  53.75  0.001748055    1.382    0.276
        47 -10.1434    102.8880     39.8174   9.0915638479e+01   5.4498525669e+01    0.4084362     0.272035  12.22  0.001737499    1.948    0.487
        48  -8.1475    181.6633    148.6891   1.0308416439e+02   1.5749354822e+01    0.1537557    0.1163275   9.90 0.0003010563    1.685    0.406
        49 -10.7083    112.1867     29.1847   8.4178337459e+01   5.3942810444e+01     0.396661    0.2618692  78.72  0.001511809    2.211    0.548
        50  -9.1556    122.2363    147.1157   1.1637706402e+02   2.8448871981e+01    0.2411704    0.2001954  54.18  0.000258153    1.165    0.142
        51  -8.1900    155.6869    160.2894   1.1120123342e+02   1.8932261781e+01    0.1468069    0.1143955  78.48 0.0003064302    1.587    0.370
        52 -11.1106    186.5897    138.4718   9.9733559498e+01   1.6627481988e+01    0.5006701    0.3642488  57.91  0.001101077    1.487    0.328
        53 -11.4384    182.1212    134.0362   9.9624703809e+01   1.8473389723e+01    0.7188002    0.3338706  39.32  0.002637454    2.364    0.577
        54  -9.0364     57.0586     24.8207   1.0045752923e+02   6.5155087563e+01    0.3084949    0.1628713 -37.60  0.001316019    1.782    0.439
        55  -7.7808     97.7585    132.9478   1.1977222180e+02   3.6192038991e+01    0.1836977    0.1174004 -56.17 0.0003132471    1.505    0.336
        56  -9.1473    171.1177     19.1912   6.9006491916e+01   4.0352498900e+01    0.3026754    0.2127433 -21.02 0.0009301529    1.601    0.375
        57 -11.2831      3.5901    191.9185   1.4881730668e+02   3.4610047890e+01    0.5054746    0.2024569 -89.00  0.002768392    2.081    0.520
        58  -9.1197    191.6516    192.8318   1.0994007390e+02   5.8746349144e+00    0.4277731    0.2510297 -71.93  0.001242767    6.914    0.855
        59  -9.9518    135.8639    130.2086   1.0932569190e+02   2.9459657520e+01    0.4173068    0.1935782 -44.42  0.001440583    2.218    0.549
        60  -8.4587    189.4691     15.5999   6.5501008043e+01   3.5953873068e+01    0.2144673    0.1401285  -5.47  0.001008733    2.080    0.519
        61  -9.6765    212.9301    187.4054   1.0486066341e+02   2.8011647181e+00    0.2524404    0.1930671  13.52  0.001229303    1.310    0.236
        62 -12.7653     22.9876    180.9973   1.4429596021e+02   3.5080245736e+01    0.8128363    0.6034135  81.40  0.003699213    1.022    0.021
        63  -8.3855    146.9817    157.9891   1.1270224643e+02   2.1180646522e+01    0.2439134    0.1808859  80.55   0.00113658    1.747    0.428
        64 -10.4591    216.0212    182.6933   1.0337736929e+02   2.9611081232e+00    0.2907261    0.2374377 -58.29  0.001649467    1.674    0.403
        65  -8.2526    119.9888    132.1924   1.1378456310e+02   3.2251072974e+01    0.1968789    0.1827428  62.44  0.001060767    1.059    0.056
        66  -9.2850    245.1722    181.8610   9.8046664459e+01  -2.0711464383e+00    0.2841868    0.1859278  69.18  0.001217077    3.693    0.729
        67 -11.1772      4.1882    177.8914   1.4791226870e+02   3.7451540363e+01     0.451782    0.2713575 -85.64  0.003016862    1.293    0.227
        68 -11.4105    221.5438    176.9570   1.0122916080e+02   2.8292161054e+00    0.5619436    0.5045733  76.87  0.003360398    1.545    0.353
        69 -10.0900    161.0431    128.8531   1.0300491118e+02   2.4250640402e+01     0.397221    0.2832882 -53.12  0.001419295    1.483    0.325
