#   1 NUMBER                 Running object number                                     
#   2 MAG_AUTO               Kron-like elliptical aperture magnitude                    [mag]
#   3 X_IMAGE                Object position along x                                    [pixel]
#   4 Y_IMAGE                Object position along y                                    [pixel]
#   5 X_WORLD                Barycenter position along world x axis                     [deg]
#   6 Y_WORLD                Barycenter position along world y axis                     [deg]
#   7 A_WORLD                Profile RMS along major axis (world units)                 [deg]
#   8 B_WORLD                Profile RMS along minor axis (world units)                 [deg]
#   9 THETA_WORLD            Position angle (CCW/world-x)                               [deg]
#  10 FWHM_WORLD             FWHM assuming a gaussian core                              [deg]
#  11 ELONGATION             A_IMAGE/B_IMAGE                                           
#  12 ELLIPTICITY            1 - B_IMAGE/A_IMAGE                                       
         1 -15.1043      7.8775    142.1655   1.4573405579e+02   4.4825501451e+01     7.129291     1.913755 -84.76   0.02491722    4.544    0.780
         2 -13.7246    197.6534     26.5220   6.8096178912e+01   3.2002210152e+01     1.726058      1.45695  26.57  0.007310364    1.406    0.289
         3 -13.6213    212.3039      7.9483   6.1444593916e+01   3.0243321650e+01     1.076484    0.8681161  61.97  0.006328725    1.248    0.198
         4 -11.6209      3.2477      4.3121   1.1973926641e+02   7.3856947395e+01    0.3529814    0.2588101 -13.44  0.002683472    1.186    0.157
         5 -11.1787      3.0963     37.9336   1.3167394669e+02   6.7772721320e+01     0.278744    0.1479137 -72.13  0.001566204    2.075    0.518
         6 -10.9305    248.1427    249.6698   1.0990830135e+02  -1.0392141155e+01    0.4140576    0.1572854  43.23   0.00207606    2.609    0.617
         7 -12.2491    139.9871    248.8314   1.2900676428e+02   6.5525005601e+00    0.4873163    0.2955842  48.51  0.002993766    1.294    0.227
         8 -11.0690    126.0352    250.0000   1.3168164789e+02   8.5794629810e+00    0.3013732    0.1196721  46.89  0.001515844    1.915    0.478
         9 -11.4050     99.5944    248.9479   1.3635280157e+02   1.2743737505e+01    0.3079281    0.2786726 -18.74  0.002289699    1.779    0.438
        10 -10.5410     46.6466    249.1166   1.4552493034e+02   1.9780723957e+01     0.291396    0.1210245  69.84  0.001601625    2.419    0.587
        11 -10.9684     29.1698    249.8490   1.4840880670e+02   2.1660340861e+01    0.2882195    0.1439175  45.58  0.001977444    1.590    0.371
        12 -10.9471     34.2559    249.2599   1.4756203125e+02   2.1193070023e+01    0.3179333    0.1515442  56.89  0.002120532    1.504    0.335
        13 -11.9564     35.2622    244.0216   1.4712149001e+02   2.1957763397e+01    0.4194049    0.2825792  38.74  0.003092463    1.640    0.390
        14 -11.2718      9.5631    249.9384   1.5147626033e+02   2.3690476729e+01    0.3974546    0.1412076  38.30  0.002403898    2.525    0.604
        15 -10.8330      2.9023    248.4868   1.5243556004e+02   2.4575829282e+01    0.2760288    0.1624602 -89.92   0.00219608    1.451    0.311
        16 -10.7332    225.5119    249.5073   1.1371514435e+02  -7.1007160766e+00    0.2089096    0.1216326  29.32  0.001307653    1.301    0.232
        17 -11.3328     20.6838    243.6178   1.4947301459e+02   2.3611344359e+01    0.3016605    0.1194677  59.78  0.001863938    1.870    0.465
        18  -9.6658     82.4863    243.4780   1.3894042339e+02   1.6080671432e+01    0.1153761   0.08589526  58.28  9.58567e-05    1.013    0.013
        19 -11.6780     12.5026    240.4911   1.5064214713e+02   2.4977025651e+01    0.2465155    0.1817863  28.56  0.001913176    2.022    0.506
        20 -14.2060    100.1186    229.2178   1.3435001476e+02   1.5939671800e+01     4.321628      0.05148  45.50   0.00969344    9.471    0.894
        21 -10.5233    173.6523    222.4017   1.1913526303e+02   4.8108446107e+00    0.3531938    0.2258862  53.06  0.001936891    1.611    0.379
        22 -11.6037     21.9586    126.5091   1.4061765069e+02   4.7253293371e+01    0.4050902    0.2049709  51.05  0.001091646    2.138    0.532
        23 -11.8929    238.2335    247.6384   1.1125752486e+02  -8.7791249353e+00    0.3235161    0.2740505  29.32  0.002450634    1.408    0.290
        24  -9.1472    152.6530    213.0276   1.2189376596e+02   9.9960377841e+00    0.1661082    0.1530414  43.76 0.0003308935    1.115    0.103
        25 -12.4775      9.9904    206.9315   1.4951864465e+02   3.1270169633e+01    0.6249322    0.3563711  37.42  0.002971661    1.836    0.455
        26  -9.0374    195.4640    198.9954   1.1100305864e+02   4.4225501269e+00    0.1670773    0.1202658 -68.60 0.0007771589    2.508    0.601
        27 -10.4118     15.3988    197.5206   1.4800968026e+02   3.2584886098e+01    0.3069411    0.1285728  50.11  0.001513009    1.950    0.487
        28 -12.1252     66.6511    191.5756   1.3718975502e+02   2.7960315202e+01    0.2517395    0.2247881 -82.09 0.0005097371    1.228    0.186
        29  -9.1437    191.3536    192.0340   1.1055665206e+02   6.2779128487e+00    0.2041791    0.1130022 -62.47 0.0007046862    4.462    0.776
        30 -13.2151     48.2124    216.5862   1.4310081286e+02   2.5359436208e+01      1.02424    0.9254905 -29.82  0.006259393    1.842    0.457
        31 -11.8230     60.1467    200.1787   1.3939782714e+02   2.7066389345e+01    0.2464169    0.2114848 -79.34 0.0005459575    1.271    0.213
        32 -13.0503     33.4048    234.5062   1.4690911322e+02   2.3808385456e+01    0.2782198    0.2201665  87.03  0.000792508    1.276    0.216
        33 -13.3276     63.6271    176.7745   1.3622955932e+02   3.1485241002e+01    0.4756273    0.2733796 -47.86  0.001762811    2.244    0.554
        34 -10.9869     77.0320    178.4442   1.3339361855e+02   2.9280615294e+01    0.2289231    0.1998131  73.58 0.0003674637    1.038    0.037
        35  -9.8368     98.3514    175.2625   1.2805539451e+02   2.6688851528e+01    0.2455128     0.192072  68.54  0.000692975    1.223    0.182
        36 -12.0032     84.9647    169.1824   1.3031261861e+02   3.0114479705e+01    0.6750384    0.5781819  16.11  0.003996258    1.535    0.348
        37 -14.1107     38.2482    227.7507   1.4567110868e+02   2.4465645855e+01    0.7606359    0.4866681  59.39  0.002338633    1.175    0.149
        38 -10.5326     22.3278    237.2410   1.4890620808e+02   2.4529840761e+01      0.20068    0.1710131 -34.09  0.001522019    2.291    0.563
        39 -10.3579     97.3442    153.2239   1.2477221764e+02   3.1685020613e+01    0.3094505    0.2866882 -46.80 0.0008428954    1.220    0.181
        40  -9.3713    100.2712    148.9564   1.2327367029e+02   3.2150165001e+01    0.2103352    0.2037024  60.55 0.0004008494    1.098    0.090
        41 -12.1797     85.9058    152.2977   1.2750541233e+02   3.3735942877e+01    0.2913855    0.2497134 -46.77 0.0006165542    1.322    0.243
        42 -12.3209     67.4201    143.5568   1.3087173595e+02   3.8420812054e+01    0.6888909    0.4198872  64.20  0.003394013    1.861    0.463
        43 -10.1628    109.4546    137.5467   1.1868562683e+02   3.3096156457e+01    0.4771267    0.3150545 -19.41  0.001677275    2.679    0.627
        44 -11.0436     31.2947    131.5782   1.3873954943e+02   4.5286730828e+01    0.2848191     0.199576  53.86 0.0005571646    1.478    0.324
        45  -9.7809     54.8306    130.3033   1.3217931273e+02   4.3098094298e+01    0.3720962    0.1043912 -55.71  0.001372713    3.023    0.669
        46 -10.5652     96.3357    135.2521   1.2170797104e+02   3.5938180431e+01    0.2468816    0.2350796 -26.46 0.0004627502    1.196    0.164
        47  -9.0704    106.6102    124.1889   1.1657788855e+02   3.6643326248e+01    0.1890739    0.1727898 -49.74 0.0003182693    1.108    0.097
        48  -9.3860    167.9952    113.0112   9.8182080845e+01   2.5770939478e+01    0.2487309    0.1963528 -83.90 0.0009046633    1.691    0.409
        49 -10.3825     56.5512    223.8138   1.4209149384e+02   2.2985770135e+01    0.3019644    0.2408934  22.95  0.001953879    1.868    0.465
        50 -10.1988    157.9592     76.3206   9.0125917039e+01   3.5144021685e+01    0.2322322    0.1998308  48.50 0.0005664315    1.125    0.111
        51  -9.6809     54.4091    229.2394   1.4288575416e+02   2.2268466779e+01    0.2223156    0.1313121  60.10  0.000770909    1.321    0.243
        52 -10.2741    155.5118    228.5028   1.2353294053e+02   7.0251915568e+00    0.2419271    0.1016616  34.01  0.001043087    2.380    0.580
        53  -8.9352     38.9582     65.4677   1.2401400411e+02   5.9544565213e+01    0.1624403   0.09939971  53.19 0.0008080371    2.418    0.586
        54 -11.5752     11.5576     54.0704   1.3204312906e+02   6.4060698042e+01    0.2737751    0.1713506  17.93  0.000828688    1.913    0.477
        55  -9.5306    248.3360    231.3024   1.0693828601e+02  -8.5438250815e+00    0.1234278   0.07077154  13.99 0.0003627981    1.663    0.399
        56 -11.6417    153.7566    249.2440   1.2653317572e+02   4.2847604750e+00    0.4088272    0.1339179  41.96  0.001838222    2.292    0.564
        57  -9.9596     81.1409    248.6277   1.3959755560e+02   1.5420045395e+01      0.21748    0.1195736  73.62  0.001293917    1.942    0.485
        58 -11.2479      3.8957     20.9078   1.2605708850e+02   7.0966036684e+01    0.2947309   0.09988669 -47.59   0.00154049    2.026    0.506
        59 -11.2518    198.8926    246.6576   1.1798385744e+02  -2.6637758726e+00    0.2252985     0.199766  76.08  0.001586607    1.771    0.435
