#   1 NUMBER                 Running object number                                     
#   2 MAG_AUTO               Kron-like elliptical aperture magnitude                    [mag]
#   3 X_IMAGE                Object position along x                                    [pixel]
#   4 Y_IMAGE                Object position along y                                    [pixel]
#   5 X_WORLD                Barycenter position along world x axis                     [deg]
#   6 Y_WORLD                Barycenter position along world y axis                     [deg]
#   7 A_WORLD                Profile RMS along major axis (world units)                 [deg]
#   8 B_WORLD                Profile RMS along minor axis (world units)                 [deg]
#   9 THETA_WORLD            Position angle (CCW/world-x)                               [deg]
#  10 FWHM_WORLD             FWHM assuming a gaussian core                              [deg]
#  11 ELONGATION             A_IMAGE/B_IMAGE                                           
#  12 ELLIPTICITY            1 - B_IMAGE/A_IMAGE                                       
         1 -12.2687      4.4046     49.2571   8.2516731918e+01   6.7095535275e+01      1.17992    0.3204275 -58.61  0.005027345    2.427    0.588
         2 -12.5752     57.2702     35.3323   5.1673546097e+01   6.4517610725e+01     0.868434    0.4236077 -34.50  0.003757473    2.071    0.517
         3 -12.1606     75.1617     35.7312   4.4593658365e+01   6.1230468961e+01     0.759678    0.4337898 -51.62 0.0006548925    2.084    0.520
         4 -11.6423    112.5136     26.0521   2.8776496249e+01   5.4349655389e+01    0.5737868    0.2924469 -16.27  0.002225701    2.438    0.590
         5 -12.3913      3.3270     14.6271   7.2388663604e+01   7.4763934587e+01     0.491018    0.2791111 -59.25  0.001080104    1.524    0.344
         6 -10.7140    130.3968     13.5198   1.9761704085e+01   5.1273257131e+01    0.3420216     0.250101 -18.94 0.0009186801    1.437    0.304
         7 -12.6236    132.9714     18.9298   2.1466353285e+01   5.0003718022e+01     0.430098    0.3046323  53.57 0.0004220593    1.366    0.268
         8 -10.5328     32.4578     14.1977   5.3311386427e+01   7.1989403125e+01    0.4325531    0.3154898  37.03  0.002629499    1.579    0.367
         9 -12.2285     28.1690     19.6065   5.8748828873e+01   7.1559244302e+01    0.4025306    0.2785915  21.98  0.002399802    1.582    0.368
        10 -10.9789     10.8272     15.1827   6.7463744912e+01   7.4119941529e+01    0.5718387    0.2165664 -29.56  0.002244656    3.675    0.728
        11 -10.0497     15.0488     13.4946   6.3769362475e+01   7.4081013431e+01    0.2015598    0.1404969 -41.61  0.000377301    1.171    0.146
        12 -10.9943     60.5676     13.9006   3.9293787870e+01   6.7481648364e+01    0.4239785    0.2898476 -41.11  0.001380307    1.560    0.359
        13 -11.2337     76.6534     15.5347   3.4124819517e+01   6.4029181012e+01      0.83415     0.281049  47.72  0.002664662    2.813    0.645
        14 -10.9732     77.3928      9.7631   3.0789955477e+01   6.4584525527e+01    0.6296386     0.300201  34.03  0.002608609    2.445    0.591
        15 -10.5476     73.1763     10.6171   3.2670093929e+01   6.5386184226e+01    0.4131631    0.2372691  25.67  0.001890219    2.076    0.518
        16 -12.8384    238.1751     17.7660   8.9040363772e+00   2.3542256513e+01    0.3862386    0.2795597 -52.57 0.0004682393    1.172    0.147
        17 -11.9817    234.5340     10.2501   7.2757035568e+00   2.5161226932e+01    0.4194757    0.3566661   3.67  0.001249298    1.499    0.333
        18 -11.8012    229.9746      3.5317   5.8756795098e+00   2.6878545719e+01    0.5207621    0.2902731 -43.15  0.002755437    1.481    0.325
        19 -10.7874    169.2064     16.1547   1.4955603969e+01   4.0712048749e+01    0.3752222    0.2095528 -24.28  0.001671421    1.827    0.453
        20 -11.0981    164.8673     13.1710   1.4489434799e+01   4.2175944902e+01    0.4793583     0.256325 -37.63  0.002132966    1.778    0.437
        21 -10.4132     50.4708     17.1952   4.5624150310e+01   6.8789807012e+01    0.3351337    0.2089891 -46.99  0.000862678    1.802    0.445
        22 -10.8694     53.5400     14.4394   4.2645592540e+01   6.8684963061e+01    0.3076949    0.1511376  39.20  0.001080692    2.109    0.526
        23 -10.5674    156.2832     12.8891   1.5504582774e+01   4.4484829520e+01     0.441589    0.2551264  19.40  0.001794317    2.541    0.606
        24 -10.6526    159.9870      8.7386   1.3566565895e+01   4.3916556414e+01    0.2849876      0.22699 -80.52  0.000438047    1.246    0.197
        25 -10.6267    154.7005      8.5081   1.4151520671e+01   4.5343760835e+01    0.3535293    0.3208697  -4.94  0.001999566    1.210    0.174
        26 -10.6215     99.5102     12.6525   2.5932991218e+01   5.9172768733e+01    0.3345557    0.2732453 -24.59  0.001133121    1.236    0.191
        27 -11.3093    119.0968     11.7342   2.1136161350e+01   5.4388597846e+01     0.358026     0.308605  45.63  0.001020101    1.122    0.109
        28 -10.9008    176.3392     11.1030   1.2468075214e+01   3.9364967704e+01    0.3838776    0.2741345 -72.62  0.001961885    1.411    0.291
        29 -10.1381    145.2929     10.6925   1.6248066351e+01   4.7630722812e+01     0.270281    0.1919796  67.98 0.0008045744    1.342    0.255
        30 -11.2517    145.5149      6.4929   1.4639679445e+01   4.7976965069e+01    0.4588357    0.3104346 -37.99  0.001516059    1.481    0.325
        31  -9.8988     64.9849      8.6179   3.4507887233e+01   6.7316883680e+01    0.1838142    0.1554335  37.83 0.0004223197    1.176    0.150
        32 -11.0919      9.3055      8.2310   6.4938403867e+01   7.5573031485e+01    0.4227378    0.2953605  12.27  0.002760303    1.561    0.360
        33 -11.4393     11.4040      2.2631   5.9819621281e+01   7.6452407914e+01    0.2622762    0.1806821 -29.09 0.0008881328    1.189    0.159
        34 -10.5978     16.9807      2.6880   5.6046206689e+01   7.5802125119e+01    0.5337561    0.4142963  82.05   0.00292809    3.034    0.670
        35  -9.8907     34.1363      1.2563   4.4150027530e+01   7.3748539860e+01    0.5152253    0.1159455  46.24  0.001685814    5.424    0.816
        36 -11.2414     26.8354      2.3463   4.9254708744e+01   7.4643244256e+01    0.3314103    0.2177355  14.57  0.001952848    1.630    0.387
        37 -10.3467     22.4965      1.5268   5.1486528119e+01   7.5334160185e+01    0.3345816    0.1834044 -27.89   0.00103233    1.671    0.402
        38 -10.8847     36.5328      7.7376   4.7105738810e+01   7.2453477332e+01    0.3630483    0.2271564  40.71 0.0006970608    1.764    0.433
        39  -8.9585     24.3468      8.2630   5.4679936738e+01   7.4022353993e+01    0.1236296   0.08221137 -10.04 0.0001465469    1.605    0.377
        40 -10.8225    214.5028      6.7075   7.7495638011e+00   3.0185559126e+01    0.3515727    0.1781298 -62.67  0.001616077    1.974    0.493
        41  -9.5140    101.5729      6.8344   2.2647146859e+01   5.9282382030e+01    0.2024502    0.1182026 -36.43 0.0009431131    1.781    0.438
        42  -9.5544     91.9362      6.8316   2.5007729293e+01   6.1601167929e+01    0.2286394    0.1229905  39.44 0.0006318073    1.872    0.466
        43 -10.5511    223.0474      5.3052   6.7773256748e+00   2.8301531835e+01    0.2749054    0.1818425 -23.08  0.001494454    1.544    0.352
        44 -10.6644    164.7715      4.8463   1.1669086936e+01   4.3018062613e+01    0.2559482    0.2115818 -60.04 0.0004670729    1.170    0.145
        45 -10.5698    168.1736      1.8979   1.0315968028e+01   4.2388038901e+01     0.204754    0.1882636 -76.83 0.0002932642    1.006    0.006
        46 -11.0688    126.2226      2.8990   1.6101899074e+01   5.3386041587e+01    0.4571795    0.2911275  31.57  0.001605675    1.749    0.428
        47  -9.3882     68.1768      5.3392   3.1427997545e+01   6.7051046686e+01    0.1842433    0.1242978  63.71 0.0009570354    1.756    0.430
        48  -9.4277      1.0000      5.0653   6.9505331022e+01   7.6787155503e+01     0.176883   0.05399824 -56.58  0.000332487    2.711    0.631
        49 -12.1870    241.5225      2.8292   5.0223616843e+00   2.4367884715e+01    0.6671831    0.2611398  83.49  0.002955191    2.774    0.639
        50 -11.1750    178.8232      3.6766   9.8426463738e+00   3.9438914447e+01    0.2516686      0.22161 -54.94 0.0002489013    1.072    0.067
        51 -10.9319     90.9743      2.1251   2.2843101143e+01   6.2284454379e+01    0.2079512    0.1830415  -0.21 0.0002751446    1.124    0.110
        52 -10.9290     73.9048      1.9353   2.7537273443e+01   6.6191732795e+01    0.3353283    0.2372832  83.18  0.001478082    1.995    0.499
        53  -9.6376     97.8526      3.6457   2.1955662041e+01   6.0494397681e+01    0.2198766    0.1747078   5.34 0.0004884391    1.297    0.229
        54 -10.8379     19.7472     16.5433   6.2294144224e+01   7.3051334731e+01     0.318718    0.2930458 -46.62  0.002239605    1.261    0.207
        55 -10.4610    187.4919    189.5017   5.6998558431e+01   8.2862896554e+00    0.2109075    0.1151615 -26.57 0.0008863105    2.208    0.547
        56 -11.3367    247.4818    249.9719   5.6341267609e+01  -7.2618734464e+00    0.3097724    0.1343364  26.68  0.001940193    1.849    0.459
        57 -12.4109    225.8382    245.6421   5.9070990110e+01  -4.2273923826e+00    0.5378143    0.2998966   3.59  0.003393562    1.996    0.499
        58 -11.1690     90.1543    249.4872   8.2992034019e+01   1.3642897444e+01    0.2580097    0.1764647  41.19 0.0009779278    1.187    0.157
        59 -12.0910     21.6248    248.6119   9.4901471259e+01   2.1722331878e+01    0.5182437    0.1306688  46.21   0.00285264    2.302    0.566
        60 -11.4038     14.4778    244.9503   9.5976771706e+01   2.3033754284e+01    0.2269798    0.1200401  74.82  0.001139459    1.542    0.351
        61 -10.3637     12.6954    250.2498   9.6440648573e+01   2.2338930676e+01    0.1713263    0.1196681  34.93  0.001116926    1.605    0.377
        62 -10.2635    244.8368    188.1443   4.6893829312e+01  -4.9543750650e-01    0.1673687    0.1441603   1.43   0.00048436    1.206    0.171
        63  -9.9207     61.8619    184.3890   8.3015016607e+01   2.9178080409e+01    0.2198095    0.1504027  88.72  0.001299927    1.400    0.286
        64 -12.5410     17.5806    181.8309   9.2678550225e+01   3.4660084042e+01    0.5004693    0.2826979  35.70  0.002671426    1.755    0.430
        65  -9.7701    250.3065    181.3033   4.4803527811e+01  -4.6481632861e-01    0.1214714   0.07581998   4.97 0.0005854367    1.601    0.375
        66 -10.1655      1.6702    180.0768   9.6020123543e+01   3.6432635645e+01    0.1594341      0.11659  83.67   0.00113563    1.125    0.111
        67  -9.9032    244.4660    178.4968   4.5184107242e+01   7.3200722872e-01    0.2217139   0.09914155 -20.24  0.001034365    2.469    0.595
        68 -10.8150     22.9786    179.9786   9.1383897176e+01   3.4536144861e+01     0.380634    0.1158359  59.78  0.001477307    3.207    0.688
        69  -9.7370    172.4940    175.4699   5.7414825534e+01   1.3104370925e+01    0.1322419    0.1208916  29.56  9.12913e-05    1.052    0.050
        70 -11.1045     17.8228    172.3163   9.2068849548e+01   3.6689072669e+01    0.3705249      0.14246  52.22  0.001852322    2.152    0.535
        71  -9.5987     25.3090    169.3700   9.0149214691e+01   3.6622966483e+01     0.115927    0.0841249 -52.22 8.682809e-05    1.765    0.433
        72 -11.2007      5.2355    167.9927   9.4689692879e+01   3.8734458688e+01     0.195437    0.1482338  56.82 0.0007916487    1.198    0.166
        73  -8.8296     93.3108    166.7340   7.3527406377e+01   2.8507519456e+01    0.1380273   0.09342346  65.75 0.0002428985    1.539    0.350
        74 -10.0512     67.7825    165.9117   7.9616862563e+01   3.2428482816e+01    0.2245802    0.1307692  76.31  0.001081101    1.934    0.483
        75 -11.2492     51.2899    161.9567   8.3230029579e+01   3.5449222963e+01    0.5016347    0.2456076 -74.94  0.001309583    1.942    0.485
        76 -10.0148     36.5823    165.7492   8.7191293355e+01   3.6271071605e+01     0.226328    0.1438723  75.38 0.0006988106    1.390    0.281
        77  -9.4140     33.3238    166.2790   8.8018195856e+01   3.6498719428e+01     0.197813    0.1061006  32.52  0.000206843    1.954    0.488
        78 -10.2810    186.8030    165.6030   5.2735744914e+01   1.2176231591e+01    0.1928824    0.1224065  50.22 0.0009583766    1.716    0.417
        79 -10.1180      9.5010    162.9527   9.3438094767e+01   3.9495504488e+01    0.1943689    0.1725803 -11.40  0.001385854    1.699    0.411
        80  -9.3952     66.3238    162.0950   7.9511560696e+01   3.3489480261e+01    0.1827888    0.1106825 -84.34 0.0007209259    1.703    0.413
        81  -9.4375    132.5544    161.2525   6.3375337345e+01   2.2988992109e+01    0.1881471    0.1333477 -39.21 0.0009465229    1.599    0.375
        82 -10.4514     67.0523    157.7858   7.8786625703e+01   3.4377557535e+01    0.2089853    0.1703541 -87.24  0.000269736    1.124    0.111
        83 -11.1314     20.4125    156.9253   9.0424323824e+01   3.9900523254e+01    0.3442879    0.2368453  87.38  0.001692379    1.191    0.160
        84 -10.4252    247.3804    157.2202   4.0614577437e+01   3.0001471598e+00    0.1770112    0.1008999 -36.35 0.0009544842    1.716    0.417
        85  -9.4468      7.2234    157.1679   9.3648155556e+01   4.0981929917e+01     0.172255    0.1056934  67.09 0.0006535576    1.334    0.250
        86  -9.9306      1.5363    157.5375   9.5024146279e+01   4.1342776509e+01    0.1183123   0.08982627  79.48 0.0001545518    1.024    0.023
        87  -9.5898    235.7004    154.3167   4.1837026515e+01   5.2895977630e+00    0.1159484   0.09923448 -53.21 0.0007019813    1.615    0.381
        88  -9.7863    216.4954    154.4937   4.5053188976e+01   8.5735239393e+00    0.1328268    0.1161371  -1.73 -5.379445e-05    1.004    0.004
        89 -10.6717     11.0005    153.1373   9.2483731893e+01   4.1591657220e+01    0.2994659    0.1810967  44.23  0.001017673    1.567    0.362
        90  -9.5918    158.8226    153.3954   5.6011563480e+01   1.9598124115e+01    0.2160676    0.1270407  31.98 0.0009545216    1.856    0.461
        91  -9.5955     40.8855    153.1559   8.4937368442e+01   3.8699462124e+01    0.1679676     0.129023 -69.15 0.0005735228    1.290    0.225
        92  -9.2229    222.6895    151.3740   4.3350967774e+01   7.9422567676e+00     0.126346     0.103081 -60.92 0.0007031749    1.780    0.438
        93  -9.5729    176.9619    150.0007   5.1514619745e+01   1.6705876582e+01    0.2082712    0.1757492  89.17 0.0006400883    1.616    0.381
        94 -10.9711     13.9500    148.0242   9.1396936732e+01   4.2527696023e+01    0.2280781    0.1622116  72.80  0.000331114    1.155    0.134
        95  -9.6326    144.0064    148.0323   5.8206255874e+01   2.3518291904e+01    0.1705538    0.1687267  49.08 0.0009571548    1.026    0.025
        96 -10.9779      8.0550    145.3512   9.2718378411e+01   4.3626876238e+01    0.3561136    0.2204326  22.86  0.002108571    2.007    0.502
        97 -10.5938    216.7530    145.3825   4.3087714475e+01   9.9090869724e+00    0.2301935    0.1600416  30.43 0.0006940542    1.463    0.316
        98 -10.2987    187.7545    144.0722   4.8099699383e+01   1.5640077803e+01    0.2347372    0.1941073  38.23 0.0005172535    1.201    0.167
        99  -9.3390    126.6277    142.8275   6.1243715575e+01   2.7948398169e+01    0.1900339     0.136989 -63.64  0.000393941    1.515    0.340
       100 -11.0059     24.8627    142.8902   8.8137292531e+01   4.2769170738e+01    0.1925155    0.1658802  65.71 0.0003990137    1.153    0.132
       101 -10.4305     33.0194    142.2523   8.5889217686e+01   4.2124382573e+01    0.1793135    0.1521142  69.22 0.0006813327    1.107    0.096
       102  -9.2439     39.2851    141.3371   8.4092356242e+01   4.1684928702e+01    0.1268232   0.09159436 -49.50 0.0004339494    1.628    0.386
       103  -9.9841     13.8743    140.1392   9.0830021819e+01   4.4386376811e+01     0.161025    0.1289273 -67.44 0.0003505692    1.305    0.234
       104  -9.9370    188.9729    139.5010   4.6855607960e+01   1.6192433890e+01    0.2170434    0.1371314  44.56  0.000689332    1.595    0.373
       105 -10.6050      9.1061    137.7222   9.1918866293e+01   4.5336178086e+01    0.3352117   0.08661142 -68.33  0.001353392    2.974    0.664
       106 -10.4643    236.4843    137.9741   3.8274453513e+01   7.4598062839e+00    0.1960036    0.1654397  26.50 0.0008493263    1.225    0.184
       107 -11.2624      2.8141    135.5369   9.3447637217e+01   4.6312032367e+01    0.4236963    0.1135152 -74.89  0.001745556    2.850    0.649
       108  -9.9173    144.2272    136.9912   5.5816419978e+01   2.5731984282e+01    0.2031509    0.1935325 -34.79 0.0004324467    1.079    0.073
       109  -9.6830     43.9966    136.9510   8.2273152708e+01   4.2223771133e+01    0.1694147    0.1328403 -83.52 0.0009962217    1.106    0.096
       110 -10.6293    241.2433    134.2710   3.6747382017e+01   7.1519490719e+00    0.2319626    0.1867291 -24.98 0.0005060607    1.108    0.097
       111 -11.3033     53.8448    132.0750   7.8828517562e+01   4.2242449286e+01    0.5815475    0.3016524  65.04  0.001899433    2.321    0.569
       112 -10.5556     59.0078    131.4928   7.7261422204e+01   4.1724697121e+01    0.2597785    0.2145379 -57.75  0.000557853    1.261    0.207
       113 -10.5242     20.6704    134.7301   8.8528881071e+01   4.5104047933e+01    0.2312452    0.1339825  89.20 0.0008862047    1.501    0.334
       114 -11.6200     36.6943    131.0523   8.3615926653e+01   4.4461818233e+01    0.4938689    0.2798892 -57.32  0.002509748    1.729    0.422
       115 -10.9128     73.7775    129.0128   7.2614555063e+01   4.0264666810e+01    0.3211229    0.2667135  74.81  0.001070796    1.165    0.142
       116 -10.8713      4.2147    130.0661   9.2697905191e+01   4.7510941442e+01    0.1911317    0.1635146  61.99 0.0005832589    1.214    0.176
       117 -10.0355    116.7626    127.7877   6.0547004326e+01   3.3160881173e+01    0.2043988    0.1705591 -88.29 0.0005017623    1.315    0.240
       118 -11.3402     56.7421    126.3878   7.7124031520e+01   4.3275504466e+01    0.3394059    0.2043491 -46.91 0.0009758626    1.881    0.468
       119 -11.2564     15.7066    125.2579   8.9052963927e+01   4.7814975242e+01    0.3610775    0.1993588  42.62   0.00197416    1.818    0.450
       120 -11.8060     10.8254    121.9708   9.0174784382e+01   4.8989053279e+01     0.431771    0.2220589 -86.54  0.001724284    1.640    0.390
       121 -10.4389      7.5194    118.4911   9.0845258319e+01   5.0070601271e+01      0.18565    0.1322875 -54.29   0.00113693    1.503    0.335
       122  -9.2283     82.7072    124.3193   6.9173959185e+01   4.0024104640e+01    0.1490999    0.1065292  78.03 0.0002863653    1.606    0.377
       123  -9.9526    230.0000    124.9715   3.6399876912e+01   1.0544316923e+01    0.2296084   0.06946628 -33.34 0.0008052295    2.962    0.662
       124 -10.1240    243.5263    122.0753   3.3722310252e+01   8.4770713032e+00    0.2046495      0.11363 -30.11 0.0006619665    1.556    0.357
       125 -10.6494     19.9069    121.3162   8.7425542654e+01   4.8436482977e+01    0.2727109    0.1508692 -67.00    0.0009427    1.545    0.353
       126 -10.9934     24.8038    119.2022   8.5716266577e+01   4.8535718979e+01    0.3369861    0.2377722 -88.87  0.001965557    1.212    0.175
       127  -9.7286      4.5416    122.5112   9.2046426148e+01   4.9299386153e+01     0.124629   0.09738102 -88.90 9.536221e-05    1.024    0.024
       128  -9.8105     71.4846    120.9984   7.1819850943e+01   4.2567346636e+01     0.212336    0.1312035 -63.05 0.0003889701    1.503    0.335
       129 -10.5076      1.4005    118.5394   9.2656195791e+01   5.0459910079e+01    0.2248535   0.09526631 -79.69 0.0001598837    1.866    0.464
       130  -9.9759     42.4247    117.3190   8.0048080533e+01   4.7247610432e+01    0.2344108    0.1440709  58.28  0.001175736    1.709    0.415
       131 -11.3910    181.9552    114.5299   4.2314985242e+01   2.2118150831e+01    0.4381119    0.2943355  33.82 0.0005277941    1.666    0.400
       132  -9.7649     86.0894    116.1366   6.6504561488e+01   4.1452023628e+01    0.2066998    0.1942198 -45.76  0.001157376    1.163    0.140
       133 -10.3104     72.0118    115.2887   7.0552371284e+01   4.3895503565e+01    0.2655581    0.2330228  65.19  0.001494034    1.141    0.123
       134 -10.1024     52.2491    116.1985   7.6817552579e+01   4.6375521233e+01    0.2451754    0.1967127  10.31  0.001199987    1.654    0.396
       135 -12.2210     37.8445    109.2620   8.0264866574e+01   4.9758102476e+01    0.7959084    0.3386715  34.57  0.003526478    2.449    0.592
       136 -12.8162     15.6453    112.7940   8.7816073615e+01   5.0877671420e+01    0.8953015    0.4080498 -86.02  0.002795534    2.007    0.502
       137 -11.3015     25.2900    106.4528   8.3952810989e+01   5.1665236186e+01    0.5524325    0.3370001  -3.64  0.002565637    2.637    0.621
       138 -11.6854     23.8875     99.5837   8.3455113352e+01   5.3503059523e+01    0.5140867    0.3086852  43.15  0.002759401    1.793    0.442
       139 -10.4433    105.7095    114.7272   6.0544270934e+01   3.8276760853e+01    0.2939636    0.2447492 -62.39 0.0009963639    1.171    0.146
       140 -10.8557     93.0402    111.7019   6.3465361268e+01   4.1320573833e+01    0.4226536    0.3020703  63.05  0.000924179    1.575    0.365
       141 -10.5500    249.7877    112.0373   3.0589837288e+01   8.7631022239e+00    0.2026651     0.155954 -39.40 0.0007880261    1.257    0.205
       142 -11.0522     55.0930    109.7434   7.4774952281e+01   4.7631301630e+01    0.2829043    0.2123151 -66.02  0.000559563    1.190    0.160
       143 -10.5938     52.8931    105.0258   7.4598562158e+01   4.9091471319e+01     0.371481    0.1916054  51.06  0.001627045    2.181    0.542
       144 -10.8142      2.7719    106.0233   9.1202356086e+01   5.3415840342e+01    0.3204605    0.1938677 -81.51  0.001170396    1.307    0.235
       145 -10.1649    111.6238    105.9629   5.6724607797e+01   3.9146733172e+01    0.3098288    0.2009774  44.08            0    1.585    0.369
       146 -10.2298    119.0201    102.9499   5.3898061612e+01   3.8312131904e+01    0.4575446    0.1815184 -37.09  0.001401511    3.350    0.702
       147 -11.6105     36.8579    101.7297   7.9368955697e+01   5.1751276075e+01    0.6092596    0.3141521  73.55  0.002407942    2.699    0.629
       148 -12.0207     61.8974     99.0035   7.0360258913e+01   4.9398270679e+01     0.490234    0.3137122 -50.53  0.001340597    1.492    0.330
       149 -10.3012     66.8196     97.8170   6.8446580047e+01   4.8983992907e+01    0.2087685    0.1853271 -43.44 0.0002467766    1.192    0.161
       150  -9.4599     48.0519    100.8444   7.5411858930e+01   5.0731891810e+01    0.2212922    0.1690038  84.69 0.0006790752    1.337    0.252
       151 -11.0018     75.0395     98.9894   6.6019358530e+01   4.7435297877e+01    0.3580499    0.2900928 -29.98   0.00155652    1.465    0.317
       152  -9.5494    144.4563     99.2651   4.6401478877e+01   3.3524082825e+01    0.2192833    0.1446685 -52.99 0.0009384222    1.591    0.372
       153 -10.1554     32.4230     96.4804   8.0007402277e+01   5.3510057142e+01    0.2414763    0.1838038 -88.48 3.824096e-05    1.225    0.184
       154  -9.8082      9.7104     99.0390   8.8212256365e+01   5.4700110394e+01    0.1766287    0.1280401 -81.80 0.0003171573    1.111    0.100
       155  -9.5382    106.5404     98.4990   5.6194403942e+01   4.1871890405e+01    0.1538568    0.1448863 -72.73 0.0008090875    1.032    0.031
       156 -10.8008     15.7546     96.7047   8.5856474236e+01   5.4860778920e+01    0.2619151    0.2296938  47.88  0.001674528    1.300    0.231
       157  -9.3565    240.6858     96.3573   2.8168195217e+01   1.2708667007e+01    0.1412168   0.09431653 -54.39 0.0002879062    1.745    0.427
       158 -11.6816    157.9841     90.5014   4.0826657397e+01   3.2116737387e+01    0.5466478    0.4045976  54.26  0.002562332    1.400    0.286
       159 -10.4611    157.1888     85.1804   3.9448323479e+01   3.3319656542e+01    0.5728983    0.3778068 -48.84  0.002509707    1.536    0.349
       160 -11.0877     55.7684     91.2477   7.0716580757e+01   5.2155221873e+01    0.4539349    0.2456787 -35.22  0.001848624    2.547    0.607
       161  -9.6141    249.9765     91.2447   2.5766106544e+01   1.1634289190e+01    0.1489023    0.1158018  57.44 0.0003526264    1.540    0.351
       162  -9.7339    231.5340     91.4925   2.8231235883e+01   1.5258813983e+01    0.1401769    0.1215917 -32.58 6.792531e-05    1.028    0.027
       163  -9.6918     73.7021     90.7332   6.4398224341e+01   4.9654590986e+01    0.3242106    0.1072872 -49.29  0.001087832    2.802    0.643
       164 -10.4490     10.5447     90.7771   8.6914042001e+01   5.6689639636e+01     0.181992    0.1756293  11.10 0.0003769439    1.311    0.237
       165 -10.8220     96.7037     89.0443   5.6495506411e+01   4.5975747771e+01    0.4697425    0.1818374  46.64  0.001620161    2.764    0.638
       166 -10.3979     84.5458     88.7933   6.0281573360e+01   4.8287854987e+01    0.2921278    0.2171962  50.30  0.001257244    1.441    0.306
       167 -10.2103     78.7173     87.7793   6.1925724238e+01   4.9536880355e+01    0.2742374    0.1913618 -65.79  0.001299123    1.468    0.319
       168 -11.4403     66.4828     85.6551   6.5554244443e+01   5.2006218268e+01    0.5679126    0.4009578 -28.48  0.002723614    1.785    0.440
       169 -10.0191     38.7863     86.8643   7.5901043837e+01   5.5270938249e+01    0.3286504    0.1468742 -58.33  0.000973399    1.857    0.461
       170 -11.7609     21.7865     84.7977   8.1879209752e+01   5.7364293632e+01    0.5928795    0.1984901 -66.71  0.001395843    2.327    0.570
       171 -12.7907     38.4209     49.9800   6.6169311947e+01   6.4111894490e+01    0.7156391    0.5653213 -39.54  0.003452599    1.145    0.127
       172 -14.3496     16.6820     67.3480   8.0681719414e+01   6.2037888817e+01    0.5887712    0.3963532 -51.09   0.00129635    1.312    0.238
       173 -11.7072     30.2727     62.3875   7.3615417793e+01   6.2102065722e+01    0.9832451    0.6573378  67.78  0.005064922    2.014    0.504
       174 -11.9907     11.3343     57.2355   8.0937695719e+01   6.4823605515e+01    0.7712708    0.4956249 -52.37   0.00272874    1.302    0.232
       175  -9.2407    160.3359    249.3196   7.0488954040e+01   4.1304688470e+00     0.110057   0.07337242  14.56 0.0007049494    1.704    0.413
       176 -12.9962     12.5174     47.4383   7.8018788555e+01   6.7045815017e+01    0.5257434    0.3656171 -42.50 0.0007132785    1.301    0.231
       177 -11.2381     44.5758     43.6993   6.0993257301e+01   6.4716366523e+01    0.4733961    0.3116577 -74.09  0.001659936    2.246    0.555
       178 -11.8419     45.1791     38.3362   5.8528912158e+01   6.5748387859e+01    0.3203211    0.2616025  65.57  0.001824355    1.699    0.411
       179 -12.1430    107.2841     84.6663   5.2009421282e+01   4.4833483637e+01    0.3256347    0.2793941  77.46 0.0002691407    1.308    0.235
       180  -9.6110     54.2331     85.7984   6.9978493414e+01   5.3701287181e+01     0.178076    0.1489501 -38.10 0.0009882192    1.273    0.215
       181  -9.8539      9.4221     86.0443   8.6694630642e+01   5.7930371353e+01    0.2369677    0.1183577  61.98 0.0009276947    2.360    0.576
       182  -9.8243     34.3214     84.8781   7.7162572071e+01   5.6223468662e+01    0.1946961    0.1496511 -66.06 0.0009145539    1.104    0.094
       183 -10.3734    167.4265     83.0912   3.6689892554e+01   3.1235546808e+01    0.4589448    0.2638934  69.74  0.001759401    2.333    0.571
       184 -10.0408    117.1966     83.8118   4.8908823142e+01   4.2896162301e+01    0.2080817    0.1863031  -0.37 0.0006273199    1.292    0.226
       185 -11.2468     30.4867     81.6408   7.7970231469e+01   5.7395896699e+01    0.3765351    0.2546071 -48.59  0.001360084    1.405    0.288
       186  -9.8827     27.4145     78.2041   7.8474334026e+01   5.8524590415e+01    0.2393751    0.1293025  32.70   0.00119262    2.085    0.520
       187 -11.4456     76.7361     82.4270   6.1095708730e+01   5.1138076745e+01    0.3085297    0.2559356  59.47 0.0004642824    1.329    0.248
       188 -10.2867      7.0928     81.4293   8.6937658558e+01   5.9206512753e+01    0.3626306    0.1747414 -55.88  0.001854652    1.759    0.431
       189  -9.6623     86.5861     82.3473   5.7761203231e+01   4.9423358896e+01    0.2216009    0.1777949 -20.16 0.0008222467    1.518    0.341
       190 -11.4179     88.1510     77.4088   5.5740264752e+01   5.0258784366e+01    0.3035328    0.2505685 -50.99 0.0001233469    1.139    0.122
       191 -10.4386     42.6560     82.3603   7.3468562227e+01   5.5962930987e+01    0.2114571     0.151471  77.26 0.0007065575    1.651    0.394
       192 -11.1471     99.6921     76.9059   5.1886660566e+01   4.8104414967e+01    0.3920588    0.3446971 -26.52  0.001389421    1.206    0.171
       193  -9.5597      3.0061     77.9253   8.8035248379e+01   6.0287988928e+01    0.1622551    0.1055773 -75.16 0.0004290134    1.214    0.176
       194  -8.8635     70.2848     76.3060   6.1574930487e+01   5.3638157874e+01     0.144431    0.1091058 -26.50 0.0002168759    1.564    0.361
       195  -9.2890     36.6826     76.6651   7.4471368438e+01   5.8011841761e+01    0.1429357    0.0903502 -39.14 0.0007048262    1.696    0.410
       196 -12.3507    167.7451     73.2885   3.3704734564e+01   3.2899982429e+01    0.3648353    0.2620549 -38.89 0.0004293006    1.327    0.246
       197 -10.9572     55.8566     74.2196   6.6340818800e+01   5.6288655838e+01    0.4957049    0.3494098  54.45   0.00251964    1.678    0.404
       198  -8.9566     61.5114     73.4971   6.3979453306e+01   5.5652857964e+01    0.2290334    0.1953507  45.28  0.001012603    1.294    0.227
       199 -10.7234     44.6107     74.6248   7.0834494948e+01   5.7629289510e+01    0.2303605    0.2098694  75.45 0.0003960394    1.199    0.166
       200  -9.4340     39.6235     79.1956   7.3904134289e+01   5.7078196783e+01    0.2089074     0.103405 -54.35 0.0007198722    1.719    0.418
       201  -9.8172      7.8055     73.4753   8.5484643821e+01   6.1114177297e+01    0.2406984    0.1505798 -52.42  0.000718297    1.429    0.300
       202 -10.4094      2.2349     72.9265   8.7656256898e+01   6.1544631851e+01    0.2675464    0.2531035  60.96  0.001927359    1.262    0.208
       203  -9.9270    102.6694     72.6766   4.9591888455e+01   4.8397950141e+01    0.1560227    0.1222595  -2.57 0.0004866438    1.700    0.412
       204  -9.0844     68.2821     72.2704   6.1081735267e+01   5.4898243572e+01    0.1388425    0.1084835 -23.71 0.0004815302    1.495    0.331
       205  -9.8936    162.3927     70.5168   3.3912483644e+01   3.4713635600e+01    0.4108931    0.2568427   8.25  0.001346412    3.087    0.676
       206 -11.8938    122.8905     67.5658   4.2089844831e+01   4.4923261896e+01    0.4202817    0.3213153 -70.94 0.0005261027    1.603    0.376
       207 -11.6693     50.2627     68.2575   6.6829165430e+01   5.8451784347e+01    0.3732642    0.2400421 -43.69 0.0006749725    1.472    0.321
       208 -11.3270     46.6254     60.4266   6.5957667836e+01   6.0745069558e+01    0.3569394     0.287109 -29.55 0.0008358359    1.293    0.227
       209 -10.3803     51.9034     62.3592   6.4360219463e+01   5.9607793428e+01    0.3635088    0.2181727 -43.15  0.001754034    1.561    0.360
       210 -11.1965     57.7468     58.7743   6.0774202846e+01   5.9590305974e+01    0.4417726    0.3219595 -12.17  0.001712163    1.780    0.438
       211  -9.5892    130.9783     69.5116   4.0655615228e+01   4.2630137350e+01    0.2220751    0.1548615  51.90 -8.662789e-05    1.469    0.319
       212  -9.0610     61.9425     68.0000   6.2142524817e+01   5.6869703034e+01    0.2136131    0.0829241  35.72  0.000753673    2.853    0.649
       213 -10.5042    147.1676     65.5042   3.5512106334e+01   3.9402117449e+01     0.322785    0.2325873 -65.03 0.0008612919    1.658    0.397
       214  -9.6228     93.5251     66.5073   5.0380557479e+01   5.1591927627e+01    0.1507583    0.1426469 -37.78 -2.352858e-05    1.020    0.020
       215  -9.6931    131.0745     64.8330   3.9055145133e+01   4.3490174589e+01    0.2079474    0.1824057  19.18 0.0005167132    1.285    0.222
       216 -10.0162     81.2178     64.9223   5.3995567644e+01   5.4315854864e+01    0.2225618    0.2007084 -74.23 0.0006294033    1.205    0.170
       217 -10.9299    155.6060     62.6179   3.2777399342e+01   3.7782162158e+01    0.4456868    0.3394515 -26.53  0.001949232    1.356    0.263
       218 -10.4333    106.1556     64.0475   4.5578858795e+01   4.9427831678e+01    0.2274881    0.2015323  -7.96            0    1.247    0.198
       219  -9.8823     97.3096     63.2903   4.8032262619e+01   5.1481257218e+01    0.2786112    0.2484712 -73.31  0.001154468    1.236    0.191
       220 -10.4868     98.3088     59.9472   4.6507910626e+01   5.1945697245e+01    0.3220813    0.2527549  60.49 0.0009579006    1.428    0.300
       221 -10.4155    202.0812     62.4214   2.4726921549e+01   2.6216773113e+01    0.2337185    0.1902989 -24.41  0.001221216    1.221    0.181
       222  -9.4248    161.8438     61.7960   3.1270759061e+01   3.6339144041e+01    0.2115977    0.1720267 -62.81 0.0002888553    1.306    0.234
       223 -10.8006     74.6194     62.0945   5.5383716245e+01   5.6120051782e+01    0.3882546    0.1973011  51.80  0.001549143    2.462    0.594
       224 -10.3318     69.3057     61.0749   5.7015394178e+01   5.7255235985e+01    0.4078465    0.1746766 -45.38  0.001429748    2.149    0.535
       225  -9.3443    173.0206     60.9793   2.8941202127e+01   3.3637306180e+01    0.1809333    0.1751544 -79.64 0.0003624758    1.044    0.042
       226 -11.0245    128.4510     50.4564   3.4601408154e+01   4.6685385495e+01    0.3690451    0.3020628  29.16  0.000717771    1.361    0.265
       227 -10.2337    129.9927     46.4883   3.2765512193e+01   4.6954344037e+01    0.2423262    0.1980866  89.87  0.000833168    1.414    0.293
       228  -9.8197    138.2935     60.2594   3.5756056544e+01   4.2545079106e+01    0.2937436    0.2011125 -70.61 0.0001638009    1.970    0.493
       229  -9.9980    134.8578     58.1312   3.5822620717e+01   4.3773919128e+01    0.2962187    0.2299021 -73.15 0.0008517852    1.550    0.355
       230 -10.8762    120.4491     60.0227   4.0109417149e+01   4.6933713955e+01    0.4100447    0.3825293 -66.65  0.002170258    1.111    0.100
       231 -11.2817     90.9149     60.9694   4.9272755147e+01   5.3273006676e+01    0.4586891    0.2039299  41.17   0.00116188    2.449    0.592
       232 -10.0344    169.2108     59.7784   2.9248437311e+01   3.4796849847e+01    0.2079151    0.1797865  19.01 0.0004017812    1.337    0.252
       233  -9.1145    109.2725     60.3053   4.3320952523e+01   4.9468785048e+01    0.1495125    0.1202966   1.30 0.0001779707    1.540    0.351
       234 -10.5807    143.7047     58.5351   3.3943187579e+01   4.1488997421e+01    0.3205411    0.2518365  81.16 0.0008137337    1.461    0.315
       235 -10.2624    147.0411     56.9597   3.2683930587e+01   4.0911935041e+01    0.2310864     0.225304   9.50 0.0003723401    1.078    0.073
       236  -9.9210    127.1371     58.3862   3.7794745384e+01   4.5626888529e+01    0.2582962    0.2123407 -21.91 0.0005834236    1.291    0.225
       237 -11.4343     80.2552     56.6234   5.1347522139e+01   5.6251618246e+01     0.446946    0.2943578 -18.97  0.001282048    2.072    0.517
       238 -11.7775     21.3095     76.1647   8.0502698972e+01   5.9537082310e+01    0.7612234    0.3173053 -41.92  0.002945178    2.681    0.627
       239  -9.7756    112.0244     56.6600   4.1198709387e+01   4.9532046831e+01    0.2076633     0.195763  45.72  0.001106865    1.090    0.083
       240  -9.8342    208.1424     55.8825   2.2057740341e+01   2.5719318285e+01    0.1890457    0.1676584   2.11            0    1.289    0.224
       241  -9.1151     67.6281     56.6943   5.6094553356e+01   5.8485869149e+01    0.1485115    0.1090563 -11.82 0.0002123738    1.761    0.432
       242  -9.5613    192.3196     55.3121   2.4099289295e+01   2.9659550547e+01    0.1489655    0.1144672  22.47 0.0007036895    1.648    0.393
       243 -11.4483    133.9827     51.6369   3.3722449434e+01   4.5105776614e+01    0.9864726    0.4857736 -52.42  0.003528405    2.535    0.605
       244 -11.1513     89.0316     52.0355   4.6535166427e+01   5.5441465759e+01    0.5702644    0.2051342 -43.76  0.001971907    2.668    0.625
       245 -10.2086    151.1671     53.9799   3.0814033379e+01   4.0350846261e+01     0.255982    0.2209153  39.45 0.0003940579    1.237    0.192
       246 -12.5763    104.9810     52.5357   4.1684248554e+01   5.1905482869e+01     0.317294     0.300488 -23.80 0.0003481444    1.034    0.033
       247 -10.1728     27.6543     53.6697   7.2383309589e+01   6.4397046223e+01    0.3110353    0.1949635 -28.89 0.0007620287    1.811    0.448
       248 -11.5188     51.7035     48.2306   5.9516399935e+01   6.2772038595e+01    0.7380286    0.4309619 -53.40  0.003467829    1.611    0.379
       249 -10.3554     83.3386    248.0763   8.4104804994e+01   1.4731912303e+01     0.227845    0.1163417  46.93   0.00107333    1.437    0.304
       250 -11.7432     77.7704     47.9678   4.8876539633e+01   5.8460397479e+01    0.7054065    0.4784638 -12.46  0.002462628    2.019    0.505
       251 -10.0961     82.4861     47.0910   4.6818072864e+01   5.7712092013e+01    0.2924472    0.1775991 -41.42  0.001335501    1.560    0.359
       252 -10.4599    186.3803     50.4094   2.3515551218e+01   3.1866238140e+01     0.303484    0.2145876 -60.65   0.00143483    1.506    0.336
       253 -11.8250      2.7202     62.8802   8.5910517716e+01   6.3948809066e+01    0.6944441    0.3353916  83.50  0.003223319    2.475    0.596
       254  -9.4221    164.2941     48.6794   2.6553877055e+01   3.7791115332e+01    0.1597894    0.1113123 -61.93 0.0007015711    1.611    0.379
       255 -10.3351     62.2560     47.6851   5.4809396056e+01   6.1266778212e+01     0.198363    0.1516636 -24.01 0.0006234043    1.370    0.270
       256  -9.8772    104.5406     46.4299   3.9424509373e+01   5.3102934517e+01    0.2495772    0.2234504  64.38 0.0006917087    1.201    0.167
       257 -10.0088    142.6122     45.5603   2.9638869717e+01   4.3886424178e+01    0.3280729    0.1966287  70.36 0.0008740767    1.890    0.471
       258 -11.3392    112.4570     45.3252   3.6748668225e+01   5.1444084818e+01    0.3155745    0.2643751  16.90 0.0007115236    1.340    0.254
       259  -9.9165     91.6278     45.8614   4.3198877222e+01   5.6059499770e+01    0.2088379    0.1786626 -37.69 0.0004951822    1.126    0.112
       260  -9.9655    152.7870     44.9233   2.7391262651e+01   4.1346899304e+01    0.2649955    0.1928347  52.02 0.0002065894    1.396    0.284
       261 -11.0873     96.8308     42.0732   3.9971704974e+01   5.5598035795e+01    0.4668967    0.3076701   6.67  0.001655796    2.349    0.574
       262 -10.9560     72.8032     43.0818   4.8714288859e+01   6.0335418430e+01    0.3108236    0.2578164 -47.19  0.001705862    1.207    0.171
       263 -10.4168     67.5425     42.3789   5.0474290922e+01   6.1423906924e+01    0.4647411    0.1609318 -41.15  0.001667078    2.711    0.631
       264 -10.8455     23.9582     41.7719   7.0452464595e+01   6.7436568231e+01    0.4140697      0.23306 -57.02  0.001052293    1.491    0.329
       265 -13.1568     27.2377     37.4319   6.7180027171e+01   6.8070649129e+01    0.4164639    0.3316625  74.87  0.001588328    1.772    0.436
       266  -9.2420    158.2674     42.2829   2.5477255421e+01   4.0305593394e+01    0.1457278    0.1161417  24.35 0.0006892752    1.492    0.330
       267  -9.5977    130.5895     41.7636   3.0853610042e+01   4.7548634197e+01    0.2144454    0.1367766 -41.69 0.0007468576    1.557    0.358
       268 -10.6429     89.0740     40.9173   4.1973655074e+01   5.7485249578e+01     0.327154     0.283627 -77.88  0.001682258    1.425    0.298
       269 -10.6470    120.4982     40.9516   3.2934177338e+01   5.0203991074e+01    0.2905732    0.2173994  82.86  0.001340279    1.643    0.391
       270 -10.0645     79.8930     41.3691   4.5345792178e+01   5.9292408824e+01    0.3765323    0.2140362  50.24  0.001678477    1.921    0.479
       271 -11.0399     83.4649     35.8620   4.1664784361e+01   5.9534716173e+01    0.5413902    0.3516552   4.36  0.001882734    2.348    0.574
       272 -11.5287      6.1240    245.0012   9.7373174427e+01   2.3823617549e+01     0.336832    0.1548108  64.26  0.001665769    1.556    0.357
       273  -9.6588    235.8277     40.1478   1.4749631680e+01   2.1433804048e+01    0.1670693    0.1545007   2.99 0.0003857973    1.283    0.220
       274 -10.4609    225.7912     39.4284   1.5539120980e+01   2.3786983971e+01    0.2837148    0.1343457 -39.68  0.001041568    1.771    0.435
       275 -10.3319    202.7288     38.0619   1.7676952973e+01   2.9466359455e+01    0.4681099    0.1530858 -43.46  0.001534468    2.752    0.637
       276 -10.3218    115.4744     39.0127   3.3431554477e+01   5.1741638810e+01    0.2458602    0.2101417  86.01 -4.931258e-05    1.336    0.252
       277  -9.3239    159.6827     38.2600   2.3856876635e+01   4.0504812117e+01    0.1524437    0.1108406 -68.06 0.0001480495    1.542    0.351
       278  -9.7882    109.6727     38.2750   3.4663263658e+01   5.3258686373e+01    0.2045503    0.1466171 -46.74 0.0002729122    1.459    0.315
       279 -11.6122    111.2549     34.7886   3.2796081199e+01   5.3415625094e+01    0.3257632    0.2571995  49.89 0.0007688041    1.262    0.207
       280 -10.0604      1.4219     37.2540   8.1230628689e+01   6.9999094232e+01    0.2207779   0.08786467 -62.94 0.0006977201    1.862    0.463
       281 -11.2840    248.2486     36.2815   1.2688705789e+01   1.9223342258e+01    0.2306555    0.1960286 -41.09 0.0002777776    1.054    0.051
       282  -9.0352    164.6509     37.6779   2.2835090044e+01   3.9280468702e+01     0.158125    0.1122537  30.08 0.0007048894    1.744    0.427
       283 -11.1206     66.0745     36.6581   4.8558346222e+01   6.2763237668e+01    0.3409152    0.2269425  41.32 0.0001433055    1.601    0.376
       284  -9.7541    162.8032     42.3714   2.4717085929e+01   3.9106854050e+01    0.2160733    0.1314057  51.90 0.0003945505    1.681    0.405
       285 -10.4725    193.0794     33.9156   1.7620677580e+01   3.2413930265e+01    0.4066608    0.2441702 -46.06  0.001728127    1.557    0.358
       286  -9.6042    129.1219     35.8981   2.8933726564e+01   4.8798300987e+01    0.2076726    0.1729893  27.63  0.000387354    1.310    0.236
       287 -11.0025     96.9928     35.5055   3.7124027680e+01   5.6651810562e+01     0.395147    0.1948204 -38.71 0.0006964995    1.974    0.493
       288 -10.0837    180.4941     35.4620   1.9738896656e+01   3.5440918649e+01    0.1448758    0.1398186 -62.45  5.65893e-05    1.042    0.041
       289 -11.1975     17.4206     31.3373   7.0263602510e+01   7.0274212143e+01    0.5494057    0.3030487  -5.18  0.002732704    2.498    0.600
       290  -9.5884     11.9836     29.2577   7.2658697157e+01   7.1139973471e+01      0.16324    0.1146393 -36.49 0.0002647914    1.257    0.205
       291 -10.5450      9.7470     34.5783   7.5777970037e+01   7.0134855103e+01    0.2391895    0.2074625   1.88  0.001540415    1.336    0.252
       292 -11.4051      7.1738     30.1469   7.5827827170e+01   7.1268185238e+01    0.3142845    0.2510017  77.86  0.001036941    1.625    0.385
       293  -9.8327    241.0171     34.3145   1.2812548024e+01   2.1010159133e+01    0.1766529    0.1539707 -63.12 0.0003614002    1.108    0.097
       294  -9.6105    140.9270     33.7725   2.5669224909e+01   4.6047034593e+01    0.1985209    0.1896097  78.99 0.0003400415    1.042    0.040
       295  -9.3541    134.5106     34.4925   2.7234096713e+01   4.7614503323e+01    0.1497504    0.1438476 -67.35 8.570542e-05    1.050    0.048
       296 -11.3275    122.5190     33.4791   2.9477246743e+01   5.0821711804e+01    0.3349773    0.2751916  55.80 0.0007099434    1.208    0.173
       297 -10.3496     33.3212     33.2541   6.2294945638e+01   6.8288832886e+01    0.3220165    0.1924447  46.23  0.001636201    2.221    0.550
       298  -9.6087    146.3386     33.8145   2.4656326086e+01   4.4623886556e+01    0.2043228    0.1416902 -14.71 0.0004561355    1.637    0.389
       299 -10.1511    221.4696     31.7258   1.3912792268e+01   2.5744540396e+01    0.2603059    0.1110794 -34.04 0.0008168509    1.967    0.492
       300  -9.9460    129.1936     31.9031   2.7357204832e+01   4.9345122771e+01    0.2219279    0.1941938 -61.91 0.0003584575    1.210    0.174
       301 -10.2502      1.4254     31.3333   7.9605637784e+01   7.1322258027e+01    0.2143951   0.09484196 -65.01 0.0002223374    1.800    0.445
       302 -11.2038    101.1714     28.3015   3.2730621368e+01   5.6778640120e+01    0.4290731    0.3192778 -35.26  0.001348782    1.335    0.251
       303 -10.4504    234.4470     29.1997   1.2080927107e+01   2.3071224209e+01    0.3242235    0.1037903 -31.29  0.001255178    2.512    0.602
       304 -10.7155    178.4641     28.4683   1.7792368817e+01   3.6856493045e+01    0.3661465    0.2594245 -24.88  0.001802184    1.440    0.306
       305 -11.4311    145.6145     28.4596   2.2824663800e+01   4.5521245260e+01    0.4903496    0.3365833   0.49 0.0006068269    1.866    0.464
       306 -10.8001     81.2694     28.9959   3.9262988708e+01   6.1114052839e+01    0.3896582    0.2838865 -65.13  0.001136165    1.959    0.489
       307 -12.0147    156.3286     27.9967   2.0848401787e+01   4.2746375981e+01    0.4739946      0.30096 -81.89 0.0005695365    1.941    0.485
       308 -10.1608     49.9595     28.0567   5.1563039168e+01   6.7029117913e+01    0.3781797     0.217889 -15.15  0.001613385    2.619    0.618
       309 -11.4254    239.3142     26.9072   1.1101688740e+01   2.2258362759e+01    0.3241779    0.2484731  39.58  0.001869363    1.692    0.409
       310 -11.0602    197.4793     27.9819   1.5339658747e+01   3.2037605434e+01    0.2810729    0.2104802  77.77 0.0007688655    1.362    0.266
       311  -9.8441    118.9239     27.7994   2.7990762682e+01   5.2515932973e+01    0.2323992    0.1887109  36.87  0.001194456    1.265    0.209
       312 -10.9370     28.1407    244.7865   9.3646822470e+01   2.1682816970e+01    0.2781485    0.1545568  84.95  0.001901014    1.679    0.404
       313 -10.0914    114.1240     60.7582   4.2100648060e+01   4.8274441866e+01    0.2620027    0.2249758  52.73  0.001330507    1.203    0.169
       314 -10.0745    135.0198     27.2098   2.4328322944e+01   4.8461884622e+01      0.26413    0.1832817  47.40 0.0004760482    1.453    0.312
       315 -11.8302    216.5973     25.3222   1.2640081136e+01   2.7660159994e+01     0.374563    0.2316486  64.98 0.0001977532    1.704    0.413
       316  -9.8624    123.1023     25.6266   2.6154852831e+01   5.1742986194e+01    0.3403131    0.1948876 -51.62  0.001420174    2.056    0.514
       317  -9.5327     16.0206     26.3549   6.9121045033e+01   7.1439551062e+01    0.1671332    0.1379763 -33.33 0.0005042621    1.079    0.073
       318  -9.7001    155.6463    250.2930   7.1417558469e+01   4.6567894663e+00    0.1090961   0.07109246  53.49 0.0007030525    1.683    0.406
       319 -11.2301      3.0294     24.9471   7.6601364643e+01   7.2630839737e+01    0.4295956    0.2919644  -3.17  0.001946536    1.686    0.407
       320 -10.3840     10.9079     24.2615   7.1401263507e+01   7.2274406037e+01    0.2990352    0.1386533 -39.52 0.0007454012    1.892    0.471
       321 -10.9024    225.4897     22.9458   1.1217477719e+01   2.5840839000e+01    0.4410206    0.1898229 -49.31  0.001903883    2.105    0.525
       322 -11.1104    140.1699     18.1905   1.9906052231e+01   4.8193788798e+01    0.7641622    0.2712348  60.41  0.002767542    2.511    0.602
       323 -10.1431    137.0866     14.8721   1.9141456207e+01   4.9371856747e+01    0.2094097    0.2045116 -65.63 0.0002919872    1.036    0.034
       324  -9.0634    124.6953    245.6864   7.6435184800e+01   9.5730926033e+00    0.1035583   0.07910062  14.69 0.0004156862    1.619    0.382
       325 -11.2687    128.4821     23.9634   2.4347917981e+01   5.0570990942e+01    0.2652114    0.2523934 -52.82 0.0003062562    1.072    0.067
       326 -10.8427     73.1796    244.6058   8.5681806629e+01   1.6555282468e+01    0.2651911    0.1452745  35.29  0.001669299    1.644    0.392
       327 -12.6026     75.1794    239.3732   8.4944785242e+01   1.7151488246e+01    0.4858258    0.4514686  58.78  0.003340978    1.317    0.241
       328  -9.9358    102.2023    243.4014   8.0311160882e+01   1.2983805039e+01    0.1657872    0.0769187  45.77 0.0009452291    1.635    0.388
       329 -10.4064     88.5651    240.9637   8.2605722637e+01   1.5173533227e+01    0.1415983    0.1052464 -77.09  0.001021449    1.583    0.368
       330 -10.3665     60.5513    240.8660   8.7715992061e+01   1.8704539499e+01    0.1892106   0.09345849  44.14 0.0007356125    1.498    0.332
       331 -10.6793    161.7482     20.0125   1.7249638877e+01   4.2260792166e+01    0.3630317    0.2163707   1.00  0.001337115    2.377    0.579
       332  -9.5072    115.6831    240.3175   7.7550483201e+01   1.1609597476e+01     0.115788   0.07092241  58.73 0.0004370907    1.654    0.395
       333 -10.1323     54.1969     23.1231   4.7098905247e+01   6.7202069740e+01     0.227694    0.2092597 -84.51 0.0008922925    1.491    0.329
       334 -11.4669     60.2685     21.4493   4.3548340452e+01   6.6411982888e+01    0.6023672    0.3052111  45.36  0.001783278    2.079    0.519
       335 -10.0198     68.8892     21.5836   4.0121977301e+01   6.4764790411e+01     0.387963    0.2144059  68.98  0.001431957    3.775    0.735
       336 -10.5670    193.4117     21.4903   1.3853254408e+01   3.3829041653e+01    0.3441745    0.1500445 -35.35  0.001423428    2.019    0.505
       337 -10.8280     82.8105     22.0237   3.5365321233e+01   6.1826101612e+01    0.3959027    0.3127716  44.33  0.001453263    1.262    0.207
       338 -10.3042     87.1193     20.1106   3.3041038099e+01   6.1141417636e+01    0.2301025     0.208795  17.41 0.0002709296    1.051    0.049
       339 -10.3794     34.4494     22.3103   5.6580569314e+01   7.0286286222e+01    0.2391442    0.2020693 -10.95  0.001131027    1.123    0.109
       340  -9.3227    186.1767     22.2222   1.4878225399e+01   3.5598712498e+01    0.2134261    0.1517519 -57.07  0.001069677    1.367    0.268
       341  -9.7748     93.9368     22.4627   3.2120382424e+01   5.9277299284e+01    0.2099794    0.1373309  54.70 0.0003976202    1.532    0.347
       342 -10.7612    248.9850     20.7970   8.8857226454e+00   2.0861054716e+01    0.2420056    0.1515238 -40.81 0.0003276639    1.287    0.223
       343  -9.1780    155.7010     21.7014   1.8719523345e+01   4.3673003080e+01    0.1480779      0.10828  33.80   0.00035849    1.576    0.366
       344  -9.2431     91.0035     25.5266   3.4442497085e+01   5.9518421016e+01    0.2115714    0.1059365  33.96 0.0008088946    2.517    0.603
       345  -9.4724     99.5610     20.3910   2.9570579094e+01   5.8233303309e+01    0.2885521    0.2059005 -86.94            0    1.972    0.493
       346  -9.7916     74.6284     21.0736   3.7714699660e+01   6.3688474646e+01    0.2332917    0.1653637 -36.32 0.0005125972    1.399    0.285
       347 -11.0907     35.0729    238.2840   9.2147796493e+01   2.2040033998e+01    0.2063916    0.1401024 -81.23  0.001541845    1.571    0.364
       348 -11.6564     30.4543    233.7656   9.2762188296e+01   2.3310442989e+01    0.3995831    0.1804513  53.39  0.002512853    1.585    0.369
       349  -9.9317    109.7131    250.0698   7.9541284504e+01   1.0982485959e+01    0.1503971    0.1201499  49.97 0.0008466339    1.083    0.076
       350 -10.2673    195.4612    238.4445   6.3064450053e+01   5.6586852150e-01    0.1956945    0.1580383  16.51  0.000937952    1.090    0.083
       351 -10.8842     17.9838    236.3853   9.5078495314e+01   2.4134559557e+01    0.3848034    0.1090096  52.69  0.002080088    2.303    0.566
       352  -9.4214      8.3130    237.3125   9.6780739983e+01   2.4910994875e+01   0.08147284   0.07566675 -77.57 0.0003413369    1.634    0.388
       353 -10.4411     41.6078     19.2525   5.1146880998e+01   6.9844714762e+01    0.3441606    0.1901491  39.35 0.0006429724    1.989    0.497
       354 -10.1067     67.6564    236.0652   8.6096190466e+01   1.8640132277e+01    0.2184845      0.13935  37.28  0.001458799    1.432    0.302
       355 -11.5238    184.9804    228.2866   6.3483962455e+01   3.2865171262e+00    0.4389826    0.2611949  -9.09  0.002403531    2.488    0.598
       356 -10.0040    107.9678     18.0432   2.6353993439e+01   5.6486992873e+01    0.2274943    0.1981912  22.63   0.00125594    1.160    0.138
       357 -10.8568     39.4775    229.4725   9.0905663530e+01   2.3087542301e+01    0.2565911    0.1461303  64.29  0.001641846    1.397    0.284
       358  -9.4775     88.2627    233.6632   8.2057468788e+01   1.6395398423e+01    0.1145193   0.06926581  63.05  0.000442643    1.584    0.369
       359  -9.1887    159.3254     15.6739   1.6074645509e+01   4.3382856458e+01    0.1573167    0.1001663 -60.16 0.0007049316    1.694    0.410
       360 -11.0466    183.3075    234.1442   6.4579513427e+01   2.7906472567e+00    0.3234128    0.1799272  36.86  0.001460821    1.438    0.305
       361  -9.7007    169.3677    228.7060   6.6333764377e+01   5.5190493625e+00    0.1139735   0.08088656  55.69 0.0006823628    1.720    0.418
       362  -9.5234    151.5418    228.4618   6.9572950531e+01   8.1921469397e+00    0.1177776   0.09409826  38.10 0.0001847619    1.038    0.037
       363 -10.5473    159.9996    235.4869   6.8899656430e+01   5.9746554358e+00    0.1775687   0.09091757  36.87 0.0004728092    1.542    0.352
       364  -9.5194    131.4649    226.5116   7.3116276800e+01   1.1457123744e+01    0.1189905   0.09533495  43.01 0.0001181185    1.017    0.016
       365 -10.2597      3.9307    225.7230   9.7190922458e+01   2.7344490270e+01    0.1604731    0.1277482 -76.15  0.001277436    1.575    0.365
       366  -9.2223    120.3187    225.6461   7.5153540338e+01   1.3227815209e+01    0.1223267   0.07800914  62.49 0.0007046591    1.748    0.428
       367 -10.4748     45.9315    244.6080   9.0542077570e+01   1.9784440947e+01    0.3136418   0.08037149  44.90  0.001586605    2.436    0.589
       368  -9.3012    206.4676     10.6345   9.4613060882e+00   3.1738904748e+01    0.1341401    0.1185019 -68.69 1.813373e-05    1.038    0.036
       369  -9.6633    193.0579     16.2750   1.2326896456e+01   3.4499744708e+01     0.191805    0.1639545  84.74  0.000402127    1.150    0.131
       370 -10.9556     22.4112     24.1059   6.4331608928e+01   7.1314352796e+01    0.3005154    0.2013932 -32.52 0.0006951142    1.338    0.253
       371  -9.7311     13.3086    221.3195   9.5351631573e+01   2.7263812776e+01    0.0880625   0.07861889 -65.47 0.0002824152    1.640    0.390
       372 -10.9685     45.9783    218.8127   8.9057145808e+01   2.4282009733e+01    0.2192031    0.1328843  48.45  0.001197138    1.288    0.223
       373  -9.7131    211.7094    218.9850   5.7488366372e+01   5.7515343221e-01    0.1565816    0.1282693   0.47 0.0009539981    1.145    0.126
       374  -9.4095    120.9978    219.4798   7.4326031162e+01   1.4129283205e+01    0.1535952   0.09761138  17.45 0.0006216802    2.244    0.554
       375 -10.0069     91.6772    235.6666   8.1586705548e+01   1.5612995990e+01    0.1013305   0.08577606   6.97 0.0003510223    1.705    0.414
       376  -9.7273    135.9877    216.4784   7.1026765965e+01   1.2357441492e+01    0.1904464    0.1007465  39.22 0.0006860243    1.559    0.359
       377 -10.6033     29.3581    215.5503   9.2080607861e+01   2.6720460417e+01    0.1947094    0.1670535  48.29  0.001109091    1.340    0.254
       378 -10.3723     24.0105    216.0143   9.3126826615e+01   2.7187217901e+01    0.1704441    0.1192952  65.65 0.0004228052    1.045    0.043
       379 -11.3388      8.3776    216.0721   9.6067572582e+01   2.8697381125e+01    0.2783617      0.10028  45.84  0.001612491    1.941    0.485
       380 -12.6299      4.9305    207.9390   9.6426095929e+01   3.0548343764e+01    0.5715767    0.2711995  79.59  0.003533983    1.730    0.422
       381  -9.7626    110.2834    211.9999   7.5601752862e+01   1.6991802740e+01    0.1630269    0.1473306  64.54 0.0008010474    1.123    0.109
       382 -10.4002    237.0071    208.9894   5.1727902435e+01  -1.8157819972e+00    0.1832462    0.1108888   5.86 0.0006019396    1.648    0.393
       383  -9.8391    217.4595    208.5386   5.4861141276e+01   1.0100527479e+00    0.2027731   0.09941192 -21.37  0.001032498    2.424    0.588
       384 -11.1403     19.8989    200.5638   9.3181815730e+01   3.0584061054e+01    0.4584543    0.1384477 -70.07  0.002185624    3.083    0.676
       385 -10.8123    175.2413    202.2053   6.1405812143e+01   8.3834031187e+00    0.2430676    0.1812053  35.13 0.0004297164    1.158    0.137
       386  -9.9396     67.3477    202.7744   8.3533249915e+01   2.4726005620e+01    0.1926191    0.1441179 -68.03 0.0004434724    1.484    0.326
       387  -8.9857     53.2441    202.3490   8.6448086120e+01   2.6575684217e+01    0.1023473   0.08730427 -54.51 0.0003398678    1.577    0.366
       388  -9.4857    196.5231    201.4872   5.7356711680e+01   5.0997032482e+00    0.1238618    0.1011902  16.60  7.64046e-05    1.037    0.036
       389 -12.1184     11.8879    210.0816   9.5180274178e+01   2.9499324893e+01    0.4924333    0.1789858  81.82  0.002514222    2.611    0.617
       390  -9.3850     41.0000    197.9601   8.8685920465e+01   2.8882159706e+01    0.1792339   0.05989152 -75.24 0.0008018834    2.939    0.660
       391  -9.5648     56.7929    197.1859   8.5284573289e+01   2.7173338147e+01    0.1744781    0.1349243 -29.56  0.001049082    2.167    0.539
       392  -9.0045    134.7524    196.6299   6.8602076634e+01   1.5892166946e+01    0.1199971   0.09696598  -8.90 0.0002795546    1.626    0.385
       393 -12.1530     15.8176    192.0314   9.3591273650e+01   3.2699596277e+01    0.3554799    0.3336316 -79.81  0.001919115    1.441    0.306
