#   1 NUMBER                 Running object number                                     
#   2 MAG_AUTO               Kron-like elliptical aperture magnitude                    [mag]
#   3 X_IMAGE                Object position along x                                    [pixel]
#   4 Y_IMAGE                Object position along y                                    [pixel]
#   5 X_WORLD                Barycenter position along world x axis                     [deg]
#   6 Y_WORLD                Barycenter position along world y axis                     [deg]
#   7 A_WORLD                Profile RMS along major axis (world units)                 [deg]
#   8 B_WORLD                Profile RMS along minor axis (world units)                 [deg]
#   9 THETA_WORLD            Position angle (CCW/world-x)                               [deg]
#  10 FWHM_WORLD             FWHM assuming a gaussian core                              [deg]
#  11 ELONGATION             A_IMAGE/B_IMAGE                                           
#  12 ELLIPTICITY            1 - B_IMAGE/A_IMAGE                                       
         1 -13.7614    206.7516     20.8970   3.6036403317e+01   3.1414593318e+01    0.8267806    0.7281832 -68.33  0.004441504    1.136    0.120
         2 -11.5364     51.0036      6.4864   6.2490677025e+01   6.7472663758e+01    0.1841934    0.1006201  42.71  0.001039248    1.611    0.379
         3 -10.1774     61.0047    243.2699   1.1285432699e+02   1.5764652737e+01    0.1427128    0.1354813 -66.92 0.0005835864    1.355    0.262
         4 -14.1757    246.6214    238.5956   7.5064851456e+01  -1.0134502650e+01     1.991749    0.6203153 -33.95  0.009014008    3.059    0.673
         5 -16.0955    119.5608    235.7214   9.9703280240e+01   8.8322071869e+00     5.700513     4.242493 -63.85   0.03340728    1.564    0.360
         6 -10.5948     69.3934    238.6378   1.1071727759e+02   1.5580489374e+01    0.1133353    0.1076904  14.02 0.0002544177    1.375    0.273
         7 -10.2983     63.4753    192.7374   1.0718948078e+02   2.6447594470e+01    0.1649824    0.1259279 -76.56 0.0003336595    1.260    0.206
         8 -10.5029     58.8559    192.7929   1.0832246951e+02   2.7047184798e+01    0.2078603    0.1513182  48.37 0.0005829865    1.289    0.224
         9 -18.8283     32.7123    130.4054   1.0717097168e+02   4.5463921600e+01     18.17915     4.059666 -69.71   0.05074694    4.955    0.798
        10 -12.2861     72.9100    187.5036   1.0418732453e+02   2.6380594563e+01    0.2839511    0.2193129  74.87 0.0005618787    1.291    0.226
        11 -10.9244     66.7424    184.7931   1.0537837226e+02   2.7895047790e+01     0.410261     0.245145 -36.42  0.001380111    2.460    0.594
        12  -8.7644     63.4348    213.5234   1.0953616378e+02   2.1692017032e+01    0.1690199    0.1454708  83.54 0.0005664688    1.087    0.080
        13 -10.6839    181.1773    178.9397   7.6758144140e+01   9.5131910910e+00    0.2769826    0.1970957 -52.55 0.0006321834    1.550    0.355
        14 -10.0514     61.5693    210.3496   1.0962727858e+02   2.2647452593e+01    0.2029402    0.1291859  76.76   0.00100995    1.646    0.393
        15 -10.2222     67.6224    175.6472   1.0390996494e+02   2.9992007702e+01    0.2412668    0.1963756  71.26  0.000522934    1.194    0.163
        16 -10.1473     73.8868    206.6666   1.0636592226e+02   2.1789885966e+01    0.1748341    0.1454701  68.18 0.0004996305    1.089    0.082
        17 -10.1586    187.7550    170.1615   7.3614628326e+01   1.0028308962e+01    0.2913704    0.1915462 -53.50  0.001006974    1.710    0.415
        18  -9.6349     65.1191    205.8199   1.0831674746e+02   2.3194824408e+01    0.1472016    0.1369366  87.52 0.0002645007    1.129    0.114
        19  -9.2444      2.3573    164.2044   1.1944390182e+02   3.9722794251e+01    0.1076399   0.08586857 -40.61  0.000360043    1.545    0.353
        20 -11.3573     63.1807    200.9994   1.0822900723e+02   2.4559333451e+01    0.2500856    0.1862676 -48.54 0.0009740486    1.587    0.370
        21 -11.3662     94.4641    151.7264   9.2631579254e+01   3.1768856679e+01    0.2633762    0.2606972  75.00  0.000398018    1.052    0.049
        22 -12.8610     98.8174    147.1440   9.0509263274e+01   3.2145841882e+01    0.6823402    0.4434212 -33.07  0.001553735    1.946    0.486
        23 -10.2430    112.4981    150.9349   8.7528994385e+01   2.8763113931e+01    0.2308091    0.1504903 -56.39 0.0005060212    1.548    0.354
        24 -11.2969    134.0000    146.9447   8.1036377173e+01   2.5558312450e+01    0.7485646    0.2088527 -53.03  0.002027862    4.146    0.759
        25 -10.7769    132.6061    140.8032   8.0022937768e+01   2.7252174776e+01    0.4766469    0.2188431 -59.36  0.001508713    2.849    0.649
        26 -10.2842    109.3194    147.4640   8.7670462261e+01   3.0184505371e+01    0.2532597     0.186294 -81.73 0.0006966569    1.691    0.409
        27 -10.9909     83.1784    194.8763   1.0264192569e+02   2.3139621491e+01    0.3764755    0.2446946  37.34  0.001393996    1.488    0.328
        28 -10.1099    120.4331    138.6283   8.2734269786e+01   3.0182046651e+01    0.2804475    0.1516825 -55.96 0.0005944987    1.946    0.486
        29 -10.9760    110.5501    139.1548   8.5549246467e+01   3.1954819057e+01    0.3291823     0.229462  30.03  0.001125574    1.571    0.364
        30 -12.2299     95.8994    137.2957   8.9288796656e+01   3.5067012264e+01    0.4783613    0.3441965  77.14  0.001547317    1.837    0.456
        31 -11.7291     98.6907    133.0154   8.7549581091e+01   3.5615091592e+01    0.2791627    0.2630149 -34.15  0.000362538    1.101    0.092
        32 -11.6219    109.6964    133.7633   8.4581549502e+01   3.3405674881e+01    0.4674555    0.3078828 -29.89  0.001958492    1.941    0.485
        33 -12.0547    105.6730    130.7884   8.5040666160e+01   3.4873415049e+01    0.5182021     0.454196 -55.39  0.001729261    1.125    0.111
        34  -9.5559    135.4563    136.4610   7.8297615262e+01   2.7666300123e+01    0.1533728    0.1514418 -84.01 0.0002240757    1.010    0.010
        35 -10.1973    117.3391    134.3008   8.2588914051e+01   3.1806948126e+01    0.1573267    0.1242242  -7.24 0.0007036517    1.667    0.400
        36  -9.5028    123.2903    131.9867   8.0440007789e+01   3.1169305640e+01    0.2111982    0.1981431 -63.54 0.0003398182    1.070    0.065
        37 -10.6500    116.2443    126.8251   8.1139688003e+01   3.3775768042e+01    0.2866817    0.2094823 -30.83  0.000702198    1.580    0.367
        38 -10.5813    104.3066    121.8234   8.3327696548e+01   3.7259029721e+01    0.2734839    0.2380837  -2.09 0.0005884017    1.331    0.249
        39  -9.4166    111.0303    116.4963   8.0077009247e+01   3.7199418354e+01    0.2209204    0.1523038  40.76 0.0003453455    1.467    0.318
        40 -11.5331    119.0557    110.5725   7.6300920398e+01   3.6914432345e+01    0.4565542     0.330093  69.47  0.002010026    1.787    0.440
        41 -10.0282    205.3365    110.1728   5.7029509867e+01   1.8108786131e+01    0.2243918    0.1978069  40.60 0.0006211097    1.266    0.210
        42 -11.5406     54.7602    199.8631   1.1009380417e+02   2.5922394296e+01     0.284761    0.2056617 -48.49 0.0009972701    1.656    0.396
        43 -10.2584     86.0000    241.1793   1.0748980419e+02   1.2776194102e+01    0.1673328   0.07121793 -64.57 0.0004775903    2.636    0.621
        44 -10.4661    110.2531     92.4456   7.3860317799e+01   4.2649164603e+01     0.321086     0.235504  76.51  0.001118357    1.928    0.481
        45  -9.4371      1.6551     75.7610   1.0878430459e+02   6.0684541983e+01    0.1226569   0.07220761 -35.69 0.0003156749    1.562    0.360
        46 -12.7828    168.8568     62.7679   5.1630678141e+01   3.4620849653e+01    0.4342436    0.4170053 -86.67 0.0007911093    1.059    0.056
        47 -10.5878     79.9039     59.9587   7.3324491641e+01   5.4886138690e+01    0.2968549    0.1902365  49.18 0.0006994525    1.699    0.412
        48 -10.3486     90.0782    225.0867   1.0484402665e+02   1.5437496870e+01    0.1940351    0.1632146  57.62 0.0003410344    1.043    0.041
        49 -13.6791    184.4150     48.7513   4.5431978750e+01   3.3007800861e+01     1.095822    0.8404887  34.80  0.003838614    1.702    0.413
        50 -12.0571    189.7295     42.6454   4.3153952940e+01   3.2600887638e+01    0.3829689    0.3105033  39.24 0.0009661693    1.552    0.356
        51 -10.2297    164.3850    248.9884   9.2143447249e+01  -3.7131226621e-01    0.1947325    0.1499411  17.75 0.0006200209    1.197    0.164
        52  -9.3475     80.7313    220.2857   1.0637576693e+02   1.7815089512e+01    0.1432837    0.1381372  57.09 0.0002851668    1.174    0.148
