#   1 NUMBER                 Running object number                                     
#   2 MAG_AUTO               Kron-like elliptical aperture magnitude                    [mag]
#   3 X_IMAGE                Object position along x                                    [pixel]
#   4 Y_IMAGE                Object position along y                                    [pixel]
#   5 X_WORLD                Barycenter position along world x axis                     [deg]
#   6 Y_WORLD                Barycenter position along world y axis                     [deg]
#   7 A_WORLD                Profile RMS along major axis (world units)                 [deg]
#   8 B_WORLD                Profile RMS along minor axis (world units)                 [deg]
#   9 THETA_WORLD            Position angle (CCW/world-x)                               [deg]
#  10 FWHM_WORLD             FWHM assuming a gaussian core                              [deg]
#  11 ELONGATION             A_IMAGE/B_IMAGE                                           
#  12 ELLIPTICITY            1 - B_IMAGE/A_IMAGE                                       
         1 -14.9906     68.4357    144.2706   1.0935311346e+02   3.7373276248e+01     5.327994     2.631603  69.61  0.003303237    3.508    0.715
         2 -13.2616    229.2860      2.7838   3.7751616751e+01   2.7296318694e+01     1.873918    0.5325392  61.75  0.006343545    3.200    0.687
         3 -14.0870    195.7191     37.0825   5.0240604136e+01   3.1539892458e+01     1.510948     1.165697 -22.01  0.003727287    1.441    0.306
         4 -14.6825    205.6098     26.1527   4.5949283800e+01   3.0424174806e+01     1.750896     1.343269  22.69  0.001983809    1.747    0.428
         5 -10.4404     64.8902      9.3115   6.9559807240e+01   6.5424610110e+01    0.1808615    0.1569469  50.40 0.0009296518    1.476    0.323
         6 -12.2096     42.1095      6.9802   7.7648460228e+01   6.9282659402e+01    0.3934009    0.1966155  15.03   0.00185745    2.679    0.627
         7 -12.4410     60.0217      3.2258   6.8312042034e+01   6.6933341480e+01    0.5405429    0.2737685  35.66  0.002855731    1.811    0.448
         8 -11.7253     32.8052      3.9097   8.0380133876e+01   7.0906089421e+01    0.2608452    0.2142747 -37.98  0.001532523    1.625    0.384
         9  -9.3270    113.8043    208.7619   1.0821398656e+02   1.6160612752e+01    0.1825067    0.1342689  67.36 0.0005108726    1.339    0.253
        10 -11.0697    139.7762    249.4551   1.0819435071e+02   4.9966119950e+00    0.3186985    0.1890486  52.26  0.001889388    1.485    0.326
        11 -10.7547    117.1562    249.6031   1.1231868987e+02   8.4612252895e+00    0.3873965    0.1849129  65.39  0.001752537    3.134    0.681
        12 -16.4712     53.4525    199.8638   1.1961551546e+02   2.6760157216e+01     4.156839     3.146991 -86.58   0.02699301    1.174    0.148
        13 -10.2671    107.8731    203.3491   1.0873657681e+02   1.8187813272e+01    0.2157169    0.1688216 -88.44 0.0007520089    1.330    0.248
        14  -9.9078     98.0573    200.3794   1.1041884060e+02   2.0352969314e+01    0.2943716    0.2231553   6.29 0.0006235643    2.237    0.553
        15 -11.3556    208.7535    196.8713   8.7049526767e+01   1.4381196460e+00    0.2932632    0.2289379 -53.69 0.0008575469    1.729    0.421
        16 -10.3277    112.0553    196.8580   1.0696628267e+02   1.8805548092e+01    0.3584373    0.2242905  16.71  0.001534126    2.946    0.661
        17 -10.1563     82.0031    195.0235   1.1316825895e+02   2.3904831945e+01    0.2416283    0.2070348  78.17  0.001072952    1.043    0.041
        18 -16.7290     60.7821    247.5950   1.2209059825e+02   1.6725820734e+01     7.656956     2.550462  31.09   0.01938059    6.649    0.850
        19  -9.8331     95.5306    189.6035   1.0955285237e+02   2.2995990149e+01     0.297179    0.2113927  17.94  0.001221501    2.112    0.526
        20  -9.6693     99.0357    186.2923   1.0832228800e+02   2.3144848641e+01    0.2355748    0.1653624  80.03 0.0005701683    1.549    0.354
        21 -10.4281    147.2983    184.8464   9.7414893569e+01   1.4956904808e+01    0.2141791    0.1791845 -79.80 0.0008179116    1.396    0.284
        22 -10.2791     99.4361    180.6526   1.0742073827e+02   2.4299355719e+01    0.2355875    0.2220871  63.46 0.0005956306    1.131    0.116
        23 -10.0265    218.8579    177.9089   8.1456295843e+01   2.6038819641e+00    0.2277404    0.1443622  -6.65   0.00100923    2.020    0.505
        24 -12.2387     72.5267    176.3749   1.1295762689e+02   2.9332705827e+01    0.3957759    0.2933758 -33.88  0.001614781    2.019    0.505
        25 -12.1388     76.6098    171.5011   1.1137292553e+02   2.9851977538e+01    0.3318189    0.2835562 -40.52  0.001134765    1.498    0.333
        26 -10.9915     47.3898    173.0493   1.1825306466e+02   3.3325871521e+01    0.3769714    0.2122574 -64.27  0.001130093    1.643    0.391
        27 -10.5185     52.5316    172.0593   1.1698561115e+02   3.2933547997e+01    0.3305122    0.2005149 -81.30   0.00111089    1.509    0.337
        28 -12.1462    193.1394    194.8814   8.9704347828e+01   4.5620126215e+00     1.010297    0.5568675 -64.97  0.003213568    5.663    0.823
        29 -13.0436     51.6837    146.7498   1.1403119173e+02   3.8920359877e+01     1.342093    0.6259821  29.44  0.006119401    2.583    0.613
        30 -18.0166      6.3228    240.0439   1.3061663882e+02   2.4207120889e+01     11.37918      1.50387 -77.47   0.03200234    6.270    0.840
        31 -12.2474     90.9786    155.2756   1.0543005648e+02   3.1411463155e+01    0.5895601    0.4226355 -31.47  0.002877998    1.958    0.489
        32 -10.3718    187.8520    154.4287   8.2611176773e+01   1.2800097349e+01     0.367935    0.1285201  37.74  0.001150495    3.359    0.702
        33 -11.3246    133.6848    144.4756   9.2701199782e+01   2.6152286372e+01     1.269088    0.3113884 -54.64  0.002921972    6.160    0.838
        34 -13.0807     84.4368    162.4102   1.0819144515e+02   3.0774980877e+01     1.249292    0.5086532  57.56 0.0004013364    3.524    0.716
        35 -10.5750    174.3000    148.7090   8.4224354830e+01   1.6769569238e+01    0.3503381    0.2839361 -74.11  0.001492642    1.571    0.363
        36 -10.5435    143.9021    146.0602   9.0577904267e+01   2.3724606525e+01    0.3752431    0.2084744 -69.66  0.001261518    3.242    0.692
        37  -8.9175    109.4126    147.5104   9.9377824162e+01   3.0088686680e+01    0.1490525     0.133666  87.07 0.0001727685    1.095    0.087
        38 -10.1773     86.6456    145.5998   1.0485086107e+02   3.4378565742e+01     0.253764    0.2104994  75.43 0.0004493813    1.204    0.169
        39 -13.8385     73.1003    157.4734   1.1021385104e+02   3.3594355488e+01    0.5811964    0.5739176 -18.08  0.001667441    1.278    0.218
        40 -11.1906    104.4443    139.8706   9.9130952260e+01   3.2759242533e+01    0.6120796    0.3503463 -37.67  0.002514526    2.229    0.551
        41 -12.3944     91.8146    140.2695   1.0251847355e+02   3.4817187887e+01    0.2988048    0.2594998 -65.72 0.0004042764    1.088    0.081
        42 -10.6022     46.0818    139.5284   1.1446804294e+02   4.1284653048e+01    0.3186094    0.1595762 -75.37  0.001326066    1.877    0.467
        43 -11.5275     43.7354    133.8571   1.1428094410e+02   4.2897958254e+01    0.4932735    0.2157995  46.45  0.002235353    2.463    0.594
        44 -12.8987     43.4695    127.3629   1.1338766294e+02   4.4483578312e+01    0.7445286    0.4194631  66.43  0.002656904    2.225    0.551
        45 -10.7058    106.0330    130.5406   9.6748283560e+01   3.4668801684e+01    0.4140735    0.2876848 -57.40  0.001969719    1.397    0.284
        46 -11.5583    135.6780    128.0356   8.8461808387e+01   2.9420456843e+01    0.6404904    0.1702113 -49.93  0.001740908    4.017    0.751
        47 -10.4788    112.6449    130.5915   9.5001774279e+01   3.3433793499e+01    0.3073219    0.2761946   6.26 0.0007701608    1.324    0.245
        48 -11.2365     99.9526    126.9142   9.7597958036e+01   3.6610876120e+01    0.3733803    0.2697654 -24.49 0.0008321295    1.893    0.472
        49 -10.1839    160.6033    127.7589   8.2374701571e+01   2.4067635210e+01    0.2911894    0.2030016 -51.52   0.00129494    1.497    0.332
        50 -11.6356    119.6848    123.6909   9.1545981547e+01   3.3671411962e+01    0.5784934     0.420227 -13.07  0.002492083    2.064    0.516
        51 -10.0481    161.8408    166.4268   9.0745899631e+01   1.5797570285e+01    0.2380594    0.2002614 -62.13 0.0004557667    1.334    0.250
        52 -11.2494     24.0148    120.2523   1.1776036662e+02   4.8025472980e+01    0.2809221    0.1670977  50.68  0.001311922    1.879    0.468
        53  -9.8023    144.7014    178.6674   9.6886210434e+01   1.6680699562e+01    0.1402461    0.1130895  -2.54 0.0002678642    1.647    0.393
        54 -10.1956    108.8623    119.1800   9.3384323226e+01   3.6806557622e+01    0.2158279    0.2087096 -71.56 0.0004057953    1.015    0.015
        55  -9.8737    167.4932    112.3248   7.6861745511e+01   2.5692639794e+01    0.3359744    0.2434646 -73.88  0.001207939    1.914    0.478
        56 -12.0636    118.5418    109.0910   8.8203077384e+01   3.7229511231e+01    0.6710765    0.4918378 -55.56  0.003127879    1.376    0.273
        57 -12.0096     18.1996    111.1158   1.1816333189e+02   5.0637825242e+01    0.4194997    0.2135931  18.69   0.00201941    2.610    0.617
        58 -10.0949    205.4730    110.1535   6.8502986196e+01   1.7253224268e+01    0.3109416    0.2174353  42.03 0.0007730698    1.514    0.339
        59 -10.6068    134.5638    104.7851   8.2783809100e+01   3.4793105457e+01    0.5658487    0.1509111 -44.87  0.001566333    3.681    0.728
        60  -9.3755     38.8852    137.8395   1.1611371734e+02   4.2459993672e+01    0.1833494     0.151179 -59.88  0.001154502    1.221    0.181
        61 -11.0346     51.9617    104.0220   1.0674133055e+02   4.9139547655e+01    0.2177537    0.1875686 -59.12  0.001189119    1.025    0.024
        62 -11.0552     53.0460     90.9513   1.0352084917e+02   5.2085530608e+01    0.3237988    0.2030724 -56.13   0.00124701    1.366    0.268
        63 -11.6582     41.7623     91.4760   1.0738373505e+02   5.3202025617e+01    0.3631969    0.2486725 -69.95 0.0007211979    1.381    0.276
        64  -9.7114    157.1466     80.8410   7.0344054302e+01   3.4376712667e+01    0.2152171    0.1876499   7.68 0.0004599573    1.299    0.230
        65 -10.2880     61.4156     68.6276   9.4601172007e+01   5.6002596839e+01    0.2781004    0.2266645  60.38 0.0008816263    1.624    0.384
        66 -11.0293    152.1319     55.2783   6.3474238074e+01   4.0078820732e+01    0.3957612    0.2809301 -78.93 0.0005274449    1.956    0.489
        67 -15.3820     10.3377    206.5095   1.2834760936e+02   3.0111657318e+01    0.6144141    0.5175703 -69.60   0.00269577    1.526    0.345
        68 -13.8403    185.7793     44.8643   5.3967297898e+01   3.3022403940e+01     1.253765    0.9982417  13.23 0.0009126325    1.590    0.371
        69 -10.3398    172.1855    238.4275   1.0079403430e+02   1.4330269318e+00    0.2078043    0.1808598 -58.98  0.001426715    1.507    0.336
        70 -10.2007    174.0663    230.5155   9.9305728591e+01   2.2842461299e+00    0.2026237    0.1040892  40.47  0.001038702    1.609    0.378
        71 -10.8095    154.3696     49.3094   6.1061033983e+01   4.0441426285e+01     0.288346    0.2450382 -74.66 0.0003925369    1.325    0.245
        72 -11.7621     14.1292     44.0970   1.0602272259e+02   6.5831799895e+01    0.2438394    0.2156848 -18.24  0.001803065    1.223    0.182
        73 -12.2050     19.7237     33.8808   1.0017066597e+02   6.7411882536e+01    0.4319225    0.1956591  31.92  0.002279148    2.652    0.623
        74 -12.0735     33.6713     16.4549   8.6291596712e+01   6.9035031099e+01    0.3099095    0.1655724  25.63  0.001746336    1.956    0.489
        75  -9.7951    189.6991     14.9638   4.4767629969e+01   3.5732703361e+01    0.1906271     0.174541 -58.11 0.0005880907    1.104    0.094
        76  -9.3553    130.5178    213.0419   1.0536698105e+02   1.2571112267e+01    0.1702951    0.1295107 -60.58 0.0003422525    1.495    0.331
        77  -9.7308    106.8121    210.3734   1.0985674431e+02   1.6978583886e+01    0.1740603    0.1122858  35.41 0.0005089144    1.595    0.373
        78  -9.5933    111.8028    217.8015   1.0976468555e+02   1.4770638989e+01    0.1783619    0.1549858  46.34 0.0004303584    1.155    0.134
