#   1 NUMBER                 Running object number                                     
#   2 MAG_AUTO               Kron-like elliptical aperture magnitude                    [mag]
#   3 X_IMAGE                Object position along x                                    [pixel]
#   4 Y_IMAGE                Object position along y                                    [pixel]
#   5 X_WORLD                Barycenter position along world x axis                     [deg]
#   6 Y_WORLD                Barycenter position along world y axis                     [deg]
#   7 A_WORLD                Profile RMS along major axis (world units)                 [deg]
#   8 B_WORLD                Profile RMS along minor axis (world units)                 [deg]
#   9 THETA_WORLD            Position angle (CCW/world-x)                               [deg]
#  10 FWHM_WORLD             FWHM assuming a gaussian core                              [deg]
#  11 ELONGATION             A_IMAGE/B_IMAGE                                           
#  12 ELLIPTICITY            1 - B_IMAGE/A_IMAGE                                       
         1 -14.8596    164.2133     41.2313   2.9013202125e+02   6.3677108124e+00   0.06691872   0.04500946 -51.24  0.003988927    1.544    0.352
         2 -14.4972    178.5488      8.7194   2.8977579971e+02   6.6628328936e+00    0.0492898   0.04725803  -9.34  0.003595311    1.065    0.061
         3 -12.0290    157.6287    201.9682   2.9108746799e+02   4.5371104915e+00   0.02821242   0.01523291  56.04  0.001992456    2.343    0.573
         4 -19.8452     72.8663    168.7554   2.9196482123e+02   5.4071493719e+00    0.9066963    0.4071115 -68.69   0.07492964    2.526    0.604
         5 -11.2209    154.6905    196.2429   2.9109306516e+02   4.6204898596e+00   0.02010055   0.01131747  58.07  0.001754156    2.270    0.560
         6 -11.9807    168.9713    202.4921   2.9094897138e+02   4.4661760772e+00   0.01240319  0.009599273  79.03  0.000622313    1.535    0.349
         7 -10.5450    139.2480    201.0257   2.9131145356e+02   4.6530885633e+00   0.01018607  0.008441225  68.36 0.0005490337    1.349    0.259
         8 -11.2991    133.7433    247.2004   2.9162985319e+02   4.1474131829e+00   0.00862359  0.008481075  88.57 0.0003624925    1.087    0.080
         9 -12.4757    169.7196    195.3345   2.9090084808e+02   4.5451321318e+00    0.0188138   0.01397008  53.20 0.0007323481    1.436    0.303
        10 -13.0663    180.4843    193.3683   2.9075606402e+02   4.5064227216e+00   0.02498936   0.01872388  71.11  0.001893721    1.590    0.371
        11 -13.7053    165.7068    188.6689   2.9091471563e+02   4.6455931630e+00     0.041654   0.02105513  23.79  0.003713353    1.874    0.466
        12 -13.6642    174.7879    193.2652   2.9082647715e+02   4.5402079339e+00   0.03541329   0.01999217 -79.09  0.002524948    2.263    0.558
        13 -13.6763    175.3403    186.1774   2.9078115424e+02   4.6194664092e+00   0.03582964   0.02113653  88.21  0.002727779    2.459    0.593
        14 -10.5657    150.7589    245.5049   2.9140873346e+02   4.0700070653e+00  0.008863855    0.0064131  24.27 0.0003293822    1.297    0.229
        15 -11.9638    117.8150    181.0364   2.9147046120e+02   5.0079861225e+00   0.03867934   0.01337881  51.05  0.002277592    4.810    0.792
        16 -10.9500    125.0572    243.5413   2.9171829241e+02   4.2395329060e+00  0.008800597  0.007843833 -58.94  0.001028458    1.187    0.158
        17 -10.4429    108.4482    182.3288   2.9159429149e+02   5.0464019073e+00  0.007900083   0.00674496  89.66 0.0001897043    1.317    0.241
        18 -11.2101      3.7775    180.2046   2.9288902798e+02   5.6665996038e+00   0.01719509  0.009888479  12.90  0.001570746    1.885    0.469
        19 -10.7994     21.9188    243.6949   2.9300463301e+02   4.8247469832e+00   0.01127502  0.008927765 -65.37  0.001249351    1.348    0.258
        20 -11.1994    170.4267    185.2241   2.9083721583e+02   4.6586591832e+00   0.01345952    0.0114117  77.58 0.0007312436    1.330    0.248
        21 -13.3108    195.8194    170.1826   2.9043918727e+02   4.6882126735e+00   0.02920344   0.02126418 -73.88  0.001865118    1.536    0.349
        22 -12.0135    193.7492    165.0189   2.9043694038e+02   4.7600964660e+00   0.01621686   0.01553022   1.63  0.001419509    1.048    0.045
        23 -10.7657     10.9477    174.4185   2.9276832440e+02   5.6932597728e+00  0.009751818  0.008642777 -18.08 0.0003517944    1.180    0.152
        24 -13.3376    143.7061    168.3409   2.9107877061e+02   5.0077796454e+00   0.04113146   0.01749086  42.00   0.00334554    2.320    0.569
        25 -11.3951    140.9887    174.2431   2.9114465366e+02   4.9546631143e+00   0.01414016  0.009318298  36.07 0.0007057684    1.417    0.294
        26 -12.6950    138.0151    171.2824   2.9116568650e+02   5.0060892391e+00   0.02767649   0.01750259  33.04  0.002372394    1.456    0.313
        27 -12.1172    177.7241    170.5187   2.9066649196e+02   4.7878986427e+00   0.02217252   0.01008309 -83.77  0.001509874    3.994    0.750
        28 -11.5764    126.0382    171.8583   2.9131818244e+02   5.0678035439e+00   0.01484567   0.01053126 -73.76  0.001021926    1.581    0.368
        29 -10.6964     13.4688    233.2640   2.9305386214e+02   4.9940987041e+00  0.007933262  0.006831581 -67.26 0.0003955966    1.244    0.196
        30 -11.9329    230.2080    166.6932   2.8999194899e+02   4.5317161543e+00   0.01608747  0.009540192  89.99   0.00141257    2.397    0.583
        31 -11.4295    201.2105    164.1328   2.9033916868e+02   4.7276609849e+00   0.02313238   0.01542922 -70.19  0.002353983    1.656    0.396
        32 -11.8807     25.1820    225.3551   2.9286522328e+02   5.0196598057e+00   0.01981397    0.0092028 -50.46  0.001701091    2.212    0.548
        33 -10.8290    219.1512    224.1634   2.9044161696e+02   3.9271297159e+00   0.00940358  0.007665225  57.16 0.0003604347    1.312    0.238
        34 -11.0023    110.1898    222.9686   2.9179238992e+02   4.5636622035e+00  0.009362748  0.009218253 -36.86 0.0004413752    1.073    0.068
        35 -10.8270    222.5621    161.8128   2.9006062204e+02   4.6322658102e+00    0.0128322  0.009477095  68.13 0.0007720661    1.607    0.378
        36 -11.4869    130.2458    161.3176   2.9120857374e+02   5.1663754381e+00   0.01269352  0.009751734  53.50 0.0005768443    1.380    0.275
        37 -12.0460    121.7604    157.1751   2.9129197713e+02   5.2630215531e+00   0.01815619   0.01193623  49.99  0.001234589    1.615    0.381
        38 -12.9424    162.4349    154.5798   2.9077057845e+02   5.0607125990e+00   0.02849789   0.01744711  61.43  0.002562831    2.071    0.517
        39 -10.9441     19.6826    222.9398   2.9292080095e+02   5.0789911147e+00   0.01008194  0.008118956 -33.88  0.001115884    1.330    0.248
        40 -14.4150    133.8462    145.2944   2.9107677019e+02   5.3321573781e+00   0.07520603   0.02740409 -76.41  0.004580684    4.896    0.796
        41 -10.6976      7.7736    220.7492   2.9305753892e+02   5.1720626141e+00  0.006254814  0.004941828 -26.46 0.0003340098    1.385    0.278
        42 -13.8912    144.2178    146.0346   2.9095139833e+02   5.2642654870e+00    0.0416319   0.02202063 -88.33  0.003298284    3.011    0.668
        43 -11.5269    174.3661    148.8081   2.9059048683e+02   5.0595392221e+00   0.01485126   0.01116395  53.28  0.000918436    1.415    0.293
        44 -10.5330    218.2369    218.9558   2.9042474801e+02   3.9928923486e+00  0.008778474  0.005849166 -66.61   0.00085345    1.617    0.382
        45 -11.9624      4.8129    137.6445   2.9264649948e+02   6.1559703211e+00   0.01697618   0.01555483 -42.71 0.0005975891    1.142    0.125
        46 -14.1390    135.5599    127.8039   2.9096047903e+02   5.5257512964e+00   0.06472888   0.01978929 -71.82  0.003817693    5.069    0.803
        47 -11.5353     23.2606    138.1541   2.9241879361e+02   6.0453347842e+00   0.01996821   0.01147644   2.27  0.001280822    2.228    0.551
        48 -12.3377    160.6271    127.9836   2.9064871076e+02   5.3802785750e+00   0.01818815   0.01581765  74.76  0.001833805    1.276    0.216
        49 -10.8750     23.8728    214.4569   2.9282284856e+02   5.1539300237e+00   0.01750646  0.007629858 -45.31  0.001409385    2.538    0.606
        50 -12.4457    116.1172    212.0569   2.9165950184e+02   4.6567987939e+00   0.01529896   0.01112088  70.91  0.001389497    1.668    0.401
        51 -12.4118    140.0073    120.8311   2.9086712358e+02   5.5813954041e+00     0.016147   0.01023312  35.42 0.0009439769    1.465    0.317
        52 -12.0740    110.5579    212.0576   2.9172881472e+02   4.6885021634e+00   0.02084856   0.01151646  59.61  0.001413725    2.417    0.586
        53 -11.9912    108.7290    207.9960   2.9172965393e+02   4.7461868700e+00   0.01314891   0.01156587   2.73 0.0007629311    1.144    0.126
        54 -10.7842    167.4760    112.6053   2.9047971306e+02   5.5198299875e+00   0.01441867  0.008638971  63.14  0.001288564    2.202    0.546
        55 -13.1894     11.7691    206.1129   2.9292889398e+02   5.3197410626e+00   0.03096733   0.01716989  17.34  0.002325101    1.846    0.458
        56 -11.9119      4.5476    112.1312   2.9251198854e+02   6.4542747806e+00   0.02823196   0.01344597   9.39  0.002173429    2.772    0.639
        57 -10.8238    205.3186    110.2193   2.8999486652e+02   5.3306740211e+00   0.01449019  0.009425907  16.41  0.000959349    1.545    0.353
        58 -11.1374      9.1738    102.2679   2.9240083584e+02   6.5427468907e+00   0.01510999   0.01126055  37.52  0.001203638    1.273    0.214
        59 -12.4582    161.4861    197.9797   2.9101778538e+02   4.5614471107e+00   0.01903062   0.01343674  55.78    0.0015005    1.567    0.362
        60 -12.1411    163.8230    203.0762   2.9101628418e+02   4.4888183474e+00   0.01689585   0.01317151  50.85 0.0003863314    1.330    0.248
        61 -10.7317    144.7742     80.2424   2.9058705764e+02   6.0259082770e+00  0.009467389  0.007743299 -20.63 0.0005400041    1.327    0.246
        62 -14.3850    152.6652     56.1861   2.9035764649e+02   6.2602102082e+00    0.0495165   0.04623545   9.80 0.0009527446    1.045    0.043
        63 -10.1072    139.5938    249.7822   2.9157093000e+02   4.0839960065e+00  0.006976558  0.004946601  -8.75 0.0006851139    1.651    0.394
        64 -12.8741    168.3308     33.1932   2.9003681507e+02   6.4374248683e+00   0.02097284   0.01803838 -36.79 0.0008521219    1.225    0.184
        65 -10.9249     13.4296     59.8880   2.9211821741e+02   7.0113290170e+00   0.01144291  0.008683394  36.28 0.0003974993    1.244    0.196
        66 -10.3906    142.1652     32.9444   2.9036223368e+02   6.5902510788e+00   0.01029731   0.00853733  49.25 0.0003166353    1.228    0.186
