#   1 NUMBER                 Running object number                                     
#   2 MAG_AUTO               Kron-like elliptical aperture magnitude                    [mag]
#   3 X_IMAGE                Object position along x                                    [pixel]
#   4 Y_IMAGE                Object position along y                                    [pixel]
#   5 X_WORLD                Barycenter position along world x axis                     [deg]
#   6 Y_WORLD                Barycenter position along world y axis                     [deg]
#   7 A_WORLD                Profile RMS along major axis (world units)                 [deg]
#   8 B_WORLD                Profile RMS along minor axis (world units)                 [deg]
#   9 THETA_WORLD            Position angle (CCW/world-x)                               [deg]
#  10 FWHM_WORLD             FWHM assuming a gaussian core                              [deg]
#  11 ELONGATION             A_IMAGE/B_IMAGE                                           
#  12 ELLIPTICITY            1 - B_IMAGE/A_IMAGE                                       
         1 -14.9792    245.3625     84.0364   7.5366570672e+01   1.2835531500e+01     5.987473     1.323347 -36.44   0.01725162    4.383    0.772
         2 -14.2562    217.8606     25.1854   6.5217074505e+01   2.7943171774e+01     1.087869    0.6159188  84.77  0.005288512    1.791    0.442
         3 -13.1740    217.7826     35.9054   6.7758737868e+01   2.6581755950e+01    0.7963598    0.4663415 -78.62  0.003686179    1.988    0.497
         4 -12.8142    225.2401     25.8985   6.4560548946e+01   2.6100409613e+01    0.8001492     0.245252 -51.21  0.002821992    3.565    0.720
         5 -12.8409    214.2228     29.7375   6.6720341915e+01   2.8246023950e+01      1.16981    0.4832722 -71.46  0.003134919    6.314    0.842
         6 -12.0029    189.5501     20.7373   6.7611946272e+01   3.5376518611e+01    0.3365205    0.2774018 -64.38  0.001991359    1.217    0.178
         7 -12.8013    226.4390     12.6885   6.1473602074e+01   2.7405286347e+01    0.6921421    0.3193847 -29.38   0.00324022    2.527    0.604
         8 -13.1025    238.2812      9.2865   5.9655773871e+01   2.5078207231e+01    0.6321062    0.3538858  68.16  0.003474699    1.646    0.393
         9 -12.2131    238.8613      3.3262   5.8369831076e+01   2.5615114081e+01    0.4584271    0.2869819  85.66  0.002696548    1.376    0.273
        10 -12.3131    233.4789     19.6667   6.2318617092e+01   2.4949696288e+01    0.4538223    0.1979133 -49.06  0.002112817    2.120    0.528
        11 -11.2266    160.3729      3.4222   6.6962946582e+01   4.4267659508e+01    0.2495172    0.2144624 -88.05 0.0008618062    1.168    0.144
        12 -10.9896    150.5338      2.0000   6.8018655176e+01   4.6743109084e+01    0.4478263   0.06360149  66.06  0.001159758    5.969    0.832
        13 -10.3989    229.1406    229.8305   1.0901059027e+02  -8.5766334590e+00    0.3828442    0.3373009  69.75  0.002112611    1.714    0.416
        14 -13.4130    183.3616    247.4650   1.2041362874e+02  -3.4233437222e+00     3.515395    0.7687386  47.60    0.0104437    5.131    0.805
        15 -10.4057    153.6741    233.6715   1.2405806254e+02   3.9995329900e+00    0.2744066     0.235405  -0.41 0.0009409332    1.520    0.342
        16 -12.1643    147.5639    237.8354   1.2583639329e+02   4.3622020578e+00    0.4681456    0.3317643  34.91  0.002689456    1.395    0.283
        17 -13.1521    147.1679    244.5169   1.2682488538e+02   3.2981130869e+00     1.038624    0.7141047  21.71  0.005634173    1.972    0.493
        18 -12.2796    163.8984    227.0763   1.2105489069e+02   3.3009418525e+00    0.9058253    0.5199163  26.17  0.004111741    2.282    0.562
        19 -12.0198    156.8996    246.6429   1.2527425972e+02   1.2658241240e+00    0.7840911    0.5448332  11.80  0.004140426    2.255    0.557
        20 -12.7337    161.5935    235.8177   1.2283257500e+02   2.2227525546e+00     1.382384    0.7366275  23.68  0.005595771    3.177    0.685
        21  -8.7947    189.5759    230.7107   1.1661431913e+02  -1.9343372713e+00    0.1386764   0.09248865  16.25 0.0006954399    1.862    0.463
        22 -12.0826    130.4667    227.5598   1.2775414874e+02   9.2167743946e+00    0.5768493    0.3072967  73.33  0.002222217    3.456    0.711
        23 -11.9850    125.5113    221.1186   1.2785007572e+02   1.1314794586e+01    0.4535003    0.3316028  53.47  0.001240785    1.188    0.158
        24  -9.7763    176.3179    228.3031   1.1880263355e+02   8.3629563390e-01    0.2623495    0.2005015   7.25  0.001027247    1.656    0.396
        25 -10.0518    114.5809    228.3430   1.3098291839e+02   1.1802409336e+01    0.2838516    0.1217378 -56.30  0.001033295    2.564    0.610
        26  -9.7981    152.1535    228.1034   1.2353687740e+02   5.2503702682e+00    0.1969326     0.172886  21.11 0.0007953136    1.303    0.233
        27  -9.0786     51.6553    228.3264   1.4282189944e+02   2.1267329222e+01    0.1298006   0.06853791  69.61 0.0007050574    1.744    0.427
        28  -8.9372    185.1758    226.8637   1.1683626328e+02  -5.2705668956e-01    0.1772006    0.1445307  16.07  0.001044795    1.292    0.226
        29  -9.4602    138.5363    227.5152   1.2614995851e+02   7.7994504408e+00    0.1328556    0.1147079  53.40 0.0008091296    1.034    0.033
        30 -10.5471     98.7290    226.5450   1.3384832007e+02   1.4763460589e+01    0.3313979    0.2141902  25.79   0.00166008    2.388    0.581
        31 -10.4704    157.3012    223.1498   1.2175696970e+02   5.2008998803e+00    0.3713534    0.2535119 -21.15  0.001806963    2.339    0.572
        32 -10.0393    148.9475    220.3937   1.2301158050e+02   7.2370133681e+00    0.2985635    0.1967856 -43.12   0.00101339    1.808    0.447
        33 -10.6294    109.0320    221.6876   1.3122492864e+02   1.4032631345e+01    0.2575896    0.2044199  79.24  0.001557297    1.182    0.154
        34  -9.9613    183.1349    220.4336   1.1616387341e+02   9.1601770162e-01    0.3004101    0.2041077  19.76 0.0009891337    1.769    0.435
        35 -10.2237    174.5798    219.7199   1.1774554862e+02   2.6192279127e+00    0.4221195     0.248397 -26.44  0.001891757    2.564    0.610
        36  -9.8055    114.8216    221.1407   1.2999842823e+02   1.3161946951e+01    0.2282919    0.1712317  19.31 0.0009671956    2.008    0.502
        37  -9.0742    193.3848    219.6859   1.1401737347e+02  -8.3685903850e-01    0.1736595    0.1231745 -24.27 0.0008028526    1.668    0.401
        38  -9.4543    195.1181    230.5485   1.1552127175e+02  -2.8897243838e+00    0.2395153    0.1645276 -15.71  0.001232202    1.891    0.471
        39  -9.4280     88.1341    227.1222   1.3595252853e+02   1.6317900658e+01    0.1758616    0.1640285  75.18 0.0005518202    1.284    0.221
        40 -11.1355    131.0590    215.8518   1.2596816919e+02   1.1357598786e+01    0.3574174    0.3027138 -85.23  0.001263507    1.230    0.187
        41 -10.6727    239.3432    216.4877   1.0475213706e+02  -8.3452269875e+00    0.2168565    0.1128155 -34.80  0.001090027    1.956    0.489
        42  -9.5630    179.9900    216.1820   1.1606639005e+02   2.2299951943e+00    0.2284773    0.1728137 -22.30  0.001059427    1.619    0.382
        43 -10.1012    143.7364    216.2094   1.2342694125e+02   8.9825966167e+00    0.2961825    0.1863207 -55.66  0.001165754    1.776    0.437
        44  -8.7732    211.6909    216.6296   1.0992992964e+02  -3.6415882228e+00    0.1388933   0.09605397   4.81 0.0007034666    1.766    0.434
        45  -8.7222    204.7175    216.6556   1.1127661114e+02  -2.3978589148e+00    0.1346899   0.09771787   4.52 0.0007014271    1.639    0.390
        46 -10.4849    186.1773    212.5951   1.1420470112e+02   1.6971131245e+00    0.4307412    0.2774752 -18.44  0.002005541    2.262    0.558
        47 -10.5125    112.3354    214.0683   1.2954640444e+02   1.5003717969e+01    0.2667026    0.2424213 -27.95  0.001631809    1.521    0.343
        48 -10.5970    227.1831    223.3552   1.0822527914e+02  -7.3303062209e+00     0.363703    0.3105059  62.86  0.002251946    1.647    0.393
        49  -9.1601    154.6981    212.6184   1.2060732928e+02   7.6286884909e+00    0.2050401    0.1614572  10.59  0.001003995    1.698    0.411
        50  -9.9721    218.2134    207.9997   1.0709587267e+02  -3.4318268056e+00    0.3581696    0.2299369 -14.51  0.001764607    1.947    0.487
        51  -9.3446    193.3961    208.9196   1.1210597828e+02   9.7916055347e-01    0.2700317     0.190148 -18.70  0.001352285    1.769    0.435
        52  -9.4226    199.4864    213.4449   1.1172007678e+02  -9.1977955222e-01    0.2078225    0.1262421 -27.04 0.0007300059    2.001    0.500
        53  -9.3896    162.0650    208.8725   1.1846476124e+02   6.9433287592e+00    0.2191525    0.1688865   5.95  0.001116479    1.786    0.440
        54 -12.0437    249.3524    198.6226   9.9565516892e+01  -7.3546721554e+00    0.8337694    0.3343211 -35.06  0.003631423    2.420    0.587
        55 -10.4334    244.5606    199.2611   1.0054250332e+02  -6.6515011624e+00    0.3019938    0.1897389 -20.36  0.001179848    1.657    0.396
        56  -9.6289    206.0744    205.9579   1.0905702908e+02  -8.8346632945e-01    0.2210979    0.1574355   2.87  0.001115276    1.752    0.429
        57  -9.5562     57.9544    206.4789   1.3957551869e+02   2.4939595451e+01     0.188004   0.07593647  58.53 0.0008098027    2.612    0.617
        58  -9.9127    198.6133    201.9017   1.0976880217e+02   1.2132698699e+00     0.291829    0.2137796  -8.34  0.001175614    1.704    0.413
        59  -9.8529    185.8023    202.2482   1.1241351758e+02   3.6073943360e+00    0.2707691    0.1905952 -25.90   0.00135569    1.704    0.413
        60 -10.1039    164.2675    199.9037   1.1644323337e+02   8.2361424866e+00    0.4245273    0.2534448 -30.69  0.001842381    2.327    0.570
        61  -9.4088    211.4716    200.2511   1.0692301445e+02  -9.2404258698e-01    0.2366488    0.1320598 -34.31  0.001014451    1.908    0.476
        62  -9.1563     89.6832    199.9966   1.3234317486e+02   2.1713982480e+01    0.1887786    0.1581011  81.73 0.0006048919    1.034    0.033
        63  -9.4639    127.0964    197.2562   1.2393294113e+02   1.5871679321e+01    0.2252339    0.1900255 -51.94  0.001262218    1.313    0.238
        64  -8.9155    203.2297    195.7211   1.0766889941e+02   1.4172489129e+00    0.2069601    0.1095055 -29.14 0.0008578839    2.338    0.572
        65 -10.0932    172.7870    195.6276   1.1387549440e+02   7.3907132640e+00    0.2674915    0.2567143 -22.30 0.0007160809    1.123    0.109
        66  -9.8815     67.5086    195.5222   1.3642116307e+02   2.6010403094e+01    0.2341899   0.09504941  50.27  0.001029192    2.349    0.574
        67  -8.7020    136.3608    194.7021   1.2150339891e+02   1.4678295952e+01    0.1511099    0.1047809  72.38 0.0007034108    1.712    0.416
        68  -8.7652    215.3895    192.7852   1.0470768785e+02  -3.8576172368e-01    0.1911673    0.1259335 -25.03 0.0008820753    1.668    0.401
        69  -9.0182    209.6520    193.7029   1.0600687878e+02   5.4283269629e-01    0.1448828    0.1040597   9.62 0.0007034595    1.679    0.404
        70 -10.2569    249.9877    177.1404   9.5150851282e+01  -4.0983910022e+00    0.3262947    0.1855226 -43.59  0.001372099    1.815    0.449
        71 -11.1454    246.2626    191.0006   9.8611862949e+01  -5.6625527320e+00    0.3666391    0.2556958 -17.76  0.001512077    1.432    0.301
        72 -10.9156    249.0122    184.1170   9.6743955164e+01  -5.0487783553e+00    0.5862947     0.279759 -28.15  0.002574347    2.222    0.550
        73  -8.9898    224.6216    190.8266   1.0255088810e+02  -1.7766092891e+00    0.1892571    0.1259141 -45.05 0.0009524221    1.643    0.391
        74  -8.5395    179.0000    189.9268   1.1149389739e+02   7.2547457654e+00    0.2201091   0.08327478 -45.18 0.0006867427    2.810    0.644
        75  -8.6185    172.6178    188.6802   1.1259959005e+02   8.7794724623e+00    0.1522935    0.1137443   8.23 0.0007020597    1.831    0.454
        76 -10.1840     56.1606    187.9026   1.3789583639e+02   2.9236909099e+01    0.3406794     0.147831  66.92  0.001329355    3.281    0.695
        77  -9.2543    211.5520    181.9974   1.0328504662e+02   2.2495302411e+00    0.2150163    0.1372892 -40.59   0.00102588    1.595    0.373
        78 -10.0227    174.4455    180.1332   1.1053550631e+02   1.0110863725e+01    0.3805682    0.2560652 -20.78  0.001552581    2.105    0.525
        79 -10.0594    244.0565    179.5836   9.6697160188e+01  -3.4462340423e+00    0.3309812    0.1731412 -26.61  0.001465383    2.067    0.516
        80  -9.6989     60.4992    177.5047   1.3568332933e+02   3.1019862244e+01    0.2357136   0.09788214  49.29  0.001029745    2.421    0.587
        81  -8.9303    205.0561    176.1120   1.0335645933e+02   4.6217110268e+00    0.2210988     0.169543   3.73  0.001037574    1.577    0.366
        82  -9.6863     76.8905    175.8396   1.3178132512e+02   2.9102559732e+01    0.3349456     0.134353  56.44   0.00123011    3.181    0.686
        83  -9.4154    183.1972    173.5063   1.0731832061e+02   9.6261206813e+00    0.3648887    0.2167657 -25.11  0.001448865    2.385    0.581
        84  -8.5781    218.4818    174.4558   1.0037173666e+02   2.2448367884e+00    0.1469438     0.127914   3.76 0.0005877045    1.158    0.137
        85  -9.0629     35.6611    174.3353   1.4071000400e+02   3.4738658791e+01    0.1331798   0.07740069  73.53  0.000705144    1.752    0.429
        86  -8.9054    193.0486    173.4962   1.0525350092e+02   7.5785517215e+00    0.2038606    0.1251345  21.71 0.0008050952    2.332    0.571
        87 -12.0631    248.0432    166.9070   9.3361614470e+01  -2.0634361433e+00    0.8519161     0.246786 -43.36  0.002849048    3.540    0.717
        88  -9.6301     55.7985    170.2306   1.3578338621e+02   3.3302047608e+01    0.2295118    0.1144625  71.14 0.0009521368    2.773    0.639
        89  -9.0728     38.6296    165.3033   1.3902339601e+02   3.6466570787e+01      0.13355   0.08028799  71.66  0.000703271    1.750    0.429
        90  -9.2314      9.5127    161.9726   1.4501411686e+02   4.0008716468e+01    0.1714346   0.07690324  82.83 0.0007178648    2.494    0.599
        91 -10.2458     50.6055    155.9035   1.3503021273e+02   3.7271007498e+01    0.3543082    0.1545907  56.88  0.001465355    2.939    0.660
        92 -13.4165    244.6333    140.2635   8.8192331651e+01   3.1857882476e+00     2.401225    0.6778973 -45.70  0.007387856    3.810    0.738
        93 -11.3522    248.9775    133.2464   8.5921354960e+01   3.5600824726e+00     1.137625    0.2534961 -44.06  0.003221227    4.424    0.774
        94 -10.3294    107.6327    248.9827   1.3472451415e+02   9.1429447791e+00    0.2257193    0.1573339  45.40 0.0007483718    1.300    0.231
        95  -9.5042     13.1076    129.8636   1.4064782555e+02   4.6907324164e+01    0.2626024    0.1404451  72.04  0.001348355    2.395    0.583
        96 -10.8547     60.6841    125.6304   1.2745617116e+02   4.3137217315e+01    0.5063585    0.2700697  72.36  0.001813113    3.958    0.747
        97 -10.8597     45.0575    124.1336   1.3144055426e+02   4.5316541893e+01    0.5834039    0.3072529  71.73  0.002313719    3.528    0.717
        98 -10.4141     29.5392    123.6947   1.3554038093e+02   4.6950782403e+01    0.4271692     0.217685  76.69   0.00177023    3.431    0.709
        99 -11.0393     57.8045    147.0183   1.3194148914e+02   3.8473244678e+01     0.557145    0.2419762  59.09   0.00205947    3.595    0.722
       100 -10.0239     80.1308    113.8756   1.1954739786e+02   4.3155004156e+01    0.3086716    0.2063456  80.52  0.001356402    2.362    0.577
       101  -9.4808     93.5101    113.5253   1.1568837881e+02   4.1085381604e+01    0.2464872     0.131626  51.08 0.0008841081    2.219    0.549
       102 -10.4059     14.4452    110.3965   1.3756383423e+02   5.1156821340e+01    0.3360444    0.2097397  87.19  0.001809904    1.844    0.458
       103  -9.3161      3.7684    118.2000   1.4151473172e+02   5.0147130991e+01     0.192738   0.09759707  71.12 0.0009531303    2.778    0.640
       104 -11.4836     46.1891    102.9081   1.2703910544e+02   5.0025484261e+01    0.7054237    0.3829696  69.94  0.002585485    4.486    0.777
       105 -10.8658     23.6579    103.2830   1.3377146636e+02   5.2036515656e+01    0.6024543     0.319518  70.75    0.0025941    3.647    0.726
       106  -9.9731     67.0130    111.4916   1.2277080057e+02   4.5577294977e+01    0.1856702    0.1091002  59.60 0.0005089883    2.466    0.594
       107  -8.7652    108.3239     98.6825   1.0772040727e+02   4.1689974822e+01    0.1488223    0.1184236 -89.49 0.0007044099    1.670    0.401
       108 -11.2585     64.2901     96.7298   1.2015616036e+02   4.9237297172e+01    0.4414321    0.2865381  84.15   0.00187237    2.953    0.661
       109 -10.6142     35.4526     90.6195   1.2769020353e+02   5.3786288208e+01    0.3650772    0.2076257 -79.98  0.001440481    2.617    0.618
       110  -9.2630     86.4151     87.1627   1.1089513322e+02   4.8008323365e+01    0.1977637    0.1284249 -57.27 0.0007725307    1.680    0.405
       111 -10.2128     48.4729     84.4879   1.2210140238e+02   5.3770777819e+01    0.2632157    0.1862862  78.11  0.001353489    2.362    0.577
       112 -10.1507     24.9066     81.2748   1.2901033546e+02   5.6668124487e+01    0.3236168    0.2185165  68.23  0.001578557    2.370    0.578
       113  -8.8331    234.0000    146.9847   9.1524876154e+01   4.1140823869e+00    0.2400731   0.07753463 -38.99 0.0007496526    2.910    0.656
       114  -8.6258      8.9835     81.0000   1.3410145647e+02   5.7830747696e+01    0.1510713   0.06628871  18.00 0.0006297129    2.889    0.654
       115  -9.4384     82.4825     72.9920   1.0796547467e+02   5.1473121500e+01    0.1858926     0.119228 -66.08 0.0008095402    2.478    0.596
       116  -8.6820    200.0000    146.9551   9.7994541601e+01   1.1329426822e+01     0.260592   0.08542729 -41.44 0.0008126359    3.014    0.668
       117 -10.5319     52.1063     70.8892   1.1727411687e+02   5.6123026407e+01    0.2493014    0.1895108  85.50  0.001254151    2.261    0.558
       118  -9.1621     16.7697     70.6138   1.2932104727e+02   5.9449050056e+01    0.1390938    0.1052252  34.28 0.0006191162    1.691    0.409
       119  -9.5533     37.6538     65.2957   1.2069001044e+02   5.8766253084e+01    0.1096794   0.09531491  81.61 0.0004256564    1.672    0.402
       120  -9.5033     73.4103     60.2704   1.0687783855e+02   5.5246694982e+01    0.1818198     0.118542 -49.00 0.0009460823    1.638    0.389
       121  -9.3991      7.5699     57.7544   1.2951566537e+02   6.2550423996e+01    0.1524633   0.09290982 -65.97 0.0009415587    1.670    0.401
       122  -9.2199     63.2994     55.6448   1.0876058968e+02   5.7530495267e+01    0.1181729    0.1025175 -74.44 0.0007036618    1.702    0.412
       123  -9.4949     55.0000     55.0138   1.1144199086e+02   5.8738574516e+01     0.207842   0.06339329 -45.69 0.0008025899    2.944    0.660
       124  -9.7886    100.5533     54.0421   9.6374052788e+01   5.1615377305e+01    0.2195784    0.1870682  55.80 0.0002723552    1.358    0.264
       125  -9.3781     31.1751     52.1145   1.1920628415e+02   6.1844603122e+01    0.1506106    0.1312093 -51.41 0.0005824334    1.330    0.248
       126  -9.4959     58.4977     43.0117   1.0611290061e+02   6.0298979656e+01    0.1634739    0.1061469 -59.05  0.000810487    2.587    0.613
       127  -9.4779      5.2094     41.8689   1.2621994103e+02   6.5610910014e+01    0.2336296   0.08262282 -61.57  0.001033194    3.374    0.704
       128  -8.8206     13.4930    146.5558   1.4254954704e+02   4.3122694498e+01    0.1201307   0.09179114 -83.27 0.0002573095    1.051    0.049
       129 -11.3169    135.8696    246.1660   1.2917050087e+02   4.9591214576e+00    0.3199455     0.159908 -50.95  0.001621851    2.407    0.585
       130 -11.9862    233.2520     34.1453   6.5548993713e+01   2.3154960519e+01    0.5807081    0.2421471 -55.22  0.002389328    2.546    0.607
       131 -11.5713    209.7600    242.3351   1.1469215882e+02  -7.1381011547e+00      0.55776    0.4709711 -24.19  0.003736413    1.323    0.244
       132 -10.5355    119.7871    246.4199   1.3220284697e+02   7.6159813627e+00    0.1747219     0.105513  37.60 0.0009475673    1.667    0.400
       133 -11.8396    230.5143     27.1845   6.4283783628e+01   2.4700594136e+01    0.4414937    0.1855558 -53.23  0.001892326    2.390    0.582
       134 -12.4228    207.7968     36.8413   6.9262853762e+01   2.8883145170e+01    0.3931329    0.3494103 -88.51   0.00208198    1.016    0.016
       135 -11.8676    166.0144    248.4895   1.2381595388e+02  -6.0014539830e-01    0.7155963    0.3035845  39.25  0.003311545    2.036    0.509
       136  -9.3736    194.3016     37.6519   7.1347059089e+01   3.2108970767e+01     0.149072    0.0986107 -68.46 0.0007038857    1.690    0.408
       137  -8.8387     26.2307     37.0147   1.1625501880e+02   6.4899621760e+01    0.1534814   0.07782527 -43.84 0.0008789152    1.643    0.391
       138  -8.8521     84.4225     39.5618   9.6176675986e+01   5.6782607009e+01    0.1302462    0.1118828   4.15 6.552746e-05    1.023    0.023
       139  -9.0863    189.6867     36.3288   7.1681319111e+01   3.3432453015e+01    0.1478899   0.09975369 -70.54 0.0007043626    1.672    0.402
       140 -12.8600    222.4015     32.2640   6.6347171658e+01   2.5956997094e+01    0.9905269    0.4464006 -74.60  0.003384124    3.887    0.743
       141  -9.6505     68.9839    154.4975   1.3037787247e+02   3.5228901537e+01    0.1991716   0.09835076  59.02 0.0008105221    2.600    0.615
       142 -10.0460     23.9163    138.7626   1.3913313629e+02   4.4008465154e+01    0.3033955    0.1536446  70.16  0.001417522    2.707    0.631
       143  -9.5298    193.3056     30.6414   6.9666908003e+01   3.3261538700e+01    0.1479543   0.09570634 -67.98 0.0007040067    1.726    0.421
       144  -9.9171     39.2296    136.1838   1.3494126493e+02   4.3137422422e+01    0.2394549    0.1423569  63.16 0.0009249264    2.050    0.512
       145  -9.3785     29.7637    151.1702   1.3932070048e+02   4.0625140797e+01    0.2192398    0.1061881  71.22 0.0009599527    2.861    0.650
       146  -9.1954     44.2385     25.7406   1.0494148389e+02   6.4719902605e+01    0.1586305     0.109293  -8.03 0.0004162001    1.300    0.231
       147  -8.9234    110.4492     24.4822   8.3393956921e+01   5.3665783052e+01     0.131688    0.1152803  29.41 7.409045e-05    1.006    0.006
       148 -10.0874     83.7956    132.4618   1.2256384313e+02   3.8268856225e+01    0.3766102    0.2022916  61.84  0.001272386    2.797    0.643
       149  -9.3057     97.4762    242.5155   1.3588099306e+02   1.1920103447e+01    0.1245957   0.09892382  65.03 0.0003260694    1.013    0.013
       150 -11.6935    108.0269    238.2926   1.3345017187e+02   1.1013553516e+01    0.3883792    0.2402004 -77.00  0.002151098    1.847    0.459
       151  -8.8353    177.4060    235.8629   1.1978231091e+02  -5.9548395008e-01    0.1661415     0.121528 -25.91  0.000937524    1.726    0.421
       152  -8.7440    189.6879    235.6951   1.1739897947e+02  -2.7342062072e+00    0.1285706   0.09277186  13.65 0.0002887416    1.616    0.381
       153 -12.1385    128.0757    233.6973   1.2904755497e+02   8.4961016133e+00    0.3377528    0.2670297 -57.97  0.002078051    1.459    0.315
       154  -8.8436     58.8229     22.3810   9.8160648274e+01   6.3213641755e+01    0.1564339   0.09682684  24.41  0.000257199    1.533    0.348
       155  -8.5920     40.6850     14.2750   1.0164287068e+02   6.6672680652e+01   0.09300295   0.08818348  -5.71 0.0002246296    1.563    0.360
       156 -10.0742     40.4468    148.4693   1.3642404598e+02   4.0155265062e+01    0.3798958    0.1447127  57.03   0.00138086    4.112    0.757
       157  -8.8951     12.6583     21.3049   1.1633100649e+02   6.8499490286e+01   0.08717409   0.08544013 -39.88 0.0004421112    1.683    0.406
       158 -11.6341    144.9364    229.8551   1.2521948466e+02   6.2325866203e+00    0.4265199    0.2848718 -40.18  0.001771497    1.915    0.478
       159  -9.3814     74.3338    130.6428   1.2473177710e+02   4.0114060195e+01    0.1472237     0.103346  81.41 0.0007042267    1.799    0.444
