#   1 NUMBER                 Running object number                                     
#   2 MAG_AUTO               Kron-like elliptical aperture magnitude                    [mag]
#   3 X_IMAGE                Object position along x                                    [pixel]
#   4 Y_IMAGE                Object position along y                                    [pixel]
#   5 X_WORLD                Barycenter position along world x axis                     [deg]
#   6 Y_WORLD                Barycenter position along world y axis                     [deg]
#   7 A_WORLD                Profile RMS along major axis (world units)                 [deg]
#   8 B_WORLD                Profile RMS along minor axis (world units)                 [deg]
#   9 THETA_WORLD            Position angle (CCW/world-x)                               [deg]
#  10 FWHM_WORLD             FWHM assuming a gaussian core                              [deg]
#  11 ELONGATION             A_IMAGE/B_IMAGE                                           
#  12 ELLIPTICITY            1 - B_IMAGE/A_IMAGE                                       
         1 -15.2467    186.1375    147.2904   8.9441592120e+01   1.5449618209e+01     3.438691     2.588093  -7.06   0.01699004    1.562    0.360
         2 -14.1904      6.2327     42.5669   1.1702192966e+02   6.6442503696e+01    0.8886383    0.5227805 -41.32  0.005576496    1.366    0.268
         3 -14.3579     11.8648      9.0066   1.0204847532e+02   7.2320148552e+01     1.667149    0.9749407  -9.71   0.01029689    1.759    0.432
         4 -14.2945     20.0949     35.8145   1.0867410695e+02   6.6863553220e+01    0.8490523    0.5585632 -44.23  0.005375596    1.192    0.161
         5 -13.2566    197.9475     29.1789   5.5856815107e+01   3.2035927242e+01    0.8165812    0.5502655  15.54  0.003814536    2.098    0.523
         6 -12.1366    212.9341     11.5914   4.9383153828e+01   3.0285324340e+01    0.6369047    0.4992425 -59.74  0.003731963    1.202    0.168
         7 -12.6990    129.9050      7.6883   5.9407530153e+01   5.1528323400e+01    0.8473865    0.4895345 -75.45  0.003457527    2.932    0.659
         8 -11.7352    136.3372    235.4657   1.1457096504e+02   9.1443525470e+00    0.4449764    0.2771357  37.07  0.002687492    1.378    0.274
         9 -13.6235    247.7234    241.6943   9.5776323391e+01  -8.4389592161e+00     1.296255    0.4319069 -27.68  0.006288812    3.340    0.701
        10 -12.2265    115.5258    237.5707   1.1865546953e+02   1.1955961478e+01    0.5709406     0.427383  43.56  0.002370467    1.128    0.114
        11 -11.8122    104.8528    237.7404   1.2062835150e+02   1.3482389813e+01    0.5826997    0.4114201  52.87  0.002972349    1.137    0.120
        12 -12.4846    104.1031    248.0344   1.2175664672e+02   1.1946543983e+01    0.6428406    0.3361226  48.62  0.002958604    1.493    0.330
        13 -11.7106     95.3410    248.1304   1.2330562959e+02   1.3147580549e+01    0.3280648     0.261395  57.53  0.001310081    1.050    0.048
        14  -9.8805     80.8450    238.4974   1.2503623633e+02   1.6678050814e+01    0.7042165    0.3868919  59.29  0.004217137    1.594    0.372
        15 -12.6208     52.3249    241.4799   1.3023152784e+02   1.9751116250e+01     1.490172    0.6212841  32.06  0.007744004    2.928    0.658
        16 -12.2652     73.8607    245.8835   1.2685610817e+02   1.6362600377e+01    0.3027422    0.2599866  51.54  0.001596335    1.267    0.211
        17 -13.2192     67.8029    249.8682   1.2818340429e+02   1.6480127936e+01    0.7080995     0.234235  37.89  0.003554782    2.672    0.626
        18 -13.2381     68.2404    243.5659   1.2765119885e+02   1.7459514559e+01    0.5847661    0.4475868  -9.22  0.003639072    2.947    0.661
        19 -15.5242     10.0059    135.0450   1.3055142859e+02   4.5586465513e+01     2.731077     1.652424 -75.00   0.01656664    1.305    0.234
        20 -14.7165     16.5637    181.9953   1.3284270579e+02   3.4841635403e+01     1.435931     0.689541 -71.20  0.008449965    1.803    0.445
        21 -14.7613      5.3078    172.3842   1.3448894068e+02   3.7802961662e+01     1.616928    0.5608875 -76.17  0.008264731    2.303    0.566
        22 -17.2486     15.6494    239.5086   1.3617342831e+02   2.4056135625e+01     1.788645     1.284533  52.09   0.01472025    1.284    0.221
        23 -16.4800     16.8844    207.3449   1.3435274161e+02   2.9758395176e+01     2.378233    0.9363459  54.74   0.01358863    2.064    0.515
        24 -14.1254    142.9927    196.3038   1.0788523062e+02   1.4629887685e+01     2.677858     1.470739 -52.31    0.0132235    2.068    0.516
        25 -11.3338     87.4826    227.8581   1.2287007574e+02   1.7606816269e+01    0.5073581    0.3178003 -84.64   0.00311841    1.803    0.445
        26 -12.1447     70.7781    186.7935   1.2196133699e+02   2.7780003760e+01     1.254062    0.9832845  38.28  0.007974035    1.373    0.272
        27 -14.2536    125.9481    197.0881   1.1155360585e+02   1.7374880072e+01     1.791267    0.9746361 -44.22  0.008762157    2.214    0.548
        28 -15.2812    102.4539    204.2025   1.1737575492e+02   1.9764517579e+01     2.333179     2.186825 -32.30   0.01391699    1.381    0.276
        29 -14.1931     83.4462    203.2403   1.2114331564e+02   2.2726713620e+01     1.671239    0.8820133 -51.73  0.006890709    2.269    0.559
        30 -10.6991    144.2160    230.2527   1.1245220599e+02   8.7222180553e+00    0.4035324    0.1467426  40.04  0.001824061    2.265    0.558
        31 -11.4917    160.3565    226.1533   1.0885998812e+02   6.7693754604e+00    0.5620016    0.2669818  23.68  0.002235149    3.532    0.717
        32 -10.3725    118.7312    225.5556   1.1671447584e+02   1.3450357165e+01    0.2709442    0.1624268  40.44  0.001400663    1.425    0.298
        33 -10.9922    172.5144    222.1458   1.0598879720e+02   5.3891427902e+00    0.3682847    0.2560606  26.17  0.002206407    1.359    0.264
        34 -12.2811    152.0455    217.4052   1.0921832542e+02   9.4918433199e+00     1.031294    0.6209474  31.77  0.005603375    1.596    0.374
        35 -10.2299    125.9501    222.7700   1.1499320159e+02   1.2804612957e+01     0.320961     0.156326  51.15   0.00161386    1.905    0.475
        36 -10.9186    164.9353    218.0699   1.0682594916e+02   7.2548804867e+00     0.327514    0.2828855  -1.35   0.00216547    1.294    0.227
        37 -10.5172     44.6290    214.2649   1.2971398471e+02   2.5530007054e+01    0.1817942    0.1553617 -86.07 0.0006907765    1.270    0.213
        38 -11.9294    130.8617    229.0110   1.1481834916e+02   1.1011154463e+01    0.7023592    0.3236709  44.34  0.003617984    1.775    0.436
        39 -10.8649     55.0408    202.6623   1.2678745820e+02   2.6553104784e+01    0.4202556    0.2679782  81.87  0.002611467    1.465    0.318
        40 -11.2148    163.4924    194.4060   1.0336697469e+02   1.1366653978e+01    0.4076548    0.2585704  31.94   0.00210622    1.524    0.344
        41 -11.3791     37.5498    193.6427   1.2950385671e+02   3.0365596300e+01    0.4092585    0.2332957  68.56  0.001640386    1.581    0.368
        42 -11.5283     37.7377    182.2265   1.2851800658e+02   3.2705525381e+01    0.4095829    0.2934663 -64.93  0.001911448    1.439    0.305
        43 -10.5093     45.4901    178.1990   1.2650176216e+02   3.2708953998e+01    0.2816929    0.2085481 -14.07  0.001614562    2.470    0.595
        44 -13.0850    162.0509    173.6913   9.9965954530e+01   1.5335539306e+01    0.5939326    0.5296306 -24.12  0.003467727    1.197    0.165
        45 -11.1766    142.1749    247.9322   1.1496693136e+02   6.4024610018e+00    0.4118887    0.2070646  24.88  0.001947843    2.915    0.657
        46 -13.4710     64.2031    138.3764   1.1704540827e+02   3.9406474867e+01     2.222985     1.124738  85.91  0.008057314    3.672    0.728
        47 -13.7827     60.5718    155.7388   1.2048693133e+02   3.5873330129e+01     1.223092    0.7726963 -82.82  0.005475442    1.573    0.364
        48 -13.9697     84.0354    163.3632   1.1593136206e+02   3.0969274868e+01     1.308652     1.168061 -18.87  0.005983409    1.478    0.323
        49 -13.0749     69.6187    164.6126   1.1950956109e+02   3.2712251428e+01    0.6751825    0.4834688  -9.41  0.001375743    2.557    0.609
        50 -10.6460     34.9473    164.1364   1.2745772892e+02   3.6893280659e+01     1.126403    0.6387237  29.68  0.006372854    2.079    0.519
        51 -12.4253     46.3777    161.8523   1.2460215706e+02   3.6178226395e+01     0.684306    0.4799563  83.19  0.003731789    1.311    0.237
        52 -11.5200    146.6129    168.5224   1.0234103265e+02   1.9233269325e+01    0.4889426    0.3653221  43.82   0.00258105    1.260    0.206
        53 -12.1983     97.2066    162.8431   1.1272537981e+02   2.9073274758e+01    0.6332307    0.4624489  63.64  0.002797359    1.410    0.291
        54 -11.9575    130.5272    157.2098   1.0385016852e+02   2.4540013811e+01    0.6465874    0.3809464  25.47  0.002715173    2.287    0.563
        55 -12.4052     42.4291    147.9577   1.2392877916e+02   3.9746590357e+01    0.7619522    0.5285327 -43.27   0.00418727    1.766    0.434
        56 -11.6453    134.2890    146.7726   1.0087447177e+02   2.6033292729e+01    0.4414083    0.1741972 -54.72  0.001527081    2.958    0.662
        57 -11.2496     90.3673    144.1395   1.1124371527e+02   3.4339767866e+01    0.2699792    0.2302138 -54.47 0.0005125792    1.182    0.154
        58 -12.9452    112.8901    130.9684   1.0282561940e+02   3.3514883088e+01    0.9514992     0.801501  85.03  0.004525972    1.334    0.250
        59 -14.0039    118.0092    125.8830   1.0036460234e+02   3.3698504865e+01     1.683344     1.224434 -55.32  0.008237899    1.377    0.274
        60 -13.6534     76.5582    124.6627   1.1129243599e+02   4.0929629238e+01     1.350006     1.069826 -33.67  0.006120844    1.464    0.317
        61  -9.6069     99.1313    129.3065   1.0608521897e+02   3.6311902523e+01    0.2120357    0.1793286   4.39 0.0007301028    1.488    0.328
        62 -13.4400     67.0132    112.4204   1.1158207245e+02   4.5126573661e+01    0.7251979    0.5950488 -41.09   0.00417554    1.259    0.206
        63 -11.6211    119.2871    175.0208   1.0959702820e+02   2.2837052547e+01    0.5715889    0.2901796  55.96  0.002421873    2.291    0.564
        64 -13.6411    223.9048    101.0656   7.1287796319e+01   1.5372771707e+01    0.6555715    0.4406771 -18.71  0.003122648    1.596    0.373
        65 -12.7900     53.3329     90.9332   1.1117517091e+02   5.1842488084e+01     1.222218    0.6210947 -67.42  0.005437299    2.111    0.526
        66 -11.7780     32.3026     86.5491   1.1721811131e+02   5.5009631617e+01    0.3806294    0.2380273 -53.17  0.001949521    1.322    0.244
        67 -11.8500     32.7341     95.2439   1.1876093857e+02   5.2967998495e+01    0.7654338    0.2435799 -48.80  0.003079288    2.781    0.640
        68 -13.4234     20.0909     93.8832   1.2256396930e+02   5.4307260765e+01    0.8649616    0.5187334  23.78  0.004656444    2.044    0.511
        69 -12.1597     73.0002     92.4164   1.0518794003e+02   4.8918253027e+01    0.5713214    0.4418176  43.29  0.003124437    1.434    0.303
        70 -10.6210     75.2289    102.3503   1.0691712825e+02   4.6321462437e+01    0.3391901    0.2062547  49.71  0.001597208    1.909    0.476
        71 -11.6285    152.4410    245.6335   1.1285458100e+02   5.1736904746e+00    0.5307586     0.347588  34.73  0.002846992    1.282    0.220
        72 -10.6073    133.0097    241.2696   1.1586165054e+02   8.7648827201e+00    0.2599606    0.2015139  44.28  0.001407702    1.031    0.030
        73 -11.8266    164.8150    238.8786   1.0975940660e+02   4.2114492684e+00    0.5210872    0.3990642  41.60  0.003513256    1.099    0.090
        74 -11.2860    172.7177    235.0995   1.0780638821e+02   3.4987028496e+00     0.455776    0.2833791 -13.37  0.002410942    2.607    0.616
        75 -12.3439    190.2552     35.1250   5.8611612021e+01   3.3246901250e+01    0.3961239    0.2748646  47.65  0.001381109    1.494    0.331
        76 -11.9442    206.3770     20.1392   5.2340863398e+01   3.0976077894e+01     0.350711      0.26631  23.57  0.001047675    1.681    0.405
        77 -12.1211    149.8568    237.2466   1.1228956712e+02   6.7793129280e+00    0.5180728    0.2954824  14.92  0.002311286    3.443    0.710
