#   1 NUMBER                 Running object number                                     
#   2 MAG_AUTO               Kron-like elliptical aperture magnitude                    [mag]
#   3 X_IMAGE                Object position along x                                    [pixel]
#   4 Y_IMAGE                Object position along y                                    [pixel]
#   5 X_WORLD                Barycenter position along world x axis                     [deg]
#   6 Y_WORLD                Barycenter position along world y axis                     [deg]
#   7 A_WORLD                Profile RMS along major axis (world units)                 [deg]
#   8 B_WORLD                Profile RMS along minor axis (world units)                 [deg]
#   9 THETA_WORLD            Position angle (CCW/world-x)                               [deg]
#  10 FWHM_WORLD             FWHM assuming a gaussian core                              [deg]
#  11 ELONGATION             A_IMAGE/B_IMAGE                                           
#  12 ELLIPTICITY            1 - B_IMAGE/A_IMAGE                                       
         1 -16.5094    183.3127     88.9046   8.1237462128e+01   2.7054915140e+01      9.29216     4.296785 -44.97   0.02910121    2.433    0.589
         2 -17.3978    219.4407     27.4962   5.7494722286e+01   2.6437641235e+01     12.57881     2.068845  62.24   0.03478451    4.608    0.783
         3 -17.9535    246.3448     56.0517   6.2141358263e+01   1.6547423306e+01     10.58347     3.167366 -20.46   0.02882761    3.834    0.739
         4 -10.7609     53.3821     12.9425   9.0482394592e+01   6.6598047388e+01    0.2562199    0.1020433 -45.94  0.001104097    2.531    0.605
         5  -9.6693    207.8356      9.7292   5.3524894456e+01   3.1302365649e+01    0.2792273    0.1865006   7.52  0.001297682    1.778    0.438
         6  -8.9120    187.6989      9.1918   5.5777928911e+01   3.6723965194e+01    0.1363059    0.1055845 -76.56 0.0002339869    1.442    0.307
         7 -10.5882    177.4444      9.0196   5.7104090419e+01   3.9498757062e+01     0.228912    0.1813111  35.51 0.0009509358    1.274    0.215
         8 -11.8633     55.4769      2.9371   8.4615203553e+01   6.7820937925e+01    0.2889562    0.1859442  -1.78  0.001577879    1.766    0.434
         9 -11.3039    209.9506      2.6502   5.1146808885e+01   3.1403897261e+01    0.2652173    0.1900575 -44.04 0.0008524429    1.392    0.282
        10 -14.8644    163.2108     70.2082   7.9980144290e+01   3.4938861533e+01     3.395749     1.502153  63.53   0.01129554    3.096    0.677
        11 -10.9480    132.6297    140.9211   1.0403682118e+02   2.8506851147e+01    0.5384369    0.1494661 -55.13   0.00160438    5.249    0.809
        12 -12.1477    242.9570    249.1204   1.0144659540e+02  -3.8310279995e+00     0.363371    0.1239004  30.27  0.001878494    2.759    0.638
        13 -11.6004    121.8443    113.1219   1.0090387435e+02   3.5841809681e+01    0.3184756    0.2310336  83.32 0.0009971734    1.821    0.451
        14  -9.6002    111.3752    112.8201   1.0336278560e+02   3.7794821173e+01    0.1805666    0.1227223 -42.15 0.0003550242    1.588    0.370
        15 -11.2490    127.4137    111.4679   9.9214798570e+01   3.5118197411e+01    0.2902106    0.2377559 -28.63 0.0005761167    1.409    0.290
        16 -11.4197    153.5945    109.6121   9.2801783493e+01   3.0172064194e+01    0.2962947    0.2212487  64.83  0.001473826    1.517    0.341
        17 -10.6106    139.5048    104.1674   9.4665040791e+01   3.4131298596e+01    0.2677844    0.2008814  29.57 0.0007480974    1.509    0.337
        18 -12.2881    145.0250    100.5442   9.2491631297e+01   3.3664447171e+01    0.6230669    0.4720491  86.87  0.002155577    1.809    0.447
        19 -11.2695    112.1320    104.0363   1.0124560549e+02   3.9448418330e+01    0.2851882    0.2690567 -77.23   0.00104687    1.022    0.022
        20 -11.3833     41.9516    201.3106   1.2897171944e+02   3.0418142351e+01      0.13997    0.1012106  61.75  0.000392736    1.097    0.089
        21  -9.5771    110.4876     99.4979   1.0060893513e+02   4.0671041535e+01    0.7329262    0.1804384  47.63  0.002175822    4.491    0.777
        22 -12.6948    120.3752    102.0351   9.8730827209e+01   3.8330572226e+01    0.5426251    0.4958885  73.10  0.003169945    1.116    0.104
        23 -11.3456    131.5314     96.5726   9.4661232756e+01   3.7221289671e+01    0.3356801    0.2651372 -53.65 0.0008151482    1.296    0.229
        24 -10.3034    113.2854     94.9979   9.8809401277e+01   4.1077317593e+01    0.1948154    0.1741161 -52.67 0.0003093196    1.088    0.081
        25 -15.2978     14.1966    194.2519   1.3324941659e+02   3.4323243009e+01     1.745372    0.9473267  77.77   0.01273781    1.423    0.297
        26 -11.0314    117.5293     90.0490   9.6469594057e+01   4.1275223472e+01    0.3851776    0.3240979 -38.75  0.001817055    1.199    0.166
        27 -11.8536    137.1287     89.9142   9.1573727700e+01   3.7342136835e+01    0.3174215    0.2968203 -88.42 0.0009655505    1.148    0.129
        28 -10.8005    125.0878     85.9122   9.3449012300e+01   4.0604294037e+01      0.30292    0.2565055 -61.87 0.0008665511    1.248    0.199
        29 -11.0087    128.7855     84.0629   9.2014978767e+01   4.0207195448e+01    0.3213456    0.2486339 -55.49 0.0009978069    1.360    0.265
        30 -12.8812    149.5835     84.2639   8.7101934679e+01   3.5674046120e+01    0.3451921    0.2974625 -39.19 0.0006605233    1.163    0.140
        31  -9.9377    213.1648     84.7132   7.4675486953e+01   2.0610452820e+01    0.2155644    0.2044687 -64.81  0.001204598    1.218    0.179
        32 -10.2908    207.4903     82.7375   7.5107887829e+01   2.2241653502e+01    0.2504994     0.195408  49.73 0.0005242497    1.280    0.219
        33 -10.9421    144.1496    146.1485   1.0256141348e+02   2.5441341357e+01    0.3032503    0.2204138 -76.62  0.001602226    1.820    0.451
        34  -9.6988    107.5405     76.9573   9.5572546000e+01   4.5791765099e+01    0.2012606     0.119091 -24.92 0.0008086836    2.494    0.599
        35 -11.1066    135.1199     73.9955   8.7548706255e+01   4.0760545465e+01    0.5264686    0.2084512  37.09  0.001662537    3.546    0.718
        36 -11.6237    123.2933     72.4311   9.0058696515e+01   4.3572825790e+01    0.4727025    0.2643223 -58.87  0.001865196    2.448    0.592
        37 -10.7480    128.9808     72.3490   8.8581067607e+01   4.2392091038e+01    0.2031402    0.1842947  40.14 0.0005763769    1.125    0.111
        38 -13.4393    193.1507     63.4287   7.2130896666e+01   2.8577655929e+01    0.9530364    0.7669386  12.41   0.00389973    1.347    0.258
        39 -11.2158    204.9786     64.6712   7.0476410450e+01   2.5439564085e+01    0.3156359    0.2930794  31.97  0.001051142    1.062    0.058
        40 -11.4836    220.9010    169.1003   9.2424721318e+01   7.4674330704e+00    0.1788796    0.1591592  38.26 0.0003683591    1.224    0.183
        41  -9.2218    213.9600     63.2152   6.8619967284e+01   2.3412343195e+01    0.7706302    0.2537279  66.04  0.002211879    4.356    0.770
        42 -10.3814    213.6082     59.7825   6.7697214429e+01   2.3960080420e+01    0.3619601    0.2809462   9.13  0.000698934    1.405    0.288
        43 -12.1197    192.4397    194.3758   1.0159211003e+02   9.4101203760e+00    0.7881912    0.4331887 -63.40  0.002928832    6.096    0.836
        44  -9.6785    206.8242     58.8900   6.8502053497e+01   2.5775688481e+01    0.2064434    0.1819782  24.66 0.0003533858    1.139    0.122
        45 -10.9285    153.1251    145.6054   1.0060718430e+02   2.3843398674e+01    0.3213266     0.212669  30.95  0.001634527    1.682    0.406
        46 -10.9161    223.1722     56.7858   6.5429233241e+01   2.1988022937e+01    0.4121903    0.2599792  39.14   0.00152642    1.684    0.406
        47 -15.1006     30.5899    187.8968   1.3011049111e+02   3.3865872959e+01    0.8523985    0.6700764  73.42  0.003598191    1.129    0.114
        48 -13.1884    205.6863     53.3182   6.7046824456e+01   2.6812967149e+01    0.5176318    0.3528064  32.47  0.002377492    1.608    0.378
        49 -12.7160    189.4313     50.5112   6.8859262141e+01   3.1357098523e+01    0.3439536    0.2626783 -44.15 0.0006781496    1.369    0.270
        50 -12.2474    149.1273    141.0080   1.0055436849e+02   2.5409687878e+01    0.3786302    0.2641975  41.59  0.001678696    1.351    0.260
        51 -10.4297    176.8058     48.2154   7.0376243789e+01   3.4932873675e+01    0.2548026    0.2073499 -17.46 0.0003347922    1.241    0.194
        52 -11.0029    205.0853     44.7575   6.4583656132e+01   2.8082412392e+01    0.4419947     0.203392 -40.17   0.00162039    2.185    0.542
        53 -12.3905     98.4863     44.8927   8.7894616459e+01   5.3638705039e+01    0.4759434    0.2891335 -57.57  0.002096331    2.190    0.543
        54 -11.4406    209.0956    160.6494   9.2859201634e+01   1.0733286541e+01    0.3067173    0.1486476  56.00  0.001327321    2.543    0.607
        55 -12.5888    134.5191    107.9909   9.6743394304e+01   3.4406831345e+01     1.295234    0.2724362 -46.15  0.003576635    4.869    0.795
        56 -10.6022     93.0405     24.8634   8.1681385420e+01   5.8041449490e+01    0.2723721    0.1728199 -32.22 0.0006277256    1.458    0.314
        57 -12.1152    187.0424     22.7612   6.0346875807e+01   3.5479226536e+01     0.302817    0.2274865  24.75  0.001466616    1.449    0.310
        58 -10.6033    176.0871     23.6319   6.2324009608e+01   3.8301233056e+01    0.2527515    0.1478288  48.71  0.001086268    1.656    0.396
        59  -9.7215     99.9938    134.8104   1.1020954343e+02   3.5244033907e+01    0.1718454    0.1531069  65.64  0.000380214    1.057    0.054
        60 -11.8757    115.9098     13.0460   7.0224862723e+01   5.4782226902e+01    0.4209417    0.1724808  50.06  0.001666478    2.288    0.563
        61 -13.6059     68.8465    145.2316   1.1874261456e+02   3.7583621403e+01     2.097945     1.001655  66.36  0.007024663    2.702    0.630
        62 -14.0709     55.9041    169.5231   1.2403359764e+02   3.4462833620e+01    0.8043856     0.666476  -0.01 0.0009406001    2.145    0.534
        63 -11.9546    197.6511    151.3181   9.3086897927e+01   1.4227398265e+01    0.2521544    0.2098847  22.66 0.0005026481    1.121    0.108
        64 -14.6324     62.6137    164.1309   1.2218195057e+02   3.4679392198e+01     1.385345    0.8729912  32.81  0.003046512    1.896    0.473
        65 -13.8770     68.0188    158.4460   1.2047408128e+02   3.5096704349e+01    0.6194088     0.388528  71.94  0.001452378    1.546    0.353
        66 -12.0419    135.7045    128.8102   1.0102531519e+02   3.0197006526e+01    0.7504905     0.234162 -52.59  0.002477017    3.913    0.744
        67 -10.8646    153.8310    125.9468   9.6477764147e+01   2.7165773552e+01    0.2494979    0.1915929  46.19 0.0005440475    1.230    0.187
        68 -11.5490    134.8859    121.1236   9.9607027927e+01   3.1810935216e+01    0.4542618    0.1794344 -50.63  0.001736382    2.735    0.634
