#   1 NUMBER                 Running object number                                     
#   2 MAG_AUTO               Kron-like elliptical aperture magnitude                    [mag]
#   3 X_IMAGE                Object position along x                                    [pixel]
#   4 Y_IMAGE                Object position along y                                    [pixel]
#   5 X_WORLD                Barycenter position along world x axis                     [deg]
#   6 Y_WORLD                Barycenter position along world y axis                     [deg]
#   7 A_WORLD                Profile RMS along major axis (world units)                 [deg]
#   8 B_WORLD                Profile RMS along minor axis (world units)                 [deg]
#   9 THETA_WORLD            Position angle (CCW/world-x)                               [deg]
#  10 FWHM_WORLD             FWHM assuming a gaussian core                              [deg]
#  11 ELONGATION             A_IMAGE/B_IMAGE                                           
#  12 ELLIPTICITY            1 - B_IMAGE/A_IMAGE                                       
         1  -9.6960    188.5800     20.6529   5.0378411953e+01   3.4660328913e+01    0.2655694    0.2314494 -56.74 0.0006126963    1.121    0.108
         2  -8.9849     97.7362     12.3715   6.2910103967e+01   5.9342594758e+01    0.2930706    0.1936785  -7.51  0.001330625    1.682    0.405
         3  -8.3410     80.3007     12.4184   6.8123181611e+01   6.3392010230e+01    0.2409134    0.1561291 -46.23 0.0009786052    1.755    0.430
         4  -8.3701    137.9192      4.9162   5.1380713324e+01   4.9720657068e+01    0.2105894    0.1797034  31.28            0    1.208    0.172
         5  -9.0818    105.9017      2.4508   5.6064872467e+01   5.8379839351e+01    0.2563728    0.2030634   2.38 0.0006033834    1.307    0.235
         6  -8.5482    222.9678    245.4980   9.4375469426e+01  -1.1225662414e-01    0.1285601   0.07405468  48.42 0.0008095461    2.526    0.604
         7 -11.7818    237.9913    240.9875   9.1545112615e+01  -1.5720593679e+00    0.5781221    0.3344675  19.63   0.00352344    1.289    0.224
         8 -11.0292    250.0234    241.1093   8.9818243681e+01  -3.0152252233e+00    0.5443946    0.2516092 -30.90  0.003692308    2.618    0.618
         9 -10.6087    209.6594    249.8099   9.6944689381e+01   1.1651884631e+00    0.4079966     0.187825  26.93  0.001240924    1.734    0.423
        10 -10.4078    195.7082    248.5741   9.8971866795e+01   3.0460894832e+00    0.3423436    0.2052941  17.26  0.002450837    1.540    0.351
        11 -11.7925    174.1951    245.0058   1.0202884260e+02   6.2088316342e+00     0.820085    0.4430138  50.36  0.005110793    2.175    0.540
        12 -11.1232    166.1487    248.6828   1.0376367874e+02   6.8746690030e+00    0.6114915    0.2318335  36.44  0.003477872    1.910    0.476
        13 -11.9029    167.9509    242.0470   1.0272948266e+02   7.3596181465e+00     1.003162    0.3712417  30.62  0.005111743    2.516    0.603
        14  -9.8270    160.7886    234.8553   1.0312346152e+02   9.1495525852e+00    0.3672042    0.1848474  25.17   0.00127502    2.057    0.514
        15 -11.0881    169.7593    232.2193   1.0127601303e+02   8.2220312111e+00    0.5394123    0.4454186   3.33  0.004300217    1.313    0.239
        16 -11.3365    164.6164    226.8067   1.0150651269e+02   9.5764322306e+00    0.4737693    0.3144039  18.52  0.002190328    1.525    0.344
        17  -9.6205    153.9152    250.0634   1.0593871117e+02   8.3235550376e+00     0.245252    0.1123659  34.09  0.001524464    1.633    0.388
        18  -7.9287      7.2751    250.6407   1.3071012522e+02   2.4982314834e+01    0.1000163   0.04054473  57.80 0.0003521745    1.656    0.396
        19  -8.9496     97.4726    243.1052   1.1500848175e+02   1.6449404106e+01    0.1904335     0.140394  26.84  0.001453016    1.447    0.309
        20  -8.5318    103.0722    241.9774   1.1393323420e+02   1.5903524966e+01    0.1626382   0.09239113  54.46 0.0006261548    1.586    0.370
        21 -10.3499    107.7682    237.4607   1.1272063703e+02   1.5922786461e+01    0.3888373    0.2326076  76.49  0.002410465    2.531    0.605
        22 -10.9778    246.0045    248.2088   9.1340152895e+01  -3.0939531186e+00    0.4743905    0.2548239  34.10  0.002959903    1.503    0.335
        23 -10.4297    160.5311    227.4770   1.0230147038e+02   1.0069398080e+01    0.3710259    0.2001085  36.29  0.001384806    1.407    0.289
        24  -8.2162    155.2926    238.3278   1.0445857641e+02   9.4893064072e+00    0.1032261   0.07029207  14.99   0.00035066    1.624    0.384
        25  -9.6951    127.7072    232.2260   1.0865775012e+02   1.3999587288e+01    0.2378393    0.1428248  14.15  0.001335476    2.622    0.619
        26 -10.7590    100.1270    219.0333   1.1247406066e+02   1.9594170188e+01    0.5334482    0.2955256  51.94  0.003226824    1.558    0.358
        27 -10.3871    236.6716    230.7132   9.0332750522e+01  -5.4337964829e-01    0.2448388    0.2204781 -15.17  0.001652038    1.724    0.420
        28 -10.3768    107.6549    223.3872   1.1146430990e+02   1.7939037143e+01    0.3990516    0.2631574  19.46  0.002334159    1.925    0.481
        29 -10.5904    245.2055    229.1884   8.8856823429e+01  -1.4738468492e+00    0.2700272    0.2195574  31.29   0.00126355    1.593    0.372
        30  -7.8730     78.6639    231.6898   1.1752185654e+02   2.0391013991e+01   0.09408349   0.07752703  13.28 0.0007043967    1.682    0.405
        31 -11.0656    131.8964    217.7993   1.0635023101e+02   1.5400576902e+01    0.8002919    0.4425593 -42.10  0.004814853    2.414    0.586
        32 -11.1869    125.7855    220.9656   1.0783725814e+02   1.5812393151e+01    0.3963611    0.2826001  31.40 0.0007586037    1.242    0.195
        33  -8.1487    144.4234    228.7973   1.0530181633e+02   1.2155984313e+01    0.1246529    0.1012358 -17.59 0.0005163991    1.593    0.372
        34 -10.0563    128.4767    225.5013   1.0782410950e+02   1.4805611119e+01    0.2800795    0.2125838   6.23  0.001549456    1.736    0.424
        35  -8.6453     73.2192    228.8169   1.1831594619e+02   2.1478978397e+01    0.1887324   0.07333426  58.96 0.0009488837    2.807    0.644
        36 -10.3986    185.1062    226.8988   9.8007278997e+01   6.6943562949e+00    0.2555575    0.2238853  45.49  0.001182949    1.456    0.313
        37  -9.1635    114.8224    228.7816   1.1065394794e+02   1.6204675237e+01    0.2419713    0.1512595 -56.44  0.001511928    2.084    0.520
        38  -9.9139     88.5115    224.4405   1.1514163927e+02   2.0271936639e+01    0.3617247    0.1443149 -62.70  0.002004404    3.072    0.674
        39  -9.8813     91.1988    219.7584   1.1423838528e+02   2.0649579378e+01     0.285137    0.1692672 -78.68  0.001812226    2.185    0.542
        40  -7.5589      1.3188    226.3221   1.3114793284e+02   2.9210570601e+01   0.07663175   0.07246961 -64.55 0.0007043955    1.669    0.401
        41  -9.3733    249.1098    223.1685   8.7417676337e+01  -1.4488975459e+00    0.1651806    0.1045002  14.62  0.001237696    1.177    0.150
        42  -9.4910    187.4129    222.2302   9.7002260483e+01   6.8917849918e+00    0.1620178    0.1236296  52.13  0.001142283    1.689    0.408
        43  -9.1266    191.9448    218.1791   9.5684919051e+01   6.7038690410e+00    0.2147217    0.1855026 -14.73   0.00168657    1.366    0.268
        44  -9.3708    157.7476    221.9477   1.0212217046e+02   1.1151316117e+01    0.1896592    0.1714038  -6.98  0.000742114    1.313    0.239
        45  -9.1668    148.8259    220.8401   1.0359128546e+02   1.2570307324e+01    0.2367076    0.1518386 -41.00  0.001326304    1.999    0.500
        46  -9.5377    114.9317    221.5173   1.0992000027e+02   1.7230483283e+01     0.232645    0.1946392   3.99 0.0008832702    1.567    0.362
        47  -9.7758     20.2572    222.7842   1.2769337079e+02   2.8101169784e+01    0.2191234    0.1539074  31.28  0.001197582    1.559    0.359
        48  -8.2650     51.0619    222.2039   1.2200269866e+02   2.5061201392e+01    0.1403515   0.06661627  36.48 0.0006388286    1.724    0.420
        49  -9.7222     14.1253    221.1401   1.2874254710e+02   2.8935449959e+01    0.1711095    0.1023597  30.45  0.001239423    1.734    0.423
        50  -8.7833     75.3176    219.8538   1.1726931536e+02   2.2627561068e+01    0.2014023    0.1178184  53.58 0.0005552772    1.379    0.275
        51  -9.5326    181.4816    227.4661   9.8691926255e+01   7.1358807343e+00    0.2096802    0.1679085   4.13  0.001060128    1.282    0.220
        52  -9.5052    175.9075    217.0089   9.8279871932e+01   9.1455058836e+00    0.2762153    0.1935188 -22.50  0.001837029    1.716    0.417
        53  -9.3706    118.7001    215.5788   1.0859195878e+02   1.7583476220e+01    0.2909982    0.1858555 -82.18  0.001740699    2.456    0.593
        54  -8.8118    115.9671    210.6102   1.0857944383e+02   1.8716374869e+01    0.2327143    0.1507486  69.30  0.001137061    1.991    0.498
        55  -9.2665    143.9459    216.0744   1.0391151225e+02   1.3912040507e+01    0.2542137    0.1593466 -34.98  0.001543588    2.129    0.530
        56  -9.3823    112.1497    214.3764   1.0971672874e+02   1.8675414470e+01    0.2550155    0.1932549 -32.10  0.001394945    1.889    0.471
        57  -8.6424     84.6734    215.8407   1.1515291611e+02   2.2102936562e+01    0.2019817    0.1388531  18.65  0.001285728    1.942    0.485
        58  -8.4658    228.4391    214.7717   8.9278362803e+01   1.9853570116e+00    0.1425109   0.08682168  -7.85 0.0009499494    1.659    0.397
        59  -7.9678    180.2768    215.3238   9.7290148326e+01   8.7135652012e+00    0.1107222   0.07403513  12.19 0.0002128159    1.584    0.369
        60 -10.0524     78.1553    211.1779   1.1603097667e+02   2.3684892875e+01    0.3190454    0.2385632  38.20  0.001788594    1.230    0.187
        61  -8.7578    211.5209    212.5350   9.1631765877e+01   4.5428946167e+00    0.1127117   0.08330526  20.00 0.0001218228    1.021    0.020
        62  -8.4304    186.2512    211.7858   9.5761888756e+01   8.2624366797e+00    0.2169477    0.1171326  20.81 0.0008442264    2.014    0.503
        63  -7.6915    223.3094    211.6599   8.9613400282e+01   2.9903844841e+00   0.09239713   0.08405759  42.62 0.0007044339    1.689    0.408
        64 -11.2260     98.8555    227.5297   1.1347789131e+02   1.8485722047e+01    0.4823826    0.3835872  45.52  0.002581625    1.067    0.063
        65  -8.2601    233.6533    210.7114   8.7860334708e+01   1.6739039910e+00    0.1141538   0.06392125  15.11 0.0002689848    1.657    0.396
        66  -9.5829    202.8157    209.2473   9.2578727738e+01   6.1413443105e+00    0.2545439    0.1953749  16.81  0.001104543    1.063    0.060
        67  -9.8543    212.7700    207.6059   9.0690063857e+01   4.8894314647e+00    0.2195089    0.1796516  15.38  0.001459437    1.134    0.118
        68  -7.9749    162.3754    208.3207   9.9528057649e+01   1.2240716959e+01    0.1208575   0.07863192  14.21 0.0007029147    1.813    0.448
        69  -8.9269    134.4743    208.5716   1.0478159357e+02   1.6355363403e+01    0.2878069   0.09360322  37.79  0.001282472    2.494    0.599
        70 -10.0825     11.3579    207.5851   1.2880366230e+02   3.1475002867e+01    0.2390011    0.1683177  11.54  0.001657568    2.210    0.548
        71 -10.1250    123.9999    205.9923   1.0649463891e+02   1.8272241669e+01    0.1664207    0.1320143  42.98  0.001156523    1.019    0.019
        72  -8.1096    117.3540    206.2666   1.0782607487e+02   1.9189568309e+01    0.1114061   0.08266961  17.13 0.0004659228    1.627    0.385
        73  -8.1985     99.3878    206.2350   1.1137337439e+02   2.1712332048e+01    0.1447047    0.1028902  89.29 0.0007490801    1.721    0.419
        74  -8.2657     56.3668    205.6864   1.1992755033e+02   2.7237694733e+01    0.1227818   0.06025437  57.84 0.0007038147    1.769    0.435
        75  -9.6261    211.6889    203.1258   9.0179936932e+01   5.5308470918e+00    0.2333963    0.1304758  50.86  0.001280506    2.437    0.590
        76  -8.8637    130.3863    201.6343   1.0471746634e+02   1.7998410846e+01    0.2673162    0.2232628  34.63  0.001883633    1.081    0.075
        77  -7.8196     41.3499    202.6745   1.2273345865e+02   2.9426688214e+01     0.121467   0.05758524  58.36 0.0007048797    1.755    0.430
        78  -8.2451     73.2714    201.3982   1.1618354910e+02   2.5955117673e+01    0.1003887   0.08637676 -26.21  0.000698329    1.740    0.425
        79  -9.8717    250.2915    198.6077   8.3448974256e+01   5.8805541191e-01     0.280351    0.1475887 -23.63  0.001796199    1.849    0.459
        80  -8.9202    165.3490    198.3032   9.7574447798e+01   1.3138032320e+01     0.263461    0.1490054  20.96 0.0008816593    2.103    0.524
        81  -8.2938    149.4889    199.0096   1.0066850317e+02   1.5491821735e+01    0.2255944    0.1291194  64.16  0.001027624    3.259    0.693
        82 -11.0598    173.6989    195.2733   9.5582590783e+01   1.2247125570e+01    0.4734545    0.4049554   6.71  0.002183665    1.169    0.145
        83  -9.2530    180.6409    193.7618   9.4085823276e+01   1.1359705166e+01     0.216587    0.2033198 -23.63  0.001083672    1.328    0.247
        84  -9.6687    126.3708    197.2597   1.0496200201e+02   1.9279414410e+01    0.2773727    0.2158052  19.77  0.001344282    1.416    0.294
        85  -9.2097    124.4025    192.3222   1.0472672663e+02   2.0367395763e+01    0.2223006    0.1783363  52.93 0.0006301219    1.163    0.140
        86  -8.4526    112.8794    198.0970   1.0777650017e+02   2.1138214710e+01    0.2075328    0.1083896  57.38  0.001058967    2.172    0.540
        87  -8.6729    131.8664    195.4115   1.0362790634e+02   1.8738533767e+01    0.1820595     0.160767  70.23 0.0007952069    1.286    0.223
        88  -8.8361    135.5312    193.3561   1.0262396315e+02   1.8497494011e+01    0.3041504    0.1630393  54.09  0.001558865    2.071    0.517
        89  -8.4024     66.8957    195.2791   1.1697762794e+02   2.7828169371e+01    0.2097791   0.08534655  61.02 0.0009525289    2.877    0.652
        90  -7.9225     43.8179    194.1812   1.2170113230e+02   3.0695533879e+01    0.2029109   0.07141113  59.54 0.0009360174    2.843    0.648
        91  -7.6693     78.3103    193.6285   1.1444012050e+02   2.6682009095e+01     0.126025   0.07215828  63.26 0.0007033965    1.772    0.436
        92  -8.9625     88.9394    199.3660   1.1279308063e+02   2.4274287665e+01    0.2294293    0.1489864  82.17  0.001101801    1.856    0.461
        93  -8.1978    186.5225    190.0164   9.2436536958e+01   1.0922013649e+01    0.1571087   0.09456608  -5.61 0.0007033616    2.361    0.576
        94  -9.4465    137.7393    180.8330   1.0040150007e+02   2.0149471061e+01    0.4056506    0.2209215 -46.02   0.00214134    2.148    0.535
        95  -8.3139    144.4019    186.7595   9.9926110628e+01   1.8132890285e+01    0.1612038    0.1454427  23.91 0.0002677638    1.110    0.099
        96  -8.8040    138.8980    189.6006   1.0143373713e+02   1.8560862199e+01    0.2094858    0.1718864 -87.88  0.001093325    1.636    0.389
        97  -9.0293    141.1303    184.5411   1.0025810871e+02   1.9005825740e+01    0.3892107    0.2122209  25.35  0.001893214    2.202    0.546
        98  -9.8943    203.6658    188.3707   8.9163493851e+01   8.4378865907e+00    0.4623203    0.3841493  48.41  0.003172679    1.518    0.341
        99  -8.1899    198.4700    185.4838   8.9581578632e+01   9.6083695902e+00    0.2470962    0.1532966  16.79 0.0009422523    1.679    0.404
       100  -9.3024    197.1714    181.8432   8.9196188675e+01   1.0276120380e+01    0.2926638    0.2190889 -11.86  0.001403052    1.370    0.270
       101  -8.3271    129.5404    188.7827   1.0321094272e+02   2.0153303622e+01    0.1488976    0.1166741 -82.03 0.0009260233    1.686    0.407
       102  -7.6669     87.3304    189.6590   1.1213706900e+02   2.6192129253e+01    0.1278051   0.07565175  62.35 0.0007051475    1.745    0.427
       103  -8.9256    156.1053    187.9403   9.7797255383e+01   1.6077137533e+01    0.1828468    0.1786296 -41.28 0.0009339227    1.259    0.206
       104  -8.8287    120.6563    186.7549   1.0476766826e+02   2.1858736462e+01    0.2936844    0.1481548 -63.63  0.001442161    2.713    0.631
       105  -9.6899     95.3003    187.3651   1.1018917419e+02   2.5495995968e+01    0.5027651    0.1849747  52.20   0.00200747    2.913    0.657
       106  -8.6703     55.1004    187.2410   1.1881504573e+02   3.0718742649e+01    0.2823002    0.1064716  62.01  0.001220222    3.177    0.685
       107  -9.7294    230.9962    186.4109   8.4347523011e+01   4.5179552106e+00    0.3708591    0.2063371  54.00  0.001893055    3.020    0.669
       108  -8.5029    148.6127    186.7887   9.9093628714e+01   1.7454113462e+01    0.1489564    0.1193457 -63.34 0.0009411593    1.638    0.389
       109 -10.1915    211.1104    183.2391   8.7037467551e+01   7.8943047436e+00    0.4506806    0.2667027  10.15   0.00248472    1.944    0.486
       110  -8.8802    108.8631    185.6013   1.0709433916e+02   2.3838266887e+01     0.306821    0.1618862  65.47  0.001382587    2.887    0.654
       111 -10.7670    175.7934    179.6224   9.2710646068e+01   1.4069202876e+01    0.6064686    0.3507447 -11.06  0.002833907    2.854    0.650
       112  -8.0986     74.4798    184.0226   1.1432715192e+02   2.8935657197e+01    0.1653545   0.08772964  76.82 0.0008081105    2.495    0.599
       113 -10.3313     13.6864    182.6409   1.2737842084e+02   3.5821489038e+01    0.3583428    0.2611839   5.86  0.002453707    2.153    0.535
       114  -8.1532    217.9468    182.6761   8.5804498059e+01   6.9001286702e+00    0.1621117    0.1247717  21.27 0.0003522188    1.063    0.059
       115  -8.0501    165.6541    182.7336   9.5144426015e+01   1.5293355416e+01     0.125212   0.08560856  16.94 0.0003555079    1.610    0.379
       116  -8.7050    157.0309    181.3088   9.6593878753e+01   1.6922970542e+01    0.2091131    0.1601841   4.74 0.0006920602    1.519    0.342
       117  -9.0696    147.9744    181.0505   9.8354370210e+01   1.8449442626e+01    0.2404315    0.1724907 -84.86  0.001005211    2.414    0.586
       118  -8.2363     43.9411    182.6362   1.2088017827e+02   3.2852748303e+01    0.1676292   0.07702183  45.55 0.0009286701    1.730    0.422
       119  -9.1147    183.1724    180.8550   9.1545697894e+01   1.2681569705e+01    0.2246237    0.1827309  43.52  0.001105657    1.278    0.218
       120  -9.3379    232.0398    177.6906   8.2668461910e+01   5.3108523423e+00    0.2227936     0.133999 -23.14  0.001363576    1.622    0.384
       121 -10.7054    204.7189    176.2825   8.6918936116e+01   9.7632558061e+00     0.668488     0.328325  38.90  0.003088773    1.787    0.440
       122 -10.1521    208.1430    170.2252   8.5245750321e+01   9.9691274482e+00    0.4817627    0.2838566  13.28  0.002112138    2.005    0.501
       123 -10.4066    214.3362    167.9078   8.3771379889e+01   9.2428496683e+00    0.7739252    0.3251254  25.56  0.003081326    3.381    0.704
       124  -8.4794     12.3612    177.4122   1.2743061345e+02   3.6945572917e+01    0.1964634    0.1455981 -61.74 0.0009715043    1.673    0.402
       125  -7.8607    129.5716    177.5182   1.0161033479e+02   2.2019983033e+01    0.1265092    0.1072331  50.72 0.0003055338    1.102    0.093
       126  -8.3216     87.1705    177.2856   1.1080332116e+02   2.8489021148e+01    0.2440644    0.1039262  30.57   0.00107462    2.593    0.614
       127  -7.9780     59.7941    177.1581   1.1692398969e+02   3.2092266906e+01    0.2234478   0.09009067  61.57 0.0009582874    2.973    0.664
       128  -9.0575    183.3214    173.8513   9.0322257214e+01   1.3625514454e+01    0.4137524    0.2021834 -20.93  0.001761021    3.245    0.692
       129  -8.9194    159.6066    175.7136   9.5184730873e+01   1.7349901642e+01    0.2203207     0.138442  54.15 0.0007775502    1.804    0.446
       130  -9.8494    149.0991    175.0630   9.7186512663e+01   1.9215088136e+01    0.2923561    0.2755604  10.32  0.001380047    1.129    0.114
       131  -9.1962    105.1450    174.8469   1.0650922616e+02   2.6321120745e+01    0.3292829    0.1870237  67.45  0.001348256    2.464    0.594
       132  -8.9326     76.7021    175.8271   1.1298535587e+02   3.0198597551e+01     0.310018    0.1358883  53.23  0.001471289    2.205    0.547
       133  -8.6643     20.2657    173.8454   1.2552944132e+02   3.6946409366e+01     0.281969    0.1131774  87.44  0.001435512    2.471    0.595
       134  -8.8232     14.4872    170.8986   1.2666053181e+02   3.8046187392e+01    0.2740154    0.1410886  25.50  0.001609332    2.186    0.542
       135  -8.2488    218.4042    174.2218   8.4243210468e+01   7.8206366838e+00    0.1458832      0.10752 -30.24 0.0004378718    1.498    0.332
       136  -7.8341     93.4730    174.4569   1.0905565443e+02   2.8124645750e+01    0.1252155    0.1051562  55.25 0.0003943383    1.021    0.020
       137  -8.0274      3.3731    174.6620   1.2925301239e+02   3.8223225818e+01    0.1245076   0.05165677  58.11 0.0007021058    1.860    0.462
       138  -8.6314    193.5106    173.0314   8.8318239364e+01   1.2029802838e+01    0.2289958    0.1434651  26.94 0.0005962718    1.484    0.326
       139  -9.5293    176.7984    171.4664   9.1129733546e+01   1.5070910106e+01    0.3062075    0.1651457 -35.96  0.001579615    2.063    0.515
       140  -7.8663     44.6792    172.3464   1.1993452572e+02   3.4790615290e+01    0.1291806   0.06849783  62.47 0.0007049445    1.733    0.423
       141  -9.2827    161.8394    170.3662   9.3845311402e+01   1.7797256645e+01    0.2669309    0.2081949  40.47  0.001631184    1.152    0.132
       142  -8.9759    121.8001    169.5746   1.0209502199e+02   2.4664038869e+01    0.2668629     0.174927 -82.53  0.001096017    2.361    0.577
       143  -8.5402     55.3095    170.1469   1.1730278024e+02   3.4017146284e+01    0.2391569    0.1104735  56.28 0.0009661709    2.040    0.510
       144  -8.3513    198.8168    167.4198   8.6358890348e+01   1.1889472639e+01    0.1865532   0.09983823  30.77 0.0009422861    1.784    0.439
       145  -9.3649    155.3071    165.3732   9.4300775155e+01   1.9719449620e+01      0.23647    0.1772043  18.29  0.001172245    1.434    0.303
       146  -9.3457    157.9786    163.4798   9.3423621576e+01   1.9558799567e+01    0.4905879    0.2938609  68.50  0.001979627    3.518    0.716
       147  -8.6434    139.3785    165.2327   9.7603955931e+01   2.2495397251e+01    0.2791952    0.1753845  67.47  0.001258459    2.466    0.594
       148  -8.6674     99.2022    166.1781   1.0667338397e+02   2.8851714836e+01     0.261523    0.1330044  55.89  0.001218534    2.135    0.532
       149  -9.0994    149.7005    164.5520   9.5314477722e+01   2.0829947015e+01     0.327828    0.2120024  55.50  0.001711725    1.728    0.421
       150  -8.8878     80.1689    164.4520   1.1087721504e+02   3.1960634976e+01    0.3058339    0.1518207  70.68  0.001262721    3.148    0.682
       151  -8.9557    185.8259    163.7431   8.8042448405e+01   1.4629284510e+01    0.1991484    0.1519262  16.68  0.000826343    1.256    0.204
       152  -8.5195    122.1665    163.6318   1.0109684444e+02   2.5680796901e+01    0.2715623    0.1584699  17.54  0.001147172    2.917    0.657
       153  -8.2219     37.7733    164.6335   1.2092653651e+02   3.7096698524e+01    0.1699762    0.0834518  45.14 0.0005785634    1.706    0.414
       154  -9.1834      9.4174    161.4478   1.2735068053e+02   4.0383316961e+01     0.362302    0.1162238  60.71  0.001690985    2.757    0.637
       155  -9.2255    150.4556    160.1403   9.4384573193e+01   2.1435430224e+01    0.2765747    0.1956985  68.52   0.00142136    1.992    0.498
       156  -8.6360     93.1764    160.9143   1.0734854552e+02   3.0787816968e+01    0.2805716    0.1578925  67.04  0.001300565    2.334    0.571
       157  -8.3578    205.4514    159.7341   8.3753074237e+01   1.1781068201e+01    0.1674084    0.1111309 -13.35  0.000932026    1.592    0.372
       158  -8.2581     23.1572    159.7752   1.2403683171e+02   3.9540170795e+01    0.2131219   0.07351071  60.36 0.0009434561    2.829    0.646
       159  -8.6768    144.7660    159.5387   9.5480469255e+01   2.2541347554e+01    0.1938017    0.1177105  40.16  0.000989543    1.475    0.322
       160  -8.2339    138.8427    159.3725   9.6724458816e+01   2.3608130841e+01    0.1943837    0.1133919  32.33 0.0007526279    1.728    0.421
       161  -9.0781    105.8181    158.2354   1.0398952722e+02   2.9360388831e+01    0.3653587    0.1938315  61.13  0.001363703    2.468    0.595
       162  -8.2866    167.4142    157.2113   9.0377031983e+01   1.8882960379e+01    0.1720836    0.1253684 -53.56 0.0009398052    1.733    0.423
       163  -9.5283    213.0128    155.2543   8.1589956123e+01   1.1068740292e+01    0.2670183    0.2360717  12.05  0.001255152    1.109    0.098
       164  -8.1244    178.2190    156.1861   8.8062174434e+01   1.7093047874e+01    0.2187513    0.1294339   9.66 0.0009350755    2.724    0.633
       165  -8.7316    119.5012    155.5146   1.0038491155e+02   2.7638152024e+01    0.2876885    0.1846825  73.58  0.001260531    2.338    0.572
       166  -8.8584     82.1719    155.0732   1.0919181151e+02   3.3582591377e+01     0.300291    0.1695497  71.30  0.001394099    2.334    0.572
       167  -9.2756     49.5388    155.3368   1.1726859737e+02   3.7748877283e+01    0.3433787    0.1848501  62.93  0.001632901    1.829    0.453
       168  -8.5411    144.9950    155.1813   9.4653243699e+01   2.3255782549e+01     0.223944    0.1460198  63.45 0.0009296557    2.050    0.512
       169  -8.9906    133.5560    148.2713   9.5911141338e+01   2.6548972695e+01    0.2967996    0.2055309  -1.71  0.001380406    2.363    0.577
       170  -8.6870    205.3365    151.8844   8.2242329828e+01   1.2853453786e+01    0.2439375    0.1079269 -39.97  0.001095149    2.506    0.601
       171  -8.2224    168.5686    152.2296   8.9197339852e+01   1.9466572015e+01    0.1780748    0.1233827 -21.67 0.0009355842    1.673    0.402
       172  -8.9918    133.3627    153.0794   9.6825435323e+01   2.5698474842e+01    0.3319563    0.2245805 -89.26  0.001524413    2.566    0.610
       173  -7.6999     91.3147    151.6601   1.0647226685e+02   3.2935021314e+01    0.1381901   0.09192421  69.06 0.0007047601    1.702    0.412
       174  -8.7401     28.4164    149.9132   1.2205422172e+02   4.1134916423e+01     0.332204    0.1288665  68.42  0.001426169    2.975    0.664
       175  -9.1737    230.1188    149.1214   7.7588179098e+01   8.9310388495e+00    0.2064791    0.1680761 -25.80 0.0006023954    1.305    0.234
       176  -8.7030    190.2236    150.2619   8.4634366664e+01   1.5797462163e+01    0.2880977    0.1940913 -47.86  0.001173414    1.865    0.464
       177  -8.9699    189.9924    146.2385   8.3865993320e+01   1.6430993097e+01    0.2122045    0.1626701   8.36 0.0006848972    1.339    0.253
       178  -8.2816    220.7353    149.0073   7.9067666652e+01   1.0540837661e+01    0.1738354    0.1472071   5.79 0.0006883543    1.026    0.026
       179 -10.0940     56.4822    145.9923   1.1450841561e+02   3.8932934782e+01    0.5531099    0.2605924  64.93  0.002432497    2.597    0.615
       180  -9.5371     51.7269    148.3925   1.1600040519e+02   3.8982025414e+01    0.2672702    0.2054676  17.98  0.001625031    1.671    0.401
       181  -9.6350     40.2615    148.0390   1.1889454689e+02   4.0343078345e+01     0.520686    0.1923317  55.56    0.0019403    2.769    0.639
       182  -9.5561     40.5414    140.7414   1.1810735374e+02   4.1914069463e+01    0.3024992    0.2016131 -24.50  0.001574016    2.601    0.616
       183  -9.6581     39.1939    136.3856   1.1801946820e+02   4.3028050118e+01    0.3176891    0.1626607  66.86 0.0009717486    2.064    0.515
       184  -9.8641    149.1731    145.3605   9.1900569452e+01   2.4216333691e+01    0.4663421    0.3170841  86.65  0.001982812    2.910    0.656
       185  -9.6163    107.4802    145.4703   1.0153535592e+02   3.1620360411e+01    0.5849943    0.2992169  64.95  0.002162764    3.433    0.709
       186  -9.9443     68.7002    145.0250   1.1123109626e+02   3.7576456752e+01    0.3264908    0.2760967 -82.05  0.001576124    1.150    0.131
       187 -10.0253     70.0742    141.3400   1.1037432449e+02   3.8190517599e+01    0.4345112    0.2285767  76.23  0.001826444    2.812    0.644
       188  -8.7272     13.2820    146.7048   1.2562682249e+02   4.3166165769e+01    0.2281266    0.1248574  55.99  0.001136233    1.551    0.355
       189  -8.2600    195.5068    146.5070   8.2908282815e+01   1.5375627376e+01    0.1306795    0.1167348  14.66 0.0008102114    1.044    0.043
       190  -9.5412    196.2118    143.0167   8.2062813645e+01   1.5748967336e+01    0.2370164    0.1798705 -33.95  0.001365152    1.385    0.278
       191  -9.1633     67.8928    153.6893   1.1253386640e+02   3.5834953595e+01    0.3176945     0.153379  65.21  0.001345902    2.661    0.624
       192  -8.7010    218.7610    143.6118   7.8294098722e+01   1.1577738340e+01    0.2047973    0.1513887  45.94 0.0008542351    1.466    0.318
       193  -7.7726    165.6390    144.3306   8.8228072226e+01   2.1297875315e+01    0.1347237    0.1083771  81.45 0.0007040451    1.800    0.445
       194  -9.0830    125.5957    143.4615   9.6849703835e+01   2.8883900986e+01    0.3656655    0.2321511  79.45  0.001519147    2.882    0.653
       195  -8.8821     88.0673    144.0356   1.0612826235e+02   3.5014704415e+01    0.2804112    0.1812983  66.86  0.001420545    1.753    0.430
       196  -8.8867      2.8750    142.6259   1.2801405804e+02   4.4839947086e+01     0.320796     0.107695  74.57  0.001412573    2.956    0.662
       197  -8.1008    206.5772    143.1918   8.0262996126e+01   1.3818598870e+01     0.172493    0.1159925 -15.39 0.0005096539    1.530    0.347
       198  -8.1945    181.5957    143.1815   8.4826097243e+01   1.8463138312e+01    0.1906902    0.1228809 -21.12  0.000951646    1.762    0.433
       199  -9.4316     24.0967    138.9488   1.2229938779e+02   4.3931865715e+01    0.4205288    0.1520963  57.74  0.001843355    2.784    0.641
       200  -8.9085    108.1234    137.5274   9.9975964002e+01   3.3128430484e+01    0.4857614    0.2935091   8.93  0.001721162    4.099    0.756
       201  -8.5016    197.1982    137.4343   8.0710548492e+01   1.6374115162e+01    0.1822089    0.1556358  -1.92  0.000523057    1.096    0.087
       202  -9.2813    149.9874    136.3901   8.9913159637e+01   2.5658317486e+01    0.3664517    0.2215432  21.71  0.001508343    2.315    0.568
       203  -8.9888     57.8420    136.4357   1.1297245914e+02   4.0870884411e+01    0.3444599    0.2225702  -5.82  0.001548625    3.168    0.684
       204  -8.2725    125.6239    135.6988   9.5353496571e+01   3.0387352607e+01    0.1415202     0.108788   5.95 0.0004060168    1.760    0.432
       205 -10.6613     62.3978    126.6244   1.1034278338e+02   4.2499128390e+01     1.075116    0.5050866  62.16  0.003881595    2.866    0.651
       206  -9.6734    232.3743    133.0728   7.3930482876e+01   1.0516640976e+01    0.2531347    0.1918195  14.08  0.001544782    1.222    0.182
       207  -7.9100    179.6654    134.3083   8.3324274156e+01   2.0224421300e+01    0.1305773    0.1110872 -89.75 0.0004766476    1.673    0.402
       208  -9.3131    132.4184    132.0033   9.2994596114e+01   2.9838953440e+01    0.3437516    0.2352902 -80.61  0.001177883    2.330    0.571
       209  -8.5699    112.6251    133.3299   9.8065409577e+01   3.3206411454e+01    0.2148057    0.1590049  77.16  0.001049055    1.677    0.404
       210  -9.6459     83.6126    132.1061   1.0536904566e+02   3.8258389361e+01    0.3954468    0.2436406  67.74  0.001270902    1.977    0.494
       211  -8.5404    249.0000    131.5086   7.1165915820e+01   7.8557388715e+00     0.273168    0.0613906 -28.56  0.000941769    3.992    0.749
       212  -9.1131    227.2472    131.7893   7.4447863580e+01   1.1588867885e+01    0.2616352    0.1639508  33.38  0.001426845    1.559    0.359
       213  -8.6400    143.4441    132.1328   9.0476698297e+01   2.7699873198e+01    0.2526782    0.1810702  81.55  0.001163186    2.186    0.543
       214  -9.0413     40.3360    130.3252   1.1704697883e+02   4.4276248940e+01    0.2493924    0.1347841 -33.87  0.001063121    3.444    0.710
       215  -8.9907     24.4442    129.7928   1.2142845429e+02   4.5952907387e+01     0.358263    0.2044143 -27.20  0.001679669    3.319    0.699
       216  -9.3510     13.0492    129.6896   1.2456835878e+02   4.6928047256e+01    0.4763927    0.1591219  62.56  0.001958779    3.248    0.692
       217  -8.6777    168.8017    130.1729   8.4588409403e+01   2.3044172040e+01    0.2249839    0.1575765 -85.36  0.000944428    2.866    0.651
       218  -8.5876    153.6207    130.2990   8.7822635208e+01   2.6039954292e+01    0.2153888    0.1718481 -88.80  0.001098244    1.765    0.433
       219  -9.7863     99.4210    128.3089   1.0048891994e+02   3.6541804675e+01    0.4592663    0.2893044  80.54  0.001680855    2.454    0.593
       220  -8.7952     73.0163    129.3739   1.0780304320e+02   4.0425035676e+01    0.2507779    0.1684576  77.93 0.0008472164    1.695    0.410
       221  -8.4575    143.3239    127.3227   8.9468851732e+01   2.8619110695e+01    0.1443262    0.1105251   5.81 0.0007047182    1.682    0.406
       222  -9.5260    118.1636    125.5677   9.5120350268e+01   3.3792766272e+01    0.4664371    0.2891794  74.72  0.001837923    2.783    0.641
       223 -10.4143     44.4000    123.2997   1.1504242050e+02   4.5445781624e+01    0.7530254    0.3287254  67.41  0.002786358    3.312    0.698
       224 -10.3023     28.8013    122.7979   1.1951701093e+02   4.7155274628e+01    0.7485061    0.2635594  67.18  0.002488163    4.700    0.787
       225  -8.6473    179.7149    124.1948   8.1064566187e+01   2.1832221704e+01    0.3869404    0.2209544 -41.40  0.001798762    1.837    0.456
       226  -9.1095    131.9808    124.7157   9.1549671922e+01   3.1339212810e+01     0.313867    0.2487844  72.70  0.001628362    1.513    0.339
       227  -8.7434     73.4840    124.4886   1.0687375358e+02   4.1455921156e+01    0.2869164    0.1959479 -24.82  0.001358853    2.371    0.578
       228  -8.9332     84.9430    122.2343   1.0326560403e+02   4.0233169861e+01    0.3887055    0.2541905   3.21  0.001606906    3.049    0.672
       229  -8.3729    158.4918    121.9591   8.4899201971e+01   2.6543987599e+01    0.1943406     0.123495 -63.90 0.0008086405    2.461    0.594
       230  -9.3720     13.8018    120.2667   1.2363770064e+02   4.9010321659e+01     0.411195    0.1465032 -46.73  0.001589924    4.237    0.764
       231  -8.1615    172.3331    121.6505   8.1942756005e+01   2.3755866649e+01    0.1409146    0.1140147 -80.68 0.0007047845    1.775    0.437
       232  -9.7700    142.3320    120.1268   8.8084197674e+01   3.0171089007e+01    0.3851039    0.2614565 -65.38  0.001460456    2.001    0.500
       233  -9.2276     99.5727    119.7513   9.8761998741e+01   3.8358696772e+01    0.5955268    0.3367544  14.56  0.001952674    4.415    0.774
       234  -9.7010    130.7791    118.4955   9.0452727844e+01   3.2798174465e+01    0.4566812    0.2905356 -83.28  0.001676628    3.220    0.689
       235  -9.5583    119.2002    119.2081   9.3492891126e+01   3.4901304163e+01    0.4470692    0.2290301  24.09  0.001485274    3.761    0.734
       236  -8.9243    107.8019    119.9863   9.6612405064e+01   3.6852002395e+01    0.2620443    0.2356804 -26.96  0.001352475    1.271    0.214
       237  -9.6266     71.1549    117.7538   1.0638215768e+02   4.3322567146e+01    0.5767555     0.267393 -54.88  0.002540573    2.101    0.524
       238  -9.5992      2.8909    117.0551   1.2657121769e+02   5.0512223746e+01    0.5063052    0.1662498  69.74  0.002040665    3.379    0.704
       239  -8.9296      2.3170    109.8285   1.2625716395e+02   5.2206466223e+01    0.3043468    0.1195148 -58.47  0.001442486    2.456    0.593
       240 -10.0859    110.0716    114.9455   9.4919478062e+01   3.7505342102e+01    0.5542544     0.325005 -77.12   0.00174128    3.074    0.675
       241  -9.1071    165.3073    115.6813   8.1978050164e+01   2.6229054272e+01    0.2961783     0.225759  10.01 0.0007407478    1.560    0.359
       242  -9.8490     79.4528    113.1147   1.0309451974e+02   4.3144217351e+01    0.5152755    0.3095845  83.91  0.001965521    2.559    0.609
       243  -9.7246     92.7064    112.5967   9.9172406248e+01   4.1106733398e+01    0.4500129    0.2889169 -83.24  0.001612847    2.180    0.541
       244  -9.0382    141.9424    112.2468   8.6317112011e+01   3.1747506293e+01    0.4360255    0.2519457  21.75  0.001612186    2.943    0.660
       245  -9.3967    122.2552    113.1089   9.1332016996e+01   3.5561128215e+01    0.2748357      0.18486  69.70 0.0008721817    2.023    0.506
       246  -7.7237    159.3095    112.6195   8.2509132724e+01   2.8030297605e+01    0.1477827    0.1154945 -77.51 0.0007024922    1.795    0.443
       247 -10.3271     65.7575    110.3997   1.0666964554e+02   4.5783443312e+01    0.4182879    0.2792886  74.91  0.001674368    1.751    0.429
       248 -10.8279     14.3614    109.6916   1.2255277975e+02   5.1419661089e+01    0.4718046    0.2690493  86.44  0.001606019    1.573    0.364
       249  -8.4055     17.4926    103.5102   1.2094652983e+02   5.2637119104e+01    0.1857412    0.1342719 -49.33 0.0009093856    1.532    0.347
       250  -9.7295     60.7651    106.3960   1.0747917749e+02   4.7400177373e+01    0.2552763    0.1896465  40.10  0.001413313    1.391    0.281
       251  -9.9751     54.5041    110.0027   1.1005964022e+02   4.7360736702e+01    0.3645561    0.3058405  17.04  0.001490321    1.467    0.318
       252  -9.6265     58.9560    109.7592   1.0864103710e+02   4.6849774221e+01    0.2364633    0.1843643 -73.81 0.0007087356    1.195    0.163
       253  -9.3278    133.5165    109.9784   8.7778100805e+01   3.3926960806e+01     0.292481    0.1377188 -53.11  0.001101016    2.510    0.602
       254 -10.1183    110.9648    106.5770   9.2750489576e+01   3.9111810297e+01    0.4419114    0.3445685  16.42  0.001481564    1.631    0.387
       255 -10.6525    110.6028    100.0549   9.1246658444e+01   4.0565439662e+01     1.182487     0.622871  70.12  0.003285243    5.380    0.814
       256 -10.5226     23.1531    102.8594   1.1903573791e+02   5.2334740475e+01    0.7651752    0.3049686  67.37  0.002923504    3.525    0.716
       257  -9.8352     21.7790     92.2472   1.1815849113e+02   5.4985595864e+01    0.5041167     0.233679 -35.68  0.002111193    3.358    0.702
       258 -10.5484     46.0335    103.2216   1.1162660434e+02   4.9979391395e+01    0.7479514      0.37545  66.59    0.0031238    2.729    0.634
       259  -9.0646    150.3511    104.0225   8.2331798629e+01   3.1504534391e+01    0.3095385    0.2157577 -58.59 0.0008835941    1.752    0.429
       260  -8.4900    139.9000    104.9819   8.4997347353e+01   3.3565528259e+01    0.2325967    0.1818634 -89.12 0.0007577515    1.731    0.422
       261  -9.2087     94.0719    103.8616   9.6847315995e+01   4.2810439674e+01     0.486187     0.253886  25.20  0.001808445    3.005    0.667
       262  -8.3479    215.3908    103.2108   6.9792946912e+01   1.7666728945e+01    0.1956175    0.1156283 -37.90 0.0009422092    1.668    0.400
       263  -9.1458      6.8650    103.1199   1.2432476669e+02   5.3481502801e+01    0.1960483    0.1335029  72.12  0.000849469    1.312    0.238
       264 -10.1223    128.3641    101.8726   8.7028745539e+01   3.6600850196e+01     0.288743    0.2359663  85.56  0.001105308    1.506    0.336
       265 -10.2970    129.8341     97.6040   8.5543929411e+01   3.7142521139e+01     0.467539    0.3018532  17.09  0.001677703    2.525    0.604
       266  -8.9313     82.2446    100.2622   9.9549044628e+01   4.5631012017e+01    0.2836375    0.1903093  77.21 0.0009239475    2.017    0.504
       267  -9.1346    249.6102    103.7994   6.5044310178e+01   1.1000784597e+01    0.1878538   0.09952503 -34.04 0.0009532853    1.715    0.417
       268  -8.7481     95.0323     97.2991   9.4997656888e+01   4.4094547363e+01    0.2527604    0.1963113 -84.97 0.0006235266    1.524    0.344
       269 -10.1748     63.9130     96.3745   1.0450482520e+02   4.9326160850e+01    0.5076809    0.3017787  79.04  0.002146714    2.517    0.603
       270 -10.1244    122.9298     91.8620   8.5766338327e+01   3.9754711340e+01    0.6169895    0.3737471  36.26  0.001911857    1.824    0.452
       271  -8.5766    138.9833     92.4845   8.1906175455e+01   3.6155653534e+01    0.2926558    0.1802898 -73.77 0.0009814914    3.271    0.694
       272  -9.6973    109.3860     91.4516   8.9335724689e+01   4.2627710434e+01    0.6767752    0.3064377  32.10  0.002278404    3.245    0.692
       273  -9.1619     56.3440     92.7174   1.0626457187e+02   5.1218309055e+01    0.3296338    0.1752164  19.99  0.001399592    2.693    0.629
       274  -9.8707     45.2710     91.9257   1.0990652592e+02   5.2766934550e+01    0.5518985    0.2445845  21.95  0.002260682    3.053    0.672
       275  -9.7991     34.6318     89.5398   1.1321710544e+02   5.4479322137e+01    0.5204585    0.2421145 -85.59  0.002076845    2.646    0.622
       276  -9.8680     36.1309     81.6595   1.1125356472e+02   5.6227477337e+01    0.4928711    0.2742866 -25.70  0.002120004    2.996    0.666
       277  -9.4851    122.8841    106.7646   8.9653234927e+01   3.6732509795e+01    0.3065401     0.242074  65.23  0.001375922    1.407    0.289
       278  -9.3403     67.9953     86.0000   1.0079520888e+02   5.1163521407e+01    0.3900479    0.1758939  29.27  0.001520446    2.781    0.640
       279  -8.7324    139.2002     87.8347   8.0550791435e+01   3.6988404856e+01    0.2949989    0.1959515  23.13  0.001239345    2.054    0.513
       280  -9.4530     86.4623     86.7289   9.4914654601e+01   4.7979346053e+01    0.3888023    0.2588796  88.83  0.001172094    2.336    0.572
       281  -9.4262    126.5353     84.0161   8.2601244594e+01   4.0540194694e+01    0.5492536    0.3315054  10.55  0.001711523    4.186    0.761
       282  -9.4529     48.2092     84.3627   1.0736402938e+02   5.4232820241e+01    0.4515518    0.2311394  63.24  0.001808836    2.933    0.659
       283  -9.5872    105.2551     83.6838   8.8352614259e+01   4.5096309913e+01    0.4482066     0.300484  82.57  0.001471568    2.482    0.597
       284  -9.9879      8.6792     83.1941   1.2172037131e+02   5.8095219826e+01    0.3978979    0.3257669 -80.80 0.0009963516    1.018    0.017
       285  -8.5464    140.9706     83.4922   7.8876506997e+01   3.7399282942e+01    0.2069203    0.1362874  78.97 0.0007925056    2.412    0.585
       286  -9.3983     88.4835     79.9160   9.2396470281e+01   4.9130800624e+01    0.6580208    0.3081653  25.68  0.002028236    4.309    0.768
       287  -8.4379     74.8110     81.0046   9.7205554134e+01   5.1249668715e+01    0.2381944    0.1609417 -86.20  0.001056407    2.060    0.514
       288  -8.2458    119.3349     80.6445   8.3506545606e+01   4.2779487377e+01    0.1581481    0.1196031 -82.40  9.17984e-05    1.797    0.444
       289  -9.4250     24.5004     81.0082   1.1550784991e+02   5.7468682060e+01    0.3646528    0.1935608  73.75  0.001375176    2.346    0.574
       290  -9.8855    184.0867     77.8767   6.8390168052e+01   2.8241760206e+01    0.2653989    0.2088422 -26.59 0.0008034713    1.230    0.187
       291  -8.8790     61.8045     77.3795   1.0080415589e+02   5.4085122329e+01    0.3398661    0.1840337 -74.11   0.00138121    2.450    0.592
       292  -9.4979     49.8011     77.1321   1.0516344782e+02   5.5760499000e+01    0.3839621    0.2483878   6.63  0.001615547    2.337    0.572
       293  -9.3017    105.7168     76.6233   8.6126258470e+01   4.6479467995e+01    0.3998764    0.2279543  24.70  0.001454544    2.905    0.656
       294  -8.7198    127.8691     75.7198   7.9761917182e+01   4.1847719475e+01    0.2918284    0.1933224 -65.15  0.001007775    2.066    0.516
       295  -8.5507    166.6931     75.3342   7.0897053976e+01   3.2770442023e+01    0.1544579    0.1160591 -65.68 0.0007040707    1.670    0.401
       296  -8.4835    120.9571     75.7539   8.1581598296e+01   4.3391057580e+01    0.1981069    0.1280425  47.67 0.0005080069    1.562    0.360
       297  -7.9633     13.5061     74.5073   1.1874292746e+02   5.9870285156e+01     0.179549    0.1077788  38.99  0.000644675    1.817    0.450
       298  -8.8901     10.0691     74.3647   1.2007822060e+02   6.0127154132e+01    0.1974361    0.1769512 -85.14 0.0006743308    1.093    0.085
       299  -9.0002    179.2036     74.2271   6.8219073936e+01   2.9954737011e+01    0.2332432    0.1267663  69.97 0.0008880418    2.513    0.602
       300  -9.3338     82.4799     72.9126   9.2313398780e+01   5.1757693849e+01    0.3655482    0.2544801  86.74  0.001463895    2.193    0.544
       301  -9.9286     28.5221     70.4488   1.1200904580e+02   5.9661935731e+01    0.8077782    0.3697065 -26.33  0.002801135    4.720    0.788
       302  -9.6918      4.8008     91.3230   1.2395422797e+02   5.6391526776e+01    0.3963991    0.1645289  75.13  0.001760974    2.639    0.621
       303  -8.8771    105.9539     71.9416   8.4598021767e+01   4.7391858720e+01    0.2380591    0.1841348 -85.60 0.0006164762    1.715    0.417
       304  -9.0212     95.2149     71.2970   8.7665636053e+01   4.9711391576e+01    0.3930934    0.2156159 -61.51  0.001262554    2.418    0.586
       305  -9.6119     51.2828     69.7374   1.0275525679e+02   5.7316479675e+01    0.4632485     0.234433 -75.42  0.001817989    2.751    0.637
       306  -8.9174      5.2982     70.4687   1.2146300885e+02   6.1340093192e+01     0.305487   0.09361117 -76.51  0.001238505    2.709    0.631
       307  -9.0001    129.1654     69.5861   7.7494578841e+01   4.2702486984e+01    0.3053116    0.1811917  37.60  0.001123887    1.904    0.475
       308  -8.8669     16.4520     70.3345   1.1690853126e+02   6.0670234898e+01    0.2025071    0.1332088  57.45 0.0006739773    1.670    0.401
       309  -8.4459      1.4067     69.2486   1.2288686961e+02   6.1832533686e+01    0.2407791    0.0897285 -71.78  0.001086774    2.062    0.515
       310  -8.4588    146.7811     68.7507   7.3050522534e+01   3.8671052427e+01    0.2111805    0.1786425 -66.12  0.000689186    1.337    0.252
       311 -10.3662    118.3546     66.2121   7.9219030197e+01   4.5815061500e+01     0.376102    0.2594797  46.66            0    1.470    0.320
       312  -8.7075    106.3369     67.1498   8.2931548528e+01   4.8277151200e+01    0.2112711    0.1874032  30.69 0.0006060038    1.193    0.162
       313  -9.1787     44.1006     67.1587   1.0493216357e+02   5.8815632913e+01    0.2236831    0.1679509  13.63  0.001229177    1.649    0.393
       314  -9.2324     83.7326     64.6407   8.9284723807e+01   5.3322919556e+01    0.4266312    0.2758614   3.98   0.00162028    3.075    0.675
       315  -8.7068     37.5167     64.4784   1.0695855268e+02   6.0194248905e+01    0.2318276    0.1656547  77.87 0.0007384286    1.684    0.406
       316  -8.5205    110.1968     64.1711   8.0811050181e+01   4.8027101395e+01    0.2104264    0.1793144 -73.92 0.0006252981    1.352    0.260
       317  -9.3892     17.9669     62.4910   1.1486585558e+02   6.2443652340e+01     0.353112    0.1393898 -47.32 0.0009936069    2.451    0.592
       318  -8.2637    170.3636     60.7922   6.5796345154e+01   3.4154508688e+01    0.2094068    0.1412575 -17.99 0.0003803908    1.613    0.380
       319  -9.5160     73.2849     60.0327   9.1453544644e+01   5.6184806788e+01    0.4107892    0.2354768 -59.12   0.00137364    1.908    0.476
       320  -8.5256     51.4091     61.3878   1.0037988522e+02   5.9238640188e+01    0.2410453     0.131789  13.26 0.0009548925    3.122    0.680
       321  -9.2224    100.0382     60.0261   8.2405700175e+01   5.1029315020e+01    0.2425997    0.1859536 -79.18  0.001133196    1.748    0.428
       322 -10.5106      7.2008     57.7528   1.1877611803e+02   6.4275252055e+01    0.4279954    0.3573055 -71.58  0.001978087    1.021    0.021
       323  -9.3865      1.9758     55.4823   1.2078548519e+02   6.5084461586e+01    0.4418912   0.09482599 -60.12  0.001736149    2.990    0.666
       324  -8.5438     24.8059     59.2276   1.1117640731e+02   6.2674886741e+01    0.2162384     0.116496  67.10 0.0009442951    2.742    0.635
       325  -9.4470     39.2538     57.8257   1.0446895202e+02   6.1565468125e+01    0.2461877    0.1984472 -38.02  0.001447203    1.259    0.206
       326  -9.6312    108.3954     55.6343   7.8340170137e+01   5.0051830171e+01    0.4011299    0.2682062  63.47  0.001787968    1.770    0.435
       327  -9.0258     54.3161     54.4711   9.7024202555e+01   6.0403957985e+01    0.3295422    0.1993145 -80.55  0.001343426    2.789    0.641
       328  -9.2307     44.1306     55.6128   1.0171280971e+02   6.1500768628e+01    0.2834454     0.199606  89.98  0.001103772    1.857    0.462
       329  -9.7587    100.5008     54.3263   8.0216783049e+01   5.2036322696e+01    0.2705543    0.2552921   1.97 0.0001987358    1.096    0.088
       330  -8.9082     62.8195     54.9597   9.3729849343e+01   5.9016910104e+01    0.2582653    0.1898989 -70.85 0.0008557075    1.588    0.370
       331  -9.0817     26.1288     54.6073   1.0947578835e+02   6.3651816953e+01    0.2619585    0.2033414 -22.00  0.001564305    1.499    0.333
       332  -8.5227    119.6808     56.5165   7.5529231932e+01   4.7301500648e+01    0.2653541    0.1759664 -55.96   0.00103905    1.770    0.435
       333  -8.5022     20.6816     53.3364   1.1168773596e+02   6.4413551789e+01    0.1952846    0.1345319  69.96 0.0006905933    1.746    0.427
       334  -8.8609     92.6180     51.1896   8.1542439850e+01   5.4309541004e+01    0.3173151    0.1689729 -50.79  0.001078764    2.038    0.509
       335  -9.0098     30.8846     51.7328   1.0652081943e+02   6.3874430943e+01     0.240881     0.157312  86.02 0.0008078051    2.030    0.508
       336  -8.2243    116.5068     51.5112   7.4566283833e+01   4.8934512785e+01    0.1495942    0.1468132 -34.14 -3.289017e-05    1.019    0.019
       337  -9.2792     76.1837     49.6977   8.6690315705e+01   5.7837018916e+01    0.3696195    0.2175528  14.61  0.001324777    3.439    0.709
       338  -8.7979     46.2020     49.0112   9.8695219058e+01   6.2732073663e+01    0.2261426    0.1940468  21.67 0.0008915858    1.309    0.236
       339  -9.3024     22.3174     46.8705   1.0927189034e+02   6.5794677023e+01    0.3677807    0.2161782  14.79  0.001940464    2.108    0.526
       340  -9.2997     16.7232     44.9443   1.1154922724e+02   6.6687328373e+01    0.6194322    0.2045163 -68.33  0.002485927    2.699    0.630
       341  -8.7826     81.8235     47.1662   8.3668624343e+01   5.7270068114e+01    0.2160848    0.1915464 -60.62 0.0005529589    1.208    0.172
       342  -9.0096     64.3623     46.7233   9.0129939755e+01   6.0524999270e+01    0.3283908    0.2054352  21.68  0.001487769    2.147    0.534
       343  -8.8789    130.4698     45.9696   6.9001630737e+01   4.6474973249e+01     0.235867    0.1982678  53.29 0.0003329616    1.195    0.163
       344  -8.3581     54.3476     46.3410   9.4174790411e+01   6.2181733716e+01    0.1454298    0.1015209 -20.82 0.0007045727    1.792    0.442
       345  -8.7918     44.8933     44.8135   9.7831686353e+01   6.3832574967e+01    0.2504129    0.1711648 -82.00 0.0008492626    2.070    0.517
       346  -9.0426    149.8265     43.8573   6.4084496685e+01   4.1878370280e+01    0.2137933    0.1736629 -57.35 0.0003568651    1.328    0.247
       347  -9.0505     57.9896     42.8462   9.1279182398e+01   6.2365144288e+01    0.2598218    0.1798407 -74.35  0.001224287    2.072    0.517
       348 -10.0543      4.9590     41.4073   1.1677090383e+02   6.8255051579e+01    0.4640422    0.1915028 -85.56   0.00194634    2.913    0.657
       349  -8.9855    113.8283     41.6705   7.1528950564e+01   5.1241776445e+01    0.2360962    0.1794011  36.32 0.0004675806    1.391    0.281
       350  -8.5018     69.2749     41.6581   8.6159108290e+01   6.0705449145e+01    0.2106389    0.1663007 -88.54  0.001057627    1.805    0.446
       351  -8.6004     37.0402     41.1039   1.0022889176e+02   6.5623847669e+01     0.199929    0.1559055  80.01 0.0007461793    1.697    0.411
       352  -8.2395    123.7907     40.3667   6.8478332912e+01   4.9018208168e+01    0.2187066    0.1322634  46.07 0.0005583909    1.676    0.403
       353  -8.9442     84.0540     39.8364   7.9903988966e+01   5.8212780648e+01    0.2553744    0.1958309  20.47 0.0006293368    1.521    0.343
       354  -9.3979    106.2327     36.8279   7.1655019394e+01   5.3833348171e+01    0.2811604    0.2432316  53.70  0.000699249    1.184    0.155
       355  -8.5927     26.0431     36.7869   1.0430675778e+02   6.7759624166e+01    0.2280088    0.1549536 -76.64 0.0008349217    1.664    0.399
       356  -8.6255     57.3123     36.9600   8.9173982953e+01   6.3677603496e+01    0.2866162    0.1450995  50.32  0.001211541    2.522    0.603
       357  -8.6432     38.0196     35.4878   9.7650134124e+01   6.6729000688e+01    0.1781738    0.1106918  -6.52 0.0008098139    2.487    0.598
       358  -8.8396    119.2096     33.8866   6.7027724365e+01   5.1142185186e+01    0.2325349    0.1983747 -53.98 0.0006067869    1.258    0.205
       359  -9.3433     95.9899     33.9717   7.3463864433e+01   5.6660373187e+01    0.2736615    0.1425497  32.37   0.00102086    2.609    0.617
       360  -8.3900     21.2932     34.6315   1.0612926478e+02   6.8679373637e+01    0.1251392   0.09359519  81.32 0.0005347928    1.720    0.418
       361  -9.0923      6.6524     34.0695   1.1411766667e+02   6.9861526385e+01    0.2071343    0.1748454 -20.78 0.0008397666    1.315    0.239
       362  -9.9419    222.4501     32.6880   5.0341722093e+01   2.5054084768e+01    0.2726967    0.2213476 -50.37 0.0006061511    1.182    0.154
       363  -8.2246     60.4934     33.0128   8.6072389990e+01   6.3926286627e+01    0.1829771    0.1181362 -65.55 0.0005124256    2.294    0.564
       364  -8.7713     12.9046     31.6072   1.0985443693e+02   7.0023954054e+01    0.2431108     0.147528 -82.43 0.0007119576    1.902    0.474
       365  -8.2482     72.3106     31.6936   8.0642529095e+01   6.2023522634e+01    0.1366394    0.1122817 -74.65 0.0004079365    1.616    0.381
       366  -8.0491    112.6484     30.6910   6.7352737987e+01   5.3236711078e+01    0.1591262    0.1108217  24.42 0.0007043853    1.717    0.417
       367  -9.1216    147.3695     28.7749   5.9095559518e+01   4.4574045491e+01    0.2102906    0.1429849  -9.66 0.0002724292    1.671    0.402
       368  -8.7403     81.2179     27.7801   7.5529127988e+01   6.0900775278e+01    0.2276536    0.1522861 -72.38 0.0006849931    2.671    0.626
       369  -8.6523      2.2572     27.9005   1.1506399232e+02   7.1500774831e+01    0.2260741    0.1600906  17.63  0.000842054    1.698    0.411
       370  -8.9983     43.9912     25.6222   9.0358757520e+01   6.7956948887e+01     0.208571    0.1636764 -29.01 0.0004231208    1.192    0.161
       371  -8.3855     76.7167     25.6413   7.6125107410e+01   6.2187419633e+01    0.1463847    0.1068488   2.41 0.0007018402    1.673    0.402
       372  -8.5541     67.4196     23.5118   7.8654151210e+01   6.4387673458e+01    0.1393878    0.1255258 -14.81 4.175608e-05    1.030    0.029
       373  -9.1110     58.8639     22.2501   8.1628568835e+01   6.6184180313e+01    0.2153692    0.1750817 -42.54 0.0002609252    1.222    0.182
       374  -9.4801     13.0959     21.3316   1.0618022837e+02   7.2281621657e+01    0.2474291    0.2066612 -17.36 0.0007697492    1.259    0.206
       375  -9.1500    107.6431    249.0413   1.1370835798e+02   1.4392599132e+01    0.1925614    0.1170917  35.18 0.0006902416    1.303    0.233
       376  -8.8296    110.2504     24.5030   6.5299558943e+01   5.4707906104e+01    0.2505852      0.19667 -24.82   0.00047676    1.268    0.211
       377  -8.3447     40.8589     21.1715   8.9803868379e+01   6.9263630497e+01    0.1812065    0.1395784 -18.81 0.0004454171    1.320    0.242
       378  -7.9565     73.3708     19.6886   7.4392937206e+01   6.3824748584e+01     0.139691    0.1108727 -72.20 0.0007034664    1.774    0.436
       379  -9.5253     29.1227     18.1973   9.4887285475e+01   7.1369172841e+01    0.2725346    0.2060904  41.85  0.001282377    1.603    0.376
       380  -8.4557      1.4809     19.5314   1.1311837401e+02   7.3414361099e+01    0.1213739   0.09594975 -54.28 6.985832e-05    1.012    0.012
       381  -8.5969     84.8383     21.3733   7.1206995901e+01   6.1124922588e+01    0.2394672    0.1825609 -40.32 0.0005804225    1.336    0.251
       382  -8.2631     50.4773     15.4967   8.1904100834e+01   6.8793796733e+01    0.1364179    0.1161209 -12.21 0.0003934897    1.099    0.090
       383  -9.2868     41.1067     13.9829   8.5841969569e+01   7.0549113334e+01    0.2195511    0.1776675  14.27 0.0003701551    1.297    0.229
       384  -9.2819     88.5278    249.0286   1.1700193225e+02   1.6732186814e+01    0.1936393    0.1173226  30.43  0.001367751    1.576    0.365
       385  -8.1321     61.6360    249.6993   1.2165564336e+02   1.9732409265e+01   0.08726393   0.07104316  17.57 0.0007034948    1.727    0.421
       386  -7.5655     25.3231     11.3119   9.3618854076e+01   7.3151171601e+01    0.1308303   0.08504555 -21.85 0.0002673402    1.655    0.396
       387  -8.7549     17.8866    249.5740   1.2896580543e+02   2.4183732413e+01    0.2311102   0.05369352  36.78  0.001284909    2.677    0.627
