#   1 NUMBER                 Running object number                                     
#   2 MAG_AUTO               Kron-like elliptical aperture magnitude                    [mag]
#   3 X_IMAGE                Object position along x                                    [pixel]
#   4 Y_IMAGE                Object position along y                                    [pixel]
#   5 X_WORLD                Barycenter position along world x axis                     [deg]
#   6 Y_WORLD                Barycenter position along world y axis                     [deg]
#   7 A_WORLD                Profile RMS along major axis (world units)                 [deg]
#   8 B_WORLD                Profile RMS along minor axis (world units)                 [deg]
#   9 THETA_WORLD            Position angle (CCW/world-x)                               [deg]
#  10 FWHM_WORLD             FWHM assuming a gaussian core                              [deg]
#  11 ELONGATION             A_IMAGE/B_IMAGE                                           
#  12 ELLIPTICITY            1 - B_IMAGE/A_IMAGE                                       
         1 -14.8145    229.4335    101.9219   5.1033703309e+01   1.4868668887e+01     7.061478      2.46274 -45.76   0.01667878    2.574    0.611
         2 -14.4492    218.8509     71.6545   4.5798400895e+01   2.2004556840e+01     4.271232     2.359095  82.35   0.01895071    2.475    0.596
         3 -14.8053    237.0993     50.3189   3.9038120799e+01   2.1373399952e+01     6.525457    0.7142707  56.86   0.01801996    7.554    0.868
         4 -12.9560    250.0575     37.1376   3.5182500249e+01   2.0581134145e+01     1.900542    0.3326589 -37.75  0.006698617    4.334    0.769
         5  99.0000    228.9945     30.2823   3.5638786418e+01   2.5695372995e+01     2.682631     1.570281  83.16   0.01518542    1.664    0.399
         6 -12.2322    122.9620     36.1087   5.2685571793e+01   4.9480588824e+01    0.7504867    0.5135745 -43.37 0.0005928308    1.615    0.381
         7 -14.7581    180.2498     78.1267   5.3327855616e+01   2.9548405880e+01     7.592566     3.166414 -51.64   0.02736291    2.778    0.640
         8 -10.9890    134.9588     15.2405   4.3595321304e+01   4.9038841571e+01    0.3918913    0.2138841 -25.02  0.001210812    2.142    0.533
         9 -10.0091    189.1994     17.6171   3.6768919639e+01   3.5975337847e+01    0.3537211    0.2173918 -17.69  0.001225372    2.315    0.568
        10  -9.5319    144.0683     17.9118   4.2881788660e+01   4.6605385074e+01    0.2001578    0.1861046 -51.53 0.0004605009    1.191    0.160
        11  -9.3331    250.6152     14.4000   3.0790824106e+01   2.3256255654e+01    0.2098355   0.09884543 -35.17 0.0004832409    2.136    0.532
        12  -9.0960    196.9090     12.3567   3.4727032386e+01   3.4787347456e+01    0.3481582     0.170338 -79.06  0.001617678    2.348    0.574
        13  -9.0500    208.0583     11.9650   3.3597542314e+01   3.2342183211e+01    0.1784554    0.1504949 -81.52 0.0006144868    1.068    0.064
        14  -9.1021    235.4736      4.0290   2.9831923410e+01   2.7400392169e+01    0.2546026    0.1997776  68.03  0.001810168    1.465    0.317
        15  -9.4488    182.4012      3.0252   3.3947177638e+01   3.9038979176e+01    0.5311591    0.2031766 -80.97  0.001780272    4.643    0.785
        16  -9.9123    118.7652      3.7221   4.2749532701e+01   5.3868701146e+01    0.2473388     0.164784  36.25 0.0008825331    1.565    0.361
        17  -8.2860    217.5691      1.6730   3.0620668010e+01   3.1363604144e+01    0.1326191    0.1133697 -20.79  0.000686171    1.625    0.385
        18  -8.6697    237.3446    197.6876   6.9181824717e+01  -2.8854856079e+00    0.1759683    0.1550284 -65.32  0.001109784    1.743    0.426
        19  -8.7571    196.6525    249.9293   8.5590343539e+01  -5.1891601520e+00    0.1610473    0.1355699  -1.78 0.0004780616    1.114    0.102
        20  -8.7551    175.2010    196.9167   8.1141744000e+01   7.0827053652e+00    0.1910489    0.1820283  31.77  0.000331145    1.133    0.117
        21  -9.1506     36.9727    195.2919   1.1364986288e+02   2.8817802924e+01    0.2101807    0.1644266 -71.35 0.0002987147    1.244    0.196
        22  -9.7459    235.7018    179.6325   6.6074459599e+01   2.9043184981e-01    0.2203524    0.2201943   1.49 0.0005519589    1.337    0.252
        23  -7.6695    209.3000    180.6149   7.1071683425e+01   4.3352682281e+00    0.1320468    0.1094161 -74.43 0.0007018457    1.781    0.439
        24  -8.2660     39.0159    179.7299   1.1160079975e+02   3.2304640020e+01    0.1690239    0.1536896  74.39 0.0002552678    1.087    0.080
        25 -11.4645      2.4181    171.8984   1.1989683877e+02   3.7569183849e+01    0.6851392    0.2710911 -76.49  0.002949663    2.078    0.519
        26  -9.1387    249.6164    248.2114   7.5716987371e+01  -1.1613810254e+01    0.1619235    0.0848499 -23.54 0.0009628662    1.738    0.425
        27  -9.8691    174.3401    145.6644   7.0924238096e+01   1.7669123073e+01    0.2818951    0.2058665 -54.83  0.001051066    1.453    0.312
        28  -9.7640    133.9210    145.6228   8.0518520400e+01   2.5843525682e+01     1.136806    0.3038184 -55.39  0.002635668    5.758    0.826
        29  -9.0407    143.6624    145.1774   7.7963375643e+01   2.3999601088e+01    0.3205588    0.1424484 -55.33  0.001093762    2.614    0.617
        30  -9.9548    192.3623    143.7933   6.6740536031e+01   1.4450305225e+01    0.3069842    0.2540826 -21.72 0.0006637424    1.256    0.204
        31  -9.0743    158.5480    143.1939   7.3934016314e+01   2.1412345077e+01    0.2948642     0.219165  45.49  0.001396198    1.371    0.271
        32 -12.7829    247.9606     57.8220   3.9482152710e+01   1.8169452250e+01     1.292977     0.290539 -41.07 0.0004050606    3.354    0.702
        33  -8.0819    125.2103    141.6076   8.1899426291e+01   2.8493856504e+01    0.1953613    0.1490482  28.35 0.0001355291    1.426    0.299
        34 -10.4215    156.5242    137.0569   7.3003035460e+01   2.3168710404e+01    0.5348234     0.346487  47.91  0.002360362    1.590    0.371
        35  -9.7226    193.1847    136.1949   6.4885584004e+01   1.5790735938e+01    0.2045647    0.1746657 -73.11 0.0006513987    1.364    0.267
        36  -8.9023    195.7728    232.6544   8.3061081368e+01  -2.4431247267e+00    0.2297181    0.1865021  86.67  0.000886237    2.384    0.580
        37 -10.8746    202.3086    132.2789   6.2258690028e+01   1.4729083012e+01    0.3740216    0.3388979  70.06  0.002116406    1.246    0.197
        38 -10.3091    198.0429    127.5588   6.1996040132e+01   1.6494920961e+01    0.4260018    0.2574423 -67.01  0.001678617    2.624    0.619
        39 -13.5383    233.4867     65.5973   4.2653916906e+01   1.9896117168e+01     1.316187    0.8509515  89.99  0.007122551    1.764    0.433
        40 -12.3445    178.5347     90.0286   5.6681118537e+01   2.7839882402e+01     1.634575    0.7962441  39.81  0.006142848    2.676    0.626
        41 -10.2444    215.7995    226.3989   7.8173487812e+01  -4.3269606284e+00    0.2131691    0.1808967  -7.56 0.0002904559    1.093    0.085
        42 -12.3421     18.2543    160.5029   1.1494223883e+02   3.9047070041e+01     1.537089    0.9019113 -78.69  0.008210218    1.476    0.323
        43  -9.4391    136.1002    128.2688   7.5953113663e+01   2.9381364353e+01    0.5589096   0.09286065 -47.93  0.001209519    6.101    0.836
        44 -10.4722    161.1981    128.2254   6.9838624458e+01   2.4089383015e+01    0.4336045    0.2892842 -52.91  0.001928738    1.551    0.355
        45  -8.0416     92.5190    129.4171   8.8388494469e+01   3.7475404817e+01    0.1487287     0.145954 -68.16 0.0001050253    1.014    0.014
        46  -9.7888    208.8599    126.6561   5.9811640542e+01   1.4495919938e+01    0.2707788    0.2174529   4.45  0.001412113    1.581    0.368
        47  -9.4132    172.5534    124.3288   6.6385130977e+01   2.2477582717e+01    0.2857316    0.2196562 -64.35   0.00136293    1.476    0.322
        48 -10.5720    214.4629    121.3398   5.7656929807e+01   1.4374482223e+01     0.343141    0.2409406 -61.38  0.001440274    1.618    0.382
        49  -8.5699    135.1495    120.4122   7.4275334590e+01   3.1344772585e+01    0.2711926    0.1757027 -51.01 0.0008071833    1.561    0.359
        50 -11.9586    204.7269    111.0583   5.7003911133e+01   1.8237279431e+01    0.7615743    0.5862337  -6.44  0.003689169    1.769    0.435
        51 -12.1324    199.9703     80.1472   5.0512394736e+01   2.4730951247e+01     1.138442    0.4787855  43.03  0.004103249    3.343    0.701
        52 -10.2939    167.7637    114.2293   6.4967062561e+01   2.5584619113e+01    0.4859777    0.2889123 -43.41  0.002088863    1.637    0.389
        53  -9.1974    135.0000    110.5046   7.1793258374e+01   3.3554125868e+01    0.4668581    0.1888198 -44.37  0.001609926    2.462    0.594
        54  -9.5593    134.3316    105.8768   7.0752179838e+01   3.4692767616e+01    0.7136706    0.5340739 -83.60  0.003156125    1.845    0.458
        55  -9.0690     27.7692    111.6496   1.0566264186e+02   5.0342796713e+01     0.251559    0.1869646 -82.58 0.0007590037    1.379    0.275
        56 -10.5329    125.6426    104.1733   7.2592938743e+01   3.6925977067e+01    0.6945414    0.4249274 -72.88   0.00246247    2.942    0.660
        57  -8.1306     73.6876    110.9957   9.0052510695e+01   4.5012488329e+01    0.1936683    0.1748216 -50.31 0.0002582819    1.050    0.048
        58  -9.6885      4.5203    105.8466   1.1261813770e+02   5.3394063995e+01    0.3341658     0.144519  46.38  0.001499511    2.958    0.662
        59  -9.5985    150.0389    102.7487   6.6048161272e+01   3.1871200716e+01    0.3210144     0.261096  28.13  0.000722252    1.397    0.284
        60  -9.0956      4.3207    100.2995   1.1189659536e+02   5.4723482952e+01    0.1320336   0.07486446 -43.31 0.0003535921    1.623    0.384
        61 -10.6891    161.4725     97.7538   6.2149440079e+01   3.0280060602e+01    0.6154524    0.3565567  42.23  0.002589501    1.860    0.462
        62  -9.3277    135.7131     98.6647   6.8463057026e+01   3.5902447190e+01    0.2819442    0.2551951 -88.76  0.001120822    1.207    0.171
        63 -11.2914     67.7529    144.1153   9.8722422824e+01   3.7654764452e+01     1.500311    0.8193576  40.40  0.004565821    1.873    0.466
        64 -10.2566    144.1536     93.0683   6.4851465538e+01   3.5141281414e+01    0.3316346    0.3047942 -74.57 0.0007881538    1.136    0.120
        65 -10.2359     91.6123     92.5633   7.9419238996e+01   4.6236974366e+01    0.2627895    0.2529851 -27.27 0.0002862822    1.018    0.018
        66  -9.1988    183.8102    226.4883   8.4451663397e+01   3.4625600311e-01     0.208511    0.1717104 -28.55 0.0003146789    1.255    0.203
        67  -9.4567      2.3897     93.1923   1.1151245521e+02   5.6493381126e+01    0.1778584    0.1038944 -79.90 0.0009526515    1.675    0.403
        68 -11.4878    160.0538     88.6099   6.0041149448e+01   3.2352421864e+01    0.3622321    0.2945155 -26.00 0.0006517088    1.376    0.273
        69  -8.8512      7.3037     89.6782   1.0914415309e+02   5.7047603287e+01    0.1197347   0.08994747  72.03 0.0003938944    1.634    0.388
        70  -9.3340      5.3323     81.9891   1.0853750086e+02   5.8919896137e+01    0.1994101   0.09170289  86.90 0.0007050726    4.439    0.775
        71  -8.8654    173.0010    174.7586   7.7377111248e+01   1.1882671970e+01    0.2117652    0.1952366  66.57 0.0006408975    1.261    0.207
        72 -10.2289    128.1553     76.4842   6.4095008243e+01   4.1935324554e+01    0.3824373    0.1951961  35.69  0.001438935    2.422    0.587
        73  -8.3235     75.3289    223.3021   1.0769759609e+02   1.7685350734e+01    0.1205517    0.1024382 -17.67 0.0003175228    1.647    0.393
        74  -9.7649    124.9972     57.4419   5.9069905332e+01   4.5932792170e+01    0.2722732    0.2081209 -35.92 0.0004321589    1.379    0.275
        75 -11.6682      3.2768     50.9362   1.0267989698e+02   6.5715321820e+01    0.5571089    0.2650947 -48.77  0.002123256    1.601    0.375
        76 -12.8439     33.5786    155.9038   1.1030554627e+02   3.8760794340e+01    0.7974392    0.6681792 -55.97  0.002067561    1.213    0.176
        77  -9.2996    119.4919     48.9922   5.7731517969e+01   4.8489791123e+01    0.3159474    0.1260586 -41.15  0.001211119    2.674    0.626
        78  -9.8284    204.4571     40.3878   4.0432500216e+01   2.9716552025e+01    0.3295885    0.1945295 -58.31  0.001246628    1.650    0.394
        79 -10.2602    190.6858     38.7164   4.1743600284e+01   3.3081924955e+01    0.4356953    0.2550248 -44.60  0.001718109    1.647    0.393
        80  -9.1005    185.0649    222.0639   8.3466826579e+01   9.0362312266e-01    0.1938433    0.1674841   7.63 0.0002912152    1.021    0.021
        81  -8.6685    185.9987    217.2980   8.2473877904e+01   1.5788260343e+00    0.1808811    0.1520887  18.73 0.0003078092    1.067    0.063
        82 -10.4800      1.9871     22.1892   9.4354355553e+01   7.1157534183e+01    0.3941258    0.1457615 -54.78  0.001943114    2.670    0.625
        83 -10.4206    174.5734    149.2785   7.1674087280e+01   1.6867127909e+01    0.3071617    0.2458571   6.32  0.001180833    1.501    0.334
        84  -9.8871    179.5502     24.0707   3.9503420543e+01   3.7491961867e+01    0.4522082    0.3046823  86.13  0.002507736    1.407    0.290
        85 -10.4365     38.3621    212.5748   1.1485873710e+02   2.4712169384e+01    0.3356265    0.2482371 -18.98  0.001873771    2.261    0.558
        86 -13.0268     44.4155    151.3547   1.0666651172e+02   3.8752622070e+01     1.135719    0.9812887 -24.54  0.003458117    1.389    0.280
        87 -10.9659    190.4584    152.9986   6.9131778590e+01   1.2989987589e+01    0.6613521    0.4008856 -58.76  0.002130326    2.117    0.528
        88  -9.9288    116.9829     20.5155   4.8790974418e+01   5.2693714902e+01    0.1898055    0.1785192 -14.20 0.0006019726    1.196    0.164
        89  -8.3326    236.5051     18.6761   3.2637533408e+01   2.5553684160e+01    0.2021331    0.1138337 -28.21  0.001108033    2.212    0.548
        90  -9.9542    152.6949    211.3978   8.8585117143e+01   8.0785977155e+00    0.2312043    0.2269374  28.42  0.000301282    1.107    0.097
        91  -8.5256    226.3108     17.8009   3.3276270905e+01   2.7760404894e+01    0.1509771    0.1060644 -29.98 0.0009242082    1.709    0.415
        92  -9.6179    247.9722    210.0092   6.9579617129e+01  -6.2048593576e+00    0.3544587    0.2210979  51.81  0.001623137    2.837    0.647
        93  -8.2870    167.0299     16.3367   3.9093082972e+01   4.1301981336e+01    0.1727138    0.1404693  79.17 0.0004980292    1.062    0.059
        94  -7.9450    104.6532    207.2063   9.8975230470e+01   1.6840036969e+01    0.1696678     0.126219 -49.76 0.0001116145    1.477    0.323
        95  -8.7843    240.7564     12.8262   3.1173234318e+01   2.5371321955e+01    0.1642008    0.1292962  85.90 0.0002992228    1.229    0.186
        96  -8.0344    221.8737    205.7998   7.3439483718e+01  -1.9540637087e+00     0.154384    0.1485674 -16.11 0.0004292326    1.322    0.244
        97  -7.7122    215.9814    205.0025   7.4395400662e+01  -9.5013338281e-01    0.1470876    0.1252065  -5.25 0.0009179066    1.001    0.001
        98  -9.2232    120.8196     17.4028   4.6939442976e+01   5.2133010873e+01    0.1996293   0.09927234  51.53 0.0008237745    1.728    0.421
        99  -9.1471    247.3395    202.6681   6.8376799509e+01  -5.0278277466e+00    0.2228401    0.1401176  28.26  0.000927275    1.641    0.391
       100  -9.3611    194.6215    198.4065   7.7363558589e+01   3.5459818870e+00    0.4364779    0.2613262 -69.44  0.001492752    4.791    0.791
       101  -9.6562    190.5311    191.0239   7.6818079292e+01   5.5849680687e+00    0.5932346    0.3596991 -68.96  0.002195189    3.812    0.738
