#   1 NUMBER                 Running object number                                     
#   2 MAG_AUTO               Kron-like elliptical aperture magnitude                    [mag]
#   3 X_IMAGE                Object position along x                                    [pixel]
#   4 Y_IMAGE                Object position along y                                    [pixel]
#   5 X_WORLD                Barycenter position along world x axis                     [deg]
#   6 Y_WORLD                Barycenter position along world y axis                     [deg]
#   7 A_WORLD                Profile RMS along major axis (world units)                 [deg]
#   8 B_WORLD                Profile RMS along minor axis (world units)                 [deg]
#   9 THETA_WORLD            Position angle (CCW/world-x)                               [deg]
#  10 FWHM_WORLD             FWHM assuming a gaussian core                              [deg]
#  11 ELONGATION             A_IMAGE/B_IMAGE                                           
#  12 ELLIPTICITY            1 - B_IMAGE/A_IMAGE                                       
         1 -19.1889    230.4397     69.6166   2.8960446679e+02   5.5746685527e+00    0.6918701    0.4213457 -71.56   0.06687492    1.868    0.465
         2 -12.8382    181.2138     70.1462   2.9018817105e+02   5.8709128505e+00    0.1542013   0.08074636 -27.11   0.01204753    3.043    0.671
         3 -11.1592    192.9645     17.7056   2.8972880183e+02   6.3991974988e+00   0.01179901  0.009287715 -74.72 0.0004307344    1.383    0.277
         4 -12.0633    159.2561     12.4683   2.9009471853e+02   6.6660996716e+00   0.02249437    0.0135927 -71.32  0.002091413    1.881    0.468
         5 -12.0783    159.2781      6.5045   2.9005796552e+02   6.7342163915e+00   0.02031016   0.01000101 -64.22  0.001275801    2.144    0.533
         6 -10.1994    195.8294      9.9763   2.8964767667e+02   6.4700327326e+00   0.01172577  0.007953257 -63.89 0.0004088826    1.527    0.345
         7 -10.3987    196.3541      6.4777   2.8962006272e+02   6.5068324589e+00  0.006586317  0.006213243 -36.31 0.0001959407    1.077    0.072
         8 -11.2180    172.3604    149.9260   2.9077941814e+02   5.0107352188e+00   0.01242247  0.008802298  38.50 0.0009806398    1.380    0.276
         9 -13.4342    239.0873    235.4275   2.9051417397e+02   3.6216460331e+00     0.100006   0.05282362 -12.88  0.006973747    3.968    0.748
        10 -13.5668    216.5794    246.7581   2.9084793463e+02   3.6295993974e+00   0.04578473     0.036769 -22.91  0.003768048    1.380    0.275
        11 -12.1723    221.8071    236.1375   2.9072182276e+02   3.7193437937e+00   0.03077538   0.01876125 -16.97  0.002721456    2.391    0.582
        12 -10.8508    133.7524    145.8509   2.9121000264e+02   5.2938075444e+00   0.03166295   0.01063973 -71.10  0.001845672    5.146    0.806
        13 -13.7920     46.1844    173.3245   2.9241065435e+02   5.5130908467e+00   0.04200445   0.03203728  64.90  0.004556771    1.519    0.342
        14 -10.5786    162.1000    139.8846   2.9083922878e+02   5.1887282477e+00   0.01028523  0.008567085  58.26 0.0004292549    1.289    0.224
        15  -9.4133    101.6364    136.1414   2.9152997837e+02   5.6015219436e+00   0.00920794   0.00589995 -50.03 0.0003577843    1.570    0.363
        16 -11.2195    131.1998     96.3679   2.9093859608e+02   5.8768946464e+00   0.01485967   0.01102671  42.54  0.000642265    1.346    0.257
        17 -11.1115    135.7456    129.4870   2.9108681477e+02   5.4693026238e+00   0.03958192  0.008781308 -63.49  0.002254242    5.101    0.804
        18 -11.0576    138.5031    104.0039   2.9089893827e+02   5.7446428870e+00   0.01148242   0.01013818  26.00  0.000614236    1.109    0.099
        19 -10.7467    138.5400    124.4789   2.9102331983e+02   5.5096370694e+00   0.01344074  0.009672454  51.59  0.001166298    1.494    0.331
        20 -11.5324    134.8814    119.6681   2.9103718368e+02   5.5871964394e+00   0.02432474  0.009584813 -63.24  0.001914534    2.658    0.624
        21 -13.1746    134.5526    107.1380   2.9096468567e+02   5.7328904593e+00   0.05805644   0.01712566 -64.30  0.003845293    3.812    0.738
        22 -12.9542    160.7540    127.9976   2.9078265176e+02   5.3332786326e+00   0.02345724   0.02151298 -46.26  0.001827466    1.105    0.095
        23 -11.9562    152.0996    120.3679   2.9083824501e+02   5.4737671247e+00   0.02037255  0.009857693 -43.77  0.001745237    2.262    0.558
        24 -11.9547    157.0269    117.3456   2.9076167691e+02   5.4782428973e+00   0.01429912   0.01281999 -32.91 0.0002740796    1.151    0.131
        25 -10.0483     31.4162    121.0496   2.9226773112e+02   6.2029480125e+00    0.0092669  0.008056633 -74.44 0.0009998161    1.217    0.178
        26 -12.0074    119.5288    111.3276   2.9116760430e+02   5.7767676122e+00   0.02865362   0.01373866  54.69  0.002218906    2.951    0.661
        27  -9.5069    111.9921    113.2418   2.9126826408e+02   5.8009025810e+00   0.00875199  0.005546832  27.52 0.0004191907    1.543    0.352
        28 -11.8529    144.0734    110.7349   2.9087423034e+02   5.6333662575e+00   0.01673797   0.01238983  64.14 0.0008755396    1.588    0.370
        29 -13.5575     68.0479    144.6177   2.9197816504e+02   5.7092977010e+00    0.1573367   0.06338192  51.87  0.007953051    3.763    0.734
        30 -12.7186    120.9206    101.7302   2.9109267387e+02   5.8783094696e+00   0.02874391   0.01684887 -42.22  0.002743813    1.842    0.457
        31 -11.4507    112.5205    103.8470   2.9120477922e+02   5.9054106997e+00   0.01361949    0.0130666 -82.36  0.001342423    1.085    0.078
        32  -9.7837     24.1189    105.1498   2.9225736723e+02   6.4297834232e+00  0.009979186  0.008713533 -20.35 0.0005203136    1.215    0.177
        33 -15.4068     30.4185    192.6844   2.9271414739e+02   5.3868387388e+00     0.156213   0.08586659  27.16   0.01076423    1.784    0.439
        34 -11.9303    143.2751     99.9706   2.9081800647e+02   5.7616674278e+00   0.01809342   0.01382094 -41.77 0.0008291955    1.360    0.265
        35  -9.2209     93.4357     99.4520   2.9140343680e+02   6.0724578428e+00  0.006630168  0.006387832  48.29 0.0001535115    1.048    0.046
        36 -10.8888    113.1760     95.0927   2.9114367610e+02   6.0017856914e+00   0.01013621  0.008957058 -21.16 0.0004164375    1.193    0.162
        37 -11.7345    136.1318     89.2785   2.9083711728e+02   5.9279771408e+00   0.01703721   0.01306554  45.09 0.0007801236    1.321    0.243
        38 -12.6923    147.6165     83.1846   2.9066433258e+02   5.9274922866e+00   0.01699613   0.01309642 -58.50 0.0005069576    1.313    0.238
        39 -13.6991     60.6345    171.9818   2.9223190623e+02   5.4404587314e+00   0.03240706    0.0260892 -59.92   0.00100168    1.262    0.208
        40 -11.0193    142.9107     79.3289   2.9069635875e+02   6.0005100285e+00   0.00937225  0.008458753  16.44 0.0003491343    1.104    0.094
        41 -11.7177    149.1102     70.8179   2.9057119983e+02   6.0600663353e+00    0.0124914  0.009929962 -42.83 0.0008116443    1.295    0.228
        42 -13.9761     66.8259    166.5617   2.9212590579e+02   5.4649216615e+00   0.03998854   0.03192987  42.52  0.002923714    1.249    0.200
        43 -13.9348     72.1664    160.1359   2.9202382585e+02   5.5060989035e+00   0.04844893   0.03265553  49.44  0.001982824    1.586    0.369
        44 -10.0294    214.9848    174.0352   2.9042402019e+02   4.4730912131e+00  0.009741289  0.009312891  24.06 0.0003567771    1.024    0.023
        45  -9.9608     89.0677    170.5251   2.9188742795e+02   5.2837517055e+00  0.009867702  0.006493531  26.55 0.0003467301    1.494    0.331
        46 -10.7363    181.9795    245.4718   2.9124742237e+02   3.8560762697e+00   0.01397982   0.01040904 -59.19  0.001523977    1.359    0.264
        47 -12.6178     72.4042     59.7839   2.9141025196e+02   6.6557037764e+00   0.03884511   0.01507152  13.15  0.002207294    5.445    0.816
        48 -12.1632     93.8830     54.6856   2.9112520896e+02   6.5829327212e+00    0.0148422    0.0123615  35.11  0.001714138    1.172    0.147
        49 -12.5345     75.0793     54.2649   2.9134496505e+02   6.7026277007e+00   0.03575283   0.01372227  15.01  0.002187415    4.625    0.784
        50  -9.9810     36.1701     52.6560   2.9179538905e+02   6.9583738562e+00    0.0103996  0.009016198 -89.78 0.0004991762    1.271    0.213
        51 -12.9973    201.0442     50.6591   2.8983510100e+02   5.9723555939e+00   0.02394072   0.01538189   8.77  0.002318027    1.864    0.463
        52  -9.9860    195.4961     51.4490   2.8990537835e+02   5.9973857623e+00  0.009493119  0.006709546 -67.50 0.0001589494    1.499    0.333
        53 -11.8196    222.9428     53.1630   2.8959219240e+02   5.8091265801e+00   0.01349196   0.01023088  56.69 0.0007823865    1.453    0.312
        54  -9.0626    170.6370    163.2730   2.9088104929e+02   4.8682293684e+00  0.007093641  0.004854639  55.49 0.0005399457    1.660    0.398
        55 -11.6413    212.6252     47.6653   2.8968020648e+02   5.9354782928e+00   0.01776187  0.009485472  35.02  0.001655225    1.780    0.438
        56 -10.5230    181.9928     46.8273   2.9003644380e+02   6.1332146649e+00   0.01151578   0.01030411 -41.81 0.0008741284    1.139    0.122
        57 -10.9452    192.1853    193.9080   2.9081363323e+02   4.3849402787e+00   0.03871221   0.01870635  87.58  0.001995126    7.406    0.865
        58  -9.9381    202.8253     42.9587   2.8976699219e+02   6.0495759914e+00   0.01344433  0.008302729  43.71  0.001322313    1.645    0.392
        59 -13.2829     12.2162    204.2691   2.9299913275e+02   5.3645450371e+00   0.05418153   0.03255664  27.83  0.005350271    1.624    0.384
        60 -12.2131    189.5184    148.4828   2.9056833824e+02   4.9221502526e+00   0.01962259   0.01194248  67.10  0.001706515    2.357    0.576
        61  -9.7619    197.0643     32.6780   2.8977205543e+02   6.2026539446e+00  0.008520873  0.007245759  19.36 0.0003230229    1.175    0.149
        62 -11.7402     99.4754     30.7589   2.9091302706e+02   6.8228734662e+00   0.01272294  0.009340617  27.05 0.0008516719    1.334    0.250
        63 -12.0447    101.7939     23.1460   2.9083910982e+02   6.8958842324e+00   0.01732475   0.01449216  56.42  0.001686736    1.272    0.214
        64 -11.0432    199.9895    244.1946   2.9102761623e+02   3.7605312726e+00   0.01149644  0.007632361 -11.92  0.001089772    2.000    0.500
        65 -11.1478    198.1257    237.4454   2.9100853069e+02   3.8493246521e+00   0.03745588  0.005619816  37.70  0.002074822    5.071    0.803
        66 -10.2728    208.1944    233.6563   2.9086695500e+02   3.8311370599e+00   0.01538297  0.008893099 -60.13  0.001479957    1.743    0.426
        67 -11.7638    246.4741    248.9624   2.9050963902e+02   3.4212875878e+00   0.02024199   0.01037266  37.09  0.001471596    1.866    0.464
