#   1 NUMBER                 Running object number                                     
#   2 MAG_AUTO               Kron-like elliptical aperture magnitude                    [mag]
#   3 X_IMAGE                Object position along x                                    [pixel]
#   4 Y_IMAGE                Object position along y                                    [pixel]
#   5 X_WORLD                Barycenter position along world x axis                     [deg]
#   6 Y_WORLD                Barycenter position along world y axis                     [deg]
#   7 A_WORLD                Profile RMS along major axis (world units)                 [deg]
#   8 B_WORLD                Profile RMS along minor axis (world units)                 [deg]
#   9 THETA_WORLD            Position angle (CCW/world-x)                               [deg]
#  10 FWHM_WORLD             FWHM assuming a gaussian core                              [deg]
#  11 ELONGATION             A_IMAGE/B_IMAGE                                           
#  12 ELLIPTICITY            1 - B_IMAGE/A_IMAGE                                       
         1 -17.0571    127.7047     85.1199   8.7190473928e+01   4.0307087406e+01     5.732576     3.960881 -20.24   0.02620072    1.868    0.465
         2 -16.6553    198.3532     73.6610   7.0086500156e+01   2.6154578650e+01     5.005919     2.268094  54.85   0.02141517    2.210    0.547
         3 -18.7742    191.9993    127.0220   8.3611429898e+01   1.7604747516e+01     5.759031     5.513558  33.44   0.03215756    1.164    0.141
         4 -17.1605    215.8841    101.5073   7.3634757514e+01   1.7457009412e+01     7.710616     3.202096 -59.56   0.02489622    3.794    0.736
         5 -17.6920    162.2487    117.2495   8.7474513722e+01   2.6186774597e+01     6.326177     3.534456 -23.30   0.02118573    3.269    0.694
         6 -11.8763    120.2460     29.4641   7.2493063990e+01   5.0207562612e+01    0.2474774    0.2067003  55.83 0.0003980747    1.059    0.056
         7 -12.2448    201.5235     22.2834   5.8205670523e+01   3.2638162319e+01     0.321382    0.2149554 -34.08 0.0008353333    1.771    0.435
         8 -12.2259     13.4008     13.9159   1.0180890951e+02   6.9715763074e+01    0.2433372    0.1778977 -10.94 0.0005936922    1.070    0.066
         9 -11.7180    248.2070     18.0867   5.3178832288e+01   2.3403842176e+01    0.3830968   0.07861162 -46.23  0.001600156    3.471    0.712
        10 -12.9689    239.2473     15.7591   5.3454854747e+01   2.5450482195e+01    0.3159658    0.2150211  69.02  0.002117556    1.504    0.335
        11 -11.3530    191.8058     13.7527   5.7413441594e+01   3.5735510213e+01    0.2108955    0.1670135  48.53 0.0008270045    1.554    0.356
        12 -12.7708    228.7231      6.6358   5.2613315761e+01   2.8613470550e+01    0.3794092    0.1680166 -71.93  0.001589748    2.342    0.573
        13 -13.7925    238.7338      4.9794   5.1568594695e+01   2.6778748419e+01    0.6627964    0.4910672  43.14  0.004375015    2.308    0.567
        14 -12.5136    248.4144      4.5042   5.0816003495e+01   2.4936994329e+01    0.4956286    0.2659848 -54.77  0.002967078    1.534    0.348
        15 -11.6651     89.7178      8.9527   7.2781272137e+01   5.8537355813e+01    0.3304472    0.1967653 -40.08  0.001909512    2.152    0.535
        16 -12.2949    100.9405      9.1836   7.0253007542e+01   5.6259656220e+01    0.2258139    0.1938274  40.01 0.0003738992    1.066    0.062
        17 -11.2514    178.7318      5.5517   5.7016442045e+01   3.9467852950e+01    0.2226945    0.1827314 -66.26 0.0003561173    1.223    0.183
        18  -9.8780    123.8380      6.5896   6.4935274392e+01   5.1615717832e+01    0.1601164    0.1014736  74.04 0.0002971414    1.526    0.345
        19 -10.3044     53.8638      5.8634   8.1944815259e+01   6.5253574935e+01    0.1675833    0.1192575  21.57 0.0002610466    1.143    0.125
        20 -12.6027    244.7876      9.3902   5.1908347944e+01   2.5091619767e+01    0.3180826    0.2181656 -83.86  0.001924739    1.128    0.113
        21 -11.3167    203.4110      4.9818   5.4422663670e+01   3.4107162281e+01    0.2251124     0.125648 -79.81  0.001276913    1.695    0.410
        22 -11.4229    208.2305      1.7565   5.3352522564e+01   3.3400804384e+01    0.2133055    0.1341288  76.55 0.0005705052    1.313    0.238
        23 -10.0322     93.8484      1.8817   6.9385150371e+01   5.8272498075e+01    0.1446509    0.1306266  75.82 0.0005056811    1.301    0.231
        24 -11.5276    245.7661    233.5472   9.5039536769e+01  -1.1769575021e+01     0.233415    0.1558796 -10.41 0.0007871761    1.443    0.307
        25 -14.0544    233.3389    247.6569   9.9738292561e+01  -1.2255355184e+01    0.9277877    0.5798105  19.30  0.005491279    1.517    0.341
        26 -12.0560    218.0406    248.0099   1.0266729986e+02  -1.0224623609e+01    0.2342606    0.1951279  23.92 0.0004863842    1.200    0.167
        27 -12.8583    249.8509    245.3838   9.6371139055e+01  -1.4031759058e+01    0.4479454     0.244134 -27.52 0.0008623012    1.660    0.398
        28 -11.6005    222.7461    250.1045   1.0212659537e+02  -1.1195593712e+01    0.2598709    0.1641625  29.54 0.0008663046    1.470    0.320
        29 -10.7815    249.8449    232.1818   9.4076461226e+01  -1.2089965817e+01    0.1965332    0.1737986 -16.68 0.0006462297    1.237    0.192
        30 -12.6230    177.4726    230.4179   1.0780274229e+02  -9.8561966244e-01    0.4446269    0.3539559 -82.73  0.002150627    1.884    0.469
        31 -11.2669    174.1779    232.3959   1.0883073885e+02  -8.0536395985e-01    0.2880244    0.2388999  42.14  0.001656163    1.208    0.172
        32 -11.3451    144.7655    231.0176   1.1491482280e+02   4.4493657636e+00    0.2439312    0.2030903  51.12 0.0002579473    1.177    0.150
        33 -10.6267     81.8555    230.1384   1.2858298148e+02   1.4962397941e+01    0.2026979    0.1595315  67.67 0.0002637149    1.155    0.135
        34 -10.2740     69.0809    230.3037   1.3134384033e+02   1.6806595425e+01    0.1863706    0.1487815  56.13 0.0004361268    1.134    0.118
        35 -12.0950    197.1167    225.9165   1.0295864924e+02  -3.3861794785e+00    0.3464695    0.2964351  81.10  0.001389681    1.741    0.426
        36 -12.2791    203.4480    224.9872   1.0151710090e+02  -4.2332206613e+00    0.4538952    0.2893105   3.41  0.002171361    2.069    0.517
        37 -11.2557    149.0802    227.3877   1.1338882461e+02   4.4397626131e+00    0.2559792     0.213121 -65.35  0.001215721    1.365    0.267
        38 -11.2360    219.0728    226.6781   9.8757272729e+01  -6.9343040487e+00     0.214915    0.1693028 -39.32 0.0006891963    1.326    0.246
        39 -10.2161    233.9150    225.2930   9.5714637794e+01  -8.8633386632e+00    0.1735148    0.1435522   0.05 0.0004047037    1.072    0.068
        40 -12.5990    175.9382    222.0647   1.0667636402e+02   8.5898198265e-01    0.4157269    0.2687086 -48.37  0.002073817    1.646    0.392
        41 -11.5944    181.9668    222.6742   1.0551015889e+02  -2.8332766899e-01    0.3726707    0.2253999  24.04  0.001748198    1.824    0.452
        42 -10.1806    223.2278    223.5915   9.7406195038e+01  -7.0332507479e+00    0.1784607    0.1135888  20.95 0.0009430772    1.635    0.389
        43  -9.8158     15.4696    223.5356   1.4169753791e+02   2.4996800708e+01    0.1233017   0.09373616  80.91 0.0002107871    1.017    0.016
        44 -12.8483    247.5009    220.5344   9.2404660848e+01  -9.9731196365e+00     0.296211    0.2298005 -12.27 0.0006213664    1.112    0.101
        45  -9.7621     98.0115    222.0340   1.2396562803e+02   1.4244166748e+01    0.1637115    0.1475309  70.20 0.0003023238    1.008    0.008
        46 -10.1259     30.4896    222.0063   1.3857351452e+02   2.3683675076e+01    0.1808504    0.1061093 -77.15 0.0003414118    1.493    0.330
        47 -12.2658    235.1291    215.2550   9.3659068796e+01  -7.3778146287e+00    0.3678257     0.243212 -22.62  0.001082856    1.448    0.310
        48 -11.9255    130.4923    218.8903   1.1614846396e+02   9.4574409889e+00    0.3415887    0.2027097 -50.78  0.001208286    1.774    0.436
        49 -11.2026     91.0151    219.0354   1.2513051580e+02   1.6041069862e+01    0.2072333    0.1834946  73.30            0    1.018    0.018
        50 -16.9314    148.3064    194.8032   1.0783553957e+02   1.1559852940e+01     6.290157     3.959286  66.85   0.02526846    2.379    0.580
        51 -10.0571    125.5203    249.5329   1.2175449995e+02   4.0038755515e+00    0.1318175    0.1173928  41.81  0.000808793    1.056    0.053
        52 -10.4972     11.7398    207.9564   1.4122070564e+02   2.8889908122e+01    0.1731298    0.1286091 -87.50 0.0003527147    1.071    0.066
        53  -9.3922    242.3074    207.7002   9.0960609231e+01  -7.1426156260e+00    0.1138859    0.1020847 -67.69 0.0002698563    1.596    0.373
        54 -12.0060     92.6296    214.2230   1.2409596547e+02   1.6889911239e+01    0.4092664    0.3156966  19.48  0.002133051    1.656    0.396
        55 -11.0635    170.8015    217.7719   1.0701598164e+02   2.5897333083e+00     0.238198    0.2194306  23.42 0.0006465339    1.029    0.028
        56 -11.8597     76.5745    200.8509   1.2595986100e+02   2.2552364936e+01    0.5002148     0.282772 -71.47  0.001795383    1.797    0.443
        57 -10.0448     69.6585    203.2954   1.2792287396e+02   2.2982608632e+01    0.1482205   0.09566448  68.52  0.000254018    1.660    0.398
        58 -10.7135     45.5330    201.9147   1.3331800801e+02   2.6561218607e+01    0.2040511    0.1716848  55.63  0.001014496    1.202    0.168
        59 -10.1997      6.5314    201.4992   1.4177358537e+02   3.0870062367e+01     0.124068   0.09545372  88.74 0.0001264521    1.002    0.002
        60 -10.9098    226.7523    198.6076   9.2064082114e+01  -3.1950040282e+00    0.2365192    0.2291319  -4.29  0.001134196    1.186    0.157
        61 -11.6772    184.5030    211.3283   1.0291737878e+02   1.4734472564e+00    0.3055896    0.2435946 -56.23  0.001250345    1.433    0.302
        62  -9.8028     34.4466    198.4122   1.3543913169e+02   2.8722870645e+01    0.1311668    0.1080822  86.76 8.550597e-05    1.016    0.015
        63  -9.5594     23.3392    198.7182   1.3793907296e+02   2.9866156269e+01     0.133357    0.0800521  67.91 0.0004379789    1.626    0.385
        64 -11.3441    212.2432    196.7546   9.4474542236e+01  -4.7467433080e-01    0.5008163    0.2997821 -53.79  0.002172774    1.960    0.490
        65 -11.3862    215.4962    193.9996   9.3303211400e+01  -4.9981427818e-01    0.3422754    0.2523832 -37.25  0.001395031    1.254    0.202
        66 -12.9806    117.9412    191.0883   1.1438368260e+02   1.8042195744e+01    0.5883361    0.4220245 -54.25  0.002195541    1.395    0.283
        67 -10.3261    227.0517    191.4362   9.0615878737e+01  -1.9305681938e+00     0.273465    0.1792384 -44.94  0.001418476    1.459    0.315
        68 -11.0938    233.0950    195.4987   9.0297833069e+01  -3.6328771182e+00    0.2524268     0.198264 -30.11 0.0006515575    1.120    0.107
        69 -12.8923    246.5151    185.9203   8.6085048097e+01  -3.9921848413e+00    0.4349356    0.2814865  19.30  0.001813387    1.947    0.486
        70 -12.2003    111.5814    184.4831   1.1476138834e+02   2.0774960607e+01    0.5440667    0.2670788 -55.33  0.001663453    2.006    0.501
        71 -11.0548    113.8056    181.0044   1.1356763732e+02   2.1222345467e+01    0.2246761    0.2161735  74.94   0.00122241    1.024    0.024
        72 -11.0871    121.2782    217.6408   1.1804199793e+02   1.1331369291e+01    0.2760574    0.2229067  64.91 0.0007789553    1.272    0.214
        73 -11.1978    100.8692    194.5784   1.1914693832e+02   2.0187397702e+01    0.3589954    0.1335968  39.96  0.001051656    2.591    0.614
        74 -10.1798     92.2807    183.3676   1.1940486513e+02   2.4367364390e+01    0.1503033    0.1128663 -32.22 0.0007013791    1.688    0.408
        75 -11.2499     85.3689    181.0871   1.2077111017e+02   2.6053774308e+01    0.3543298    0.2462246 -72.37 0.0005535725    1.446    0.308
        76 -12.4161     87.7451    175.9891   1.1929641636e+02   2.6946468388e+01    0.4494057    0.3408952  60.76 0.0003576452    1.383    0.277
        77 -11.9342     87.6777    172.6706   1.1873208009e+02   2.7789310536e+01    0.3263913     0.269508  26.05  0.001245593    1.389    0.280
        78 -12.1679     31.7541    180.0596   1.3400510923e+02   3.3476200277e+01    0.2568691    0.2053121 -73.91 0.0003097524    1.085    0.078
        79 -11.4426     22.1745    176.1951   1.3586259712e+02   3.5404147488e+01     0.226604    0.1860738  71.06 0.0002537223    1.191    0.160
        80 -11.9375    102.0326    172.6080   1.1499407885e+02   2.5386063535e+01    0.5491113    0.3207517  67.56  0.002057498    2.577    0.612
        81 -11.1706     62.3215    173.3475   1.2543623795e+02   3.1417177633e+01    0.2443216    0.2128732  84.83 0.0003140579    1.091    0.084
        82 -11.0820     78.8896    171.7416   1.2086442319e+02   2.9411453208e+01    0.2630321    0.1846209 -52.44 0.0006289058    1.389    0.280
        83 -10.7111    240.6173    169.2865   8.3823354080e+01  -4.6925738818e-02    0.3692322    0.1501762  53.98  0.001337565    3.993    0.750
        84  -9.5369     12.7423    168.3069   1.3726517728e+02   3.8188211232e+01    0.1262973   0.08266456  78.07 0.0001983019    1.519    0.342
        85 -14.4309    248.1064    137.3859   7.6222040757e+01   4.5844833396e+00    0.8054446    0.5547641  18.90  0.003991249    2.392    0.582
        86 -10.0218     97.7023    166.3102   1.1493132209e+02   2.7707932797e+01    0.1549843    0.1158471  78.50 0.0002265354    1.597    0.374
        87 -10.2676     37.9923    165.7499   1.3061598052e+02   3.6338523537e+01    0.1838459    0.1638277 -87.26 0.0003186458    1.065    0.061
        88  -9.5371    244.2368    165.6846   8.2500327314e+01   2.3855856189e-02    0.1275023    0.0953233 -58.90  0.000264335    1.504    0.335
        89 -16.2046    195.2964    201.4855   9.8800077964e+01   1.5246392570e+00     4.809665     1.403125 -49.35   0.01496852    3.915    0.745
        90 -10.2253     48.6432    165.2913   1.2777394994e+02   3.5215702138e+01    0.1450862   0.09759261  69.56 0.0005223973    1.687    0.407
        91 -11.1650     66.5635    159.7637   1.2208528216e+02   3.4255384983e+01    0.2308103    0.1343933 -63.03  0.000952628    1.580    0.367
        92 -10.2478    250.2825    160.0780   8.0408821034e+01   6.5510755075e-02    0.1982821    0.1594155 -15.61 0.0006293619    1.359    0.264
        93 -10.3673     42.1243    158.7127   1.2851644727e+02   3.7632745518e+01    0.3216629    0.1428392 -66.47  0.001364401    1.985    0.496
        94 -11.6164     85.8836    158.9737   1.1668833697e+02   3.1526018205e+01    0.3355077    0.2273889  23.72 0.0008726419    1.803    0.445
        95  -9.7715      2.1872    159.3583   1.3888229116e+02   4.1185560097e+01    0.1472162    0.1071661  47.83 0.0002938629    1.541    0.351
        96 -12.2604    103.4460    155.9773   1.1134635557e+02   2.9275386002e+01    0.4331574    0.2785635 -60.35  0.001201698    1.550    0.355
        97 -12.0475     78.2655    155.9896   1.1820194797e+02   3.3481402151e+01    0.4515139    0.2434498  54.41   0.00181359    2.275    0.560
        98 -13.6753     80.2886    149.4181   1.1636941671e+02   3.4818480279e+01    0.5474369    0.3545718 -61.15  0.000860443    1.467    0.318
        99 -13.3643     97.6239    151.9973   1.1209720327e+02   3.1296180917e+01    0.8002735     0.448094 -28.31  0.002772272    3.082    0.676
       100 -12.3278     90.2481    150.8325   1.1388330368e+02   3.2849157873e+01    0.5343512    0.2218016 -44.26  0.001858022    2.620    0.618
       101 -10.9756     13.7139    147.0220   1.3448720397e+02   4.3271815067e+01    0.1892754     0.140729 -70.41 0.0003681213    1.090    0.083
       102 -10.7648     56.5132    145.3399   1.2232217789e+02   3.9239612649e+01    0.2695674    0.1932332  63.06 0.0008411079    1.643    0.391
       103 -10.8675     21.0751    145.2785   1.3226058138e+02   4.3077158901e+01    0.2682613    0.1654478  12.86  0.000838742    2.170    0.539
       104 -10.5950     30.2666    249.1240   1.4080802269e+02   1.7840271343e+01    0.1740686    0.1281522 -71.17 0.0005338008    1.422    0.297
       105 -11.5230     71.0123    137.6100   1.1663472819e+02   3.9165813278e+01    0.3798272    0.2167083  55.22  0.001579009    2.270    0.559
       106  -9.7599     41.6595    138.6562   1.2540795704e+02   4.2673265212e+01    0.1473252   0.09274989 -36.61 0.0007048195    1.779    0.438
       107 -10.0042     32.8430    136.1493   1.2754089984e+02   4.4210537433e+01    0.1817432    0.1367172 -45.99 0.0002758644    1.268    0.211
       108  -9.7500     18.6239    133.5132   1.3123181191e+02   4.6137268579e+01    0.1309735    0.1046827 -65.99 1.641098e-06    1.034    0.033
       109 -16.1213    169.8998     92.1305   7.9578516415e+01   2.9436957516e+01     2.926061     1.401061  38.99   0.01059046    2.853    0.650
       110 -11.2783     69.1836    128.5906   1.1527012987e+02   4.1638555555e+01    0.4443695    0.1620678 -51.23  0.001314632    2.422    0.587
       111 -12.0401     92.6016    128.0437   1.0821919371e+02   3.8031245788e+01      0.50915    0.2479066 -61.14  0.001325526    2.391    0.582
       112 -11.3590     94.8152    123.6201   1.0652355375e+02   3.8689991027e+01    0.3192045    0.2094304  52.56  0.001163858    1.749    0.428
       113 -13.1476    101.9157    125.3552   1.0490225129e+02   3.6996391835e+01    0.5900183    0.4216405 -67.25  0.002692349    1.607    0.378
       114 -10.9930     87.9626    127.6091   1.0946924051e+02   3.8929435973e+01    0.2636124    0.1999111 -39.39 0.0009679747    1.321    0.243
       115 -11.1551     78.0259    127.9923   1.1249245725e+02   4.0451590200e+01    0.2204489    0.2096492 -48.18 0.0003027555    1.023    0.022
       116  -9.9100     24.4224    123.5410   1.2790582213e+02   4.8032953378e+01    0.1317199    0.1091167 -59.52   8.8615e-05    1.011    0.011
       117 -10.3289     63.5163    122.0611   1.1556357245e+02   4.4008414929e+01    0.1960021    0.1901999   0.22 0.0003588359    1.110    0.099
       118 -11.3414     34.4665    118.0480   1.2379437096e+02   4.8400271868e+01    0.2322962    0.2300826  -7.10 0.0008901217    1.165    0.142
       119 -14.1897    248.4268    114.5984   7.1596174671e+01   8.6570462554e+00    0.4422303    0.3348834 -42.33  0.001796765    1.203    0.169
       120  -9.7194    141.7080    248.3330   1.1818768844e+02   1.5917273831e+00    0.1318716   0.09849122  68.12 0.0003831185    1.634    0.388
       121 -11.5084     67.9418    115.1737   1.1261472546e+02   4.5005127410e+01    0.5175198    0.3374511 -83.28  0.002195107    2.449    0.592
       122 -10.6567    239.6751    112.2212   7.2343582998e+01   1.0720300729e+01    0.4215932    0.1474843 -40.52  0.001605411    2.612    0.617
       123 -10.0542     77.7036    111.9798   1.0880310378e+02   4.4263196811e+01    0.1959161    0.1779776 -43.88 0.0004943768    1.035    0.034
       124 -11.5227    214.4928    216.7783   9.7839265614e+01  -4.5213462607e+00     0.277228    0.1870724 -59.85  0.001347018    2.156    0.536
       125 -11.0109      5.5007    116.9784   1.3257408376e+02   5.0995112761e+01     0.191229   0.09978817 -65.25  0.000429428    1.523    0.343
       126 -10.9168    241.3290    104.2265   7.0473486151e+01   1.1831898853e+01    0.2163357     0.147718 -43.01 0.0004973564    1.325    0.246
       127 -11.7194     85.3107    104.5672   1.0455934646e+02   4.4675049628e+01    0.2960058    0.2403941 -57.64  0.001551289    1.287    0.223
       128 -12.6870    100.3702    103.0944   9.9652095348e+01   4.2294908501e+01    0.4209258    0.3425848  31.17  0.001756945    1.269    0.212
       129 -10.9637     79.0511    103.2367   1.0615246807e+02   4.6003873495e+01    0.2367799    0.1969012 -43.00 0.0003410796    1.134    0.118
       130 -11.0197    246.0509    101.0910   6.9203861459e+01   1.1480067857e+01     0.219586    0.1559957 -60.35 0.0003290851    1.257    0.204
       131 -12.6612    242.6051     95.4952   6.8527858502e+01   1.3108487646e+01     0.474513    0.3625058  64.09  0.001880916    1.448    0.309
       132 -11.2879     73.0981     97.2479   1.0645667146e+02   4.8242216695e+01    0.2622195    0.2032527 -52.01  0.000702258    1.288    0.223
       133 -10.1982     16.8683     96.8491   1.2532596967e+02   5.4764248303e+01    0.1568473    0.1388195 -77.21 0.0003784946    1.278    0.217
       134 -11.5588     10.9361     96.5743   1.2728583630e+02   5.5247138418e+01    0.3643891     0.114689 -33.60  0.001235858    4.624    0.784
       135 -10.1339     32.5651     95.9611   1.1975083353e+02   5.3615070327e+01    0.2028807    0.1090701 -53.83  0.001016702    1.579    0.367
       136 -10.1142     51.5788     90.2304   1.1176535357e+02   5.2743866529e+01     0.199127    0.1085101 -41.17 0.0009469733    1.672    0.402
       137 -10.9393     87.5896     88.8134   9.9527898244e+01   4.7587472895e+01    0.2804792    0.2175476   0.03 0.0009308576    1.495    0.331
       138 -10.5037    242.5530     87.2620   6.6873724129e+01   1.4517353959e+01    0.2866229    0.1131977 -42.14  0.001225269    2.241    0.554
       139 -11.8755    142.8912    215.7577   1.1282999644e+02   7.9461941044e+00    0.2786383    0.2717595  77.13 0.0006157607    1.059    0.055
       140  -9.8334      3.6696     88.6538   1.2823143967e+02   5.7417047391e+01    0.1335652   0.06647465 -38.70 0.0006806038    1.759    0.431
       141 -11.3873    230.7959     85.0957   6.7950163215e+01   1.7237889084e+01    0.2140395    0.1927898 -86.91 0.0002797063    1.133    0.118
       142 -11.4860    232.6352     81.1013   6.6879812632e+01   1.7529760059e+01    0.2574178     0.211807  84.50 0.0006589019    1.198    0.165
       143 -12.1848    138.1264    215.6839   1.1389405989e+02   8.8081237105e+00    0.3499697    0.2646282 -53.00  0.001046153    1.388    0.279
       144 -11.1140     52.4551     81.1462   1.0898322683e+02   5.4495032919e+01    0.2294526    0.1924388  -6.45 0.0004173026    1.150    0.130
       145  -9.9724    250.7724     80.3344   6.4515464723e+01   1.4068638220e+01    0.1301596   0.07849986 -62.24 0.0003046909    1.527    0.345
       146 -13.5487    110.6736     77.0878   8.9347829590e+01   4.5383963646e+01    0.6642988    0.4333301  48.34  0.003211734    1.513    0.339
       147 -12.6090    107.5897     70.1264   8.8114772577e+01   4.7227122718e+01     0.426796    0.3752468 -68.02  0.002269033    1.370    0.270
       148 -16.2427    230.6327    122.8540   7.5915627153e+01   1.0500114777e+01     1.978197     1.521519  51.61    0.0110107    1.478    0.323
       149 -10.5808     70.1152     77.9575   1.0197813640e+02   5.2609142127e+01    0.1971904    0.1811862 -11.01 0.0003850056    1.037    0.036
       150 -10.7137     94.7902     77.2343   9.3935875037e+01   4.8490056779e+01    0.1928784    0.1586424   2.05 0.0003857163    1.310    0.237
       151 -12.5225    124.5240    215.2387   1.1691938058e+02   1.1300251376e+01     0.484798    0.3483451  46.09  0.002167234    1.318    0.241
       152 -10.9986     98.2913     74.2992   9.2016279945e+01   4.8350636410e+01    0.1401123    0.1065434   4.33 0.0001570298    1.563    0.360
       153 -11.2193    172.5486    247.0188   1.1155906028e+02  -3.1836155655e+00    0.2965013    0.1489159  51.14  0.001278139    2.517    0.603
       154  -9.7165     51.5110    245.4543   1.3646110842e+02   1.5941866861e+01    0.1264035    0.1005349  71.32 7.543099e-05    1.008    0.008
       155 -11.0440     88.7051     72.0547   9.4204115182e+01   5.0548505384e+01    0.1926102    0.1675086 -23.06 0.0003933343    1.127    0.113
       156 -10.3494     50.8507     71.9134   1.0687639614e+02   5.6491253070e+01    0.1598118    0.1484436 -47.65 0.0003178078    1.279    0.218
       157 -11.5398     59.2503    215.7307   1.3182457596e+02   2.1501338755e+01    0.4117153    0.3114543 -35.60    0.0022445    1.891    0.471
       158 -10.4608    236.6902     56.8723   6.1492377435e+01   2.0506750585e+01    0.3644738    0.2069006 -34.87  0.001886831    2.039    0.510
       159 -11.4307    237.9732     63.0000   6.2565159128e+01   1.9324113274e+01    0.3805057    0.1577116  65.46  0.001080579    2.493    0.599
       160 -12.0165    243.1752     65.8529   6.2547692403e+01   1.7841706444e+01    0.5879879    0.2872215 -89.07  0.002434434    3.213    0.689
       161 -11.8406    248.6738     65.5579   6.1892425136e+01   1.6804348971e+01    0.2602172    0.1894466  48.79   0.00154892    1.892    0.471
       162 -16.9877    171.3148    141.4098   9.1232945280e+01   1.8987602815e+01     3.083525      2.11939 -13.67   0.01242239    2.304    0.566
       163 -10.3831     52.5561     65.7993   1.0439030698e+02   5.7391945435e+01     0.167795     0.118963 -51.64 0.0004163188    1.601    0.376
       164 -10.9162     10.9308     65.8714   1.2036078358e+02   6.1592186232e+01    0.1860622    0.1238017 -31.61 0.0004758869    1.248    0.199
       165 -12.0122    110.5052     64.1334   8.5505567440e+01   4.7614890351e+01    0.4407668     0.230334  34.27  0.001859885    2.203    0.546
       166 -11.5771    100.3572     61.9661   8.7620808736e+01   5.0023053269e+01    0.3149001    0.2190592  24.40  0.001006627    1.582    0.368
       167 -10.5909     97.8562     58.1673   8.7131784585e+01   5.1111630232e+01    0.2317659    0.2146546  -4.83 0.0009411055    1.080    0.074
       168 -11.9536    131.1117     60.6960   7.9383825239e+01   4.3693703083e+01    0.2617431    0.2176664  -0.31 0.0001880119    1.448    0.310
       169 -10.4366    220.2346     59.4903   6.3933359364e+01   2.3562194014e+01    0.2228292    0.1669987 -52.85 0.0007975972    1.232    0.188
       170 -15.3750    226.2400    177.4145   8.7983076202e+01   8.3460365838e-01     2.977233     1.755239  46.57    0.0144164    1.951    0.487
       171 -13.2387    140.5199     48.0397   7.3734417369e+01   4.3388978806e+01    0.5713863      0.32348 -33.07  0.002322347    1.965    0.491
       172 -11.8260    136.2807     43.6736   7.3352502614e+01   4.4932602169e+01    0.3037783    0.2464639 -68.83 0.0007986941    1.421    0.296
       173 -10.3516     54.3539     59.6490   1.0177584125e+02   5.8222728745e+01    0.1187388     0.104171  80.29 0.0007032731    1.841    0.457
       174  -9.9484     67.1842     57.7669   9.6623578954e+01   5.6635351491e+01    0.1727433     0.134026   2.08 0.0003644576    1.264    0.209
       175 -10.3713     32.4621     58.5503   1.0973569394e+02   6.1074342836e+01    0.1229744   0.09999926 -19.44 5.852608e-05    1.002    0.002
       176 -10.3186    241.2836     56.7764   6.0980570279e+01   1.9590693187e+01    0.1828785    0.1359558 -75.09  0.001140638    1.143    0.125
       177 -10.9037    115.6338     56.0583   8.1714029551e+01   4.7777964974e+01    0.2944398     0.155898  37.99 0.0008132118    1.994    0.498
       178 -10.6624    226.2188     54.0745   6.2098394854e+01   2.3092842917e+01    0.2314877    0.1745331 -33.81  0.001368646    1.616    0.381
       179  -9.7259     78.8204    213.5884   1.2716864845e+02   1.9185831930e+01    0.1936951    0.1153885  50.73 0.0005378418    1.601    0.375
       180  -9.9705     51.6250     54.7807   1.0117302613e+02   5.9410158409e+01    0.1566591    0.1121937 -43.85 0.0002485428    1.501    0.334
       181 -11.6945    249.4911     53.2255   5.9465432621e+01   1.8484584132e+01     0.214607    0.1617686 -72.78 0.0003596796    1.071    0.066
       182 -11.8972    121.1448     53.3589   7.9546910023e+01   4.6982019382e+01     0.295708    0.2133056  68.57  0.001010144    1.557    0.358
       183 -10.5624    225.5326    210.2554   9.4508530204e+01  -5.0849216090e+00    0.3071897    0.2264099  58.53  0.001637581    2.037    0.509
       184  -9.5049     61.7067     53.7236   9.7174880781e+01   5.8131253369e+01    0.1269778   0.08891904  -0.09 0.0001621918    1.525    0.344
       185 -10.7913     57.2082     52.9500   9.8516874913e+01   5.8921152108e+01    0.2018324    0.1614036  20.58 0.0005017967    1.176    0.150
       186 -10.9523     11.5322     58.1871   1.1804374529e+02   6.2993629021e+01     0.183125    0.1420318  -7.35 0.0003075351    1.228    0.185
       187 -11.1600    100.2219     51.1263   8.4217265343e+01   5.1688209021e+01    0.3898258    0.1475088  57.08  0.001214385    3.541    0.718
       188 -17.2413    204.5887    144.0016   8.5001047283e+01   1.1501185078e+01     2.331605      1.54105 -37.81   0.01101066    1.469    0.319
       189 -10.9856    243.3454     47.8681   5.9056138026e+01   2.0466481989e+01    0.2449319    0.1607415  60.63  0.001067224    1.713    0.416
       190 -11.4919    217.8263    210.7850   9.6076357738e+01  -3.9778683233e+00    0.2326526    0.1696171 -44.66 0.0004945426    1.412    0.292
       191 -11.9522    220.5834    206.8746   9.4809145933e+01  -3.7113134085e+00    0.3431833    0.2349526 -28.92 0.0009479696    1.383    0.277
       192 -10.7725    236.7958     45.9989   5.9349749734e+01   2.2052562687e+01    0.2571293    0.2351892 -57.72  0.001793989    1.336    0.252
       193 -11.2573    230.5333     46.9744   6.0189983213e+01   2.3206971535e+01    0.2192115     0.162444  81.05 0.0004077463    1.244    0.196
       194 -11.3696    213.6521     45.3093   6.1730033872e+01   2.7039747409e+01    0.3519202    0.2654103  15.71 0.0008886843    2.601    0.616
       195 -10.7099    212.1785     39.7191   6.0719807578e+01   2.8121310772e+01    0.2873834     0.129605  82.66  0.001205457    2.703    0.630
       196 -12.2910    155.7315     44.6458   6.9931758131e+01   4.0338800142e+01    0.4001986    0.2657536 -35.93  0.002128745    1.658    0.397
       197 -10.4176     76.0473     46.9678   9.0031257652e+01   5.6815341342e+01    0.1886358    0.1610094  11.11            0    1.038    0.037
       198 -12.1825    150.6159     44.1723   7.0724298466e+01   4.1584858291e+01    0.3490693    0.3260344 -59.74  0.001332921    1.150    0.130
       199 -11.5298    146.1324     43.3401   7.1329364852e+01   4.2726518865e+01    0.3574616    0.1760584 -35.55  0.001174861    2.208    0.547
       200 -11.0699    202.5208     44.9843   6.3013509561e+01   2.9542035166e+01    0.2553978    0.1612491  89.06 0.0008409622    1.605    0.377
       201 -11.1113    131.5223     44.8776   7.4690020086e+01   4.5848507054e+01    0.2982824    0.1859652  66.61 0.0009616113    1.656    0.396
       202 -10.6150     99.3915     44.7517   8.2380307242e+01   5.2737004158e+01    0.1751767    0.1527961  42.58  0.000502412    1.086    0.079
       203 -11.5847     90.3384     44.6191   8.4871201309e+01   5.4530520604e+01    0.2302783    0.1918692  20.90 0.0003737294    1.112    0.101
       204 -11.9338    124.5811     42.9926   7.5639656664e+01   4.7638750427e+01    0.3150121    0.2098096 -28.65  0.001309276    1.694    0.410
       205 -12.3977    118.7984     41.6300   7.6534602331e+01   4.9078961564e+01    0.4097643    0.2523988 -25.36   0.00210326    1.884    0.469
       206 -11.0935    115.0099     41.2377   7.7298824037e+01   4.9946205933e+01    0.2905721    0.1674904  53.08  0.001023625    1.555    0.357
       207 -10.3109     95.5212     44.5079   8.3363132989e+01   5.3539192389e+01    0.1307464     0.116322  28.23 0.0001295871    1.009    0.009
       208 -12.2443    183.6897     38.9797   6.4132100550e+01   3.4609768623e+01    0.4035851    0.2391175 -62.68  0.001381127    1.836    0.455
       209 -12.6323    192.2821     38.3479   6.2835376445e+01   3.2733077441e+01    0.4628918    0.3166968  -1.41  0.002089173    2.942    0.660
       210 -12.3533    199.6131     33.1784   6.0773252963e+01   3.1744645849e+01    0.3062043    0.2258563 -81.92 0.0008192194    1.212    0.175
       211  -9.9025     61.6920     40.2819   9.2494743113e+01   6.0126637041e+01    0.1061612   0.09993108  67.26  0.000172177    1.562    0.360
       212 -10.4455    208.1705     39.0709   6.1043555109e+01   2.9086188662e+01    0.1755926    0.1588774  85.45 0.0002831121    1.195    0.163
       213 -11.1493    155.3624     38.7856   6.8442257099e+01   4.1178095640e+01    0.2926464    0.1578636  60.91 0.0008514139    1.634    0.388
       214  -9.4068     25.7012     39.2950   1.0610410481e+02   6.4958960863e+01   0.09498852   0.09247436  19.91 0.0002820794    1.569    0.363
       215 -10.7770    196.1944     38.1567   6.2292895559e+01   3.1874204268e+01    0.1822893    0.1624961  66.47 0.0005489569    1.243    0.196
       216 -10.8072     92.8545     37.6012   8.1802137932e+01   5.4954588149e+01    0.2342243    0.1605136 -47.82  0.001128357    1.870    0.465
       217 -10.5233    131.5000     37.0215   7.2402864471e+01   4.6843800885e+01    0.2050928    0.1946229  39.98 0.0003466616    1.103    0.093
       218 -11.3196    133.3680     33.8588   7.1110980161e+01   4.6800145468e+01     0.304364    0.1730514  58.29 0.0008608148    1.535    0.348
       219 -11.8257    233.2185     35.5271   5.7674637743e+01   2.4210612054e+01    0.2213935    0.1793232 -73.89 0.0004539418    1.067    0.063
       220 -12.0991    145.6979     34.0264   6.8847036464e+01   4.3981042048e+01    0.4113971    0.2694821 -63.61  0.001558091    1.889    0.471
       221 -10.0926    171.4815     33.5489   6.4558545418e+01   3.8097772463e+01    0.2233289    0.1147592  67.76 0.0007181075    1.748    0.428
       222 -11.3200    166.8018     32.5761   6.5009326637e+01   3.9293916482e+01    0.2682473    0.1980816  89.39 0.0008110776    1.327    0.247
       223 -10.2374     99.5438     33.0115   7.8481627274e+01   5.4174035936e+01    0.1814054    0.1248651 -25.64  0.001033377    1.604    0.376
       224 -10.7187     55.2120     33.5668   9.2341519482e+01   6.2022871948e+01    0.1698482   0.09821055  26.36 0.0009406733    1.633    0.388
       225 -10.4703    187.9475     32.5097   6.2060172047e+01   3.4454620186e+01    0.1933317    0.1115168  70.27 0.0005590033    1.539    0.350
       226 -12.3210    181.9999     27.7883   6.1733504761e+01   3.6374817981e+01    0.3466466    0.2190322 -88.32 0.0003432755    1.606    0.377
       227 -11.3016    148.4148     29.3080   6.7090151562e+01   4.3904131124e+01    0.3659506    0.2065009  82.01  0.001428232    2.149    0.535
       228 -12.1257    213.6997    243.2325   1.0269191056e+02  -8.8579877489e+00    0.2155265    0.2040526 -68.77  0.001435415    1.535    0.348
       229 -12.0712    203.3526     28.4866   5.9328690750e+01   3.1495962716e+01    0.3032349    0.1954075 -71.66  0.001023945    1.481    0.325
       230 -10.5703    157.5620    243.9271   1.1419504126e+02  -1.9257803580e-01    0.1876937    0.1320482 -47.60  0.001018796    1.573    0.364
       231 -11.8888    188.3692     27.5953   6.0885879377e+01   3.4952797598e+01    0.2587016    0.2170295  78.51 0.0006801394    1.088    0.081
       232 -12.4906    215.5032     32.0238   5.8755693112e+01   2.8402108643e+01    0.5317112    0.1776416  72.44  0.002157902    3.042    0.671
       233 -10.8851    161.8756     27.1810   6.4387581960e+01   4.1054688192e+01    0.1963912    0.1552127 -85.01 0.0005234841    1.239    0.193
       234 -11.2924    210.7339     25.2503   5.7858815049e+01   3.0272642258e+01    0.2440834    0.1409908  66.22  0.001067922    1.586    0.370
       235 -12.2145    226.2557     23.9127   5.6083300108e+01   2.7129587167e+01    0.4018598    0.1211741  61.87  0.001750074    3.025    0.669
       236 -10.3451     73.4185    218.4735   1.2900845661e+02   1.8856192601e+01    0.1374703    0.1177297  77.85   6.5573e-05    1.025    0.025
       237 -10.7080    106.9450     22.3880   7.3208999143e+01   5.3799553733e+01     0.196791    0.1695945   7.18  0.000262827    1.258    0.205
       238 -11.6730    235.0918     21.9540   5.4931247720e+01   2.5547403489e+01     0.178435    0.1359171 -78.27  0.000360176    1.005    0.005
       239 -10.2668    175.2478     22.6129   6.1392017843e+01   3.8502717764e+01    0.1743476   0.09971949  61.20 0.0004350771    1.534    0.348
       240 -11.5405    220.0369     29.0051   5.7680020259e+01   2.7811438775e+01    0.2249137    0.1400595  75.94  0.001049244    1.429    0.300
       241  -9.7522    168.5170     21.5307   6.2029530832e+01   4.0156320532e+01    0.1274076    0.1056149  83.25 0.0001687571    1.036    0.035
       242 -11.6417     16.0365     19.9795   1.0307621271e+02   6.8681783617e+01    0.2010246    0.1675846  -2.64 0.0003666136    1.263    0.208
       243 -11.0143    121.7408    243.2852   1.2170356555e+02   5.8472533306e+00    0.2487481    0.2201858  63.50 0.0008040695    1.090    0.083
       244  -9.7998     64.6666    243.7221   1.3367876284e+02   1.4520409148e+01    0.1109799    0.1018833 -18.40 0.0006999231    1.606    0.377
       245 -10.5471    193.9986     19.8743   5.8507974700e+01   3.4580106070e+01    0.1808461    0.1474692  86.84 0.0002862063    1.032    0.031
       246 -10.7556     21.7033    243.1227   1.4195399220e+02   2.0084673169e+01    0.1882148    0.1486005  57.90 0.0003104243    1.222    0.181
       247 -10.4140    182.6434     16.3192   5.9012072664e+01   3.7510129051e+01    0.2031526    0.1232732 -72.99  0.001112922    1.727    0.421
       248 -10.0335    162.4247     15.8016   6.1449836652e+01   4.2141646341e+01    0.1387538     0.123319   0.07 0.0003291202    1.498    0.332
       249 -10.6926     18.9609     16.4651   1.0030583391e+02   6.8833511891e+01    0.1512305   0.09037162  23.10 0.0003224811    1.517    0.341
       250 -10.7482     13.4482    242.3255   1.4341050621e+02   2.1161437665e+01    0.2087859   0.09138746 -72.18 0.0008615636    2.007    0.502
       251 -10.4557    222.3213     13.2983   5.4388342834e+01   2.9197384418e+01    0.1060307   0.08351333  56.11 0.0002943394    1.622    0.383
       252 -11.2182    205.9974     12.9321   5.5799952674e+01   3.2712288631e+01    0.1852017    0.1437744 -84.07 0.0004698301    1.027    0.026
       253 -10.2811      2.2493    242.7063   1.4543312499e+02   2.2246758610e+01    0.1415918    0.1134256 -78.35  0.001035402    1.346    0.257
       254 -12.0476    189.3445    241.6425   1.0724909983e+02  -4.9151226014e+00    0.4834797    0.1713708  30.39  0.001774368    3.199    0.687
       255 -10.8097     32.7376    242.3886   1.3982945019e+02   1.8955312041e+01    0.1883907    0.1486399  39.63 0.0006532875    1.467    0.319
       256 -11.4623    208.8240    240.8364   1.0323067886e+02  -7.7570349733e+00    0.2030476    0.1562765  -0.41  0.001017844    1.243    0.195
       257  -9.7189     76.6814     11.6879   7.7182099591e+01   6.0790126294e+01    0.1246097   0.07367665  27.03 0.0005296531    1.646    0.392
       258  -9.6819     91.9759    241.2157   1.2775786764e+02   1.1025825777e+01    0.1708014   0.09719279  40.93 0.0002757953    1.597    0.374
       259  -9.8566     56.6037    241.5161   1.3508534981e+02   1.6097860905e+01    0.1258306    0.1041333  76.18  0.000137749    1.036    0.035
       260 -10.5543    127.1570    238.0259   1.1980176972e+02   6.0109675579e+00    0.2559972    0.1827116  40.92  0.001289589    1.269    0.212
       261 -12.0446    235.0394    235.2710   9.7284612652e+01  -1.0605448250e+01    0.2852057    0.2149591  23.08  0.001081961    1.284    0.221
       262  -9.8717     53.0058    236.2134   1.3530174820e+02   1.7724061499e+01    0.1563151   0.09363241  41.20  0.000843505    1.606    0.377
       263 -16.4479    203.9867    114.5671   7.8538867869e+01   1.7522928845e+01     2.588134     1.367435 -68.62  0.008783895    3.465    0.711
       264 -11.9437    192.9495    232.7146   1.0499949990e+02  -3.9297006588e+00     0.332288    0.1905776 -37.39 0.0003282375    1.792    0.442
       265 -10.4793     32.0219    234.5210   1.3933317865e+02   2.0730335332e+01    0.2777018    0.1084789  70.71  0.001055248    3.575    0.720
