#   1 NUMBER                 Running object number                                     
#   2 MAG_AUTO               Kron-like elliptical aperture magnitude                    [mag]
#   3 X_IMAGE                Object position along x                                    [pixel]
#   4 Y_IMAGE                Object position along y                                    [pixel]
#   5 X_WORLD                Barycenter position along world x axis                     [deg]
#   6 Y_WORLD                Barycenter position along world y axis                     [deg]
#   7 A_WORLD                Profile RMS along major axis (world units)                 [deg]
#   8 B_WORLD                Profile RMS along minor axis (world units)                 [deg]
#   9 THETA_WORLD            Position angle (CCW/world-x)                               [deg]
#  10 FWHM_WORLD             FWHM assuming a gaussian core                              [deg]
#  11 ELONGATION             A_IMAGE/B_IMAGE                                           
#  12 ELLIPTICITY            1 - B_IMAGE/A_IMAGE                                       
         1 -12.4447    193.0558     57.4927   5.2392373383e+01   2.9631504489e+01    0.9040114    0.3596166 -31.89  0.003335968    2.514    0.602
         2  -9.3004     34.1023     11.3248   7.9804437328e+01   6.9733674819e+01    0.2173327    0.1302842 -20.72 0.0007178235    1.443    0.307
         3  -9.1030    140.3925      9.3313   4.6313089356e+01   4.8727141071e+01    0.2575941    0.1518409  67.43 0.0005119219    1.568    0.362
         4 -10.6051    110.4194      5.4327   5.0690172783e+01   5.6238648084e+01    0.4283997    0.1899129  32.88 0.0005069446    2.515    0.602
         5  -8.7455     18.7255      9.0393   8.6656145621e+01   7.1766067532e+01    0.1604105      0.11223 -19.45 0.0002350746    1.079    0.074
         6 -10.2192    116.7079      5.4119   4.9338039706e+01   5.4778664331e+01     0.234483    0.2185475  42.65 0.0002812491    1.086    0.079
         7 -10.0202     69.1682      4.7044   6.1785160588e+01   6.4985901769e+01    0.2669828    0.1627164  -4.28  0.001466815    1.658    0.397
         8  -8.3936    153.5820      2.8096   4.2126915174e+01   4.6021221436e+01    0.1711061    0.1190673 -39.87 0.0003323759    1.570    0.363
         9  -9.0938     64.4203      4.2745   6.3241193867e+01   6.5899932824e+01    0.1656336    0.1070682 -29.72 0.0009500835    1.684    0.406
        10  -9.2371     51.0988      3.1467   6.7808468418e+01   6.8294337516e+01     0.190652    0.1302378  10.93 0.0005053859    1.264    0.209
        11  -9.0405    121.6810      1.9310   4.7034127121e+01   5.3884589277e+01    0.1742231    0.1554993  28.86 0.0003509606    1.106    0.096
        12  -8.6444     14.8356      1.8444   8.5083460474e+01   7.3175511603e+01    0.1384822    0.1113724 -19.21 0.0002904089    1.276    0.216
        13  -8.5562    218.2992    224.6532   8.6261936977e+01  -4.0974794467e+00    0.1076238    0.1013996  62.77 0.0005254339    1.681    0.405
        14  -8.3959    225.7027    250.0413   8.9071324531e+01  -8.4236968807e+00    0.1499734   0.09197342 -54.80 0.0007032412    4.163    0.760
        15  -9.5304    210.7183    249.6647   9.1712875875e+01  -6.2681621451e+00    0.2468971    0.1635186  -6.57  0.001535818    1.600    0.375
        16 -10.1406    194.0626    249.9238   9.4819629192e+01  -3.8663033014e+00    0.2990719    0.1406778  43.54  0.001531115    2.035    0.509
        17  -9.1480    168.0340    249.6595   9.9681612389e+01   1.0412133098e-01     0.178617    0.1254005  31.95 0.0004966571    1.152    0.132
        18  -9.3752    228.5761    222.4008   8.3975852995e+01  -5.3347075034e+00    0.2275044    0.1016881  47.87 0.0009559105    3.301    0.697
        19  -8.3075    249.6756    219.7007   7.9743535867e+01  -8.0148779553e+00    0.1264458   0.07626705   4.30 0.0005454344    1.630    0.387
        20  -8.2691    240.0074    215.5120   8.0686676828e+01  -6.0922827192e+00    0.1521802    0.1064325  54.28 0.0008100071    2.502    0.600
        21  -9.0464    218.0388    212.3102   8.4135510787e+01  -2.3006247991e+00    0.1912206    0.1493728  19.47 0.0008822921    1.100    0.091
        22  -8.4271    241.6799    210.3239   7.9441222441e+01  -5.6369814734e+00    0.1044833    0.1033182 -50.91 0.0007045711    1.676    0.403
        23  -9.2395     73.1416    210.1339   1.1394324144e+02   2.1532067279e+01    0.1790498    0.1264902  67.14 0.0003772224    1.301    0.231
        24  -8.7152    230.3215    208.6562   8.1182019575e+01  -3.6919849913e+00    0.1102467    0.1058591 -87.80 0.0005963242    1.728    0.421
        25  -8.6848    244.0178    202.0000   7.7470277854e+01  -4.8353187142e+00     0.195389   0.06577813  38.74 0.0007999491    2.925    0.658
        26  -8.3117    159.6252    198.2682   9.3467618289e+01   1.0015351678e+01    0.1396511    0.1043593  62.66 0.0006992556    1.677    0.404
        27  -8.4219    247.5015    194.4823   7.5416984777e+01  -4.2991733458e+00    0.1277927    0.1051713  -4.13 0.0008095672    1.066    0.061
        28  -8.2817    243.6835    188.3246   7.4878399329e+01  -2.8187736655e+00    0.1142521    0.1048832 -55.91 0.0007043798    1.669    0.401
        29  -9.9556     77.8016    185.6651   1.1006574866e+02   2.6182259556e+01    0.2668156    0.2282151  37.40 0.0006717245    1.268    0.212
        30  -8.2201    224.3675    184.6907   7.7663951138e+01   8.9414562209e-01    0.1231357    0.1117515  88.42 0.0007036838    1.759    0.431
        31  -8.2222    212.2881    169.6132   7.6861178997e+01   5.5467614128e+00    0.1358197    0.1136813 -67.92  0.000701051    1.754    0.430
        32  -8.8216     67.4945    166.9240   1.1002347297e+02   3.1928623480e+01    0.1978565    0.1229042 -66.54 0.0004435543    1.495    0.331
        33  -8.3155    170.3254    168.6897   8.5447638415e+01   1.3763748877e+01    0.1448942    0.1199853  81.00 0.0007039279    1.657    0.396
        34  -8.7487    158.7682    160.0323   8.6246317987e+01   1.7822125668e+01    0.2004309    0.1255545 -45.37 0.0005963257    1.627    0.386
        35  -9.7532      2.7424    159.3980   1.2469887926e+02   4.0233584561e+01    0.1634775    0.1168645  89.65  0.000534396    1.086    0.079
        36  -8.8787    157.5234    153.5012   8.5115675506e+01   1.9453458973e+01    0.1513731    0.1472767   7.81 0.0001032453    1.011    0.011
        37  -8.9170    235.8454    148.1102   6.7808332468e+01   4.8763159627e+00    0.2107388     0.186089 -45.20 0.0008859683    1.299    0.230
        38  -9.6245    182.1453    142.2695   7.6952913841e+01   1.6660295470e+01    0.2960994    0.2042685 -66.00  0.001235892    2.139    0.532
        39  -9.7028    198.8255    140.7885   7.3097164384e+01   1.3452313978e+01    0.2352317    0.1900132 -73.84 0.0006444246    1.731    0.422
        40  -9.5813    173.0163    138.7253   7.8130695814e+01   1.9319041431e+01    0.3161283    0.1972512 -65.88  0.001171319    2.630    0.620
        41  -8.6649    193.3112    137.6509   7.3483785862e+01   1.5209609250e+01    0.1521144    0.1222907 -73.99 0.0006088834    1.716    0.417
        42  -8.5159    163.2923    135.6774   7.9628336258e+01   2.2038891774e+01    0.1540277    0.1263314 -82.75 0.0006269629    1.612    0.380
        43  -9.2029    179.7828    133.5699   7.5380023763e+01   1.8913831409e+01    0.2132304    0.1504697  56.98 0.0009449541    1.642    0.391
        44  -9.2594    192.9463    129.9620   7.1698818411e+01   1.6777011782e+01    0.2432195    0.1940596 -78.23  0.001132486    1.753    0.430
        45  -8.8708    186.4073    129.2064   7.2879818746e+01   1.8344791522e+01    0.2259383    0.1406978 -48.80 0.0009501718    1.706    0.414
        46  -8.8502    172.2907    129.0738   7.5936044569e+01   2.1463777329e+01    0.2315971    0.2039277 -34.31  0.001166372    1.107    0.096
        47  -8.8141    165.7997    126.9696   7.6893111739e+01   2.3327109186e+01    0.4392565    0.1087447 -48.10  0.001035866    5.132    0.805
        48 -10.1441    200.0432    126.3247   6.9371289101e+01   1.5940741186e+01    0.3237114    0.1837976 -59.24  0.001176668    2.753    0.637
        49  -9.5779    180.0218    125.4901   7.3325149336e+01   2.0488051218e+01    0.2928073    0.2163155 -53.98 0.0007616894    1.501    0.334
        50  -9.1734    188.9687    123.9757   7.1039319646e+01   1.8810159281e+01    0.2478001    0.1958178 -77.10  0.001137606    1.742    0.426
        51  -8.5248    170.2877    124.6191   7.5269279335e+01   2.2823452904e+01    0.1611551    0.1249706 -73.55 0.0007015052    1.737    0.424
        52 -10.2225      6.5616    124.2863   1.2059677446e+02   4.8166816644e+01    0.1981064    0.1316135 -37.64  0.001171338    1.761    0.432
        53 -10.4640      2.7818    122.3148   1.2142075716e+02   4.8858550275e+01     0.267925    0.1221287 -64.68  0.001006278    1.657    0.396
        54  -9.4562    194.4066    121.2018   6.9227141397e+01   1.8146681529e+01    0.2283416    0.1371048 -47.66 0.0009514993    1.735    0.424
        55  -9.5081    174.0008    119.5083   7.3126008888e+01   2.3038734350e+01    0.3023677    0.1560718 -45.68   0.00115009    1.957    0.489
        56  -8.2770    157.3455    119.6785   7.7020982998e+01   2.6734173400e+01    0.1621443    0.1284446 -86.12 0.0007049783    1.733    0.423
        57 -10.2675    191.1424    117.2746   6.8896239595e+01   1.9626605526e+01    0.4198072    0.1907649 -24.93  0.001291046    3.398    0.706
        58  -8.6821    199.6795    117.3181   6.7202495928e+01   1.7719144187e+01    0.1529655    0.1204887 -71.49 0.0005432729    1.664    0.399
        59  -9.6775    186.3866    115.2062   6.9345860004e+01   2.1096898316e+01     0.232732    0.1384469 -47.82 0.0007254207    1.748    0.428
        60 -10.5185     18.3356    118.8097   1.1661492849e+02   4.8687303909e+01    0.2532595    0.2082236  89.21  0.000560053    1.170    0.145
        61  -8.4536    168.5108    111.9937   7.2388780729e+01   2.5809277562e+01    0.2272581    0.1332875 -60.67 0.0008096869    2.493    0.599
        62 -10.0172      2.6224    112.2652   1.2035914949e+02   5.1237942071e+01    0.1983195    0.1392385  42.53  0.001265233    1.697    0.411
        63  -9.0831    177.5656    110.8078   7.0068031115e+01   2.3970210545e+01    0.2297878    0.1437509 -48.79 0.0009519477    1.675    0.403
        64  -9.7866    183.4158    109.6244   6.8510233316e+01   2.2858106564e+01    0.3216252     0.123655 -49.86 0.0009603951    3.335    0.700
        65  -9.6092    189.7910    108.9550   6.7022778415e+01   2.1525542815e+01    0.2621163    0.1733173 -61.02  0.001081069    1.984    0.496
        66  -8.3685     56.5342    108.4449   1.0308809132e+02   4.7585403654e+01    0.1394027    0.1236027 -60.75 0.0002744415    1.035    0.034
        67  -9.5653     13.7788    108.4056   1.1654781500e+02   5.1493808126e+01    0.1498184    0.1160596 -18.20 0.0004595114    1.601    0.375
        68 -10.3509      9.5878    107.7787   1.1773600343e+02   5.1903902006e+01    0.2285437     0.123025 -67.18  0.000779034    1.423    0.297
        69  -9.1111    206.4834    106.0016   6.3046183345e+01   1.8292342164e+01    0.2232193    0.1174478 -55.12 0.0008046141    2.543    0.607
        70  -9.1596    189.7765    104.0163   6.5727180742e+01   2.2463251946e+01    0.2135454    0.1228957 -37.51 0.0008740335    1.662    0.398
        71  -8.8435    160.4311    100.0090   7.0969898578e+01   3.0095228995e+01    0.2543923    0.1524613 -39.02 0.0009866036    1.634    0.388
        72  -9.0987    202.8183     98.2217   6.1712918317e+01   2.0522115966e+01    0.2644511    0.1615895 -69.98 0.0009606941    2.873    0.652
        73 -10.8281    195.1516     97.6592   6.2994000592e+01   2.2393548782e+01    0.3875405    0.2656008 -75.58  0.001595919    2.234    0.552
        74  -9.4274     30.5307     97.4239   1.0937645227e+02   5.2884586615e+01    0.1862532    0.1570116 -62.64  0.000586218    1.047    0.045
        75 -10.5516    213.0052     96.5144   5.9475008764e+01   1.8511708442e+01    0.4112986    0.2099875 -53.86  0.001553575    2.464    0.594
        76 -10.1114    176.5886     96.8551   6.6503456749e+01   2.6906279179e+01    0.3082089    0.1520378 -34.05  0.001144879    2.059    0.514
        77 -10.7611    184.2315     95.0981   6.4443453324e+01   2.5427077518e+01    0.5116528    0.2117383 -32.47  0.001734966    2.579    0.612
        78  -9.9735    183.4955     89.5176   6.3057295090e+01   2.6627089660e+01    0.2878535    0.2008512 -36.22  0.000995054    1.390    0.280
        79  -8.8126    171.0151     95.7304   6.7387061181e+01   2.8441669699e+01    0.2973476    0.1894569 -49.65 0.0009298599    1.667    0.400
        80  -9.4473    206.8157     94.5885   6.0053056612e+01   2.0250569571e+01    0.2015703    0.1470357  70.82  0.000669051    1.651    0.394
        81 -10.9422    189.3096     93.0878   6.2892099107e+01   2.4595374652e+01    0.3715436    0.2706139 -53.52  0.001723167    1.470    0.320
        82  -9.3577    164.4975     93.5585   6.8216745353e+01   3.0406600787e+01    0.3333813    0.1528129 -38.37  0.001202231    2.135    0.532
        83 -10.7271    196.9781     91.7648   6.1083610277e+01   2.3028012522e+01    0.3205447    0.2645847 -70.58  0.001599286    1.396    0.284
        84  -9.1809    197.3898     87.2132   5.9790728411e+01   2.3733192136e+01    0.2984394    0.1455307 -31.49 0.0008695521    2.096    0.523
        85  -9.8798    171.8955     90.9460   6.5851557699e+01   2.9140464663e+01    0.2887933    0.2117657 -43.78 0.0007715897    1.350    0.259
        86 -10.6947     25.0065     90.0504   1.0983634875e+02   5.5069913222e+01     0.297416    0.2144798 -42.93  0.000467272    1.258    0.205
        87  -9.6793     30.1917     86.9274   1.0738102423e+02   5.5390602878e+01     0.278064    0.2160996  -4.51 0.0009105607    1.509    0.337
        88  -8.0847    158.0000     89.9631   6.8665824921e+01   3.2643732806e+01    0.2643465   0.08861017 -38.24 0.0008016166    2.937    0.659
        89  -8.5446    150.7565     87.9849   6.9796077740e+01   3.4739863346e+01    0.2150612    0.1319442 -37.68 0.0006179839    1.610    0.379
        90  -8.5830    226.3187     87.6673   5.5106333290e+01   1.7048692545e+01     0.150391    0.1045591 -63.06 0.0007048451    1.694    0.410
        91  -9.3405    170.5116     83.4982   6.4017928303e+01   3.0851523771e+01    0.2973635    0.1541105 -32.61  0.001041447    1.984    0.496
        92  -8.8217    163.7191     86.4819   6.6355048511e+01   3.1940015923e+01    0.2954279    0.1372441 -37.03  0.001074027    2.121    0.529
        93  -9.1890    206.4837     84.9996   5.7609248166e+01   2.1982419202e+01    0.2387546    0.1407385 -34.48 0.0008090137    1.615    0.381
        94  -8.8027    200.6549     83.3075   5.8164248447e+01   2.3636649105e+01     0.237901    0.1682946 -65.52 0.0007863053    1.726    0.421
        95 -10.0927    185.1807     82.6909   6.0831262936e+01   2.7442784039e+01    0.2770246    0.2049012 -47.27  0.001307998    1.353    0.261
        96  -9.2251    159.2363     81.1444   6.5787554465e+01   3.4011638309e+01    0.3968717    0.2082941 -34.54  0.001544105    1.921    0.480
        97  -8.9683     31.4183     82.2203   1.0590687558e+02   5.6379849386e+01    0.2183378    0.1538683 -10.94  0.001195477    1.669    0.401
        98  -9.3156     10.4999     82.5397   1.1351744492e+02   5.7770227522e+01     0.125125   0.09771863 -58.75 0.0002146594    1.008    0.008
        99 -10.0720    206.7393     76.0391   5.5207667868e+01   2.3415506978e+01    0.6111748   0.09585505 -40.37  0.001518639    5.124    0.805
       100 -10.4710    211.0398     77.2812   5.4842741517e+01   2.2206108144e+01    0.2890902    0.2113726 -33.56  0.001441589    1.311    0.237
       101  -9.5013    201.2886     78.1289   5.6669116540e+01   2.4359971601e+01    0.2961538    0.1747151 -39.82  0.001160409    1.597    0.374
       102  -9.5443      2.0000     78.9911   1.1592344299e+02   5.9010114649e+01    0.2067952   0.05420227 -68.89  0.000802543    2.943    0.660
       103 -11.4882    183.9768     75.7666   5.9116035475e+01   2.8932687201e+01    0.5735236    0.2933637 -27.72  0.002204564    2.179    0.541
       104  -9.5275    174.5340     77.4503   6.1438539068e+01   3.0950858360e+01    0.3270815    0.1486161 -35.73  0.001206002    2.159    0.537
       105 -11.3426    195.3312     72.4743   5.6154597187e+01   2.6722173998e+01    0.7993675    0.2846651 -23.24   0.00189894    6.240    0.840
       106 -11.0241    203.1295     66.4041   5.3221072280e+01   2.5815741455e+01    0.4966945    0.1968629 -35.21   0.00184967    2.368    0.578
       107 -12.1549    197.5049     49.8119   4.9584433257e+01   2.9660518841e+01    0.6585814    0.3807369 -30.86  0.003000447    1.752    0.429
       108  -8.8200    147.1965    246.9524   1.0331559382e+02   3.7149671144e+00     0.184995    0.1420007  53.32 0.0008294987    1.306    0.235
       109  -9.4095    212.7586     66.9838   5.1898928102e+01   2.3441484456e+01    0.2272651    0.1472673 -36.05 0.0009459012    1.455    0.313
       110  -8.9385    170.6050     70.2252   6.0115348071e+01   3.3157615792e+01    0.2184845    0.1474965 -21.94 0.0009542402    1.675    0.403
       111  -9.5451    199.4541     69.0403   5.4524644258e+01   2.6282452327e+01    0.2314459      0.13971 -35.17  0.001029637    1.594    0.373
       112 -10.2264    187.4681     68.4993   5.6424450535e+01   2.9285630234e+01    0.3108123    0.1441078 -34.15 0.0009230884    2.112    0.526
       113  -9.0282    164.0000     64.9644   5.9880227926e+01   3.5668276524e+01    0.2514441   0.08621667 -33.73 0.0008008364    2.931    0.659
       114  -9.0851    171.3670     63.4179   5.7941685907e+01   3.4090182301e+01    0.3814813    0.1244081 -38.44  0.001241046    2.914    0.657
       115  -9.5005      8.4990     67.5174   1.1133712574e+02   6.1276465735e+01    0.1240937   0.09474102 -52.52 0.0008104381    1.001    0.001
       116  -9.0443    166.9952     77.2527   6.2938797590e+01   3.2829317938e+01    0.2934072    0.2005186 -20.31  0.001274142    1.697    0.411
       117  -8.9966    157.8812     60.9388   5.9915408741e+01   3.7839902966e+01    0.3174318     0.198477 -28.82  0.001387106    1.675    0.403
       118  -9.2011    206.5215     59.0523   5.0740240888e+01   2.6127432718e+01    0.2236881    0.1365936 -33.61  0.001032511    1.592    0.372
       119  -9.0497     21.7766     61.0099   1.0445020591e+02   6.1873922093e+01    0.1725008   0.08534869 -57.27 0.0006000602    1.658    0.397
       120  -8.7327      9.9712     56.2207   1.0815115672e+02   6.3657790959e+01    0.1363341   0.09635462   7.03 0.0005353329    1.652    0.395
       121  -8.5524    175.0000     54.9703   5.4746339693e+01   3.4497516218e+01    0.2416542   0.08397537 -31.82 0.0007076269    2.913    0.657
       122  -8.6824    221.3219     59.6609   4.8815418835e+01   2.2557536863e+01    0.1513122   0.09792762 -63.03 0.0005309206    1.718    0.418
       123  -8.1678    146.6908     57.6684   6.1318046738e+01   4.1119802017e+01    0.1574676    0.1152272  18.73 0.0003515802    1.669    0.401
       124  -9.8834    157.5631     75.1450   6.4359889122e+01   3.5504317412e+01    0.3770564     0.154032 -33.32  0.001285014    2.551    0.608
       125 -11.9303    195.4041     65.7423   5.4292302121e+01   2.7786653047e+01    0.7559099    0.4835505   8.45  0.002948218    2.779    0.640
       126  -9.8285    180.6070     45.7605   5.1070501406e+01   3.4423648404e+01    0.5481924    0.2266677 -54.49  0.001749121    3.698    0.730
       127  -8.8302     39.0564     76.1693   1.0160933256e+02   5.7064899267e+01    0.2089908    0.1510366 -32.05 0.0006077701    1.305    0.234
       128  -8.8400    163.2813     71.4491   6.1995327224e+01   3.4753745188e+01    0.2863042     0.134872 -35.26  0.001070835    2.109    0.526
       129  -8.7151    168.4721     36.0143   5.0172561682e+01   3.8778161513e+01    0.2113664    0.1411543 -30.02 0.0007028673    1.563    0.360
       130  -8.5590    173.4611     39.4946   5.0394213789e+01   3.7068599169e+01    0.1420684    0.1361421  70.59 6.953687e-05    1.019    0.019
       131  -9.1478    202.6893     31.6642   4.3989341262e+01   3.0800346640e+01     0.202039    0.1264998   6.82  0.000361959    2.796    0.642
       132  -8.2981    149.4065     34.1845   5.3028958966e+01   4.3804536327e+01    0.1915709    0.1317697 -40.07 0.0003677796    1.537    0.349
       133  -8.3476    238.4960     29.4221   3.9575373295e+01   2.2761302671e+01     0.128314    0.1097089 -66.37 -4.366367e-05    1.012    0.012
       134  -8.3626    125.4882     29.5083   5.6461794138e+01   5.0229942889e+01    0.1421405    0.1295397  35.03 -1.79346e-05    1.002    0.002
       135  -9.9315     30.7233     27.9880   8.9206015404e+01   6.7542818141e+01    0.3203226     0.187448 -10.77  0.001208026    1.833    0.455
       136 -10.5831    181.8989     68.7262   5.7499040721e+01   3.0618393375e+01    0.4511275    0.2303201 -22.37  0.001659854    2.534    0.605
       137  -9.2719     58.0406     28.0172   7.7001077567e+01   6.4006120525e+01    0.1605705    0.1315767  -2.98 0.0007714649    1.008    0.008
       138  -9.3836     42.1265     27.5463   8.3667646076e+01   6.6304968668e+01    0.1869988    0.1393058 -24.46  0.000436575    1.129    0.114
       139  -8.6384    136.6927     25.1393   5.2473308792e+01   4.8034403913e+01    0.1889288    0.1283666  -8.43 0.0004222757    1.718    0.418
       140  -9.0417    172.3584     24.2401   4.6003387591e+01   3.9212287181e+01     0.193863    0.1201377 -40.04   0.00053035    1.656    0.396
       141  -9.8547     85.0003     21.4740   6.4267479056e+01   6.0109534862e+01     0.235392    0.1759009 -36.63  0.000630871    1.535    0.349
       142  -8.8090     74.3163     20.3020   6.7329729707e+01   6.2303421243e+01    0.1376022   0.08834937  14.78 0.0003210312    1.619    0.382
       143  -8.2821     23.5008     15.4318   8.7218904059e+01   7.0324811953e+01    0.1204493   0.08942261 -15.52 0.0002607694    1.023    0.023
       144  -8.9877     29.8386     12.8630   8.2704984917e+01   7.0027001990e+01    0.1820067    0.1260583  -8.60 0.0003365261    1.199    0.166
       145  -8.1595    249.9595    244.9993   8.4030254509e+01  -1.1079503457e+01    0.1354816   0.09889939   4.86  0.000379424    1.037    0.036
       146  -8.1505    203.4772    243.4993   9.2101534381e+01  -4.4170069394e+00    0.1234524   0.09558865  18.06 0.0008100933    1.028    0.027
       147  -9.5179    177.6269    242.4652   9.6837811652e+01  -3.3578873339e-01    0.2049305    0.1775642   0.73 0.0005932315    1.196    0.164
       148  -8.3897    240.3336    240.6165   8.4973021156e+01  -9.3048895750e+00   0.09878208   0.09429747  48.39 0.0007008652    1.879    0.468
       149  -9.2591    207.6747    237.7235   9.0412456626e+01  -4.2740166278e+00    0.2418877    0.1310617  50.38  0.001166948    2.637    0.621
       150 -10.0689    190.5660    235.4864   9.3300526324e+01  -1.3423803865e+00     0.403646    0.2885495  78.37  0.001887174    3.593    0.722
       151  -7.7972    244.3046    236.6915   8.3626323908e+01  -9.3740738069e+00   0.09802317   0.09024207  21.85 0.0004254458    1.608    0.378
       152 -10.4359    203.8103    232.6860   9.0328077831e+01  -2.9973638837e+00    0.2120085    0.1906029   6.12 0.0003292563    1.204    0.170
       153  -8.3332    229.6661    228.3472   8.4808116931e+01  -6.2837872293e+00    0.1055486   0.09882025  56.06 0.0003464128    1.771    0.435
       154  -8.6721    206.3779    226.1658   8.8764499369e+01  -2.4735960860e+00    0.1593551    0.1173239 -43.67 0.0009469871    1.727    0.421
