#   1 NUMBER                 Running object number                                     
#   2 MAG_AUTO               Kron-like elliptical aperture magnitude                    [mag]
#   3 X_IMAGE                Object position along x                                    [pixel]
#   4 Y_IMAGE                Object position along y                                    [pixel]
#   5 X_WORLD                Barycenter position along world x axis                     [deg]
#   6 Y_WORLD                Barycenter position along world y axis                     [deg]
#   7 A_WORLD                Profile RMS along major axis (world units)                 [deg]
#   8 B_WORLD                Profile RMS along minor axis (world units)                 [deg]
#   9 THETA_WORLD            Position angle (CCW/world-x)                               [deg]
#  10 FWHM_WORLD             FWHM assuming a gaussian core                              [deg]
#  11 ELONGATION             A_IMAGE/B_IMAGE                                           
#  12 ELLIPTICITY            1 - B_IMAGE/A_IMAGE                                       
         1 -10.9304    111.0708     40.3273   2.1052994154e+01   5.2383444104e+01    0.9942338    0.7632234  -0.29   0.00487349    1.782    0.439
         2 -11.5441     78.8519     35.6162   2.9245345986e+01   6.0689499606e+01    0.7744738    0.4997102 -32.36  0.003771511    1.697    0.411
         3 -12.4177     58.2109     29.4928   3.5085992408e+01   6.5882928197e+01    0.6893879    0.3487647 -28.25  0.001186096    2.463    0.594
         4 -12.2498    104.7342     12.4852   1.1745755402e+01   5.7573136614e+01     1.085267    0.5913502  -1.44  0.001484348    3.124    0.680
         5 -12.6087    105.6322     20.0152   1.4589467889e+01   5.6503422862e+01    0.4655761    0.3596541 -61.92 0.0003787263    1.455    0.313
         6 -11.9419     26.3820     27.9153   5.2164393725e+01   7.1056933651e+01     0.526961    0.4412373 -21.96  0.002650429    1.078    0.072
         7 -11.1940     20.4644     21.6587   5.3321167341e+01   7.2893558838e+01    0.7105987    0.3890435 -34.96  0.002039092    1.765    0.433
         8 -10.4222      5.7939      9.0735   5.8702460944e+01   7.6543031898e+01    0.4622147    0.4189189 -14.35  0.002951276    1.175    0.149
         9 -10.9921      9.4778     19.5582   6.0543566451e+01   7.4286823031e+01    0.4010231    0.2191754 -10.65  0.001025639    1.997    0.499
        10 -12.0548     22.8902     10.9971   4.5994593988e+01   7.4486338401e+01    0.6193649    0.4526801 -20.91  0.002997055    1.289    0.224
        11 -11.1025     12.8296      8.3686   5.2325813137e+01   7.6057033932e+01     0.453969    0.2786655 -55.65  0.001810738    1.938    0.484
        12 -11.1253     17.3661     10.7322   5.0011571419e+01   7.5179893535e+01    0.3482357    0.1853291 -38.34   0.00109465    1.773    0.436
        13 -11.5443    134.4610     22.2377   9.5500164753e+00   4.8856202251e+01     0.573971     0.410406 -70.11  0.002970843    1.459    0.315
        14 -11.2417    120.8809     11.6838   8.1997987570e+00   5.3537984720e+01    0.7489194    0.1921715  64.04  0.002279228    3.041    0.671
        15 -11.8992    134.7749     14.9605   7.0215304475e+00   4.9602149760e+01    0.7955769    0.2534298  64.18  0.002964074    2.569    0.611
        16 -12.2410     48.9326     12.9696   3.1122713723e+01   7.0093970488e+01    0.8032525    0.2658185  45.84  0.003180478    2.737    0.635
        17 -11.5331     35.5867     17.5840   4.1174033026e+01   7.1660779610e+01    0.5818871    0.3321122 -29.12  0.002832289    1.883    0.469
        18 -10.7913     68.4022     19.6074   2.5904939504e+01   6.5303026823e+01    0.3942545    0.3418485 -30.77  0.002193394    1.266    0.210
        19 -11.8470    165.1911     17.7297   3.7335026572e+00   4.1508652471e+01     0.569892     0.295124  47.95  0.002542259    2.370    0.578
        20 -10.7497     89.2249      8.4540   1.3774044984e+01   6.1825839308e+01    0.5533056    0.3961603 -48.56  0.003022497    1.624    0.384
        21 -11.8564    212.2656      9.3862   3.5733113515e+02   3.1303779444e+01    0.5483915    0.3400729 -20.01   0.00230242    2.181    0.541
        22 -11.5069    206.3194      2.3273   3.5609488281e+02   3.3371829460e+01    0.5603273    0.2128549  86.64   0.00249832    2.583    0.613
        23 -10.5518    218.5041      3.5251   3.5561431478e+02   3.0580919845e+01    0.2774903    0.2011215  77.83 0.0008340574    1.402    0.287
        24 -10.8055    223.6616      2.7087   3.5513854624e+02   2.9573197484e+01    0.2439168    0.1779815 -72.43 0.0002824021    1.085    0.079
        25 -11.7951    227.6534     14.8901   3.5752921224e+02   2.7403273459e+01    0.4590986     0.220801 -76.53  0.001505075    2.064    0.515
        26 -11.5049    186.7676     15.0179   7.3481543530e-01   3.6525034688e+01    0.4338585    0.2396214 -76.48  0.002154788    1.767    0.434
        27 -11.2666    190.6975     12.5306   3.5974609098e+02   3.5870490528e+01    0.3432274    0.1965979 -45.30  0.001795221    1.558    0.358
        28 -11.6729    192.9466      7.1525   3.5820832900e+02   3.5924138863e+01     0.365901    0.3362639   0.32  0.002063441    1.543    0.352
        29 -10.5629    128.5343     12.4719   7.1673009224e+00   5.1481058654e+01     0.299225    0.2405246 -66.83  0.001037239    1.252    0.201
        30 -10.2044    218.4539     12.8734   3.5769871857e+02   2.9572827226e+01    0.2405541    0.1978502 -30.09  0.001595708    1.475    0.322
        31 -10.5147    164.6777      4.4823   3.5997544946e+02   4.3043346152e+01    0.3133169    0.2200301  28.85  0.001429751    2.130    0.531
        32 -11.2910    168.7850      9.6112   1.0211049073e+00   4.1498511200e+01    0.4742354    0.2301399  61.01  0.001662737    1.974    0.493
        33 -10.7954     86.2808     13.5896   1.6938893300e+01   6.1986428392e+01    0.8752384    0.4359106  28.59  0.003379815    3.108    0.678
        34 -11.1796     64.2795     10.0929   2.2665681048e+01   6.7377815058e+01    0.3721118    0.3010346 -84.39  0.000284909    1.707    0.414
        35 -10.0230     64.3957      6.7202   2.0814089015e+01   6.7732378965e+01    0.3285831    0.2090266  77.34  0.001023637    2.258    0.557
        36  -9.5426    145.1079      9.2618   3.6500179890e+00   4.7532154350e+01     0.303472    0.1716154   3.07   0.00124356    3.344    0.701
        37  -9.9091      1.0865      8.4366   6.2580754722e+01   7.6978002093e+01    0.3658777   0.05889708 -58.83  0.001245617    4.949    0.798
        38 -10.4454      2.0661      2.0638   5.8382545882e+01   7.8070815423e+01    0.2389593    0.1433909 -30.11  0.001093317    1.448    0.309
        39  -9.5634    245.5086      9.4755   3.5535796152e+02   2.4443564449e+01    0.1168308   0.08605724 -61.21 0.0002296066    1.014    0.014
        40 -11.7114    154.5770      6.9389   1.7706412874e+00   4.5344834511e+01    0.7003462    0.3128319  79.38  0.002732387    2.053    0.513
        41 -11.4886    184.6783      6.4384   3.5869456914e+02   3.7953014770e+01    0.4424328    0.2200266 -63.23  0.002022597    1.883    0.469
        42  -9.7718     77.7501      7.2187   1.6475490700e+01   6.4677661483e+01    0.6175753    0.2534941  68.15  0.002369085    2.852    0.649
        43 -10.5526     74.9783      3.0259   1.5231397942e+01   6.5733894156e+01    0.6035931    0.2003586  54.19  0.002445736    2.362    0.577
        44 -10.3308    232.0887      6.6073   3.5549752568e+02   2.7414161686e+01    0.2139598    0.1204391 -52.34  0.001290176    1.364    0.267
        45 -10.0578    122.0371      5.9764   5.8953712105e+00   5.3802471144e+01    0.2999449    0.1735585 -15.37   0.00134672    2.238    0.553
        46 -10.9072    243.6829      4.3332   3.5442391838e+02   2.5356195912e+01    0.5056414    0.1786369 -74.83  0.002259781    3.141    0.682
        47  -9.8811    245.8805      1.4016   3.5373731731e+02   2.5244075063e+01    0.1895932    0.1165226  81.72 0.0003882272    1.622    0.383
        48 -10.7946    176.2467      5.9040   3.5928285538e+02   4.0044431700e+01    0.3149076    0.1695161  82.82 0.0009338913    1.656    0.396
        49 -11.8248    137.8434      4.1356   2.9267406693e+00   4.9899656986e+01    0.6214749    0.2475407  67.61 0.0003975707    2.076    0.518
        50 -12.0616    133.1857      2.6096   3.0340326604e+00   5.1239181186e+01    0.4923543     0.326635  68.45  0.002666727    1.297    0.229
        51 -10.0598    116.4007      3.6920   5.9821080132e+00   5.5461010198e+01    0.3238246    0.2024874 -24.53   0.00129158    1.860    0.462
        52 -10.7166    113.0784      1.8915   5.8593376131e+00   5.6470520400e+01    0.3934268    0.2167409  75.82  0.001544902    1.632    0.387
        53 -10.7400     41.6044      3.8793   2.9604233239e+01   7.2611800783e+01    0.3733098    0.2200848  22.94  0.001933169    1.879    0.468
        54 -10.8583    234.0928      2.5207   3.5453838214e+02   2.7446127296e+01    0.3417614    0.1794102 -67.10  0.001250827    1.565    0.361
        55 -10.7253    105.5449      2.1315   7.3332264143e+00   5.8364902130e+01    0.3790008     0.220829  85.78  0.001280054    1.812    0.448
        56  -9.0988     64.3682      2.1860   1.8349382403e+01   6.8208057475e+01    0.1556965    0.1192781 -33.98 0.0004504182    1.501    0.334
        57  -9.1499     33.9835      1.7695   3.2688251999e+01   7.4199742956e+01     0.173471    0.1185019  -1.84 0.0007677989    1.600    0.375
        58 -10.9847     15.1617     15.8176   5.4409198039e+01   7.4507950524e+01    0.3289121    0.2641023   5.19 0.0009762236    1.142    0.125
        59 -10.6147    187.3183      1.5517   3.5722960741e+02   3.7822490603e+01    0.3145549    0.1035707  74.30  0.001310172    2.647    0.622
        60  -9.3218    159.8579      1.3863   3.5955362342e+02   4.4547961549e+01    0.1900103    0.1017855  66.33  0.000940271    1.673    0.402
        61  -9.9876    152.3008      1.4405   3.4713255452e-01   4.6450788380e+01     0.252369    0.1135829  76.55 0.0004925652    1.922    0.480
        62  -9.4958    123.1906      1.2389   3.9791003787e+00   5.3934190238e+01    0.3310495     0.103459  73.78  0.001180046    2.909    0.656
        63 -10.3335     82.1751      1.3191   1.2304180013e+01   6.4198776445e+01    0.2255469    0.1039303  61.26 0.0003648682    1.818    0.450
        64  -9.0843     28.9167      1.4961   3.5785089882e+01   7.5051322781e+01    0.1728479    0.1062519  35.64 0.0004728546    1.468    0.319
        65 -10.6376     12.5448    111.5442   7.8717271544e+01   5.2106997313e+01    0.4580736    0.2068045 -83.83  0.001501856    2.136    0.532
        66 -11.3529     16.5315    109.8223   7.6998839122e+01   5.2287100723e+01    0.3886645    0.3268175  76.68 0.0002472334    1.148    0.129
        67 -12.0149      2.4782    111.4313   8.2488494834e+01   5.2722936496e+01    0.5084636    0.3102252  76.77  0.001818598    1.588    0.370
        68 -11.6295      4.9114    106.9737   8.1174302758e+01   5.3755993407e+01    0.6003606    0.3707046  79.73  0.003091583    1.587    0.370
        69  -9.6147     78.9842    115.0312   5.4528981992e+01   4.3253878907e+01    0.2336044    0.2305172  53.10 0.0007030023    1.054    0.052
        70 -11.5690      9.2077     97.1789   7.8427617461e+01   5.6068080387e+01     0.519559    0.4402587   3.46 0.0004729894    1.341    0.254
        71 -11.1756     30.7819     97.4817   6.9464102472e+01   5.4360930717e+01      1.33292    0.6452717 -29.04  0.004988928    3.034    0.670
        72 -10.9942     17.1938    100.7226   7.5591141863e+01   5.4633690551e+01    0.5013449    0.3343787  41.91 0.0004357131    1.571    0.363
        73 -10.7613     52.0767     87.1204   5.8242338906e+01   5.4564180209e+01    0.6384096    0.1835022 -53.39 0.0003448997    3.077    0.675
        74 -11.7048     22.3416     93.8315   7.2425825139e+01   5.6048435351e+01     0.770466    0.5449898  46.91  0.002486549    1.509    0.337
        75 -10.6907     36.5082     91.5216   6.5909120182e+01   5.5337082375e+01    0.5317508    0.3400398  -8.89  0.002411881    2.065    0.516
        76 -10.0105     27.3393     85.6566   6.8789032608e+01   5.7740348838e+01     1.091599    0.7055042 -18.20  0.005273796    1.877    0.467
        77 -10.5721     19.0011     86.2086   7.2645447866e+01   5.8272676345e+01    0.4836762    0.2967952  -7.13  0.002344926    1.983    0.496
        78 -11.7100     45.0075     84.2089   6.0580533297e+01   5.6222239716e+01    0.9111861    0.5620194  80.60 0.0009647656    2.469    0.595
        79 -10.2783     37.3054     85.5511   6.4300010288e+01   5.6781944728e+01    0.5055098     0.249497  16.03  0.002046435    2.410    0.585
        80 -10.6719     35.5555    102.8739   6.8444241241e+01   5.2471525625e+01    0.6821955    0.3386796   4.50  0.002102973    3.026    0.670
        81 -11.6728     25.7450    107.2880   7.3069913182e+01   5.2231710311e+01    0.7329143    0.3675678 -41.37  0.002990429    2.247    0.555
        82 -11.4005     21.8840    114.2935   7.5498513829e+01   5.0696134190e+01    0.5081284    0.2859553   4.29   0.00215057    2.272    0.560
        83 -11.4076     28.3822    112.9299   7.2848398638e+01   5.0500258342e+01    0.3980004    0.2939471  29.36  0.001250553    1.421    0.296
        84  -8.6979     67.3670    114.6724   5.8552151551e+01   4.5238750216e+01    0.1678559    0.1117125  65.69 0.0007035895    1.809    0.447
        85  -9.2685     85.8010    113.0219   5.1736330803e+01   4.2565244071e+01    0.2567712    0.1768026  85.80 0.0008814322    1.986    0.496
        86  -9.7922     48.7264    112.0884   6.4941562000e+01   4.8528216333e+01    0.2523477    0.1938193  46.28 0.0007189485    1.313    0.239
        87 -11.9226     79.9368    107.9866   5.2572563502e+01   4.4885895948e+01     0.422064    0.3529022  22.50 0.0007833386    1.308    0.236
        88 -10.8640     10.3007    126.5825   8.0966649206e+01   4.8302226382e+01    0.3153337    0.2650758 -66.80  0.001229141    1.158    0.136
        89  -9.5521    174.0128    108.4739   2.6934043784e+01   2.4847192428e+01    0.2251237    0.1462617  55.83  0.001029763    1.630    0.387
        90  -9.7110     85.8635    103.5927   4.9421656892e+01   4.4914499883e+01    0.2519929    0.2144011 -41.26 0.0005749387    1.246    0.197
        91 -11.1040     50.5013    100.5594   6.1975356965e+01   5.1334268283e+01    0.6818786    0.4000683 -28.72  0.002749889    2.375    0.579
        92 -12.1527     67.1809     95.1066   5.4123450412e+01   5.0293409314e+01    0.4852894    0.4264832 -23.53  0.001241711    1.261    0.207
        93  -9.6812    210.1890     98.1598   1.8234021713e+01   1.9132799345e+01    0.1892035    0.1736993 -26.27 0.0004053728    1.167    0.143
        94  -9.9884     67.3875     81.4359   5.0351230487e+01   5.3610405881e+01    0.3736047    0.2677224 -33.44  0.001745539    1.576    0.365
        95 -10.0936     81.2127     98.3694   4.9723058336e+01   4.7062651615e+01    0.3154224    0.2322845  43.94  0.001051007    1.342    0.255
        96 -11.1111     79.1892     92.7820   4.8974322720e+01   4.8800013794e+01    0.7790475    0.6320198 -52.50  0.003865094    1.237    0.192
        97 -12.2940     76.1197     79.6428   4.6369836997e+01   5.2486551796e+01    0.8765565    0.5848395  66.16  0.003704143    2.045    0.511
        98 -12.0971    125.6099     94.4536   3.4577570394e+01   3.8685817714e+01     0.420944    0.2898286  56.88 0.0002448393    1.481    0.325
        99 -10.1913     42.8040     94.3895   6.3825375649e+01   5.3891190254e+01    0.3361144    0.2701468  16.37  0.001268333    1.349    0.259
       100 -10.3819     43.1387     90.8992   6.2933694282e+01   5.4750934262e+01    0.2803781    0.2144939 -43.57 0.0004586757    1.310    0.237
       101  -9.7793     98.1814     90.8805   4.1809675181e+01   4.5523415910e+01    0.2290446     0.205256  76.20  0.000354438    1.167    0.143
       102 -10.3937     90.3250     86.2891   4.3141278335e+01   4.8196605846e+01    0.5200146    0.3061785 -55.40  0.002150503    1.796    0.443
       103 -10.8952      1.9365     71.8483   7.8447767263e+01   6.2853029348e+01    0.5636472    0.1723449 -68.74  0.002252438    2.570    0.611
       104 -11.4364      5.9068     88.0056   7.8726580300e+01   5.8607476833e+01    0.6877496    0.3988495  10.31  0.003508595    1.955    0.489
       105 -10.8814      3.0880     82.1878   7.9264647920e+01   6.0217349950e+01    0.4233505    0.2651454 -81.34  0.002190877    1.470    0.320
       106  -9.9171     67.0222     88.4892   5.2462365590e+01   5.1963047426e+01    0.2873438    0.1994409 -39.42 0.0006176382    1.554    0.357
       107  -9.4416    111.3734     88.1832   3.6869233809e+01   4.3274450910e+01    0.2667542    0.2097494  36.59  0.001000851    1.338    0.253
       108 -10.2144    143.1142     84.2022   2.7249230688e+01   3.6698611435e+01    0.2458396    0.2144014 -52.52 0.0004913652    1.143    0.125
       109 -10.0583    112.8004     83.1980   3.4967548875e+01   4.4031821758e+01    0.5040745     0.273412  61.44   0.00185123    2.300    0.565
       110  -9.8519     59.5415     83.2251   5.4081636875e+01   5.4443274290e+01    0.2770642    0.2076968  33.23  0.001225081    1.347    0.257
       111  -9.4473    103.2249     79.9697   3.6928324779e+01   4.6873659619e+01    0.2155197    0.2013769 -54.23 0.0004981875    1.097    0.089
       112 -11.0175     53.2783     76.5496   5.4921695340e+01   5.6995724131e+01    0.5381181    0.3566379 -64.33   0.00253749    1.594    0.373
       113  -9.2294     92.4913     71.5237   3.7801638376e+01   5.1013944477e+01    0.2630669    0.1523282 -47.02 0.0008758702    1.783    0.439
       114 -10.7499     89.2764     77.6766   4.0897677145e+01   5.0357226780e+01    0.5254976    0.3121765  48.41  0.001344187    1.678    0.404
       115 -10.5640     94.4288     76.2823   3.8670995711e+01   4.9581992195e+01    0.3939272    0.3094921  51.80 0.0006238672    1.254    0.202
       116  -9.2347    118.9397     78.2559   3.1697639994e+01   4.3643818984e+01    0.2067298     0.196005  70.54 0.0002999649    1.008    0.008
       117 -10.1084     58.1926     77.5125   5.3054459387e+01   5.6031942577e+01    0.2616909    0.2017395 -56.49 0.0005393829    1.290    0.225
       118  -8.8086    181.7301     76.2723   1.7434529375e+01   2.8995036651e+01    0.1421721    0.1032764 -70.29 0.0001879633    1.478    0.323
       119 -10.0970     46.7172     75.4361   5.7559936660e+01   5.8170334270e+01    0.3129133    0.2004832 -44.18  0.001235712    1.545    0.353
       120 -11.1336     13.9876     74.4958   7.2971446912e+01   6.1580114605e+01     0.398817    0.2719723 -82.33  0.002135717    1.485    0.327
       121  -9.7427     13.8229     67.2895   7.1699203196e+01   6.3373735420e+01    0.4233191    0.1808514  11.35  0.001814223    2.628    0.619
       122  -9.4739    103.2724     74.6945   3.5259637377e+01   4.7983058630e+01    0.2840991    0.1878103  52.13  0.001249612    1.487    0.327
       123 -10.9100     26.9273     73.1838   6.6376540812e+01   6.0918406943e+01     1.050378    0.4536564  -0.16  0.003575899    3.988    0.749
       124 -11.6285     40.6295     68.9739   5.8632196130e+01   6.0495162067e+01    0.4218282    0.2850181  22.93 0.0005454179    1.538    0.350
       125 -11.8642     42.3537     59.6696   5.4994872414e+01   6.2445006289e+01    0.6742111     0.449807 -86.06  0.001789214    2.330    0.571
       126 -12.0037     46.4883     59.4526   5.2871015021e+01   6.1936456480e+01    0.8587175    0.4621296  31.32  0.003880841    1.858    0.462
       127 -10.9155    248.1453     96.2850   1.2862759871e+01   1.2432608987e+01    0.1773222    0.1574477  13.56  0.001207354    1.454    0.312
       128 -10.4110     80.1110     70.8703   4.2075494231e+01   5.3699606708e+01    0.6613176    0.3826295 -68.35  0.002458772    2.722    0.633
       129 -10.1105    247.3086     72.6458   8.1254826361e+00   1.6031793289e+01     0.131895   0.07528179 -58.87 0.0007043051    1.722    0.419
       130  -9.0567    154.0504     72.2290   2.1442278200e+01   3.6301328043e+01    0.2015587    0.1214956  57.27 0.0005337549    1.630    0.387
       131 -11.0322     40.0236     73.1454   6.0056950837e+01   5.9563021693e+01    0.6063603    0.2604385  27.97  0.002181142    2.356    0.576
       132 -10.2396    122.3997     68.7439   2.7786441505e+01   4.4696502861e+01    0.4599949    0.2374935  49.35  0.001431159    1.871    0.466
       133 -10.1519     96.5169     65.9025   3.4561695838e+01   5.1295188201e+01     0.259064    0.2338763 -35.58 0.0003541915    1.176    0.150
       134 -11.1078     92.7924     62.6146   3.4687138272e+01   5.2774893493e+01    0.4511891    0.3193622  68.32  0.001024189    1.718    0.418
       135 -12.4251      5.9498     61.9522   7.4814701446e+01   6.5104477898e+01    0.6809357    0.4211201  -8.89  0.003659955    1.775    0.437
       136 -10.9169      9.8372     56.8340   7.1677900233e+01   6.6131734038e+01    0.3219412    0.2371326  59.24  0.001296229    1.653    0.395
       137  -9.4072    201.7826     64.6119   1.1538117484e+01   2.6347000989e+01    0.1824939    0.1241128  83.52 0.0004769061    1.602    0.376
       138 -10.3230    105.4422     63.3492   3.0849147134e+01   4.9764142807e+01    0.3617669    0.2549596  49.49  0.001013949    1.356    0.262
       139  -9.9880    158.7625     62.8938   1.7848941564e+01   3.6761683232e+01    0.2482787    0.1857952  53.37 0.0003114704    1.374    0.272
       140  -9.7658     84.6442     62.3960   3.7499633582e+01   5.4566331557e+01    0.2892031    0.1889019 -41.96   0.00131459    1.598    0.374
       141 -10.1543     58.6420     62.4344   4.8148530043e+01   5.9431029583e+01    0.5182391    0.2710327  28.36  0.002154039    2.087    0.521
       142  -9.0178    150.7682     60.9704   1.8829991919e+01   3.9069632036e+01    0.1833207    0.1234565 -39.13 0.0004122177    1.524    0.344
       143  -9.8793    113.6387     60.9006   2.7618599591e+01   4.8282081851e+01    0.2645416     0.238765 -54.89  0.001220043    1.147    0.128
       144 -10.7983     31.6774     53.0602   5.8478111869e+01   6.5214891944e+01    0.5147219    0.2342016  19.50  0.002176262    2.427    0.588
       145  -9.8142     29.8448     59.8546   6.1508637342e+01   6.3849912926e+01    0.3228585    0.2152493 -64.51  0.001669043    1.514    0.340
       146 -11.4522     25.5105     56.6316   6.2928939684e+01   6.5019981815e+01    0.5593997    0.3490862 -59.38  0.001435963    1.509    0.337
       147 -11.1237    117.7900     55.1709   2.4546346371e+01   4.8296313046e+01     1.291291    0.7136963 -75.85  0.003821225    4.489    0.777
       148 -10.3099    122.5076     44.5376   1.9703147822e+01   4.8869887472e+01    0.3361312    0.2705478  80.62  0.001115051    1.249    0.199
       149 -10.8347     49.6440    248.5978   7.9021691728e+01   1.5810622840e+01    0.3529117    0.1126479  49.09  0.001601173    2.406    0.584
       150 -10.6545    120.1855     40.6109   1.8879261786e+01   5.0056362504e+01    0.3585647    0.1619311  58.81 0.0002814003    2.025    0.506
       151 -11.6638    119.0194     37.0046   1.7867739647e+01   5.0882747044e+01    0.4976709    0.3687783  86.74  0.001256575    1.470    0.320
       152 -10.6738     88.2971     55.3602   3.3653257420e+01   5.5167657325e+01    0.7014094    0.2600594 -32.68  0.002051087    4.287    0.767
       153 -11.7113     76.3749     52.9694   3.7206543838e+01   5.8137395287e+01    0.5435682    0.4212267  -2.18  0.001047268    1.643    0.391
       154  -9.4847    106.5343     58.4735   2.8845856547e+01   5.0425147232e+01     0.152292      0.14268  72.67 0.0001472917    1.042    0.040
       155 -10.2578     13.8937     56.3692   6.9303966173e+01   6.5996453851e+01    0.3031792    0.1927585 -27.97 0.0007861223    1.589    0.371
       156 -11.0496     72.9254     47.5277   3.6475244638e+01   5.9865707180e+01     1.130096    0.3905335 -52.77  0.003305859    4.640    0.784
       157 -10.1052    157.0718     54.7240   1.5791638586e+01   3.8515649672e+01    0.4554344    0.2792849 -68.05  0.001967645    1.959    0.490
       158 -11.4192    154.9739     48.8195   1.4420201502e+01   3.9962188741e+01    0.3119866    0.2193242 -33.32 0.0005036673    1.548    0.354
       159  -9.6735    124.7805     56.2135   2.3108269690e+01   4.6385590936e+01    0.2008956    0.1800807  19.35 0.0007809991    1.334    0.250
       160 -11.5293    117.1484     45.3175   2.1290926544e+01   5.0093204288e+01    0.6707078    0.4745011 -24.34  0.002817921    1.710    0.415
       161  -9.4024     33.6624     56.8092   5.8583874907e+01   6.4147015167e+01    0.2022474   0.09012354  34.84 0.0006743735    2.274    0.560
       162 -10.3043     60.5662     51.7918   4.3457143201e+01   6.1358872737e+01    0.5056017    0.2561658 -56.76  0.002042347    2.449    0.592
       163 -10.5993     61.5470     46.1773   4.0817343665e+01   6.2293935766e+01    0.4664635    0.3323544  -2.50  0.002233098    1.869    0.465
       164  -9.8924     55.4561     50.4374   4.5315193036e+01   6.2503163300e+01    0.2346283    0.1795929  18.28 9.891798e-05    1.370    0.270
       165 -10.0270     52.4215     48.4653   4.6021499867e+01   6.3399072464e+01    0.2971442    0.2388998  32.43 0.0006529517    1.217    0.178
       166 -10.6414     46.8831     48.8465   4.8933535123e+01   6.4173858451e+01     0.578467    0.2837064 -34.03  0.002346081    2.492    0.599
       167 -11.9808     42.8001     44.3814   4.9353335187e+01   6.5686094009e+01    0.6094513    0.5433534  36.87  0.001501493    1.199    0.166
       168  -8.8271     93.5313     52.4794   3.0794257282e+01   5.4537251395e+01    0.1487023    0.1404754  45.82 0.0004298466    1.021    0.021
       169 -10.3266    243.9040     51.4718   4.0607807209e+00   1.9595765614e+01    0.1977834    0.1134179  80.85 0.0005296604    1.986    0.496
       170  -9.6030    239.9014     50.8646   4.2825221205e+00   2.0439262850e+01    0.1723697    0.1569297 -48.49 0.0007522082    1.240    0.194
       171  -9.2485     10.7763     51.5776   6.9948057275e+01   6.7312358203e+01     0.153758    0.1179785  25.73 0.0002901151    1.424    0.298
       172  -9.7640    188.9592     49.4048   9.4138897335e+00   3.1556344612e+01     0.232501    0.1641178 -53.68 0.0004216596    1.283    0.220
       173 -10.0432    145.6786     43.7227   1.4548460243e+01   4.3089047613e+01    0.4133691    0.1944393 -51.42  0.001618248    2.336    0.572
       174  -9.8302      1.8139     48.5338   7.4567961933e+01   6.8458014829e+01     0.267568    0.1616254 -67.85  0.001276437    1.488    0.328
       175 -11.1643     20.8507     45.9408   6.2423744952e+01   6.7864651721e+01    0.3619171    0.2590095 -46.61  0.001069982    1.259    0.205
       176 -10.2611     13.2552     46.2333   6.7096894282e+01   6.8381976306e+01    0.3419213    0.1833518 -33.03  0.001649512    1.837    0.456
       177  -9.3913     17.7576     41.7191   6.2976798328e+01   6.9054065906e+01    0.3622055     0.124451 -48.48  0.001511673    2.436    0.590
       178 -10.6429     31.0301     44.3184   5.5879765572e+01   6.7202043964e+01    0.4091339    0.3210597 -12.07  0.002256968    1.277    0.217
       179 -10.7590     26.4372     42.8358   5.8049557084e+01   6.8015031120e+01    0.5253563    0.2805519 -69.17  0.002360381    2.450    0.592
       180 -10.0085     24.3016     37.6062   5.7457425589e+01   6.9339257672e+01    0.4676684    0.2423204  38.92  0.001831371    2.178    0.541
       181  -9.7175     83.1650     46.4668   3.2110942957e+01   5.7918620982e+01    0.3138877    0.2208676  10.15  0.001403051    2.059    0.514
       182 -10.1411    234.4234     44.9729   3.5076187896e+00   2.2298474652e+01    0.2371949    0.1498183 -78.08  0.001107009    1.611    0.379
       183 -10.2397    156.1441     42.2073   1.2242107685e+01   4.0646693621e+01    0.2937414    0.2260683 -44.66 0.0009740043    1.308    0.235
       184  -9.2856    140.0080     43.5256   1.5572516580e+01   4.4567677164e+01    0.2256003    0.1359789  64.03  0.001017364    1.548    0.354
       185 -10.0076     98.8063     41.5105   2.4957668903e+01   5.5184557783e+01    0.3585404    0.2387652 -88.95  0.001365753    2.316    0.568
       186 -10.0342     56.9938     41.9047   4.1177185191e+01   6.3917936209e+01    0.3089664     0.190132  39.68  0.001497482    1.568    0.362
       187  -9.1336     90.9871     41.4514   2.7405873476e+01   5.7024954520e+01    0.2171704    0.1354076  52.89  0.000391024    1.500    0.333
       188  -8.9923     34.6982    245.3288   8.2023103446e+01   1.8105540621e+01    0.1293279   0.06289098  55.25 0.0006930028    1.646    0.392
       189  -9.2823      5.7341     31.2310   6.7610774853e+01   7.2138488350e+01    0.2175206    0.1232962 -20.77 0.0009400526    1.755    0.430
       190 -10.0006      2.9797     39.0000   7.1670220523e+01   7.0578171233e+01    0.2961776    0.1095656  22.37  0.001329784    2.758    0.637
       191 -10.9230      4.1599     35.9079   7.0070941650e+01   7.1207477905e+01    0.3829935    0.3071631 -35.69    0.0018136    1.069    0.065
       192 -10.7399     60.9424     36.4082   3.6976912140e+01   6.4200289339e+01    0.4556997    0.2965482 -22.67  0.001432425    1.863    0.463
       193 -10.7183    126.5717    241.4460   6.1646672375e+01   7.1454268088e+00    0.2729166    0.1450801  44.67  0.001424015    1.742    0.426
       194 -11.5670     48.8947     30.1620   3.9997782401e+01   6.7432852792e+01     0.746106    0.3753861  36.02  0.002861152    1.907    0.476
       195  -8.8810    195.2627     37.3489   5.5779622100e+00   3.1765612398e+01    0.1199671    0.1058849  21.58 0.0004160651    1.609    0.379
       196 -10.5978    153.4470     35.9102   1.0780072199e+01   4.2216345668e+01    0.2965462    0.1957123  65.39 0.0005815275    1.405    0.288
       197 -10.4799    175.1346     33.9630   7.0875172004e+00   3.7033541328e+01    0.4361832    0.2447162 -69.60   0.00142659    1.963    0.491
       198 -10.9869    173.7442     30.7693   6.3809908169e+00   3.7792956053e+01    0.4400765    0.1488493  75.65   0.00149649    3.397    0.706
       199 -10.6479    177.4786     29.0169   5.4407982475e+00   3.7098754624e+01    0.3035669    0.2015405  51.04   0.00150773    1.750    0.429
       200 -10.2566    131.7052    240.9491   6.0485469055e+01   6.5216664545e+00    0.1719687    0.1466177  28.93 0.0007271036    1.072    0.067
       201 -10.0322     67.8222    240.8671   7.4544014651e+01   1.5083411709e+01    0.1985479    0.1743749 -24.85 0.0009400232    1.570    0.363
       202 -12.6459    104.1713     32.7140   1.9998561183e+01   5.5211646146e+01    0.9369785    0.4496893  45.37  0.000174991    2.095    0.523
       203 -12.2145    115.2556     24.5768   1.4150247424e+01   5.3514119497e+01    0.9397812     0.262585  56.53  0.002810257    2.903    0.656
       204  -9.2978     70.5541     33.4830   3.1536385693e+01   6.2795080859e+01    0.2485478    0.2269194  31.22 0.0006358873    1.010    0.010
       205  -9.4338     67.6943     31.6822   3.1906912727e+01   6.3671141638e+01    0.3080013    0.2165317  10.01  0.001502549    1.851    0.460
       206 -10.1687    240.8813     32.0120   2.4848830306e-01   2.2695697474e+01    0.1980918    0.1718148  82.08  0.001246481    1.337    0.252
       207 -10.0225    216.9981     32.0533   2.1614917582e+00   2.7588480887e+01    0.1900195    0.1535912 -64.36 0.0003043019    1.014    0.014
       208 -10.6712     72.2028    237.8909   7.3333145818e+01   1.5099815923e+01    0.3659722    0.1979759  35.14  0.001975356    1.468    0.319
       209 -10.6586    147.7449    238.6631   5.6802354713e+01   4.6859814080e+00    0.2946857    0.2453595  10.29  0.001386976    1.130    0.115
       210  -9.3630    219.3409    248.3251   4.4415341291e+01  -5.6267773682e+00    0.1163159   0.06645523  -0.49 0.0006988946    1.730    0.422
       211  -9.7923      5.3653     22.1750   6.4776387729e+01   7.4043797404e+01    0.2045972    0.1539861  19.83  0.001314853    1.408    0.290
       212  -9.3695     15.5672    233.6796   8.5594834611e+01   2.2369105521e+01    0.1923114    0.1016987 -78.06  0.001054274    1.997    0.499
       213  -8.8791    189.6835    229.6969   4.7114688871e+01   4.0492725778e-01    0.1232212   0.07941044   0.39 0.0007024253    1.622    0.383
       214  -9.3922    248.6901    223.6534   3.5925156148e+01  -5.8035284883e+00    0.1145681   0.06508829  -6.42 0.0007045011    1.706    0.414
       215  -9.2364     44.5244    215.4721   7.8056264879e+01   2.3089805101e+01    0.1305487    0.1052734  53.82 0.0004952001    1.011    0.011
       216 -10.9615    189.0723     27.1975   3.6581312619e+00   3.4531266642e+01     0.374332    0.3176122  28.35  0.001600222    1.683    0.406
       217 -11.3865    183.3481     26.0230   3.9648542250e+00   3.6046828361e+01    0.3886405    0.2706425 -54.05  0.001427461    1.293    0.227
       218 -11.2937    158.8414     29.5165   8.0267703851e+00   4.1688615108e+01    0.5541549    0.2671016  73.52  0.002371341    1.999    0.500
       219 -11.5817    164.2805     27.5738   6.7008004326e+00   4.0559634967e+01    0.4295045     0.263735 -59.57 0.0004892005    1.609    0.378
       220  -9.6463    135.1810     30.9867   1.2377614152e+01   4.7572035435e+01    0.2222716    0.1840014  46.98  0.001102935    1.305    0.234
       221 -11.9995    125.8472     27.8805   1.3119029269e+01   5.0382613155e+01    0.5190511    0.3782684  83.45  0.001775908    1.363    0.266
       222 -10.3332     10.9469     30.2178   6.3606163407e+01   7.2026686860e+01    0.4052971    0.3224427  -0.03  0.002611931    1.218    0.179
       223  -9.5477    196.9904     28.9634   3.2940301290e+00   3.2453249311e+01    0.1641184     0.133609 -80.55 0.0009952921    1.071    0.067
       224 -10.0679    151.0110     27.0389   8.4298794589e+00   4.4000879511e+01    0.3238394      0.25569  30.03  0.001723753    1.680    0.405
       225 -11.1757    145.0800     26.0092   9.0295513614e+00   4.5654145548e+01    0.6204861    0.2860076  84.05  0.002312314    2.734    0.634
       226 -11.4352    148.4728     22.4161   7.3643736238e+00   4.5217353383e+01    0.6916478    0.1940751  62.81   0.00242449    2.928    0.658
       227  -9.7935    155.5463     24.5233   6.9930537129e+00   4.3151308648e+01    0.3087146     0.216708  84.11  0.001306089    1.308    0.236
       228  -9.9397    155.3410     21.2976   6.0411399813e+00   4.3590133626e+01    0.2924525    0.1950032  46.13  0.001312063    1.762    0.433
       229 -10.7722    230.6642     26.8908   3.5991194056e+02   2.5365258203e+01    0.2589296    0.1909508  88.43 0.0007373253    1.316    0.240
       230 -10.0678    200.9835     24.5281   1.8162710511e+00   3.2083885496e+01    0.1780553   0.09036788  50.91 0.0008097955    2.564    0.610
       231 -10.0006    170.2512     23.3153   4.7250874826e+00   3.9588614141e+01     0.326437    0.1560243  69.60 0.0007290019    1.906    0.475
       232  -9.3045    164.5539    211.7170   4.9459737291e+01   6.7615089902e+00    0.1513359    0.1287331 -55.34  0.000457789    1.495    0.331
       233 -10.5136      8.8742    211.1437   8.6223578754e+01   2.7720610969e+01    0.2074915    0.1279062  56.76  0.001040728    1.263    0.208
       234 -10.5238    127.1588     16.6355   8.8779792736e+00   5.1388794381e+01    0.2805677    0.2037709  67.29 0.0004526984    1.210    0.173
       235  -9.7761     39.9943    207.2236   7.8581037105e+01   2.5427011074e+01    0.2035529    0.1182667  66.28  0.001057045    1.614    0.380
       236  -9.5923     79.1311    204.8435   6.8583218396e+01   2.0988749695e+01    0.3307509    0.1857521 -86.46  0.001498481    2.329    0.571
       237 -10.9929     38.9396     22.0061   4.1490287064e+01   7.0424234399e+01    0.2688712    0.2217003 -24.17  0.000370318    1.189    0.159
       238  -9.2166     16.6760    205.3171   8.4140199311e+01   2.8284100518e+01    0.1397703   0.06857897  56.43  0.000441249    1.669    0.401
       239  -9.9400     13.8103     22.6603   5.8593279427e+01   7.3334704619e+01    0.1893151    0.1400701  21.76 0.0002873122    1.376    0.273
       240 -10.0875    224.0340     22.0614   3.5934678064e+02   2.7321757687e+01    0.1855314    0.1453599 -66.63  0.000325968    1.023    0.022
       241 -11.0857    179.1195     20.5406   2.9556277483e+00   3.7734123949e+01    0.5639596    0.2379029  50.71  0.002281191    2.962    0.662
       242 -11.0660      5.9879    199.7438   8.6461119918e+01   3.0505278351e+01    0.4264965    0.1064301 -67.19  0.001628242    3.869    0.742
       243 -10.0263    246.5991     20.1683   3.5744171289e+02   2.3019454133e+01    0.1541466    0.1012888 -29.18 0.0009415444    1.711    0.416
       244  -9.8428    216.6643     20.0225   3.5944146019e+02   2.9134665132e+01    0.1785263    0.1351324 -54.04 0.0005872352    1.123    0.109
       245  -9.5630      1.6564    199.6792   8.7492457773e+01   3.0883997942e+01    0.1130851   0.08910286 -46.33 0.0007049942    1.726    0.421
       246  -9.6579     74.8444     19.3871   2.3371664743e+01   6.3927117749e+01    0.2421361    0.1730341   1.65 0.0007427872    1.772    0.436
       247  -9.8447     46.5459     20.0353   3.6202283846e+01   6.9494858897e+01    0.2588231    0.1830212  36.54 0.0008224522    1.307    0.235
       248 -12.2771      4.7968    183.7537   8.6100718593e+01   3.4303736181e+01    0.6353337    0.4143703  81.85  0.003716832    1.328    0.247
       249 -10.2337    211.0565     16.0283   3.5894975330e+02   3.0825053913e+01    0.2097424      0.14667 -57.32 0.0002908158    1.169    0.144
       250  -8.7384    139.5194    182.5460   5.0356910081e+01   1.6291176841e+01    0.1430829    0.1307921  28.85 0.0008085568    1.005    0.005
       251  -9.2857     28.0176    175.9868   7.9450111645e+01   3.4091381630e+01    0.1682826    0.1397586  75.33 0.0008960157    1.060    0.057
       252 -10.3201     16.0887    173.9565   8.2600317700e+01   3.5717411186e+01    0.3312094    0.1576715  81.93  0.001513121    2.045    0.511
       253  -9.0857     39.4548    173.4953   7.6037689743e+01   3.3497552808e+01    0.1399043    0.1200655  65.92 0.0002567126    1.006    0.006
       254  -9.2843    199.2282     17.4132   2.3097655749e-01   3.3331422009e+01    0.1789382    0.1058992 -86.37 0.0009437335    1.580    0.367
       255 -10.4154    241.9442     15.6432   3.5680199870e+02   2.4441493479e+01     0.196117     0.157431 -25.02 0.0007142022    1.613    0.380
       256 -10.8319    237.5521     16.4327   3.5722922685e+02   2.5216519597e+01    0.2748352     0.133508  75.27  0.001522884    2.085    0.520
       257 -11.8194      8.9777    166.8845   8.4155868010e+01   3.8059886311e+01    0.5382649    0.2648605  44.97  0.002429046    1.763    0.433
       258 -12.5577     13.1949    160.1237   8.2546790097e+01   3.9414484234e+01    0.9517251    0.4052694 -48.91  0.001519126    2.950    0.661
       259 -11.5725     21.2605    150.3990   7.9402066305e+01   4.1223464890e+01    0.2841582    0.2390986 -58.62   0.00054261    1.285    0.222
       260 -11.8303     23.6937    148.2939   7.8460187617e+01   4.1553764812e+01    0.3497509    0.2767852 -88.56 0.0006905779    1.145    0.127
       261  -9.0642     86.0213     23.5310   2.1497290430e+01   6.0833322006e+01    0.2012891    0.1244568  53.28 -1.285003e-05    1.441    0.306
       262 -10.5050     84.7000     17.6804   1.9283752240e+01   6.1883644258e+01    0.3544829    0.2161304  41.55 0.0009121199    1.593    0.372
       263  -9.2683    207.4753     15.5090   3.5910263499e+02   3.1680097776e+01    0.1293944    0.1007782 -68.15   0.00019489    1.020    0.019
       264 -10.2703     18.1682    165.3250   8.1458430925e+01   3.7681026802e+01    0.2865331    0.1810211 -52.91  0.001481215    1.806    0.446
       265 -11.1199     16.5205    147.9402   8.0674874108e+01   4.2262675795e+01     0.458225    0.2487053  86.68  0.001435085    1.754    0.430
       266 -10.4453    205.2623    163.3119   3.2833149037e+01   8.7571512848e+00    0.2371892    0.2134171 -29.83  0.000645998    1.118    0.105
       267 -10.3770     28.5371    160.9345   7.8091551709e+01   3.7827934357e+01    0.2431299    0.2012696  -3.79  0.001217038    1.547    0.354
       268  -9.9766     31.5539    156.7877   7.6810724235e+01   3.8593104389e+01    0.2058496    0.1190279  83.67 0.0009508849    1.745    0.427
       269 -10.2131      9.4345    155.3044   8.3342997011e+01   4.0931065597e+01    0.2553354    0.1116323 -76.46  0.001140029    2.043    0.511
       270  -9.4096    104.0175    155.0121   5.4741011721e+01   2.8755172413e+01     0.258055    0.1821024  69.17  0.001146189    1.710    0.415
       271 -10.6795      4.3007    153.2833   8.4740632443e+01   4.1816159041e+01    0.2795645    0.1785889  41.50  0.001039759    1.473    0.321
       272  -9.3094     55.2527    152.5908   6.9011459924e+01   3.6949477352e+01    0.1868923    0.1420865  15.83 0.0004995644    1.532    0.347
       273 -10.3079     45.3945    149.4174   7.1710686358e+01   3.9001052455e+01     0.430409    0.3562804 -62.91  0.002357236    1.241    0.194
       274 -10.5609     48.7468    145.7467   7.0172779563e+01   3.9565597703e+01    0.4698202    0.2463058  34.78    0.0015734    1.807    0.446
       275 -11.8564      4.7974    143.2585   8.3996562601e+01   4.4337007110e+01     0.892973    0.3504394  54.26  0.003163652    2.432    0.589
       276  -8.9175    104.0393    147.2507   5.3282665456e+01   3.0648767667e+01    0.1895431    0.1286249  36.54            0    1.428    0.300
       277 -10.5407     33.0836    144.3220   7.5070307577e+01   4.1694552285e+01     0.286412    0.2515168  77.11 0.0008328446    1.021    0.021
       278 -10.4014     40.7006    138.8664   7.1922590950e+01   4.2328696330e+01    0.4107094    0.2373489 -73.18  0.001400323    1.652    0.395
       279 -11.5037     12.3099    135.5956   8.1039166721e+01   4.5801576591e+01    0.6298248    0.3535996 -60.42  0.003104023    1.708    0.415
       280 -11.0280     80.3399    138.3729   5.8809166912e+01   3.6990111077e+01    0.2879665    0.2557534  42.97 0.0009582154    1.102    0.092
       281 -11.0154     23.2859    137.2264   7.7548355619e+01   4.4494669480e+01    0.4746937     0.425259 -20.68  0.002819771    1.339    0.253
       282  -9.7753     20.4914    134.1585   7.8182209978e+01   4.5542793308e+01    0.2689907    0.2612982  -2.07  0.001088806    1.205    0.170
       283 -10.9257     30.4141    132.4484   7.4620195175e+01   4.5106532930e+01    0.4857797    0.2899731 -43.16  0.001302317    1.937    0.484
       284  -9.9594     25.9897    131.4992   7.6033322537e+01   4.5771469073e+01    0.2460969    0.1853659 -81.64 0.0003519938    1.219    0.180
       285  -9.4073     32.0559    137.4864   7.4647145754e+01   4.3606565558e+01    0.3699461    0.1905069  17.90  0.001588074    2.249    0.555
       286 -10.6713     15.8455    141.1334   8.0340595431e+01   4.4087021936e+01    0.2445959    0.2027939  -6.89 0.0009874547    1.500    0.333
       287  -9.0327     50.6240    129.8072   6.7257098563e+01   4.3568539192e+01    0.2130544    0.1345643 -85.01  0.000644414    1.705    0.413
       288  -9.1000     26.5146    127.4790   7.5395143277e+01   4.6793189074e+01    0.1407729    0.1264866  84.97 -5.28199e-06    1.009    0.009
       289  -9.7135     22.8472    126.0458   7.6525600756e+01   4.7494478707e+01    0.3308094    0.1750695 -86.73  0.001112135    1.877    0.467
       290  -9.5287     13.2135    122.7174   7.9597279848e+01   4.9118812330e+01    0.2171672    0.1418346 -45.33 0.0008338963    1.654    0.395
       291  -9.5003     33.3992    126.1866   7.2798925836e+01   4.6483342983e+01    0.2067337    0.1265325  89.90 0.0007839308    1.689    0.408
       292  -9.6521      2.1352    125.7122   8.3701846053e+01   4.9031535509e+01    0.2453488    0.1573094  82.07  0.001307782    1.411    0.291
       293 -10.8991    104.6983    122.5010   4.7867702175e+01   3.6624539131e+01    0.3690598    0.3425764  71.11 0.0009007888    1.067    0.063
       294  -9.9227     49.8097    122.6605   6.6391321588e+01   4.5578315886e+01     0.287189    0.1459178  14.55   0.00107733    2.658    0.624
       295  -9.7057     44.3437    119.6930   6.7890009918e+01   4.7033053197e+01    0.2334139     0.195816  75.30 0.0006433788    1.186    0.156
       296  -9.9961     43.3993    116.2104   6.7668937180e+01   4.8072515660e+01    0.3113646    0.2413491  74.36 0.0008398521    1.344    0.256
       297  -9.1492    113.2464    115.8412   4.3719718676e+01   3.6510232889e+01     0.201948    0.1842391  -7.78 0.0003651453    1.273    0.215
       298 -10.3940      7.5080    114.5048   8.0895003378e+01   5.1644421800e+01    0.3145152    0.2102749 -45.59  0.001043532    1.570    0.363
