#   1 NUMBER                 Running object number                                     
#   2 MAG_AUTO               Kron-like elliptical aperture magnitude                    [mag]
#   3 X_IMAGE                Object position along x                                    [pixel]
#   4 Y_IMAGE                Object position along y                                    [pixel]
#   5 X_WORLD                Barycenter position along world x axis                     [deg]
#   6 Y_WORLD                Barycenter position along world y axis                     [deg]
#   7 A_WORLD                Profile RMS along major axis (world units)                 [deg]
#   8 B_WORLD                Profile RMS along minor axis (world units)                 [deg]
#   9 THETA_WORLD            Position angle (CCW/world-x)                               [deg]
#  10 FWHM_WORLD             FWHM assuming a gaussian core                              [deg]
#  11 ELONGATION             A_IMAGE/B_IMAGE                                           
#  12 ELLIPTICITY            1 - B_IMAGE/A_IMAGE                                       
         1 -12.4621    100.6460     39.1222   3.7576721073e+01   5.5234166533e+01    0.2643854    0.2123503  65.55  0.001344709    1.392    0.282
         2 -10.4417     55.2270    247.3840   8.9057239487e+01   1.8268666357e+01    0.1613602   0.06635486  45.89 0.0009540549    1.698    0.411
         3 -10.7121     70.7143    245.4279   8.6181571876e+01   1.6728646891e+01    0.2166479   0.07435957  40.93  0.001140485    2.087    0.521
         4 -10.8065     93.2921    240.5839   8.1704257057e+01   1.4611105344e+01     0.229419    0.0782078  41.39  0.001142701    2.145    0.534
         5 -11.3666     70.9672    232.8766   8.5250088881e+01   1.8765543679e+01    0.2653826   0.09608798  48.13  0.001364955    2.080    0.519
         6 -10.4653     51.0177    227.5091   8.8638466829e+01   2.2122555494e+01    0.1753222   0.05146088  51.49 0.0008105644    2.614    0.617
         7 -10.9167     99.5025    226.5138   7.9263000127e+01   1.6054568202e+01    0.1178145   0.09314005  50.07 0.0008104994    1.012    0.012
         8 -10.6704     84.6540    226.3300   8.2117542344e+01   1.8110767412e+01    0.1259606   0.06854839  60.51 0.0007050041    1.757    0.431
         9 -11.2387     84.0000    219.2333   8.1616204985e+01   1.9440136270e+01    0.1650492   0.08153357  39.28  0.000893703    1.682    0.406
        10 -11.9130    100.4591    214.6653   7.7877941121e+01   1.7956916608e+01    0.2540491    0.1332311  37.51  0.001373399    1.652    0.395
        11 -11.2351     57.1517    206.1766   8.5936726912e+01   2.5349825988e+01    0.1769841    0.1103045  61.29  0.001084613    1.340    0.254
        12 -11.1534     71.2069    204.4182   8.2873114036e+01   2.3901948160e+01    0.1845497   0.08681548  47.24 0.0009583994    1.729    0.422
        13 -11.0127     82.6598    202.3214   8.0266713101e+01   2.2757411233e+01    0.1334362   0.07698734  62.80 0.0007050395    1.719    0.418
        14 -12.0642     90.9977    200.0061   7.8255599233e+01   2.2023456293e+01    0.2009382    0.1670126  56.04  0.001319051    1.017    0.017
        15 -11.5798    113.7955    197.4192   7.3102249608e+01   1.9090415184e+01     0.184141    0.1122513  30.96 0.0009599754    1.697    0.411
        16 -11.3630    134.7806    196.4006   6.8563373222e+01   1.5928025119e+01    0.1866604     0.110693  31.56 0.0009535092    1.671    0.402
        17 -11.9064    158.8413    189.1874   6.2527589408e+01   1.3164917116e+01    0.1853891    0.1482702  12.22  0.001093277    1.356    0.263
        18 -12.3416    130.7562    188.5680   6.8264006188e+01   1.8003109375e+01    0.2642117    0.1175459  35.79  0.001148185    2.151    0.535
        19 -11.3213    169.5172    186.9839   6.0029337146e+01   1.1712480347e+01     0.178146    0.1081834 -16.55 0.0008101109    2.527    0.604
        20 -13.4008     98.6876    186.6267   7.4992300554e+01   2.3511107972e+01    0.3798266    0.2510852  28.68  0.002035596    1.697    0.411
        21 -13.1286    114.6152    185.0041   7.1244751476e+01   2.1326419150e+01    0.3344733    0.2147207  29.59  0.001732435    1.688    0.408
        22 -12.0951    178.6997    183.3008   5.7594913486e+01   1.0734453996e+01    0.2749901    0.1796257   5.59  0.001354451    2.101    0.524
        23 -13.6430    152.2527    179.0612   6.2193808822e+01   1.6060451412e+01    0.3827633    0.2749656  33.68  0.002109287    1.308    0.235
        24 -13.3754    164.8642    176.3286   5.9109763607e+01   1.4313483454e+01    0.4218328    0.2006173  32.84  0.001807651    2.225    0.551
        25 -12.4157    109.3670    174.2627   7.0861745753e+01   2.4335899399e+01    0.2574219    0.1643186  30.13  0.001283185    1.723    0.420
        26 -12.8049    123.4897    183.2128   6.9033924005e+01   2.0219106206e+01    0.2655671    0.1745945  41.23  0.001420378    1.364    0.267
        27 -13.7977    152.9627    169.0248   6.0275490055e+01   1.7762029406e+01    0.4022365    0.3148609  -1.07  0.002161213    1.600    0.375
        28 -13.1222    130.0944    168.8351   6.5266157601e+01   2.1905742173e+01    0.3508466    0.2183599  23.74   0.00160493    2.081    0.519
        29 -14.6707    142.5075    163.5668   6.1553728889e+01   2.0710696330e+01    0.7871427    0.4915017 -14.79  0.003109376    3.158    0.683
        30 -14.5527    126.0929    151.4006   6.3056600131e+01   2.6215363298e+01    0.7501982    0.3394652  44.66  0.003034898    2.111    0.526
        31 -14.5079    173.0819    153.3204   5.2997887562e+01   1.6861417596e+01    0.7738858    0.3998377  36.22  0.003353844    1.993    0.498
        32 -15.3218    151.5522    142.7399   5.5390342532e+01   2.3098129123e+01    0.9095721    0.5666059 -37.55  0.004174651    1.722    0.419
        33 -13.4185    169.5156    140.4576   5.0990461219e+01   1.9929181282e+01    0.4323919    0.2412942 -32.56  0.001855233    1.981    0.495
        34 -12.0878    100.0120    149.5153   6.9140803067e+01   3.1246995933e+01    0.2213301    0.1338404  40.89  0.001038774    1.609    0.378
        35 -13.3090    135.1273    139.2582   5.8451637495e+01   2.7068639738e+01    0.7737014    0.1770356 -52.78  0.001867333    5.995    0.833
        36 -13.5028    112.0031    140.8047   6.4482053688e+01   3.1114584681e+01    0.3898391    0.2515185  32.29  0.001798454    1.729    0.422
        37 -13.9553    176.2847    138.8476   4.9230933992e+01   1.8858194475e+01    0.4391121    0.3674306 -18.37  0.002377162    1.238    0.192
        38 -13.3462    129.1011    136.8829   5.9403756010e+01   2.8756216371e+01    0.3625015    0.2757105 -76.17  0.001763959    1.575    0.365
        39 -13.9805    114.9442    133.1445   6.2172122055e+01   3.2296646357e+01    0.5733439    0.3517858  51.59  0.002573805    1.670    0.401
        40 -12.7989    183.3897    132.7174   4.6409762455e+01   1.8519972726e+01     0.252047    0.2420729   0.28   0.00128351    1.025    0.024
        41 -13.0236    175.9005    129.3756   4.7139841795e+01   2.0683245020e+01    0.3046031    0.2190584 -30.08  0.001487249    1.423    0.297
        42 -14.8739    144.4441    116.7074   5.1006423864e+01   2.9908845910e+01     1.015282    0.4223017 -38.12  0.003505018    2.656    0.624
        43 -12.1682    197.5013    121.4852   4.1072684530e+01   1.7564912859e+01    0.3123777    0.1355995 -36.00  0.001218112    2.189    0.543
        44 -15.3358    161.6367    152.5620   5.5237920938e+01   1.9212047305e+01    0.8630289    0.6558484  16.23  0.004427275    1.538    0.350
        45 -13.4278    130.6158    127.5106   5.6961161915e+01   3.0489742328e+01    0.3815966    0.2923984  14.06  0.001789275    1.742    0.426
        46 -12.8678    166.6522    123.0145   4.7555973003e+01   2.3848757925e+01    0.3275404    0.2393359 -82.28  0.001436649    2.096    0.523
        47 -13.0169    127.1966    110.9224   5.3818075655e+01   3.4829538899e+01     0.369956    0.2084825 -40.10  0.001502679    1.861    0.463
        48 -12.9890    110.2717    110.1859   5.8170883033e+01   3.8446878916e+01    0.4180987    0.2467791 -50.06  0.001793312    1.648    0.393
        49 -13.4462    101.9813    119.9969   6.2796747910e+01   3.7739077976e+01    0.4970722    0.2775607  40.61   0.00212586    1.838    0.456
        50 -13.4628    184.5081    124.5936   4.4280633113e+01   1.9747268166e+01    0.4738117    0.2838514 -34.38  0.002137231    1.644    0.392
        51 -11.7465    185.4750    108.9820   4.0224834471e+01   2.2344765565e+01    0.2385302    0.1417058 -35.67  0.001038731    1.613    0.380
        52 -12.2245    158.5920    109.2149   4.5833757184e+01   2.8319667967e+01    0.2218513    0.1451008 -30.23 0.0009549118    1.663    0.399
        53 -13.8944    126.0613    142.0142   6.1216535129e+01   2.8231630933e+01    0.5369438    0.3230646  62.57  0.002253652    2.140    0.533
        54 -12.9791    172.1182    123.9738   4.6635292278e+01   2.2494529083e+01    0.4078507    0.1943578 -28.44  0.001449488    2.754    0.637
        55 -12.9629    132.5499    101.8069   5.0034914472e+01   3.5657173869e+01    0.3894036    0.2144137  43.26  0.001562306    1.890    0.471
        56 -13.9989     83.5893     98.4239   6.3137825648e+01   4.6159130697e+01    0.5553015    0.3429714  48.91  0.002508193    1.734    0.423
        57 -13.0840    117.4498     96.7644   5.2635498827e+01   4.0018363561e+01    0.3696118    0.3068345 -65.94   0.00182825    1.257    0.205
        58 -11.2409    173.6768     96.3326   3.9184280516e+01   2.7328195171e+01    0.1588195    0.1189384 -70.57 0.0005363339    1.705    0.413
        59 -13.0311    139.2294     93.9654   4.6168575899e+01   3.5806367202e+01    0.5040715    0.2020537 -44.50  0.001723411    2.435    0.589
        60 -13.7199     90.9131     89.1322   5.8330998915e+01   4.7053191358e+01    0.4149924    0.3210851  21.70  0.002010491    1.602    0.376
        61 -11.9758    185.5019     87.9911   3.4620875985e+01   2.6045467171e+01     0.245979    0.1430287 -34.98  0.001044585    1.624    0.384
        62 -13.2283    122.5141     78.8102   4.5889377340e+01   4.2757880843e+01    0.4504209    0.2948128 -22.02  0.001831287    2.027    0.507
        63 -13.1240    170.8724     77.4267   3.4338578982e+01   3.1406389209e+01    0.4112403     0.200675 -40.91  0.001583994    1.937    0.484
        64 -13.6155     77.6445     77.0464   5.9191108669e+01   5.2237814325e+01    0.3714063    0.3213245  72.17  0.001990762    1.305    0.234
        65 -12.2875    177.3312     76.6510   3.2888543307e+01   2.9959996731e+01    0.2520427    0.1799117 -66.73  0.001061158    1.711    0.415
        66 -12.1000     90.5051     72.4989   5.3391551871e+01   5.0901109638e+01    0.2745982    0.1409995  54.74  0.001040579    2.435    0.589
        67 -13.4869    106.2923     77.9050   5.0200183121e+01   4.6515346696e+01    0.4936451    0.2703708 -52.48  0.001974585    1.887    0.470
        68 -11.9991     48.6562     61.3269   6.5383949493e+01   6.0276845990e+01    0.2942131    0.1808804 -27.72  0.001353809    2.063    0.515
        69 -11.6224    125.4856     61.4940   3.9312353279e+01   4.5458611180e+01    0.1539828    0.1499739 -45.11 0.0001283657    1.001    0.001
        70 -11.1052     90.6624     56.3300   4.7639213838e+01   5.4263369118e+01    0.1519962    0.1185217 -80.22 0.0007051986    1.735    0.423
        71 -12.2066     72.4460     41.7746   4.8293481380e+01   6.0649193323e+01    0.3603507    0.1313281 -39.62  0.001303584    2.612    0.617
