#   1 NUMBER                 Running object number                                     
#   2 MAG_AUTO               Kron-like elliptical aperture magnitude                    [mag]
#   3 X_IMAGE                Object position along x                                    [pixel]
#   4 Y_IMAGE                Object position along y                                    [pixel]
#   5 X_WORLD                Barycenter position along world x axis                     [deg]
#   6 Y_WORLD                Barycenter position along world y axis                     [deg]
#   7 A_WORLD                Profile RMS along major axis (world units)                 [deg]
#   8 B_WORLD                Profile RMS along minor axis (world units)                 [deg]
#   9 THETA_WORLD            Position angle (CCW/world-x)                               [deg]
#  10 FWHM_WORLD             FWHM assuming a gaussian core                              [deg]
#  11 ELONGATION             A_IMAGE/B_IMAGE                                           
#  12 ELLIPTICITY            1 - B_IMAGE/A_IMAGE                                       
         1 -16.2317     18.5114    134.4155   1.3706686318e+02   4.4249770087e+01     9.417686     3.511611  20.78    0.0454495    3.397    0.706
         2 -14.9391     65.8454    139.3711   1.2569483192e+02   3.8616545493e+01     2.888529     1.774667  71.54   0.01315943    1.893    0.472
         3 -11.8568    168.2726     38.5686   7.2152680607e+01   3.8409451063e+01     1.189818    0.8597808  10.09  0.005480194    1.578    0.366
         4 -10.7268      6.9464      3.3893   1.1831282349e+02   7.3668846309e+01    0.3126308    0.2835742  82.18  0.002326458    1.625    0.385
         5  -9.3416     22.8248      3.5819   1.0845157968e+02   7.2518242149e+01    0.1486694    0.1075383  29.57   0.00052512    1.711    0.415
         6  -8.2711     51.6545      2.2936   9.1845984979e+01   6.9257359085e+01    0.1112049    0.1048626 -57.84 0.0005809353    1.665    0.399
         7  -8.3586     66.4777      1.4979   8.4701160776e+01   6.6901236928e+01    0.1340831     0.112342   1.43 9.636798e-05    1.047    0.045
         8 -13.0770    120.3426    232.9379   1.2459988609e+02   1.4360695706e+01    0.3356693    0.2135348  71.04  0.002123869    2.092    0.522
         9 -15.1975    189.4350    222.6968   1.1077869254e+02   5.5058523537e+00     3.777626      3.15473 -18.38   0.02792694    1.441    0.306
        10 -12.4151    109.3108    245.0570   1.2764473192e+02   1.4161392126e+01     0.526241    0.2833209  41.03   0.00311323    1.356    0.263
        11  99.0000    115.1157    215.4517   1.2380419767e+02   1.7671400347e+01     1.033875     0.696977  63.19  0.006693004    1.579    0.367
        12 -16.0582     47.2189    193.5179   1.3510810574e+02   2.9876049414e+01     1.779961     1.611852  60.27    0.0145109    1.230    0.187
        13 -14.4957    105.4364    232.2282   1.2722507641e+02   1.6474005176e+01    0.5979251    0.3484845  46.47  0.004005891    1.297    0.229
        14 -15.5221     32.4398    210.3165   1.3886711871e+02   2.8411384984e+01    0.7723365    0.5589504 -82.59  0.006214996    1.405    0.288
        15 -18.6967     64.1784    236.4062   1.3478491640e+02   2.0906578356e+01     4.154023      2.43996  43.50   0.03050364    1.304    0.233
        16 -15.9291     94.9384    240.8855   1.2979860782e+02   1.6581008285e+01    0.9366865    0.5866763  73.08   0.00655428    1.826    0.452
        17 -10.9954    113.9604    237.3215   1.2615575450e+02   1.4612788535e+01    0.1408714   0.09751827  41.56 0.0002521435    1.098    0.089
        18 -12.5218    125.8229    226.1294   1.2291027803e+02   1.4563067737e+01    0.3180795    0.1903962  22.59  0.001845083    2.063    0.515
        19  -7.7962      3.8460    226.6833   1.4430409377e+02   2.8278251988e+01    0.2102801   0.01155656  54.78 0.0008708364    4.975    0.799
        20 -11.2425    125.0507    219.4782   1.2234441196e+02   1.5644598296e+01    0.1539069    0.1321791  42.47  0.000221765    1.108    0.098
        21  -9.0576    139.0665    219.1123   1.1965062054e+02   1.3647323800e+01    0.1128268   0.09520937  37.48            0    1.093    0.085
        22  -9.4109    133.3837    219.0708   1.2072138458e+02   1.4493049457e+01    0.1451543    0.1070445  21.92  0.000852782    1.464    0.317
        23  -9.5646    129.0243    205.1935   1.1992474062e+02   1.7242954750e+01    0.2082554    0.1476921 -58.58   0.00132771    1.759    0.432
        24 -11.4910    109.3301    203.3177   1.2362604709e+02   2.0432847366e+01    0.2673175    0.2069407 -31.36  0.001306255    1.833    0.454
        25 -10.2132     10.2994    205.0647   1.4254263542e+02   3.1278652270e+01   0.07685149   0.04248194  31.37 0.0002785967    1.912    0.477
        26 -12.6046    118.0525    201.3225   1.2165004278e+02   1.9499438741e+01    0.2457702    0.1971727  58.79 0.0004666876    1.199    0.166
        27 -12.6770    115.0402    198.0222   1.2186839381e+02   2.0489060002e+01    0.2361178    0.1933247  51.14 0.0006499508    1.062    0.059
        28 -12.4933     98.2880    201.5948   1.2564851352e+02   2.2260968412e+01    0.2010747     0.157706  53.71 0.0005595108    1.066    0.062
        29  99.0000      6.6310    201.8835   1.4306800134e+02   3.2121005492e+01    0.1573304    0.1007603 -68.83  0.001169554    1.759    0.432
        30  -8.6769      9.9813    201.3379   1.4246027912e+02   3.1944063007e+01    0.1161646    0.0904208  44.07  0.000566598    1.341    0.254
        31 -11.0425      1.2112    200.0335   1.4395003190e+02   3.2863268442e+01    0.1447887   0.05610019  82.58 0.0008705963    2.255    0.557
        32 -11.6854    101.0881    194.4570   1.2431291158e+02   2.3100901069e+01    0.3827352    0.2241959  27.96  0.001777976    1.878    0.468
        33  99.0000      4.3627    196.7137   1.4328685613e+02   3.3195393794e+01    0.2400392   0.04568966  44.98  0.001243967    2.975    0.664
        34 -10.0636    126.7140    246.2775   1.2473649521e+02   1.1687958636e+01    0.1088075   0.07935894  39.91 0.0002386358    1.057    0.054
        35 -10.0486     68.2223    192.2481   1.3081916374e+02   2.7760071269e+01    0.1241165   0.09525116  59.55 0.0002072301    1.074    0.069
        36  -7.9048     82.6664    190.1290   1.2765959739e+02   2.6353141596e+01     0.247031   0.09130459  33.64  0.001126075    2.603    0.616
        37  -9.2591    108.4571    188.2742   1.2205632205e+02   2.3130947373e+01    0.1238175    0.1027812  54.23 0.0004013188    1.067    0.063
        38 -10.2787     17.0580    186.9883   1.4055848095e+02   3.3908468005e+01    0.1069024   0.07912196  55.73  0.000833397    1.150    0.130
        39 -12.2452     20.5274    183.0344   1.3969504302e+02   3.4343679431e+01    0.2598903    0.1365235 -86.50  0.001698737    1.699    0.411
        40 -12.8900    122.6877    248.7309   1.2565521154e+02   1.1910753103e+01    0.2392059    0.1569323  30.55  0.001383879    1.423    0.297
        41 -11.1496      4.8358    181.3001   1.4262894558e+02   3.5923216905e+01    0.1366023   0.09887113  69.70 0.0003198865    1.030    0.029
        42  -8.4588    152.1792    181.2249   1.1182354449e+02   1.7380377470e+01    0.2209196    0.1430347  31.00  0.001015813    1.409    0.290
        43  -9.8318     84.3229    180.9406   1.2634982579e+02   2.7832901819e+01    0.1438994    0.1282942  71.71 0.0002893281    1.083    0.076
        44  -7.6671    147.1488    180.1588   1.1271413173e+02   1.8408208482e+01    0.1570817     0.138561  63.36 0.0003080386    1.288    0.224
        45  -9.8423     71.2437    177.0622   1.2876728344e+02   3.0234073000e+01    0.1518584    0.1292158  67.19  0.000329221    1.025    0.024
        46 -10.2615     33.4442    176.1386   1.3670020613e+02   3.4491910569e+01    0.1437441    0.1313191  69.61  0.000371725    1.219    0.180
        47  -9.4072     27.2079    176.2475   1.3798414882e+02   3.5040683926e+01   0.08650315   0.07216169 -70.58   0.00019719    1.362    0.266
        48 -12.0854     41.8838    174.3047   1.3481071439e+02   3.4030608399e+01    0.1902904    0.1562619  76.96  0.000376298    1.050    0.048
        49 -11.1742     61.6483    173.3834   1.3049251725e+02   3.2087767041e+01    0.1797699    0.1569816  64.19 0.0002834504    1.067    0.063
        50  -9.3703     24.8767    172.7543   1.3824975395e+02   3.5917343665e+01   0.08645695   0.05847239 -75.06   0.00058901    1.416    0.294
        51 -10.1711    119.3173    246.7754   1.2606269631e+02   1.2614868397e+01    0.1336229    0.1105361  57.43 0.0001933921    1.223    0.182
        52  -9.4342    113.1974    250.5194   1.2743304972e+02   1.2927123109e+01   0.08381795   0.07639986  53.87 0.0007158373    1.282    0.220
        53 -11.6098     40.8113    167.8904   1.3454779519e+02   3.5396136672e+01    0.2732308    0.1447675  54.17            0    1.676    0.403
        54  -7.5726    155.4900    168.4397   1.0898675775e+02   1.8928934493e+01    0.1360741    0.1162525  30.80 0.0003392747    1.018    0.018
        55  -9.0794     77.3895    167.8501   1.2641897814e+02   3.1261686152e+01     0.208995    0.1316287  44.31 0.0005901182    1.418    0.295
        56  -7.8668     72.9809    167.0000   1.2732084717e+02   3.1988545685e+01    0.2616102   0.09365854  36.95  0.001176184    2.483    0.597
        57  -7.4298     58.1716    168.7386   1.3081637589e+02   3.3398645776e+01    0.1313147   0.09545437  32.19 0.0008403106    1.467    0.319
        58  -7.8108     52.9743    167.9912   1.3189592148e+02   3.4120521179e+01    0.1171115   0.09546115  85.12 0.0008137347    1.107    0.096
        59  -9.4245     21.4552    168.0244   1.3867504912e+02   3.7128287106e+01    0.1390423    0.1108916  73.08 0.0009655299    1.025    0.024
        60 -13.3227     53.2243    161.0903   1.3119776911e+02   3.5483133082e+01    0.6984298    0.3586098  27.83  0.002372172    2.183    0.542
        61 -10.7027     19.1508    246.0759   1.4251062889e+02   2.4025757720e+01    0.1543655   0.06772522  60.94  0.001125968    1.658    0.397
        62 -10.9707    248.1874    116.8567   8.0008167881e+01   8.8078478359e+00    0.6795242    0.3802516 -40.75  0.003221226    2.071    0.517
        63 -10.3943    243.9667    123.2916   8.2168598267e+01   8.7817008520e+00    0.3978677    0.2568467  40.61    0.0013908    1.533    0.348
        64 -10.2974    243.9666    131.0316   8.3922604882e+01   7.7795102374e+00      0.27951    0.1726162 -21.48   0.00144851    1.495    0.331
        65  -8.0940    162.5215    129.5121   9.9627027205e+01   2.4460313663e+01    0.2765774    0.1830679  49.80  0.001180762    1.552    0.356
        66  -9.1119    160.0313    126.5504   9.9525406002e+01   2.5511433695e+01    0.2243161    0.2087594  72.55 0.0006702476    1.289    0.224
        67  -9.9907     14.4866    243.5134   1.4314181015e+02   2.4817626681e+01   0.08400331   0.06860615  62.38 7.835539e-05    1.281    0.220
        68  -7.7081    171.5377    111.8928   9.3349179056e+01   2.5720535924e+01    0.2077872    0.1475396 -32.45 0.0003320737    1.443    0.307
        69  -9.9853    149.4713    147.5357   1.0645027140e+02   2.3719629903e+01    0.3294562    0.2507492  -8.83  0.001014707    1.622    0.383
        70  -9.3707    249.9005    107.6814   7.7594658265e+01   9.6562099008e+00    0.2536011    0.1665369 -12.79  0.001318154    1.421    0.296
        71  -8.7401    196.6793    107.0989   8.6783108448e+01   2.0962510485e+01    0.2622434    0.1989722  36.13 0.0004817988    1.252    0.201
        72 -10.6014    241.6347    143.6000   8.7075303627e+01   6.5992030207e+00     0.385182    0.2253052 -32.21  0.001986597    1.750    0.429
        73  -8.1497    225.0902    142.5256   8.9740760376e+01   9.8099966073e+00    0.1970795    0.1239495  40.29 0.0004295265    1.505    0.336
        74 -10.7968    248.9171    134.5297   8.3888713466e+01   6.4241396049e+00    0.5795727    0.3011172  -5.16  0.002520382    2.406    0.584
        75  -7.6787    104.2002     82.3811   1.0315163936e+02   4.5519156731e+01    0.1971654    0.1369715  49.87 0.0004283557    1.591    0.372
        76  -8.0269    183.2440     79.0026   8.1853860238e+01   2.8609759163e+01    0.2220996    0.2019162  -7.70 0.0007574831    1.062    0.058
        77  -8.3525     17.1729    165.3375   1.3941318657e+02   3.8004730777e+01   0.09624522   0.06396909 -68.92 0.0005474949    1.504    0.335
        78  -8.9133    238.0471     67.8543   6.9429868424e+01   1.7280460195e+01      0.22532    0.1854697 -21.21 0.0002741916    1.114    0.103
        79  -8.1775    123.9993     63.9466   9.1532267301e+01   4.5219535123e+01    0.2234613    0.2084143   6.31            0    1.010    0.010
        80  -8.0095    126.3539     58.9954   8.9190755834e+01   4.5601895590e+01    0.2127481    0.1838786 -25.64 0.0004003372    1.137    0.120
        81 -11.3328    158.1458     54.4746   7.9622224818e+01   3.8724898891e+01    0.6349501    0.4202907  57.58  0.002226246    1.565    0.361
        82 -10.4177    124.8919    231.9494   1.2367777643e+02   1.3869129483e+01    0.1331991    0.1047814  45.70 0.0009895869    1.061    0.058
        83  -8.6477    150.0083     31.9939   7.3565833570e+01   4.4040089310e+01    0.2533621    0.1704064  23.98 0.0005411402    1.652    0.395
        84  -7.8174     43.4956     22.5455   1.0591051247e+02   6.6917213100e+01    0.1306649    0.1061069 -25.56 8.143154e-05    1.006    0.006
        85  -8.8386    230.6642     18.8637   5.7275722867e+01   2.4674131963e+01    0.3445667    0.2071275 -10.83  0.001644134    1.850    0.460
        86  99.0000    126.1802    240.0390   1.2424118983e+02   1.2583254917e+01    0.2442998    0.1781445 -11.30 0.0008071194    2.329    0.571
        87 -11.1605    116.2453    232.3422   1.2528389920e+02   1.5006236516e+01    0.1480152    0.1145331  48.48 0.0002523398    1.062    0.059
        88 -12.1812    121.4759    238.9766   1.2497378808e+02   1.3369488174e+01     0.191788    0.1694269 -60.02  0.001408695    1.513    0.339
