#   1 NUMBER                 Running object number                                     
#   2 MAG_AUTO               Kron-like elliptical aperture magnitude                    [mag]
#   3 X_IMAGE                Object position along x                                    [pixel]
#   4 Y_IMAGE                Object position along y                                    [pixel]
#   5 X_WORLD                Barycenter position along world x axis                     [deg]
#   6 Y_WORLD                Barycenter position along world y axis                     [deg]
#   7 A_WORLD                Profile RMS along major axis (world units)                 [deg]
#   8 B_WORLD                Profile RMS along minor axis (world units)                 [deg]
#   9 THETA_WORLD            Position angle (CCW/world-x)                               [deg]
#  10 FWHM_WORLD             FWHM assuming a gaussian core                              [deg]
#  11 ELONGATION             A_IMAGE/B_IMAGE                                           
#  12 ELLIPTICITY            1 - B_IMAGE/A_IMAGE                                       
         1 -14.4184     68.5733    145.0531   1.0420671409e+02   3.7188891520e+01     4.682765     2.504962  75.90  0.004361902    4.346    0.770
         2 -13.7365    233.5490     14.7102   3.6484513094e+01   2.6197468857e+01     0.722104    0.6431602 -48.10  0.002682833    1.238    0.192
         3 -14.2759    216.2854     30.8650   4.1239416416e+01   2.7900956228e+01     2.076705     1.315191  29.57     0.010557    2.826    0.646
         4  -9.8600      2.2266      3.2208   9.2967900766e+01   7.6156956103e+01    0.1663173   0.09320498 -53.95 0.0008916536    2.486    0.598
         5  -9.0477     61.3706      1.2848   5.8139978031e+01   6.7022922070e+01    0.1414349   0.07570112  33.19 0.0007017982    1.705    0.413
         6 -16.0756     35.4570    191.7462   1.1984499892e+02   2.9449063985e+01     9.033316     3.612428  76.93   0.03020475    4.337    0.769
         7  -9.4772    174.8161    250.3028   9.4272466491e+01  -2.2200141456e-01    0.1842462    0.1314431  35.03 0.0009336615    1.487    0.328
         8 -15.2677     71.3065    247.6249   1.1622273756e+02   1.3601955701e+01     10.20251     3.034392  20.79   0.01224866    9.245    0.892
         9  -8.8340    144.6554    181.3273   8.9646741671e+01   1.6361761344e+01    0.1443841    0.1166451  66.28 0.0007050637    1.746    0.427
        10 -11.9797     57.4701    179.7405   1.1268785962e+02   2.9903064673e+01    0.4547786    0.2981533 -28.70   0.00123785    2.020    0.505
        11 -11.9299     63.1276    174.0926   1.1037121483e+02   3.0588047480e+01    0.3461116     0.284937 -34.42  0.000505808    1.355    0.262
        12 -11.6283     73.5340    164.2725   1.0591777757e+02   3.1645232962e+01    0.3522008    0.3307834 -78.07 0.0003538063    1.087    0.080
        13 -12.8680     80.6897    157.8166   1.0271752055e+02   3.2232621870e+01    0.8625607    0.7959834 -70.76  0.001261062    1.122    0.109
        14 -14.4840     10.7251    207.6500   1.2697658804e+02   2.8095103388e+01     1.083534    0.9721364  89.06  0.003237083    1.153    0.132
        15 -10.0804    134.2791    147.7699   8.5382583907e+01   2.5449502976e+01    0.4759233    0.1477256 -52.02  0.001350253    3.899    0.744
        16  -9.2721    137.5002    170.5493   8.9338979462e+01   1.9863178432e+01    0.1508349    0.1380069   8.12 0.0001330636    1.005    0.005
        17 -13.1707     28.4062    207.3982   1.2282832101e+02   2.6564686419e+01    0.5649845    0.4377521 -39.41 0.0009855849    1.630    0.387
        18 -10.7685     96.0110    143.5132   9.5337186189e+01   3.3363840899e+01    0.3650932    0.3070703 -35.95 0.0008544939    1.205    0.170
        19  -9.8069     99.1967    140.2003   9.3663967173e+01   3.3631116448e+01    0.3800745    0.2275157 -30.10  0.001492546    2.102    0.524
        20 -11.5819     29.4937    143.5050   1.1652947731e+02   4.2014236254e+01    0.4078567    0.3028144 -19.72  0.002165151    1.597    0.374
        21 -12.2607     84.0436    141.9150   9.8708266398e+01   3.5706157392e+01    0.3268944    0.2730868 -40.64 0.0004406644    1.200    0.167
        22 -12.0740     67.0064    127.5591   1.0137175155e+02   4.1891715215e+01    0.5982018    0.3548881 -73.88  0.002434033    2.117    0.528
        23 -11.8463     74.8310    135.9609   1.0046380157e+02   3.8616186592e+01    0.7434611    0.3359382  57.68  0.002013373    4.882    0.795
        24 -13.4739     60.3275    160.4078   1.0926021775e+02   3.4356723102e+01    0.6116754    0.3574083 -41.22  0.001727603    1.927    0.481
        25 -13.1585     30.5325    248.1451   1.2489078730e+02   1.7985072366e+01     1.087635     0.732175  15.54   0.00562088    1.775    0.437
        26 -10.8322    107.0512    131.4455   8.9309242442e+01   3.4338168798e+01    0.4796263    0.3477801  37.85  0.001453275    1.369    0.270
        27 -15.1485      7.9928    238.7785   1.2902534176e+02   2.1887553174e+01     3.739055     1.754497 -80.50    0.0215185    2.128    0.530
        28 -10.2698     95.3048    128.0141   9.2129533172e+01   3.7281766564e+01     0.291538    0.2447342 -14.67 0.0005858651    1.281    0.219
        29  -9.9283    239.4824    126.5343   5.9386448085e+01   1.0022549486e+01    0.1284975    0.1056336 -27.84 8.033054e-05    1.015    0.014
        30  -9.3932    115.0179    125.5254   8.5512714198e+01   3.4218206077e+01    0.2426691    0.1540084  35.02  0.001021821    1.572    0.364
        31 -10.2958    191.7818    192.6645   8.1238196482e+01   6.5952329365e+00    0.4722811    0.2903612 -63.44  0.001791785    4.207    0.762
        32  -9.6978    105.8322    120.0305   8.6898139070e+01   3.7265887370e+01    0.2301351     0.213031  -3.75 0.0003958013    1.067    0.063
        33 -12.5797     16.3793    216.3207   1.2616958647e+02   2.5732337346e+01    0.3816606    0.3403278  37.99  0.001475475    1.200    0.167
        34  -9.5986    168.0427    113.2994   6.8890989447e+01   2.5792413773e+01    0.2690575    0.2092896 -65.39  0.001292815    1.616    0.381
        35 -10.7169     35.0725    111.3712   1.0972382538e+02   4.9861995391e+01    0.3549743    0.1825906  39.01  0.001468602    2.120    0.528
        36  -9.9083    205.1720    110.6486   6.1199832381e+01   1.8690010154e+01    0.2994823    0.2357104  24.47   0.00124037    1.475    0.322
        37  -9.4930    134.4921    103.0282   7.4134443470e+01   3.5107174530e+01    0.2361728    0.1527645 -40.56 0.0004435128    1.546    0.353
        38 -10.2902    124.7433    153.7220   8.9233388373e+01   2.5877349502e+01    0.2858013     0.247813  88.47 0.0004753863    1.487    0.328
        39  -9.8964    161.0314     82.0008   6.2065875894e+01   3.3059587828e+01    0.1766995    0.1760636  74.50  0.000594276    1.012    0.012
        40  -9.2740     61.6588     71.8931   8.8823615284e+01   5.6094748231e+01    0.2032986    0.1760796 -28.89 0.0004107933    1.096    0.087
        41  -8.8903    174.7112    149.3438   7.5996102376e+01   1.7455423507e+01    0.1398088    0.1194495 -75.83 0.0005137975    1.651    0.394
        42  -8.5806     32.3355     61.6937   9.8910253969e+01   6.2209648371e+01    0.1292858    0.1077384  59.03 0.0007040571    1.671    0.402
        43 -10.5765     13.4108     60.2630   1.0813792851e+02   6.4147850398e+01    0.2252506    0.2091728 -37.09  0.000437218    1.154    0.134
        44  -9.4999      2.6666     58.3081   1.1327371152e+02   6.5181584208e+01    0.1194629    0.0955454  58.01 0.0007041337    1.670    0.401
        45  -9.1810     32.7798     54.8088   9.6413981228e+01   6.3649602049e+01    0.1699493    0.1581651  33.38 0.0005099058    1.332    0.249
        46 -13.8192     86.1161    229.3032   1.1111987843e+02   1.5269254371e+01     1.967621     1.191074  36.67  0.006123996    1.390    0.281
        47 -12.4574    205.4313     39.2258   4.4210707747e+01   2.9208789140e+01    0.5755011     0.375374  55.66  0.001877195    1.670    0.401
        48 -11.3831     44.7708    231.3467   1.2077973401e+02   1.9793133180e+01    0.3766917     0.196811  83.47  0.001394266    2.323    0.569
        49 -10.4531    132.4952     39.6093   5.5088759388e+01   4.6366632645e+01    0.3659225    0.2492078 -72.49 0.0007533052    1.960    0.490
        50  -9.0602    133.4300     32.5960   5.2589631652e+01   4.7000870608e+01    0.2503788    0.1573099 -82.66   0.00110242    2.218    0.549
        51  -8.9343     24.3512     43.7299   9.6958453180e+01   6.6828168860e+01    0.1199394    0.1010325  46.05 0.0003131907    1.628    0.386
        52 -10.4260    189.6455     15.1519   3.9976001164e+01   3.5385479624e+01    0.2120052    0.1521968 -85.72 0.0005994832    1.273    0.214
        53  -9.0706    108.5342    192.0256   1.0065256697e+02   1.9931422956e+01    0.1995135    0.1451765 -59.51  0.001003907    1.543    0.352
