#   1 NUMBER                 Running object number                                     
#   2 MAG_AUTO               Kron-like elliptical aperture magnitude                    [mag]
#   3 X_IMAGE                Object position along x                                    [pixel]
#   4 Y_IMAGE                Object position along y                                    [pixel]
#   5 X_WORLD                Barycenter position along world x axis                     [deg]
#   6 Y_WORLD                Barycenter position along world y axis                     [deg]
#   7 A_WORLD                Profile RMS along major axis (world units)                 [deg]
#   8 B_WORLD                Profile RMS along minor axis (world units)                 [deg]
#   9 THETA_WORLD            Position angle (CCW/world-x)                               [deg]
#  10 FWHM_WORLD             FWHM assuming a gaussian core                              [deg]
#  11 ELONGATION             A_IMAGE/B_IMAGE                                           
#  12 ELLIPTICITY            1 - B_IMAGE/A_IMAGE                                       
         1 -11.3380    214.6836     11.9107   6.4946741291e+01   2.9489263948e+01    0.7790433    0.6516154  35.82  0.003047341    1.359    0.264
         2  -7.9899    236.9133      1.4384   6.0288611830e+01   2.5241098689e+01    0.1872782    0.1156947  76.97 0.0007752088    1.558    0.358
         3  -9.3800     62.5477    247.6966   1.4379083661e+02   1.8115455003e+01    0.1861092     0.151235  79.01  0.001549127    1.201    0.167
         4 -10.2028    248.6679    245.8412   1.1227458858e+02  -8.7838657476e+00    0.3144528    0.1941662  23.89  0.002149891    1.224    0.183
         5  -9.3195     39.4001    246.2827   1.4732846726e+02   2.1018543701e+01    0.2175757    0.1073556  88.31  0.001445437    1.970    0.492
         6  -7.7774     24.2921    246.5939   1.4963398582e+02   2.2571423852e+01    0.1075855   0.04830755  67.54 0.0006988141    1.817    0.450
         7  -8.0403     87.6944    243.3459   1.3934405307e+02   1.5588458380e+01    0.1141071   0.06520922  66.49 0.0003733435    1.694    0.410
         8  -9.8015    232.0079    241.4778   1.1431862383e+02  -5.9533770960e+00     0.262077    0.1352762  41.94   0.00124889    1.728    0.421
         9  -8.3133    226.4633    248.4959   1.1628352629e+02  -5.8674148525e+00    0.1131748   0.08393226  24.71 0.0008094041    1.025    0.024
        10  -9.9711      2.7302    249.6557   1.5289142127e+02   2.4180176632e+01    0.3296738    0.1682862  53.90  0.002428342    1.426    0.299
        11  -7.4576    129.5506    234.4809   1.3120475878e+02   1.0940961690e+01    0.1158472   0.09408358  47.74 0.0001181257    1.041    0.040
        12  -9.4159    248.1589    232.3632   1.1022745759e+02  -7.3717995988e+00    0.2267653    0.1906634  75.39  0.001427718    2.759    0.637
        13 -10.8914     45.0237    214.0093   1.4430939270e+02   2.5896716931e+01    0.5562162    0.3465497 -69.38  0.003842058    1.617    0.382
        14 -10.7760     30.0953    230.7469   1.4790087566e+02   2.4580009120e+01    0.2493164    0.2040782 -81.87 0.0006997553    1.395    0.283
        15 -11.8527     36.2207    223.9272   1.4649169531e+02   2.5103154878e+01    0.6343272    0.4254561  60.69  0.004823914    1.162    0.140
        16  -8.5610     53.4821    230.0527   1.4403108127e+02   2.2097268508e+01    0.2771713    0.1294098  72.19  0.001562654    2.288    0.563
        17  -8.1073     91.3425    227.7144   1.3729631455e+02   1.7631566484e+01    0.1190439    0.0695362  63.84 0.0003526571    1.641    0.391
        18  -7.7929    242.0032    213.7591   1.0812141113e+02  -4.4161661305e+00    0.1586656   0.08540006  37.09 0.0007206181    1.605    0.377
        19  -8.4560     37.7459    213.3684   1.4553035400e+02   2.6817384320e+01    0.2020542   0.09054932  53.86  0.001108141    1.847    0.458
        20  -9.9332     10.2368    207.5214   1.4985254868e+02   3.0617310630e+01    0.4417222    0.2725771  32.44  0.003187774    2.018    0.504
        21  -7.9698     56.4982    205.5220   1.4156501987e+02   2.6124705456e+01    0.1122464    0.0897814  73.21 7.444576e-05    1.021    0.021
        22  -7.9414     59.0821    202.5204   1.4081827909e+02   2.6376695010e+01    0.1792099    0.1411496 -75.49 0.0009607677    1.283    0.221
        23  -9.3729     57.7603    197.5392   1.4061073058e+02   2.7487857044e+01    0.2068691    0.1715569 -82.77 0.0004267614    1.189    0.159
        24  -7.0961     50.4838    198.5120   1.4207526467e+02   2.8163148570e+01    0.1110513   0.09138516  78.27 5.161862e-05    1.068    0.063
        25  -9.9830    183.7877    195.2621   1.1537885053e+02   7.9466686349e+00    0.2190519    0.1931383  31.17 0.0002603217    1.039    0.038
        26  -8.1501    239.3279    191.3186   1.0450175063e+02  -1.2457503779e+00     0.134287   0.08415318  10.95 0.0007046741    1.682    0.405
        27  -9.7737     64.2566    189.3195   1.3853682502e+02   2.8290377680e+01    0.2142989    0.1927717  87.53    0.0005166    1.168    0.144
        28  -6.7969    183.7254    180.3536   1.1269572016e+02   1.0342089851e+01    0.1271677    0.1085537  88.98 0.0007003833    1.642    0.391
        29  -8.7928     74.8383    176.6637   1.3492820410e+02   2.9465208361e+01    0.2158906    0.1750805  80.85 0.0004268942    1.106    0.096
        30 -11.0335     61.5931    174.2834   1.3744471756e+02   3.1667798353e+01    0.4576423    0.2367969 -49.08   0.00219928    2.367    0.578
        31  -7.3169    101.0100    176.0250   1.2924605509e+02   2.5797383380e+01    0.1478595    0.1334919  82.10 0.0009411997    1.040    0.038
        32  -9.7047     82.0609    168.3887   1.3228869741e+02   3.0185392115e+01    0.3828923    0.3293681 -41.40  0.001976501    1.435    0.303
        33  -7.2095     58.7118    162.2600   1.3664484357e+02   3.4548761624e+01    0.1204895   0.08106983  71.33 0.0002064373    1.489    0.328
        34  -8.7509     12.0146    153.2846   1.4587026972e+02   4.1133705919e+01    0.1497479    0.1209924  83.14 0.0004079803    1.088    0.081
        35  -8.0211     96.4178    151.7866   1.2647100611e+02   3.1580838256e+01    0.1846087    0.1197268 -48.48 0.0009396654    1.607    0.378
        36  -9.8795     84.4737    150.9291   1.2914467572e+02   3.3570811549e+01    0.2655717    0.2127135 -51.44 0.0008169474    1.304    0.233
        37  -9.6886     67.5529    144.1592   1.3212749514e+02   3.7381973730e+01     0.573976    0.3254222  62.80  0.002796204    2.137    0.532
        38  -8.0644     13.8284    147.1766   1.4494774757e+02   4.2279315096e+01    0.1432921    0.1118166 -63.84 0.0004304275    1.298    0.230
        39  -9.2213    128.8763    141.7874   1.1690323818e+02   2.8113725340e+01    0.2259184    0.2115975 -62.25 0.0003036067    1.079    0.073
        40  -6.9731    108.6735    136.6795   1.2072656141e+02   3.2839076482e+01     0.139928      0.11133 -14.58 0.0006391246    1.683    0.406
        41  -8.3196     95.0627    134.4462   1.2366767955e+02   3.5579293678e+01    0.2322832    0.1789535 -41.27 0.0006270852    1.395    0.283
        42  -8.3628    193.7936    131.6967   1.0032181819e+02   1.6682398268e+01    0.2310128    0.1906442 -14.22 0.0006103563    1.239    0.193
        43  -8.6391    125.9848    126.8278   1.1435551917e+02   3.1809588425e+01    0.2230383    0.1972988 -45.27  0.000280108    1.123    0.110
        44 -10.4808    239.4846    123.3195   9.0010046085e+01   8.4202890222e+00     0.268344    0.2344671  30.96 0.0002267895    1.173    0.147
        45  -7.3916    105.6168    123.8126   1.1880697598e+02   3.6171415348e+01    0.1853317    0.1303563 -64.22 0.0001462668    1.510    0.338
        46  -8.1228    167.9570    114.6337   1.0154148581e+02   2.5500537998e+01    0.4322547    0.1869295 -50.35  0.001451247    2.919    0.657
        47  -7.3432     50.3061    113.6965   1.3160231486e+02   4.6282694392e+01    0.1263019   0.09113067  78.89 0.0007012694    1.601    0.375
        48  -7.9893    185.9789    109.4585   9.6387947473e+01   2.2381742898e+01    0.2223952    0.1490044  49.44 0.0003746842    1.512    0.338
        49  -7.2520     28.3763    109.7136   1.3697342085e+02   4.9307108415e+01    0.1218468   0.08171582  70.88 0.0007016928    1.722    0.419
        50  -8.4439    242.6860    104.6782   8.5070623613e+01   1.0578118720e+01    0.3297687    0.1851275 -44.27  0.000846756    1.858    0.462
        51  -7.5883    189.5244    104.4612   9.4370269589e+01   2.2454697419e+01    0.1528588    0.1437758   3.75 6.534801e-05    1.033    0.032
        52  -7.6149      2.3126     97.6834   1.4250658538e+02   5.3793775478e+01    0.1120372   0.07358182  76.47 0.0004572573    1.642    0.391
        53  -7.5880      9.7773     86.0239   1.3868178343e+02   5.5901423156e+01     0.153346   0.07573192 -67.86            0    1.569    0.363
        54  -7.5912    210.1384     82.9020   8.4812245039e+01   2.1220650100e+01    0.1987015    0.1674955   8.39  0.001020937    1.290    0.225
        55  -8.0650    155.7711     65.2397   9.0219036564e+01   3.7285526341e+01    0.2170846    0.2037723 -69.99 0.0005000486    1.193    0.162
        56  -8.7748    193.0907     61.2724   8.1731128002e+01   2.8694252367e+01    0.2333244    0.2052951 -24.89 0.0004715545    1.132    0.117
        57  -8.5563    133.5236     50.8629   9.0662780437e+01   4.4856553929e+01    0.2521415    0.2086799  54.40 0.0003357473    1.263    0.208
        58  -9.7205    248.3126     47.6233   7.0348138407e+01   1.7405266300e+01    0.2455388    0.2248896 -31.25 0.0003780605    1.076    0.071
        59  -7.4339    248.5143     36.4970   6.7631859932e+01   1.8749283237e+01    0.1301962    0.1205946 -49.14 -0.0003225431    1.035    0.034
        60  -9.0023    189.1844     34.6597   7.4574258289e+01   3.3319282600e+01    0.2646416    0.2242531  14.74            0    1.312    0.238
        61 -10.1212    199.5231     32.3566   7.2405305474e+01   3.0986341124e+01    0.4729135    0.1406377  59.25  0.001623604    2.960    0.662
        62  -7.4984    160.8114     28.6077   7.7363914873e+01   4.1264800378e+01    0.1903589    0.1369479  73.99 0.0005863679    1.511    0.338
        63 -10.4534    142.9750     26.9420   8.0207722403e+01   4.5901108509e+01    0.2475198    0.2250934  -1.03  0.001406979    1.103    0.093
        64  -9.0994    234.4090    249.2784   1.1509794004e+02  -7.0988625238e+00    0.1864834     0.121425  47.02  0.001212183    1.809    0.447
        65  -8.1679     15.0520     18.0650   1.1926014261e+02   6.9219789588e+01    0.1438787    0.1297899 -57.42  0.001079924    1.539    0.350
