#   1 NUMBER                 Running object number                                     
#   2 MAG_AUTO               Kron-like elliptical aperture magnitude                    [mag]
#   3 X_IMAGE                Object position along x                                    [pixel]
#   4 Y_IMAGE                Object position along y                                    [pixel]
#   5 X_WORLD                Barycenter position along world x axis                     [deg]
#   6 Y_WORLD                Barycenter position along world y axis                     [deg]
#   7 A_WORLD                Profile RMS along major axis (world units)                 [deg]
#   8 B_WORLD                Profile RMS along minor axis (world units)                 [deg]
#   9 THETA_WORLD            Position angle (CCW/world-x)                               [deg]
#  10 FWHM_WORLD             FWHM assuming a gaussian core                              [deg]
#  11 ELONGATION             A_IMAGE/B_IMAGE                                           
#  12 ELLIPTICITY            1 - B_IMAGE/A_IMAGE                                       
         1 -13.4195      7.4106     50.0276   1.2022251421e+02   6.4577437114e+01     1.017745    0.4363905 -26.65  0.004937298    2.936    0.659
         2 -10.2839     74.7941     16.3113   7.9779702932e+01   6.2762139394e+01    0.3345905    0.2030537  -7.40  0.001672938    1.851    0.460
         3 -11.1080     78.4839     21.9631   8.1065699301e+01   6.1327114500e+01     0.624742    0.2486061 -25.38    0.0024658    2.786    0.641
         4 -10.8098     74.9714     21.9930   8.2299322718e+01   6.1960354030e+01    0.4386784    0.1851211 -37.04 0.0008039844    2.319    0.569
         5 -10.5148     42.7417     15.2508   9.2062932116e+01   6.7936277412e+01    0.4833006    0.2593453 -40.47  0.002607305    1.759    0.432
         6 -10.8505      1.7979     21.0722   1.1468394329e+02   7.0648426132e+01    0.2645479     0.134814 -60.64  0.001556954    1.764    0.433
         7 -10.9228     14.0012     15.9914   1.0645603023e+02   7.0786972872e+01    0.2873715    0.1909057  23.78  0.001361872    1.759    0.432
         8 -11.2519    190.7861     14.4326   5.4264625378e+01   3.5449728696e+01    0.3980352    0.2147947 -46.16  0.001802148    1.898    0.473
         9  -9.8791     91.2691      2.4870   6.8200879527e+01   6.1055355659e+01    0.3946891    0.2617796  60.00  0.001172715    1.612    0.380
        10 -11.8402     89.0184     13.9451   7.4074952242e+01   6.0308690900e+01    0.4966221    0.3858758 -51.32  0.002027874    1.722    0.419
        11 -10.6687     93.0385      9.1518   7.0742481277e+01   6.0012213890e+01    0.3617545    0.2333398   3.30  0.001152159    1.683    0.406
        12 -10.1656     26.6456     16.3468   1.0018798677e+02   6.9610921360e+01    0.2413869    0.1769565 -36.33 0.0008083722    1.178    0.151
        13 -10.6660     22.5377      9.4136   9.9054686869e+01   7.1143248188e+01    0.3136401     0.209531  -1.97  0.001805902    1.478    0.323
        14 -11.7726     30.1898      7.1420   9.4024710006e+01   7.0681928291e+01     0.294584    0.2548186   7.99  0.001060569    1.292    0.226
        15 -11.6530     35.0530     12.8895   9.4495224286e+01   6.9250280427e+01     0.396005    0.2430474 -38.78   0.00139878    1.477    0.323
        16 -11.8825     40.3910      8.6083   8.9868428400e+01   6.9218197118e+01    0.4457792    0.2532151 -18.61  0.002472599    1.722    0.419
        17 -11.0277    231.7149     14.3012   4.9921924792e+01   2.5318767707e+01    0.2334778    0.2037727 -63.14 0.0003715317    1.025    0.025
        18 -11.0749    155.4337     14.5143   5.9318273537e+01   4.4578644053e+01    0.4678515    0.2639697  35.44  0.002018358    2.007    0.502
        19 -10.9757    155.3422      9.1328   5.7502022354e+01   4.5136277074e+01    0.3747415     0.235737  29.02 0.0007222183    1.841    0.457
        20 -11.4684    151.1018      6.8578   5.7390307119e+01   4.6436482641e+01    0.4334945    0.3279619  11.60  0.002315062    1.500    0.333
        21 -11.0049    162.4380     13.1469   5.7748503376e+01   4.2912521491e+01    0.2537506    0.2212733  62.16 0.0002471183    1.064    0.061
        22  -9.7480      8.8706     10.3738   1.0681505305e+02   7.2138159820e+01    0.2305925    0.1089341  -6.86 0.0008564991    2.905    0.656
        23  -9.5925      1.8737      2.6606   1.0734674156e+02   7.3908553232e+01    0.3510529    0.1729109  36.42  0.002011275    3.036    0.671
        24  -7.6743      6.1901     13.9500   1.0975963479e+02   7.1695726782e+01    0.1951338    0.1162236 -47.87  0.001111261    1.330    0.248
        25 -10.2076      9.9787      1.7648   1.0217067921e+02   7.3468988209e+01    0.2119249      0.14556 -42.37  0.001372057    1.357    0.263
        26 -11.2235      4.0369     10.0494   1.0934853828e+02   7.2517057470e+01    0.2336722    0.1680087 -37.98 0.0004658134    1.057    0.054
        27 -10.3159      2.7226      6.5482   1.0859895776e+02   7.3201855760e+01    0.2384022    0.1474943   4.93 0.0007784744    1.733    0.423
        28 -10.2699     14.5135      8.9886   1.0311602758e+02   7.1936225690e+01    0.2342417    0.1351493 -32.17 0.0008866036    1.367    0.268
        29 -11.0216     10.7518      6.3090   1.0393777836e+02   7.2678468247e+01     0.325978    0.2583442  52.96  0.002215974    2.297    0.565
        30  -9.6067    203.0452     11.9920   5.2154008057e+01   3.2582254751e+01    0.1630188    0.1477703 -88.29 0.0003310007    1.021    0.020
        31 -10.2467    119.1339     12.1390   6.5426376765e+01   5.3843909371e+01    0.2131202    0.1670704  32.16 0.0003025987    1.200    0.167
        32 -11.6567     55.6066      6.0922   8.1986281217e+01   6.7336785162e+01    0.4346946    0.2908406 -10.91  0.001624259    1.371    0.271
        33 -10.9114     71.2929      6.6390   7.6383188173e+01   6.4580623582e+01    0.3319021    0.2308313  23.30  0.001658472    1.332    0.249
        34 -10.7103    210.4395      7.0742   5.0054778515e+01   3.1231606324e+01    0.2123958    0.1697123  82.20 0.0007775008    1.171    0.146
        35 -10.2603     64.9318      6.8228   7.8753395829e+01   6.5694681002e+01    0.2161141    0.1598703 -12.59 0.0005032193    1.215    0.177
        36 -10.9230    145.0977      5.7669   5.7982554138e+01   4.8064590290e+01    0.2351777    0.2006516   3.95 0.0003254393    1.262    0.208
        37  -9.4061     49.6691      6.7444   8.4787548492e+01   6.8170136968e+01    0.1232094   0.08014824   7.64 0.0002240855    1.561    0.359
        38 -11.3464    195.0931      4.9419   5.1035280269e+01   3.5297307827e+01    0.3578224    0.2197651 -82.45  0.001727461    1.759    0.432
        39 -10.3100    199.2386      3.2180   5.0118731342e+01   3.4410389640e+01    0.2273617    0.1740557 -22.48  0.001052121    1.432    0.302
        40 -11.3995    130.2848      3.9000   5.9907556139e+01   5.1934160711e+01    0.3300336    0.2476799  66.01  0.001805387    1.285    0.222
        41  -9.9637    235.3697      4.3338   4.7175912851e+01   2.5504637105e+01    0.1903134    0.1465709  35.83  0.001103422    1.671    0.402
        42 -10.4111    120.9727      4.0502   6.1794958328e+01   5.4183156122e+01    0.2055303    0.1818232  35.49 0.0004029755    1.022    0.021
        43 -10.4849     20.0838      2.4621   9.6869142454e+01   7.2454306619e+01    0.2225414    0.1617341 -19.92 0.0008486521    1.047    0.045
        44  -9.7580     16.5787      3.4748   9.9310060751e+01   7.2635358628e+01    0.1752991   0.08637004 -40.64 -2.862926e-05    1.668    0.401
        45 -10.4965    173.4730      3.4539   5.3103407584e+01   4.0984163728e+01    0.2846573    0.2029177  85.61 0.0008386704    1.397    0.284
        46  -9.8691    176.4900      2.5266   5.2443930103e+01   4.0289152303e+01     0.248013    0.1754135 -26.99  0.001002293    1.510    0.338
        47 -11.1047    161.1077      2.0357   5.4278968205e+01   4.4298556882e+01    0.3454703    0.2336927  58.67  0.001799137    1.327    0.246
        48  -9.8642     37.5540      2.7484   8.8129907764e+01   7.0394967782e+01    0.2833406   0.09846111 -32.16  0.001281269    2.593    0.614
        49  -9.8346    100.0709      1.7948   6.5581408008e+01   5.9212562873e+01    0.1897786    0.1795995 -58.39   0.00055865    1.319    0.242
        50 -11.7916     80.2654      1.7183   7.1038755331e+01   6.3386771311e+01    0.3515157    0.1717335  52.59  0.001114434    1.983    0.496
        51  -9.7383    204.0325      1.4529   4.9160650161e+01   3.3371159298e+01    0.1992057    0.1216578  75.48 0.0003310666    1.523    0.343
        52  -9.4435    104.3235      1.2994   6.4329023324e+01   5.8305371710e+01    0.1433788   0.08588961  31.20 0.0002806426    1.629    0.386
        53 -10.3579     57.9790      2.2491   7.9047897539e+01   6.7407383767e+01     0.202352    0.1653944  -9.14 0.0006160625    1.122    0.109
        54 -10.7520     57.7095    107.8525   1.1507917801e+02   4.7261680161e+01    0.2170614    0.1850366   7.78  0.001235596    1.462    0.316
        55  -9.5928    233.4853    249.9754   1.0093895353e+02  -7.1327881230e+00    0.1365318   0.09849918 -15.10 0.0003926328    1.487    0.327
        56 -10.7532     12.2249    249.5009   1.3803943344e+02   2.3168366402e+01    0.1799676    0.1195168 -62.00  0.001415833    2.152    0.535
        57 -11.3605      1.8161    248.4027   1.3954663828e+02   2.4333653074e+01    0.2919751    0.1123173 -83.40  0.001930529    2.302    0.566
        58 -12.6642      8.5433    246.0069   1.3846065026e+02   2.4087547552e+01    0.4180923    0.3357946   8.58  0.003308091    2.615    0.618
        59 -11.5500      6.1513    241.4973   1.3865508242e+02   2.5051542787e+01    0.2024638    0.1382578 -87.67  0.001616337    1.375    0.273
        60  -9.8737     13.6490    107.6926   1.2789758746e+02   5.1440154967e+01    0.1215322   0.07356603 -46.63 0.0004246933    1.711    0.416
        61 -10.3289     90.1739    104.6136   1.0483569518e+02   4.3376469306e+01    0.2788855    0.2246557  14.23  0.001465312    1.526    0.345
        62  -9.7809    113.5014    102.4832   9.7718644177e+01   3.9668079059e+01    0.1475811    0.1431384 -56.02 1.025885e-05    1.013    0.013
        63 -10.9329     57.1706    101.9166   1.1406389353e+02   4.8701811113e+01    0.2691231    0.2015938  24.98  0.001529707    1.584    0.369
        64 -10.9125     24.9105    101.8314   1.2381477326e+02   5.1941133889e+01    0.2011998    0.1618658 -78.46 0.0002395008    1.081    0.075
        65 -10.0609     62.4458     97.9887   1.1161697519e+02   4.8951050892e+01    0.2195931    0.1206608 -60.15 0.0002450829    1.646    0.392
        66  -9.3976    129.4942     97.5259   9.2108143998e+01   3.7473416652e+01    0.1505782    0.1479767 -26.32 3.984719e-05    1.005    0.005
        67  -9.7299    101.0841     95.9649   9.9499879577e+01   4.3420059117e+01    0.3139079    0.1970206 -75.95   0.00122593    2.653    0.623
        68  -9.8417      3.0763     95.6753   1.2947901839e+02   5.4804489019e+01    0.1865136     0.123155 -72.37 0.0005714869    1.158    0.137
        69 -11.1105      1.8543     89.9982   1.2913764465e+02   5.6138845202e+01    0.2367367    0.1252305 -72.21 0.0002597523    1.445    0.308
        70 -10.2115     78.8724     94.8080   1.0581757636e+02   4.7378900340e+01    0.2006586    0.1777217 -31.21 0.0002493133    1.170    0.146
        71 -11.5695     18.2272     94.6999   1.2475919170e+02   5.4073974168e+01    0.2794061    0.2079698  48.63  0.001178726    1.564    0.361
        72 -10.6166     10.5820     91.2470   1.2661433506e+02   5.5362759272e+01    0.3798231    0.1634828 -86.36  0.001701512    2.739    0.635
        73 -11.1022     11.1686     85.5378   1.2558098591e+02   5.6611159695e+01    0.5453783    0.1746051 -77.18  0.002093828    3.470    0.712
        74 -10.9626     27.3539     90.9582   1.2128331306e+02   5.4231489204e+01    0.5041458    0.2345372  51.16  0.002346568    2.889    0.654
        75 -11.1260     58.1071     91.5978   1.1155279242e+02   5.0957580226e+01    0.3054078     0.229924 -28.84  0.001056527    1.509    0.337
        76 -10.5548     76.4130     89.3008   1.0519288774e+02   4.8984751749e+01    0.2479408    0.2256234 -43.55 0.0005774108    1.038    0.036
        77  -9.7145     44.3608     89.7315   1.1556915746e+02   5.2940061588e+01    0.2240575    0.1514429  45.54  0.001254074    1.724    0.420
        78 -11.0346     98.7863     89.3878   9.8389706520e+01   4.5267137320e+01    0.2617904    0.1944611  29.24    0.0013001    1.501    0.334
        79 -10.4720     18.4398     87.5211   1.2355550482e+02   5.5687073436e+01    0.3788133    0.1848288 -52.31  0.002036789    1.707    0.414
        80  -9.5268    124.3906     86.7931   9.0413696858e+01   4.0764417060e+01    0.2182868    0.1410827 -31.85 0.0008600287    1.660    0.398
        81 -11.1274     54.6256     84.5787   1.1105214017e+02   5.2968190554e+01    0.3077589    0.2130432 -66.54 0.0009266875    1.412    0.292
        82  -9.8040     25.3360     84.8453   1.2083822208e+02   5.5781094629e+01    0.1776581    0.1221041 -63.43 0.0005456358    1.175    0.149
        83 -10.7188      3.6499     83.1314   1.2764499576e+02   5.7575647667e+01    0.2476376    0.1751458 -66.03 0.0008857684    1.082    0.076
        84  -9.6710    100.3133     82.6816   9.6028292747e+01   4.6418533134e+01    0.1450345    0.1168795 -86.95  0.000391769    1.648    0.393
        85 -11.3337     64.1354     79.9452   1.0672703827e+02   5.2801535078e+01    0.4714695     0.290997 -61.92  0.002256766    1.641    0.390
        86 -11.2114     56.5455     75.4229   1.0810291009e+02   5.4771809877e+01     0.454228    0.2895195  19.32  0.001814915    1.943    0.485
        87 -10.1241     89.9789     79.6561   9.8291697020e+01   4.8906510496e+01     0.463258    0.2065423 -35.22  0.001683379    2.751    0.636
        88  -9.6454    132.7749     79.3932   8.5992466648e+01   4.0400836532e+01    0.2217717    0.1405918  37.46 0.0006358752    1.690    0.408
        89  -9.4269    124.4768     79.0106   8.8061608121e+01   4.2302037854e+01    0.2225924    0.1458118 -43.71 0.0004614854    1.508    0.337
        90 -10.3012    176.8173     77.0057   7.5209249076e+01   3.0330017678e+01    0.2819039    0.2283313  53.31  0.001387302    1.241    0.194
        91 -10.7657     16.0058     76.0599   1.2237019744e+02   5.8425050918e+01    0.2722673    0.2188973 -21.31  0.001866788    1.447    0.309
        92  -9.2858     70.0000     75.9646   1.0368167041e+02   5.2857271559e+01    0.2297363   0.07151963 -51.67 0.0007954868    2.894    0.655
        93  -9.1801     74.5936     75.5400   1.0203342666e+02   5.2271837464e+01      0.13858    0.1236798 -42.17 2.638913e-07    1.017    0.017
        94 -10.9611     36.4930     72.7643   1.1447256231e+02   5.7531625711e+01     0.469073    0.2572643 -53.60   0.00155563    1.478    0.323
        95 -10.0655     32.2118     73.1648   1.1608873489e+02   5.7830928038e+01    0.2008819    0.1637891  65.83 0.0006443828    1.521    0.342
        96 -11.2186      4.9969     74.2254   1.2584060928e+02   5.9479645730e+01    0.4230046    0.1980558  26.20  0.002365785    2.593    0.614
        97  -9.6304    136.5936     74.2477   8.3431288498e+01   4.0510398655e+01    0.2075372    0.1460272 -25.83 0.0003840135    1.531    0.347
        98 -11.3122    105.7157     71.7387   9.1082195502e+01   4.7622629263e+01    0.2587516    0.2391002 -12.13 0.0002865654    1.066    0.062
        99  -9.7492     92.6538     72.4391   9.5278339633e+01   4.9940751501e+01    0.1890503    0.1388225  27.11 0.0009414583    1.511    0.338
       100  -9.9684     80.5133     71.9947   9.9033334042e+01   5.2098493277e+01    0.1986702    0.1220278 -69.58 0.0006286304    2.584    0.613
       101  -9.1153     55.6624     69.6987   1.0685343973e+02   5.6124514891e+01    0.1368779   0.09291156 -25.54 0.0007036536    1.664    0.399
       102 -10.1159     10.5194     68.0764   1.2281619512e+02   6.0528288848e+01    0.4332378    0.1654508 -76.62  0.001832251    3.014    0.668
       103 -11.1427      3.8637     61.6520   1.2404547159e+02   6.2283239429e+01    0.5040855    0.2427671  62.91  0.002249581    3.917    0.745
       104 -11.1216      9.7059     60.3856   1.2159187296e+02   6.2246861461e+01    0.3254068    0.1663013 -46.94 0.0001267173    1.596    0.374
       105 -10.5549    132.1181     64.5445   8.1460775762e+01   4.3307623402e+01    0.3869878     0.312091  63.48  0.001921775    1.381    0.276
       106 -10.3858     34.7730     64.6442   1.1310300265e+02   5.9466330819e+01     0.242401     0.158129 -58.28 0.0008029689    1.311    0.237
       107 -10.5656     38.9565     62.9562   1.1109238740e+02   5.9429411752e+01    0.2410694    0.1784041 -21.38 0.0003667859    1.463    0.316
       108 -10.1282     40.6026     58.8314   1.0932007080e+02   6.0138734579e+01    0.3456989    0.2549391 -55.57   0.00209251    1.222    0.182
       109  -9.0468     76.2530     64.6378   9.8163112718e+01   5.4294157321e+01    0.1336313    0.1069202 -72.68 0.0006959686    1.619    0.382
       110  -9.9423     72.3902     63.4281   9.9099889002e+01   5.5138146967e+01    0.2622499    0.1537055 -49.13 0.0006427153    1.596    0.373
       111 -10.5053     14.0433     63.3650   1.2057759280e+02   6.1343462011e+01    0.2563823     0.141821 -68.48 0.0005104247    1.564    0.360
       112 -10.4808     62.6014     62.6223   1.0229096576e+02   5.6716529519e+01    0.2569534    0.1863389 -39.31  0.001257371    1.227    0.185
       113  -9.6149    100.9769     61.7287   8.9216891011e+01   5.0489771021e+01    0.1949579     0.185982  28.25 0.0004355851    1.100    0.091
       114 -11.0100     54.6948     59.4978   1.0420222381e+02   5.8396465941e+01    0.5433578    0.3381746 -50.46  0.002894336    1.427    0.299
       115 -13.0401     20.7991     57.4571   1.1664218031e+02   6.2159791302e+01    0.5081097    0.3277694 -72.66  0.002135858    1.607    0.378
       116  -9.5636     28.3111    249.6553   1.3559332616e+02   2.1508772320e+01     0.108779     0.049239  64.15 0.0006688474    1.705    0.413
       117  -9.5173     66.8901     60.5280   1.0009712632e+02   5.6542435438e+01    0.1877608    0.1336932  31.16  0.000879782    1.538    0.350
       118 -10.7739     83.6336     56.9445   9.3109885477e+01   5.4593511700e+01    0.2939782    0.2070262 -38.62 0.0004362284    1.317    0.241
       119 -11.7517     88.4634     53.2040   9.0195851957e+01   5.4438435560e+01    0.4476789    0.3613514  37.41  0.001038787    1.296    0.228
       120 -10.1561     60.1087     58.0901   1.0176095826e+02   5.7982225876e+01      0.20291    0.1750005 -41.01 0.0006364757    1.065    0.061
       121  -9.9809     15.0855     57.9580   1.1899156118e+02   6.2443166211e+01    0.1808875      0.13846 -54.70 0.0003849544    1.023    0.023
       122  -9.1665     71.6851     57.3143   9.7339335840e+01   5.6470513623e+01    0.1288793    0.1092303 -84.37 0.0004423728    1.642    0.391
       123 -10.3601    225.1546     54.6917   6.1012418050e+01   2.1883689395e+01    0.4425771    0.2874783  -5.00  0.001982317    2.128    0.530
       124 -11.5438    114.4109     54.0061   8.2607219967e+01   4.9113493832e+01    0.3391856     0.303248  12.19 0.0007308211    1.112    0.100
       125  -9.6152     34.1072     53.7581   1.1039031761e+02   6.1836097649e+01    0.2651352    0.1162645 -38.33  0.001224575    2.215    0.549
       126 -11.8675     66.3663     52.5471   9.7615708453e+01   5.8201103297e+01    0.4786897    0.2335307  33.16  0.001729888    2.273    0.560
       127  -9.9813    122.7478     51.8373   7.9575141190e+01   4.7632277052e+01    0.3056652    0.2067146  62.08  0.001099558    1.720    0.419
       128  -9.0837    174.2818     55.6705   6.9325298663e+01   3.4420372318e+01    0.1550463    0.1145021 -63.42 0.0002766805    1.605    0.377
       129  -9.9400     98.2254     49.9379   8.5907098979e+01   5.3170908455e+01    0.2778705    0.1917454 -17.05  0.001338954    1.614    0.381
       130 -10.5246     76.2255     49.4776   9.2994768471e+01   5.7244830931e+01    0.4244434    0.2915272  -9.58  0.001540965    1.771    0.435
       131 -10.2222     78.9796     45.9874   9.0744500749e+01   5.7416235088e+01    0.2265814    0.1839198  40.11 0.0006983805    1.344    0.256
       132  -9.4837     53.6364     48.1643   1.0088830420e+02   6.0802884227e+01    0.1935367    0.1019749 -39.34 0.0007619974    1.682    0.405
       133 -10.6706    103.5598     47.0864   8.3239009862e+01   5.2580943630e+01    0.3658304    0.2260777  31.18  0.001668686    1.792    0.442
       134  -9.1785     47.3144     47.2922   1.0307693631e+02   6.1750109625e+01    0.1307823   0.08669586 -22.27 0.0003148666    1.595    0.373
       135  -9.7349     30.5072     46.0197   1.0953107279e+02   6.3750660543e+01    0.1949634    0.1004088 -52.04 0.0005817995    1.589    0.370
       136 -11.0970     19.1504     32.2031   1.1002279923e+02   6.7416144670e+01    0.5442591    0.2518511  -9.30   0.00237721    3.667    0.727
       137 -11.1731     26.0115     43.5669   1.1066693431e+02   6.4635192844e+01    0.3216447    0.2366455 -64.91  0.001224265    1.459    0.315
       138 -10.1480     25.9371     29.9543   1.0608001600e+02   6.7276427274e+01    0.1957133    0.1767626 -68.42 0.0006804043    1.476    0.322
       139 -10.8288     22.8613     38.5185   1.1043902409e+02   6.5897336005e+01    0.2062142    0.1828218  27.35 0.0005710346    1.417    0.294
       140 -11.1779     26.5627     35.0478   1.0762661269e+02   6.6259754076e+01    0.3624867    0.2023063 -26.26  0.001310957    1.852    0.460
       141  -9.7289    181.9645     40.5343   6.3345479454e+01   3.4615292661e+01    0.3188941    0.1839749  40.76   0.00134797    1.948    0.487
       142 -10.2373     35.6071     41.5886   1.0594136975e+02   6.4143121190e+01    0.3408442    0.1886323 -15.06  0.001647125    2.497    0.600
       143  -9.0049    110.6796     42.7264   7.9553031123e+01   5.1781210511e+01    0.1469969     0.106403  17.58  0.000271499    1.571    0.364
       144 -10.1713     95.1090     42.2268   8.3985377971e+01   5.5089180451e+01    0.2078753    0.1755565   5.08 0.0005578692    1.165    0.142
       145  -9.8946     69.6109     41.7015   9.2456917934e+01   5.9719079038e+01     0.262715    0.1818415  -5.60 0.0008878372    1.695    0.410
       146  -9.9817      2.8560     42.1449   1.2025472143e+02   6.6445650997e+01    0.2574085    0.1264713 -10.19  0.001403743    2.655    0.623
       147 -10.4277    139.6953     40.6748   7.1495982843e+01   4.5343610336e+01    0.2634112    0.2419541 -72.44 0.0005959725    1.231    0.188
       148  -9.5221     51.3440     39.8203   9.8784286255e+01   6.2678417527e+01    0.1911335   0.09974619 -37.69  0.000944016    1.691    0.409
       149  -9.1788     42.9721     40.7553   1.0255923235e+02   6.3515564579e+01    0.1386572     0.104115  19.04 0.0004639534    1.460    0.315
       150  -9.8762    132.9139     38.7133   7.2353778971e+01   4.7272819074e+01    0.3873481    0.2547681 -85.94  0.001560327    2.617    0.618
       151 -11.0353    134.1744     34.3534   7.0488137186e+01   4.7573247009e+01    0.2425124    0.1962942  21.21 0.0003449778    1.291    0.225
       152 -12.2836    121.9374     37.2766   7.4502931775e+01   5.0073461943e+01    0.6005111    0.5290005  25.11  0.002652158    1.092    0.084
       153 -10.5881    123.0269     32.9963   7.2625077109e+01   5.0420576153e+01    0.2852847    0.1877607  33.97            0    1.574    0.365
       154 -11.0302      2.8465     34.1035   1.1816187119e+02   6.8071876515e+01     0.355249    0.1590576 -45.94  0.002037675    1.645    0.392
       155 -10.3161     91.3185     33.8277   8.1865629466e+01   5.7162214975e+01    0.3246076    0.2100713 -26.16 0.0008292796    1.507    0.336
       156  -9.1544    145.2372     33.0755   6.7638240018e+01   4.5008847416e+01    0.1729791    0.1239282 -22.14 0.0003331933    1.465    0.317
       157  -8.9618     50.3081     33.6502   9.6817989982e+01   6.3926963371e+01    0.1167134    0.1010518 -72.47 0.0007043658    1.710    0.415
       158 -10.3483    166.2866     31.2111   6.3039461500e+01   3.9873717494e+01    0.2490396    0.2207016 -40.55 0.0003916503    1.166    0.143
       159  -9.3934     86.4793     32.0262   8.2690828977e+01   5.8370312793e+01    0.2029508    0.1267446 -30.49  0.000565156    1.531    0.347
       160 -11.2994     43.9766     28.9341   9.7582594329e+01   6.5550940637e+01    0.4837059    0.2740618 -31.23  0.002617843    1.590    0.371
       161 -11.4456     38.6487     30.8680   1.0068870574e+02   6.5831557847e+01    0.2390511    0.1781456 -11.62 0.0003420788    1.298    0.229
       162  -9.9167    204.9789     30.7893   5.7167117209e+01   2.9974788611e+01    0.2460236    0.1511074 -72.99  0.001087729    1.997    0.499
       163  -9.4148    187.1778     29.8404   5.9312350585e+01   3.4636391166e+01    0.2069883     0.165321  36.10  0.001075288    1.372    0.271
       164  -9.8548    129.8262     29.8460   6.9826628797e+01   4.9223672374e+01    0.2276988    0.1802379  24.28 0.0005360428    1.298    0.230
       165  -9.4987    113.4181     29.7777   7.3835259511e+01   5.3067956799e+01    0.1883109    0.1323969 -10.03 0.0003310675    1.539    0.350
       166 -11.2070      8.1043     28.7550   1.1408954400e+02   6.8833212011e+01    0.2652802    0.2254807  70.37  0.001908654    1.750    0.429
       167 -10.1549    148.7040     28.6818   6.5410546836e+01   4.4693869758e+01    0.5280827    0.3114276 -67.39  0.002060395    2.717    0.632
       168 -11.3703     17.8174    249.0147   1.3717559141e+02   2.2692805070e+01    0.1877165    0.1332538  23.66  0.001406479    2.380    0.580
       169  -9.8649    229.6840    248.0802   1.0128566733e+02  -6.4052271360e+00    0.1492077    0.1156992   9.87  0.000772358    1.150    0.131
       170  -9.5020    136.4966    245.5964   1.1705776239e+02   7.9761275163e+00     0.116711   0.08699663  48.39  7.67608e-05    1.060    0.056
       171 -10.5175     69.6658     27.3221   8.6560008731e+01   6.2093038049e+01    0.4778211    0.1547883 -38.81  0.001833319    2.923    0.658
       172 -10.2528    100.7975     25.5643   7.5606732402e+01   5.6400957588e+01    0.2468393    0.1872187 -32.37 0.0008207742    1.354    0.262
       173  -9.2141     18.4574     26.4097   1.0829638576e+02   6.8562923956e+01    0.1216031   0.08609871 -31.65 0.0003495545    1.147    0.129
       174  -9.5551    218.6797     25.3373   5.4056092577e+01   2.7216709136e+01    0.1501844   0.09290762 -60.62 -5.304153e-05    1.709    0.415
       175  -9.6378    153.7908     25.6002   6.3387885683e+01   4.3771993277e+01    0.2004388    0.1368192  76.98 0.0005239398    1.619    0.382
       176 -10.8039    114.1557     24.1389   7.1416358712e+01   5.3633917090e+01    0.3279593    0.2634581  20.13  0.001334945    1.229    0.186
       177 -10.4483     59.3678     24.0803   8.9087566966e+01   6.4237074050e+01     0.284436    0.1895739  -3.70  0.001545952    1.650    0.394
       178  -9.2496     45.0265    244.2564   1.3265625065e+02   2.0549499540e+01    0.1273491   0.07019137  45.11 0.0004091676    1.498    0.332
       179  -9.9217     38.4698     24.4839   9.8153834691e+01   6.6969700269e+01    0.2539973    0.1384808 -27.21  0.001205565    1.775    0.437
       180  -9.6632     39.9832     21.0461   9.5975827140e+01   6.7366061100e+01    0.2306872    0.1556149  -3.49  0.001367461    1.551    0.355
       181 -10.3863    172.3214     23.3403   5.9528337767e+01   3.9251472343e+01    0.1535458    0.1032003  32.52  0.000705038    1.719    0.418
       182  -9.9243     22.1384     22.6309   1.0506234902e+02   6.8946523355e+01     0.151952    0.1396895  10.58 0.0007732356    1.359    0.264
       183  -9.8113    202.4432    240.2795   1.0475713235e+02  -1.5164217356e+00    0.1762459    0.1100395 -27.83 0.0008577694    1.926    0.481
       184 -11.2189     13.4233     20.7798   1.0866130728e+02   6.9976330118e+01    0.2520432    0.1975335 -64.76  0.001031034    1.598    0.374
       185  -9.5954     60.6758    241.1531   1.2986629964e+02   1.9208433748e+01    0.2041881   0.05651395  40.68 0.0009753065    2.806    0.644
       186 -10.0213     85.1347     20.9875   7.8422857540e+01   6.0200386512e+01     0.263502    0.1476272  25.87 0.0008840528    2.061    0.515
       187  -9.7738     30.9888     20.2615   9.9806747963e+01   6.8509888098e+01    0.2195241    0.1149718 -33.54 0.0006279668    1.627    0.385
       188  -9.4810    131.8383     20.4147   6.5857593678e+01   4.9884032140e+01    0.2054388    0.1176474  47.72  0.000643609    1.611    0.379
       189 -10.4181    100.4609     19.2614   7.3064694702e+01   5.7276616083e+01    0.2904496    0.2364805 -60.68  0.001010349    1.668    0.400
       190  -9.6715     58.3564     18.8803   8.7131020723e+01   6.5175751954e+01    0.2440125    0.1031362 -42.24  0.001073176    2.519    0.603
       191 -10.3783    199.5373     17.0386   5.3963951548e+01   3.2936342543e+01    0.2634861    0.1827027 -82.30  0.001210254    1.533    0.348
       192 -12.0985     26.2999    236.0285   1.3525379564e+02   2.3971762698e+01    0.2820855    0.1947198  86.50  0.001457736    1.259    0.206
       193 -11.8832      4.1043    232.5450   1.3863400299e+02   2.6740296566e+01    0.3045006     0.137092  68.32 0.0003404091    1.672    0.402
       194  -9.4449    200.2357    235.9872   1.0452319278e+02  -6.5913044542e-01    0.1284202   0.09695219 -29.02 0.0008672633    1.577    0.366
       195  -9.0909    210.7004    235.6832   1.0265943725e+02  -2.2398697871e+00    0.1181054   0.07527978  14.58 0.0003581076    1.615    0.381
       196 -10.5002     49.3498     16.1536   8.9586495418e+01   6.6906176406e+01    0.2169363    0.1981511  33.20 0.0008535848    1.432    0.302
       197  -9.1196    204.3445    235.3081   1.0370652877e+02  -1.2150838750e+00    0.1220495   0.07596993  16.76 0.0007043821    1.697    0.411
       198  -9.6784    108.5108     16.1870   6.9622710983e+01   5.5863325005e+01    0.1800691    0.1319138 -16.81 0.0003234729    1.382    0.276
       199  -9.9516    249.1981    234.0808   9.5962351199e+01  -7.7318302063e+00    0.1698034    0.1147738  13.87 0.0004386856    1.181    0.154
       200 -13.4950      9.9055    229.8252   1.3760728026e+02   2.6664533041e+01    0.7059355    0.3716052  73.12  0.005081576    1.441    0.306
       201  -9.0033     80.3226    231.7233   1.2572760559e+02   1.8270882594e+01    0.1172203   0.06609187  62.30 0.0004258954    1.581    0.368
       202  -9.1343    209.5233    229.5051   1.0193221301e+02  -1.3185964813e+00      0.12002    0.0937342  25.42 0.0001412466    1.008    0.008
       203  -9.8137    140.0448    227.0652   1.1424440232e+02   1.0198473470e+01    0.1909755    0.1274577  63.36 0.0007439711    1.672    0.402
       204 -10.3096     33.1632    225.0210   1.3351902645e+02   2.5155107127e+01    0.2728347   0.07719157  46.45  0.001415289    2.517    0.603
       205 -11.9902      7.9735    217.1526   1.3737193643e+02   2.9077093865e+01    0.3222178    0.1976173  72.29  0.002436357    1.185    0.156
       206 -10.4233     15.4983    212.8308   1.3588716460e+02   2.9156520437e+01    0.2316444     0.131958 -47.60  0.001366428    3.199    0.687
       207 -10.0847     20.1381     16.8452   1.0366376334e+02   7.0135309903e+01     0.169863    0.1397973   1.38 0.0004121343    1.268    0.211
       208 -10.0310     20.4797    209.7353   1.3485192466e+02   2.9245277241e+01    0.1824824   0.09177122  53.15 0.0005110265    1.582    0.368
       209  -9.5877    246.6598    207.2189   9.1880096296e+01  -4.4211400541e+00    0.1640904   0.09759975 -16.53 0.0009465708    1.688    0.407
       210 -10.3630      3.1803    205.4374   1.3765738329e+02   3.1650644160e+01    0.1676336   0.09569368  31.42   0.00114462    2.123    0.529
       211  -9.3444    197.0046    203.8338   1.0006455380e+02   4.1473249716e+00     0.163362    0.1453951 -68.70 0.0006618871    1.612    0.380
       212 -11.0230      9.5446    203.5123   1.3645326044e+02   3.1445825533e+01    0.1917112    0.1370147  72.32 0.0008289702    1.027    0.026
       213  -9.0347     38.2703    203.2739   1.3120081844e+02   2.8620731748e+01   0.09182113    0.0813999 -66.82 0.0001737359    1.481    0.325
       214  -8.9598    123.2820    198.3593   1.1375617763e+02   1.7796720217e+01    0.1196224    0.1006925  -6.32  0.000445278    1.671    0.402
       215  -9.9464     23.1205    197.1726   1.3362691161e+02   3.1377702738e+01    0.1538458    0.1276808  89.47 0.0004784683    1.227    0.185
       216 -11.8675     13.7223    194.5282   1.3521515640e+02   3.2785562772e+01    0.3034041    0.2540826 -77.67  0.002435524    1.374    0.272
       217  -9.8161     70.1673     13.4136   8.0058745700e+01   6.3966592008e+01    0.2367986     0.168734  60.26  0.001292953    1.989    0.497
       218  -9.5774     15.3580    185.1704   1.3434567263e+02   3.4484011117e+01    0.1576541    0.0795761  87.54  0.000939259    1.687    0.407
       219  -9.3053      1.1964    183.0409   1.3692549370e+02   3.6122638599e+01     0.137524   0.06501223 -82.00 0.0004598124    1.695    0.410
       220 -10.9214      5.3213    167.6690   1.3523681552e+02   3.8907828366e+01    0.2264277    0.1346022  81.93  0.001113493    1.341    0.254
       221  -9.7422     14.3208    164.3339   1.3314266120e+02   3.8864907124e+01    0.1074363   0.07511446 -54.48  0.000677524    1.702    0.412
       222  -9.3901     41.6029    157.8083   1.2653847966e+02   3.7658417805e+01    0.1703379   0.09871991 -86.32 0.0009353435    1.611    0.379
       223  -8.8723    247.4694    155.5061   8.1735100104e+01   2.1478169846e+00    0.1333767    0.1127034  -1.13 0.0001157549    1.010    0.010
       224 -10.0160      2.7238    153.7465   1.3487133759e+02   4.2027594443e+01    0.1647137   0.06447584  43.44 0.0009001595    2.399    0.583
       225 -10.2023     23.9516    150.7537   1.2989383728e+02   4.0948096374e+01    0.1665097    0.1422824 -69.35 0.0005606241    1.252    0.201
       226 -10.0146     22.3636    142.8434   1.2951030558e+02   4.2835772490e+01    0.1749332   0.08520373 -65.44 0.0009493764    1.726    0.420
       227 -10.3737      3.1015    138.6393   1.3368252134e+02   4.5253768225e+01    0.2072143   0.08030402  37.33  0.001113581    2.613    0.617
       228 -10.5616      9.0691    135.3802   1.3199851126e+02   4.5547755221e+01    0.1955342    0.1226229 -70.94 0.0004401144    1.305    0.234
       229  -9.6953    212.7516    133.8299   8.3007315886e+01   1.2202566197e+01    0.1885972    0.1750982 -80.44 0.0007156159    1.350    0.259
       230  -9.9858      1.9395    132.5134   1.3346658771e+02   4.6671450992e+01    0.1379517     0.111206  34.06 0.0008519766    1.541    0.351
       231  -9.8108     35.3211    130.6530   1.2491882384e+02   4.4402162250e+01    0.2027762    0.1177668 -55.33 0.0005726976    1.635    0.388
       232 -11.1102     11.8480    129.5370   1.3077656819e+02   4.6642821341e+01    0.3189662    0.1659693  66.59  0.001583783    2.031    0.508
       233  -9.8949     28.9363    128.4713   1.2630539056e+02   4.5494513287e+01    0.1546626    0.1176301  38.82   0.00040437    1.498    0.332
       234 -11.8659     23.4275    121.3045   1.2688538801e+02   4.7602131843e+01    0.5041216    0.2523031  72.72 0.0006389935    2.494    0.599
       235 -10.6373     65.5991    111.8187   1.1354425842e+02   4.5346589301e+01    0.4500394    0.1342611 -53.45  0.001637786    2.857    0.650
       236  -9.6743     43.5540    113.7255   1.2023919972e+02   4.7484724306e+01    0.2107704    0.1355502  58.62 0.0006975167    1.770    0.435
       237  -9.4003      2.3025    114.2981   1.3174020584e+02   5.0681916306e+01    0.1131538   0.06979869 -53.20 0.0002064317    1.583    0.368
       238  -9.8871     20.8634    112.7646   1.2651404765e+02   4.9756636707e+01    0.2017411    0.1130598  59.79 0.0008350756    2.047    0.511
       239 -10.2340    249.1524    111.8141   7.1758354011e+01   8.1997114777e+00    0.1931187     0.154174   4.24  0.001074134    1.322    0.244
       240 -11.0719      3.6420    109.0372   1.3084045658e+02   5.1778065652e+01    0.3123832    0.1430413  32.65  0.001753836    2.493    0.599
