#   1 NUMBER                 Running object number                                     
#   2 MAG_AUTO               Kron-like elliptical aperture magnitude                    [mag]
#   3 X_IMAGE                Object position along x                                    [pixel]
#   4 Y_IMAGE                Object position along y                                    [pixel]
#   5 X_WORLD                Barycenter position along world x axis                     [deg]
#   6 Y_WORLD                Barycenter position along world y axis                     [deg]
#   7 A_WORLD                Profile RMS along major axis (world units)                 [deg]
#   8 B_WORLD                Profile RMS along minor axis (world units)                 [deg]
#   9 THETA_WORLD            Position angle (CCW/world-x)                               [deg]
#  10 FWHM_WORLD             FWHM assuming a gaussian core                              [deg]
#  11 ELONGATION             A_IMAGE/B_IMAGE                                           
#  12 ELLIPTICITY            1 - B_IMAGE/A_IMAGE                                       
         1  -9.4859     49.9474     32.9555   9.9968834837e+01   6.3227606223e+01    0.1620243    0.1522468 -63.61 0.0009836488    1.710    0.415
         2  -9.4142     17.6701     14.3212   1.0597756978e+02   6.9454220874e+01   0.08895449   0.08442277  -3.30 0.0007048866    1.693    0.409
         3 -10.5131    162.6262    225.7377   1.1585086067e+02   3.0786633637e+00    0.3883129     0.282508  11.20  0.001975523    1.787    0.441
         4 -10.2712     84.7007    227.7410   1.3247754753e+02   1.6012644604e+01    0.2151827   0.08263978  49.60 0.0008945781    2.351    0.575
         5  -9.2228    108.7087    222.6582   1.2681813978e+02   1.3213740824e+01    0.1260747    0.1090568 -17.67 0.0005215027    1.652    0.395
         6 -10.1498    126.1250    220.9096   1.2284401828e+02   1.0574068022e+01    0.2134223    0.1846267  61.93  0.000553888    1.055    0.052
         7  -9.3408    143.6746    216.5252   1.1837702979e+02   8.3184042690e+00    0.2386175    0.1317661 -52.98  0.001079481    1.972    0.493
         8  -8.9585     62.3253    217.6638   1.3594225167e+02   2.1467750308e+01    0.1404931   0.08204383  70.69 0.0007051382    1.719    0.418
         9  -9.4893    131.4953    214.4699   1.2069508843e+02   1.0955879429e+01    0.2313974     0.129357 -43.26  0.001020756    2.146    0.534
        10  -9.6379     77.0198    214.1727   1.3247279531e+02   2.0117542888e+01     0.236079    0.1239735  62.48  0.001077233    2.035    0.509
        11  -9.4123    116.0011    210.4913   1.2348627341e+02   1.4566207897e+01    0.2108025    0.1036143  59.03 0.0008100299    2.506    0.601
        12  -9.6635     99.4427    206.3088   1.2654527203e+02   1.8326426912e+01    0.2601562     0.149872  59.17 0.0008374343    1.814    0.449
        13  -9.5425     56.8065    205.6135   1.3578000472e+02   2.4912838160e+01    0.1887882    0.1014006  51.27 0.0007879958    1.741    0.426
        14 -10.3999    165.0368    203.2573   1.1144605814e+02   7.0194732091e+00    0.3513294    0.2655906  77.32  0.001706645    1.779    0.438
        15  -9.0991     80.3462    201.6647   1.3016061096e+02   2.2439157429e+01    0.1501729    0.0930269  71.51 0.0007048899    1.772    0.436
        16 -10.2754     89.0883    199.3443   1.2787537816e+02   2.1604541751e+01     0.324459    0.2080358  85.81  0.001202668    1.819    0.450
        17 -10.8651    177.7937    198.3730   1.0778369915e+02   5.5603417068e+00    0.3059035    0.2300194  49.04  0.001258208    1.339    0.253
        18  -9.5241    149.7699    199.1688   1.1406656700e+02   1.0789946423e+01      0.25356    0.1594771  78.88 0.0009576656    2.867    0.651
        19  -9.7927    125.7201    197.9283   1.1928943489e+02   1.5591099789e+01    0.3254618    0.2571944  29.22  0.001676188    1.419    0.295
        20  -9.9529    113.2538    198.1827   1.2218488532e+02   1.7787060704e+01    0.2966536    0.1681085  62.41  0.001235506    2.134    0.531
        21 -10.8009    172.9809    195.9320   1.0835308378e+02   6.9795903124e+00    0.2700907    0.2463027 -26.17 0.0009015785    1.149    0.130
        22  -9.6738    173.8001    191.8280   1.0738353578e+02   7.6583547620e+00    0.2225386    0.2024052 -84.96 0.0004190481    1.253    0.202
        23  -9.9082     67.0045    195.1483   1.3229603177e+02   2.5918871049e+01    0.3695164    0.1863337  69.48  0.001511805    2.632    0.620
        24  -9.6596    186.4666    193.9799   1.0509357938e+02   4.7657137954e+00    0.1972362    0.1289733 -70.15  0.000627537    2.490    0.598
        25 -10.4890    162.8278    194.1258   1.1023030723e+02   9.3284660154e+00    0.2374602    0.2009316  75.10  0.001235039    1.358    0.263
        26  -9.6796     44.0186    194.0125   1.3724921699e+02   2.9209519216e+01    0.2196451     0.128883  71.66 0.0009449166    1.732    0.423
        27  -9.9004    139.2849    189.8366   1.1474654507e+02   1.4839686282e+01    0.2912218    0.2237788  84.53  0.001017583    1.579    0.367
        28 -10.0839     88.0523    189.8019   1.2671826598e+02   2.3996605894e+01     0.304498    0.1737556  52.78  0.001202614    1.747    0.427
        29  -9.3100    129.7982    189.1860   1.1682626687e+02   1.6797799682e+01    0.2584386    0.1552725  76.24 0.0009467416    2.832    0.647
        30  -9.8172    156.7127    187.9093   1.1040665853e+02   1.1853778454e+01     0.275638    0.2099653 -71.46  0.001021387    1.568    0.362
        31 -10.3750    120.4521    185.8419   1.1842303721e+02   1.9313446515e+01    0.5269015     0.221131 -64.15  0.001764065    3.161    0.684
        32 -11.4730     95.6758    186.9910   1.2448947932e+02   2.3413896090e+01    0.5802714    0.3198588  66.92  0.002320071    2.453    0.592
        33 -10.3003     55.3041    187.0882   1.3392436617e+02   2.9409200834e+01    0.3698379    0.1911451  80.80  0.001551801    2.568    0.611
        34  -9.8928     34.8505    187.7475   1.3857341866e+02   3.1734088305e+01    0.2657338    0.1368852  80.56  0.001247471    2.174    0.540
        35 -10.2340    109.9023    186.5353   1.2104211243e+02   2.1067232240e+01    0.3974836    0.2312842  66.61  0.001521752    2.274    0.560
        36  -9.1453    165.3623    186.6828   1.0823034884e+02   1.0399674162e+01    0.1555163    0.1175465  78.17  0.000704173    1.766    0.434
        37  -9.6766     66.4015    185.2109   1.3111925371e+02   2.8349452813e+01    0.1991032    0.1183313 -80.41 0.0009452536    1.715    0.417
        38  -9.6628    174.8164    183.7047   1.0555274435e+02   9.1400264650e+00    0.2869022    0.2019488 -76.86  0.001237721    2.124    0.529
        39  -9.7486     74.6760    184.3516   1.2905707058e+02   2.7357713780e+01    0.2323803    0.1488951  73.06  0.001110187    1.744    0.427
        40  -9.9871    211.7449    182.9389   9.7711102782e+01   2.0825153633e+00    0.2701293    0.1981242  11.91  0.001334176    1.637    0.389
        41  -9.8711    197.4985    183.0072   1.0059503609e+02   4.7952620205e+00    0.2028038    0.1280249 -66.37 0.0008102801    2.526    0.604
        42  -9.4436     27.0099    182.7902   1.3977350449e+02   3.3732666191e+01    0.1916534    0.1128417  84.97 0.0008226656    1.607    0.378
        43  -9.9209     11.8481    182.2764   1.4299264686e+02   3.5324801661e+01    0.2431177    0.1085589 -65.59  0.001265306    1.836    0.455
        44  -9.7207     44.6516    182.3548   1.3577519638e+02   3.1863329299e+01    0.2166133    0.1321036  72.27 0.0009677632    1.710    0.415
        45  -9.9657    148.0646    180.9102   1.1102122016e+02   1.5110742680e+01    0.3245238    0.2209404  80.32  0.001336423    2.206    0.547
        46  -9.2520    137.6953    179.3301   1.1313715537e+02   1.7520685614e+01    0.1564081    0.1173366  81.22 0.0006565968    1.655    0.396
        47 -10.2903     60.2881    177.1197   1.3144769500e+02   3.1129104396e+01    0.3535271    0.1823001  71.08   0.00142204    2.726    0.633
        48  -9.7682     89.0386    177.0736   1.2448344080e+02   2.6876177784e+01    0.2422695    0.1638103  74.98 0.0008376912    1.714    0.416
        49 -10.9241     77.9156    176.2623   1.2706696125e+02   2.8817432868e+01     0.539734    0.2240395  50.53  0.002074222    2.629    0.620
        50  -9.5534    160.4858    175.9953   1.0718238743e+02   1.3692485404e+01    0.3114285    0.1856482  74.21  0.001026083    3.450    0.710
        51 -10.2256    106.2157    175.5726   1.2002138230e+02   2.4318340249e+01    0.3932037    0.2115871  62.93   0.00148076    2.554    0.608
        52 -10.1826     83.4674    182.2953   1.2666046598e+02   2.6508497167e+01    0.2555193    0.1553186  60.28   0.00117803    1.772    0.436
        53  -9.8119      2.9832    173.0105   1.4406388806e+02   3.8192463630e+01    0.3237299    0.1144657  84.38  0.001144476    4.315    0.768
        54  -9.1756     34.3657    173.6773   1.3711375216e+02   3.5092732328e+01    0.1393415   0.08268888  70.71  0.000703869    1.791    0.442
        55  -9.5040    135.0088    172.0135   1.1234108097e+02   1.9735308873e+01     0.255712    0.1861736  80.18   0.00113139    1.767    0.434
        56  -9.3884     44.8436    172.0329   1.3444971480e+02   3.4300476679e+01    0.2308302     0.130884  80.60  0.001075935    2.062    0.515
        57 -10.6123    122.1731    169.7098   1.1500553611e+02   2.2774140260e+01    0.5071698    0.3203168  75.70  0.001847274    2.394    0.582
        58  -9.5702    207.0427    170.4820   9.6047432999e+01   5.3917074226e+00     0.219783    0.1438417  43.23  0.001027118    1.574    0.365
        59 -10.2386     55.3210    169.7491   1.3161436070e+02   3.3561424637e+01    0.3027118    0.1948484  75.77  0.001514512    1.719    0.418
        60 -10.4992    213.9469    168.7904   9.4330555563e+01   4.3694257041e+00     0.223697    0.1933847  -2.70 0.0007209145    1.229    0.187
        61  -9.5160    168.7584    169.5886   1.0397671150e+02   1.3389232804e+01    0.2217541    0.1427343  54.64  0.000882155    1.689    0.408
        62  -9.6322     88.8804    168.7639   1.2312301109e+02   2.8916649984e+01    0.2859746    0.1819306  88.07  0.001013144    2.050    0.512
        63  -9.6113    112.1144    167.7435   1.1711529449e+02   2.5130077187e+01    0.3564901    0.2095234  73.17  0.001295059    2.788    0.641
        64  -9.3981     75.2806    168.6365   1.2650908268e+02   3.1066819442e+01    0.1493259    0.1016059  80.68 0.0005591986    1.678    0.404
        65 -10.8715    140.0373    165.4818   1.0980054643e+02   2.0242404376e+01    0.5273687    0.3431608  87.36  0.001743275    2.598    0.615
        66 -10.1483     99.6823    166.5667   1.2001276063e+02   2.7636404190e+01    0.4197069    0.2081424  55.89  0.001585691    2.464    0.594
        67 -10.4782     80.0638    163.9628   1.2452589339e+02   3.1485384854e+01    0.5311202    0.2881771  79.62  0.001848633    3.417    0.707
        68  -9.3741     19.4881    165.9954   1.3969378392e+02   3.8394116160e+01    0.1879139   0.08766477  83.86 0.0008105305    2.617    0.618
        69  -9.7546     37.7071    164.0196   1.3513147018e+02   3.7033958199e+01    0.3173009    0.1462048 -76.22  0.001097622    2.086    0.521
        70  -9.6170    159.9659    164.4868   1.0488783488e+02   1.6349217560e+01    0.2207683    0.1327534  66.24 0.0005999274    2.461    0.594
        71  -9.6727     47.4180    163.7538   1.3271394982e+02   3.5990666193e+01    0.2645807    0.1182785 -72.10  0.001030333    2.131    0.531
        72 -10.4302    205.1010    162.0482   9.4624429329e+01   7.4532318339e+00     0.408785    0.1653246 -38.46  0.001459609    2.520    0.603
        73  -9.6866     70.0127    163.0685   1.2693456393e+02   3.3197280121e+01    0.2392909    0.1588354  76.54  0.001136394    1.772    0.436
        74 -10.0638      8.9731    160.3426   1.4152987250e+02   4.0620017684e+01    0.4412501    0.1774902  77.07  0.001641487    4.041    0.753
        75  -9.9375    178.2245    161.1292   1.0005006288e+02   1.3232365708e+01     0.298913     0.207431  74.45  0.001241113    2.096    0.523
        76  -9.7299    152.0205    160.7670   1.0593932942e+02   1.8852612581e+01    0.3333906    0.2026711 -74.79  0.001181985    2.768    0.639
        77 -10.5903     92.9913    160.4096   1.2057906332e+02   3.0277379863e+01    0.3896294     0.255022  74.18  0.001695885    1.991    0.498
        78  -9.7706     61.9407    160.6132   1.2859651349e+02   3.4917441601e+01    0.2915199    0.1726632 -85.49  0.001314437    1.972    0.493
        79  -9.3641     31.4905    160.4833   1.3619282210e+02   3.8536405920e+01    0.2426909    0.1090991 -81.63  0.001030744    2.401    0.583
        80  -9.4178    128.5104    159.4752   1.1136761278e+02   2.3965372537e+01    0.1561413    0.1465127  86.25  0.000113492    1.046    0.044
        81 -10.5380    106.1926    158.3335   1.1678264140e+02   2.8482999457e+01     0.474202    0.2879567  64.69  0.001635387    2.161    0.537
        82  -9.5553     22.8210    159.0273   1.3811582580e+02   3.9727147388e+01    0.2174268    0.1204507  80.51  0.001078392    2.016    0.504
        83 -10.0543    196.8218    158.0108   9.5416070685e+01   9.9742548390e+00    0.2543346    0.1780413 -72.14  0.001087433    2.044    0.511
        84  -9.8106    168.4274    158.0893   1.0155934844e+02   1.5976366213e+01     0.326317    0.2079963  63.18  0.001323207    1.999    0.500
        85 -10.5252    119.8723    155.7373   1.1275585169e+02   2.6548480076e+01    0.4092822     0.267551  87.28  0.001590468    2.391    0.582
        86 -10.4371     82.0918    154.9215   1.2239990052e+02   3.3388150625e+01    0.4379537      0.27908  68.68  0.001703345    2.000    0.500
        87 -10.6658     49.9541    155.3004   1.3084441178e+02   3.7739010135e+01    0.4119429    0.2279192  67.17  0.001806647    2.389    0.581
        88 -10.5250    205.1424    154.5985   9.2983593306e+01   8.9400494455e+00    0.2636779    0.1735527 -37.66  0.001207205    1.486    0.327
        89  -9.8387    145.2384    155.1596   1.0633486349e+02   2.1557884531e+01    0.3079192     0.203383  69.65  0.001190945    2.070    0.517
        90 -10.3208     68.1462    153.8147   1.2586928730e+02   3.5730597465e+01    0.3993043    0.2421235  72.72  0.001738301    2.232    0.552
        91 -10.6760    133.9411    153.3167   1.0869935727e+02   2.4324514409e+01    0.4817575    0.3104396  75.72  0.001818871    2.430    0.588
        92  -9.9415     91.3422    151.8305   1.1937542268e+02   3.2651934272e+01    0.2952357     0.135373 -65.54 0.0009688592    2.512    0.602
        93  -9.8256     98.7715    150.9448   1.1723678272e+02   3.1599976132e+01    0.2927498    0.2067868 -77.77  0.001185036    1.615    0.381
        94 -10.3077     28.7736    149.4704   1.3543469958e+02   4.1436015930e+01    0.5256062    0.2205931 -87.79  0.001844486    3.880    0.742
        95 -10.0123    189.8123    150.2249   9.5129996877e+01   1.3074177755e+01    0.2589336    0.1712753 -85.49 0.0009512855    2.799    0.643
        96  -9.2929    143.3026    149.6669   1.0558243326e+02   2.3233021479e+01    0.1618058    0.1240499  88.90 0.0003818294    1.657    0.396
        97 -10.5270     39.4728    147.4680   1.3238702898e+02   4.0829148898e+01    0.4976575    0.2625647  74.10  0.002080405    2.851    0.649
        98 -10.1251    199.8235    148.3554   9.2651312960e+01   1.1321733980e+01    0.2209378     0.191497 -52.52  0.001044716    1.143    0.125
        99 -11.3670    108.0668    145.6915   1.1368599677e+02   3.1201961297e+01    0.7188026    0.4289501  72.59  0.002588834    2.879    0.653
       100 -11.1540     56.2285    145.1539   1.2755957751e+02   3.9438654052e+01     0.734152    0.3987274 -82.68  0.003082132    2.387    0.581
       101 -11.4595    149.5402    145.4697   1.0311358700e+02   2.2869017704e+01    0.6233758    0.4109784  85.33  0.002102824    2.601    0.615
       102 -10.0983     78.4447    146.8664   1.2186526573e+02   3.5926757726e+01    0.2874556      0.21804  78.00  0.001117319    1.503    0.335
       103  -9.9712     13.1460    145.6212   1.3889074234e+02   4.3716608226e+01     0.316735    0.1667261 -89.53  0.001597848    1.979    0.495
       104 -11.3908    125.6806    143.4358   1.0859112109e+02   2.8331032712e+01    0.6200526    0.4023215  88.12  0.002296502    2.640    0.621
       105 -10.6959     88.5128    144.0378   1.1858308119e+02   3.5024395197e+01    0.4486532    0.3060308 -86.80  0.001524743    1.885    0.469
       106  -9.9412    165.8059    144.5860   9.9091824698e+01   1.9525061473e+01    0.2275572    0.1481409  58.70 0.0009445702    1.733    0.423
       107 -10.3752      2.5235    141.0008   1.4100298392e+02   4.5570789310e+01    0.3912577    0.1315781 -83.03  0.001463689    3.598    0.722
       108 -10.3378     68.6981    138.9512   1.2302075534e+02   3.9288631988e+01    0.5532704    0.2681959 -76.95  0.001919754    3.293    0.696
       109  -9.5157     81.2822    139.4580   1.1963347010e+02   3.7298321005e+01    0.2555098    0.1735529 -81.27 0.0009286964    1.776    0.437
       110 -10.8728     23.1367    136.3168   1.3508468837e+02   4.5074998661e+01    0.7730947    0.3158972 -77.47  0.003209005    2.648    0.622
       111  -9.8245    173.1501    138.7782   9.6076592607e+01   1.9170556414e+01    0.2745396    0.1772136 -87.03  0.000954973    2.926    0.658
       112  -9.6574    197.4946    137.5261   9.0643014878e+01   1.4042362072e+01    0.1521212    0.1457178 -54.30 2.352837e-05    1.008    0.008
       113 -10.8969     39.0428    135.5238   1.3063979430e+02   4.3746081412e+01    0.4290015    0.2000797 -73.02  0.001865758    2.183    0.542
       114 -10.3992    113.3978    133.6271   1.0956657889e+02   3.3078318829e+01    0.4712634    0.3065097  77.69  0.001809473    2.504    0.601
       115 -10.2518    179.7921    133.6297   9.3402527257e+01   1.8787924884e+01     0.414919    0.2192863 -60.38  0.001449103    2.623    0.619
       116 -10.8111    143.6216    132.0505   1.0138386454e+02   2.7204848789e+01    0.4144696    0.2980419 -88.81   0.00171947    1.984    0.496
       117 -11.4037    132.3923    131.3167   1.0403075491e+02   2.9776949432e+01    0.6146111    0.3631172 -67.84  0.002272427    2.409    0.585
       118 -11.3957     83.6244    130.5019   1.1709570373e+02   3.9093515333e+01    0.8773381     0.389701 -62.90  0.003211366    2.552    0.608
       119 -10.5736    153.6818    130.0258   9.8448965204e+01   2.5442535396e+01    0.4873449    0.3240594 -80.25  0.001850475    2.396    0.583
       120 -11.7857     99.2373    127.1927   1.1194647696e+02   3.7237641914e+01    0.9302297    0.4701637 -66.40  0.003284696    2.790    0.642
       121 -10.9411     12.6817    126.5702   1.3653451067e+02   4.8186870562e+01    0.8751035    0.2336114 -69.13  0.003324186    3.111    0.679
       122 -10.3425    168.9977    130.0228   9.4905333789e+01   2.1997259249e+01    0.2628794    0.1965423 -84.15  0.001137341    1.769    0.435
       123 -10.5974     73.1645    128.8184   1.1972119132e+02   4.1097209151e+01    0.4786173    0.2525147 -68.26  0.001837988    2.188    0.543
       124 -11.0673    118.6556    125.7016   1.0626454371e+02   3.3897056482e+01    0.6608611    0.4162979  76.56  0.002385622    2.857    0.650
       125 -11.2431     59.3361    123.4473   1.2262528201e+02   4.4278008629e+01    0.8550627    0.4301006 -78.21  0.003060643    3.392    0.705
       126 -11.5595     43.5570    121.3515   1.2686063390e+02   4.6635102261e+01     1.001761    0.4828478 -82.09  0.003555161    3.775    0.735
       127 -10.3876    180.2033    125.1142   9.1262556590e+01   2.0489757292e+01    0.3084553    0.2104704  80.99  0.001244589    2.130    0.531
       128 -11.3630     27.9367    121.6248   1.3147379569e+02   4.8103958897e+01     0.783841    0.3944653  81.92  0.002900616    4.080    0.755
       129  -9.1912    188.6903    124.3313   8.9305456549e+01   1.8717297329e+01     0.160172    0.1203055 -78.06 0.0006089539    1.669    0.401
       130 -10.5991    159.1081    121.8839   9.5153573589e+01   2.6001917696e+01    0.3564649    0.2411553 -84.99  0.001367364    2.355    0.575
       131  -9.9121    172.7810    121.6018   9.2000019662e+01   2.2928665888e+01    0.2246602    0.1489203  62.00 0.0009466865    1.695    0.410
       132 -11.3101    142.3044    119.6023   9.8615921244e+01   3.0276579457e+01    0.4939577    0.3661407 -77.77  0.001583303    1.753    0.429
       133 -10.7951     71.1738    119.4446   1.1827072689e+02   4.3611661918e+01    0.4635208    0.2442965 -69.39  0.001626435    2.434    0.589
       134 -10.9402    131.2446    118.7266   1.0119883128e+02   3.2874800480e+01    0.5408599     0.356383 -89.55  0.001983798    2.733    0.634
       135 -11.0445      2.6275    115.1615   1.3772959277e+02   5.1456100083e+01     0.736111    0.2399501 -76.48  0.002862756    3.372    0.703
       136 -10.9773    109.2295    113.3340   1.0574421963e+02   3.8575207019e+01    0.7940291    0.3834331 -60.66  0.002750899    2.818    0.645
       137  -9.5197    186.3160    116.6604   8.7923502417e+01   2.0826415770e+01    0.1622463    0.1197187 -77.58 0.0007048251    1.704    0.413
       138 -11.0754     79.1207    112.2039   1.1421459632e+02   4.4102606100e+01    0.7131565    0.4027563 -73.56  0.002695818    2.899    0.655
       139 -11.0952     92.9356    112.6253   1.1022426534e+02   4.1730641968e+01    0.6103918    0.4165315 -71.43  0.002227793    1.873    0.466
       140 -10.0928    122.6872    113.0212   1.0198029551e+02   3.5944102672e+01    0.2883038    0.2216171  73.68  0.001323636    1.630    0.386
       141 -11.0585     66.6017    110.1966   1.1753916522e+02   4.6402888076e+01    0.5202386    0.2966426 -70.32  0.002220373    2.278    0.561
       142 -11.0152     14.1908    109.4725   1.3348854084e+02   5.1985731898e+01    0.5363628    0.2364019 -67.81  0.002574755    1.917    0.478
       143  -9.6799    133.4080    109.7223   9.8300474180e+01   3.4382348387e+01    0.3382934    0.2205183 -78.13  0.001259411    2.596    0.615
       144 -10.0971     59.5359    108.8552   1.1940887965e+02   4.7653447698e+01    0.2785637    0.1154944 -52.09  0.001147919    2.075    0.518
       145 -10.6189    139.9814    105.0786   9.5398998796e+01   3.3916233376e+01    0.4395994    0.3036297  83.81  0.001636493    2.230    0.552
       146 -11.6948     45.3842    101.1734   1.2212954145e+02   5.1072139877e+01    0.9895182    0.5472207 -78.73  0.004090907    2.993    0.666
       147 -11.8210     22.2255    100.3636   1.2937377101e+02   5.3424538897e+01     1.007194    0.4849121 -79.27  0.004259519    3.048    0.672
       148 -11.1627    150.5926    103.5442   9.2409302951e+01   3.1822044263e+01    0.5749307    0.3206906 -61.11  0.002099721    2.481    0.597
       149  -9.9331    166.9609    104.4806   8.8929208607e+01   2.7813601448e+01    0.2222012    0.1373868  77.33 0.0008096406    2.519    0.603
       150 -10.4531      6.5523    102.5775   1.3465917556e+02   5.4025861706e+01     0.439318    0.1739381 -72.32  0.002006322    2.426    0.588
       151 -10.9620    128.7557    102.4732   9.7561579424e+01   3.6932742455e+01    0.3905282    0.3082884  84.24  0.001603096    1.627    0.385
       152 -11.2367    109.7431     99.1413   1.0181894703e+02   4.1571715408e+01    0.8742507    0.5947477  85.44  0.003450628    2.700    0.630
       153 -10.2746     82.1922    100.0776   1.1021774582e+02   4.6330559969e+01    0.3960801     0.255549 -67.89  0.001574992    2.045    0.511
       154 -10.7110     95.1630     96.8393   1.0541550820e+02   4.4811962238e+01    0.4496398    0.2536359 -55.95  0.001874098    1.975    0.494
       155 -11.4011     63.6528     95.1833   1.1478518611e+02   5.0153380117e+01    0.7753523    0.4380705 -65.92  0.003399886    2.296    0.564
       156  -9.9134    165.5087     95.0073   8.6757964434e+01   3.0024323095e+01    0.2242498    0.1258736 -61.98 0.0008099936    2.494    0.599
       157 -10.4328    139.3763     92.5568   9.2124827493e+01   3.6597032011e+01    0.4088014    0.2901496 -84.56  0.001722156    2.115    0.527
       158 -11.5098    124.9545     90.8524   9.5327048356e+01   4.0125683744e+01    0.5194871    0.3524356 -69.65  0.001863302    2.138    0.532
       159  -9.4084    158.6406     92.3240   8.7544321695e+01   3.2169611676e+01    0.1627836    0.1198856 -82.91 0.0007043546    1.777    0.437
       160 -11.0433     34.8965     87.6998   1.2247880844e+02   5.5080810473e+01     0.789413    0.2523581 -57.40  0.003164019    2.720    0.632
       161 -10.7952     86.6955     86.1699   1.0498207142e+02   4.8506850836e+01     0.620174     0.365678 -63.04  0.002586809    2.475    0.596
       162 -11.2889     48.7259     83.1944   1.1661824726e+02   5.4567764158e+01    0.7699241    0.3935246 -60.41  0.003547672    2.184    0.542
       163 -11.0852    104.7809     82.8608   9.8582971794e+01   4.5843911192e+01    0.5839158    0.3245438 -58.43  0.002313315    2.530    0.605
       164 -10.1547    141.1024     83.2635   8.9085976898e+01   3.7980584235e+01    0.3000768      0.19709 -67.01  0.001243532    2.146    0.534
       165 -11.5168     25.3689     76.9245   1.2319585246e+02   5.8172760757e+01     1.094735    0.2807097 -48.28  0.004425992    2.823    0.646
       166 -10.3781      9.8029     81.0915   1.2961374180e+02   5.8441404221e+01    0.3367936    0.2075494  47.07  0.001962389    2.304    0.566
       167 -11.2304      5.3828     89.6427   1.3277669523e+02   5.6903914365e+01    0.6813009    0.2539296 -61.23  0.003364799    1.999    0.500
       168 -10.0733     74.7658     80.3780   1.0708874615e+02   5.1609791323e+01    0.3213133    0.1833841 -59.99    0.0013972    2.348    0.574
       169 -10.7095     62.3691     72.9235   1.0902028911e+02   5.4882966808e+01    0.9839201    0.1394831 -46.42  0.002584981    5.961    0.832
       170 -10.5942    128.6181     75.8343   9.0009989247e+01   4.2157975641e+01    0.4670431    0.3017884 -67.41  0.001923093    2.403    0.584
       171  -9.8633    157.2369     76.2427   8.3439889768e+01   3.5454856511e+01    0.2412325    0.1099421 -48.67 0.0008077035    2.438    0.590
       172 -10.6939     82.3624     71.6183   1.0198380457e+02   5.2054467284e+01    0.6796082    0.2739064 -49.94  0.002579891    2.882    0.653
       173 -10.1474     42.5275     71.8029   1.1567723827e+02   5.7554527528e+01    0.3812253    0.1053794 -50.69   0.00144106    3.087    0.676
       174  -9.5985    105.9996     71.9995   9.4942511695e+01   4.7623362764e+01     0.223527    0.1810464 -83.09 0.0009005162    1.751    0.429
       175 -10.2384     94.9722     70.6016   9.7745779768e+01   5.0001346751e+01    0.4503808    0.1935293 -50.58  0.001673767    2.952    0.661
       176 -10.9746     51.3631     68.5561   1.1156200672e+02   5.7155352615e+01    0.6801484    0.2605465 -56.78  0.002493263    3.698    0.730
       177 -10.2662      5.6835     70.9779   1.2888875224e+02   6.0750776665e+01    0.2971446    0.1281991 -67.92  0.001438478    2.497    0.600
       178 -10.5661     16.6174     69.2533   1.2447829031e+02   6.0389256102e+01    0.4412154    0.1655336 -58.40  0.002077763    2.330    0.571
       179  -9.7012    147.3185     68.6818   8.3463725141e+01   3.9101186229e+01    0.1499569    0.1141287 -79.23  0.000458427    1.659    0.397
       180  -9.9762    138.8277     66.6439   8.4800467955e+01   4.1421986894e+01     0.327448    0.1542189 -56.27  0.001089452    3.505    0.715
       181  -9.5593    121.8159     66.5313   8.8945639809e+01   4.5264244849e+01    0.2648585    0.1859952 -73.55  0.001173232    2.241    0.554
       182 -10.2434     37.3527     63.8886   1.1528802960e+02   5.9618844654e+01     0.326757    0.2097961 -67.45  0.001706647    2.321    0.569
       183  -9.5013    110.0273     63.7289   9.1222172958e+01   4.8230269208e+01     0.281277    0.1730455 -62.09  0.001156634    2.685    0.628
       184  -9.5909    100.4902     60.4752   9.2878977541e+01   5.0682848871e+01    0.2493342     0.123922 -48.33  0.001031535    2.447    0.591
       185 -10.3081     73.2447     59.0341   1.0092621973e+02   5.5774937783e+01    0.4430797    0.2155529 -49.47  0.001948027    2.461    0.594
       186 -10.1793     24.9921     57.8387   1.1821694462e+02   6.1912131728e+01    0.4064153    0.1322949 -48.87  0.001847364    2.431    0.589
       187 -11.4145      7.6319     55.9415   1.2449467888e+02   6.3544477132e+01     0.605616    0.1839161 -57.69  0.002715169    2.854    0.650
       188  -9.5040    119.6502     56.3230   8.6321116874e+01   4.7372366780e+01    0.2172284    0.1710179 -79.08  0.001105714    1.763    0.433
       189 -10.3469     54.0802     53.6782   1.0585052172e+02   5.9475748733e+01    0.4795517    0.2154342 -55.23   0.00187174    3.753    0.734
       190  -9.9408     43.9696     54.9556   1.1003203417e+02   6.0512499127e+01    0.3390374    0.1586386 -51.11  0.001623516    2.302    0.566
       191  -9.7752    100.4055     54.2905   9.0877033954e+01   5.1681130539e+01    0.2194464    0.1836666   6.42 0.0003986561    1.207    0.171
       192  -9.8271     62.8300     54.7333   1.0306523627e+02   5.8084219013e+01    0.2527485    0.1684608 -47.86  0.001029552    1.679    0.404
       193  -9.8322     20.3235     52.2362   1.1839781782e+02   6.3319608564e+01     0.255554    0.1738179 -71.96  0.001463126    2.374    0.579
       194  -9.4128     21.9983     47.4953   1.1626004830e+02   6.4015587676e+01    0.2963734    0.1378474 -11.17  0.001300284    3.411    0.707
       195  -9.7981     92.6253     51.0828   9.2084592189e+01   5.3671816483e+01    0.2869163    0.1549402 -45.45   0.00120622    2.163    0.538
       196 -10.4242     31.1634     51.0203   1.1370808616e+02   6.2566805423e+01    0.3285607    0.2005325 -57.76  0.001679906    2.053    0.513
       197  -9.5079     82.0501     47.0447   9.3957382123e+01   5.6203957025e+01    0.1867215    0.1657601 -77.59 0.0007571581    1.661    0.398
       198  -9.9345     45.0215     44.1063   1.0595475509e+02   6.2195267321e+01    0.3166874    0.1475894 -45.47  0.001584806    2.184    0.542
       199 -10.1691     16.8520     43.8204   1.1721137697e+02   6.5067636965e+01    0.3979848    0.1678211 -54.65  0.001998763    2.501    0.600
       200 -10.1732     70.4210     42.3981   9.6123891890e+01   5.8847087536e+01     0.369295    0.2732034  87.75  0.001700932    3.518    0.716
       201 -10.9175      5.1909     41.2538   1.2132942558e+02   6.6327534863e+01    0.4555079    0.1952288 -61.23  0.002231305    3.005    0.667
       202 -10.0985     58.0886     42.0449   1.0032426922e+02   6.0778256932e+01    0.3409351    0.1881758 -52.15  0.001620664    2.769    0.639
       203  -9.2055    106.3395     41.6654   8.5010854930e+01   5.2298368449e+01    0.1303216    0.1065551 -79.78 0.0007051432    1.752    0.429
       204  -9.8912     36.9713     40.5534   1.0785399440e+02   6.3696648578e+01    0.2137369    0.1577384 -49.37  0.001362081    1.661    0.398
       205  -9.1132     83.8167     39.9588   9.0899491804e+01   5.6899019439e+01    0.1886951    0.1236665  23.18 0.0004416381    1.569    0.363
       206  -9.4379     95.6836     38.3401   8.6801815473e+01   5.4881825940e+01    0.1233362    0.1050239 -76.61 0.0007048445    1.706    0.414
       207 -10.2109     27.4205     29.8267   1.0785474263e+02   6.6345180421e+01    0.3885373    0.0892896 -35.33  0.001369845    4.720    0.788
       208  -9.7642     60.7495     32.8488   9.5950548174e+01   6.1694235164e+01    0.2066814    0.1643575 -42.13  0.001097331    1.581    0.368
       209 -10.4268    165.3916    249.2190   1.1893579157e+02  -1.5553671688e+00    0.1631159    0.1253346 -64.63 0.0006264993    1.684    0.406
       210 -10.3399     12.8864     29.5999   1.1410651205e+02   6.7690910754e+01    0.3950875    0.1638647 -51.95  0.002024715    2.725    0.633
       211  -9.5348     81.9829     27.9994   8.7103315232e+01   5.8757440634e+01    0.1827313    0.1589051 -76.33  0.001134208    1.792    0.442
       212 -10.8369      3.6179     26.9206   1.1734686453e+02   6.8777312364e+01    0.2796783    0.1513977 -55.68  0.001690319    2.216    0.549
       213  -9.0590    110.3715     24.7901   7.8278889101e+01   5.3488743010e+01     0.167912    0.1190701  -5.42 0.0008835985    1.636    0.389
       214  -9.5212     72.4008     31.2320   9.1345411218e+01   6.0041184569e+01    0.1638826    0.1107265 -38.36 0.0006591566    1.683    0.406
       215  -9.7110     48.8552     21.5946   9.5909455417e+01   6.4867711826e+01     0.183975    0.1595646 -68.02  0.001153576    2.223    0.550
       216  -9.6088     12.3445     21.6270   1.1137875381e+02   6.8925101849e+01    0.1339108     0.127763  -9.61  0.001090759    1.618    0.382
       217  -9.4722     63.3988     21.1769   9.0479531644e+01   6.2735246114e+01     0.156755    0.1044305 -35.89 0.0009444932    1.724    0.420
       218  -9.6185     19.9777     21.4903   1.0786441557e+02   6.8268589616e+01     0.126755   0.08994933  44.34 0.0007120734    2.392    0.582
       219  -9.1016     73.5356     19.5049   8.6487769330e+01   6.1223723511e+01    0.1203262    0.1018841  19.20 0.0008089691    1.055    0.053
       220  -9.0843     97.3391     15.6481   7.8297211581e+01   5.7122543377e+01    0.1182329    0.0964943 -74.37 0.0007043828    1.799    0.444
       221  -9.3347     40.5489     13.9845   9.5983572783e+01   6.6895325366e+01    0.1549481    0.0805525  -7.88 0.0004860804    2.331    0.571
