#   1 NUMBER                 Running object number                                     
#   2 MAG_AUTO               Kron-like elliptical aperture magnitude                    [mag]
#   3 X_IMAGE                Object position along x                                    [pixel]
#   4 Y_IMAGE                Object position along y                                    [pixel]
#   5 X_WORLD                Barycenter position along world x axis                     [deg]
#   6 Y_WORLD                Barycenter position along world y axis                     [deg]
#   7 A_WORLD                Profile RMS along major axis (world units)                 [deg]
#   8 B_WORLD                Profile RMS along minor axis (world units)                 [deg]
#   9 THETA_WORLD            Position angle (CCW/world-x)                               [deg]
#  10 FWHM_WORLD             FWHM assuming a gaussian core                              [deg]
#  11 ELONGATION             A_IMAGE/B_IMAGE                                           
#  12 ELLIPTICITY            1 - B_IMAGE/A_IMAGE                                       
         1 -10.4114      1.7220     64.1366   6.5482019592e+01   6.5858370818e+01    0.6050842     0.101033 -72.25  0.001700036    4.867    0.795
         2  -9.6438      2.0309     12.8254   4.8775518936e+01   7.7590559741e+01     0.338591    0.1469445 -60.67  0.001564142    2.576    0.612
         3  -8.2729    118.8418    242.9699   5.1380117615e+01   8.7466537592e+00     0.187287    0.1187545 -24.41  0.001060857    1.914    0.478
         4 -10.9193     40.5627    248.3116   6.9244912954e+01   1.6397153342e+01    0.9478757    0.1788861  46.32   0.00178876    3.871    0.742
         5 -10.8840     36.0869    248.8511   7.0269287765e+01   1.6733010062e+01    0.6648722     0.244608  48.50  0.002404449    2.216    0.549
         6 -13.0868     12.2207    140.4417   6.9895248142e+01   4.4557737382e+01     3.303067    0.8534846  89.98  0.004538135    5.875    0.830
         7 -14.1768     22.7655    172.9540   6.9034176223e+01   3.5035928053e+01     4.767217     1.821522  59.34   0.01726823    2.839    0.648
         8  -9.3384    117.4111    230.9852   5.0313108408e+01   1.0993020670e+01    0.1960829    0.1299201  25.42   0.00113962    1.283    0.221
         9 -13.6934      6.6857    144.2311   7.2091994707e+01   4.3928100774e+01     6.573976     1.173353 -86.57   0.01344917    8.933    0.888
        10  -8.3875     47.4853    229.0948   6.6462408472e+01   1.9485407819e+01     0.171176    0.1221232 -77.29  0.001028317    1.583    0.368
        11 -13.9530      8.1356    209.0170   7.5040032618e+01   2.7579858631e+01     2.038853     1.949056  29.29   0.01425378    1.237    0.192
        12  -9.9449     99.2530    225.7855   5.3840982935e+01   1.4181500791e+01      0.27703    0.1667856  18.45  0.001454859    1.615    0.381
        13  -8.3371    248.6920    225.6747   2.5452058229e+01  -2.5428116066e+00     0.106645   0.05789785 -11.42 0.0004956285    1.651    0.394
        14  -8.7384     37.0754    242.4923   6.9712843381e+01   1.7857577082e+01    0.1859436   0.09787515  28.87 0.0007253279    1.553    0.356
        15  -9.9555     39.4889    234.2918   6.8690229255e+01   1.9246065541e+01    0.3777835    0.2054063 -81.71   0.00205194    2.102    0.524
        16 -10.2773     53.4248    218.8271   6.4251148695e+01   2.1003764870e+01    0.3629577    0.2557899  69.20  0.002085638    1.484    0.326
        17 -10.2712     52.3751    213.0569   6.4047572395e+01   2.2372016964e+01    0.2973226    0.2173255 -79.01  0.001183597    1.501    0.334
        18  -8.9935     61.2664    222.7109   6.2636011030e+01   1.9308969579e+01    0.2445473    0.2150059  71.86   0.00158983    1.195    0.163
        19  -9.2751     54.9952    236.0969   6.5178312637e+01   1.7277561673e+01    0.2108163    0.1709789 -86.48 0.0007799973    1.407    0.289
        20 -11.0241     58.0786    209.4760   6.2281364801e+01   2.2520023595e+01    0.7611502    0.3641179 -86.02  0.003247371    2.802    0.643
        21 -12.4368     10.4567    180.2550   7.3098119483e+01   3.4242631038e+01     0.995213    0.8374994   5.97    0.0024126    1.397    0.284
        22  -9.5838     84.1545    196.0475   5.4057779674e+01   2.2297916085e+01     0.333672    0.1825073  82.10  0.001265333    3.328    0.700
        23  -8.0924    128.8886    196.1288   4.2974717506e+01   1.6077044911e+01    0.1837129     0.147034  -4.89 0.0004640967    1.304    0.233
        24 -13.5578      8.1332    240.6840   7.6147701862e+01   2.0863611051e+01     1.867861     1.514399  54.27   0.01342049    1.079    0.073
        25  -9.3050     53.2056    193.8314   6.2114567413e+01   2.6672128935e+01    0.2214576    0.1675227  54.36   0.00121873    1.228    0.186
        26  -8.0750    207.4915    190.4977   2.6301891123e+01   6.4790874504e+00     0.118974     0.095782 -15.47 -3.065072e-05    1.011    0.011
        27  -9.1817     78.5629    184.7393   5.4113766533e+01   2.5646585389e+01    0.1947512     0.136052 -87.21 0.0009485811    1.716    0.417
        28  -8.1607     64.0636    182.8120   5.7913801784e+01   2.8005716515e+01    0.2938345    0.1593069  75.33   0.00116565    2.617    0.618
        29  -8.9348     74.3115    181.1370   5.4822518849e+01   2.7075663381e+01     0.228292    0.1878566  17.90  0.000370846    1.261    0.207
        30  -9.4783     42.5789    178.9879   6.3686384698e+01   3.1500387616e+01    0.2670281    0.2286856  85.93 0.0004238041    1.148    0.129
        31  -8.9532     74.8574    173.9415   5.3703360098e+01   2.8748325421e+01    0.4026921     0.166888  35.24  0.001080345    2.151    0.535
        32  -9.0804     89.0185    167.8211   4.8760794246e+01   2.8206222763e+01    0.2463042    0.2131315 -65.22 0.0002775064    1.204    0.170
        33  -8.7845     84.2479    167.4013   5.0051876134e+01   2.9015288064e+01    0.2113498    0.1267036  41.06  0.000449751    1.581    0.367
        34  -8.9182     55.1662    165.6742   5.8450138651e+01   3.3419414547e+01    0.4489932    0.1917167  89.32  0.001338555    4.323    0.769
        35 -11.6248     49.3133    143.9957   5.7429551450e+01   3.9876451405e+01    0.5625255       0.3731 -14.69  0.001526384    2.144    0.534
        36  -9.4565     46.3688    150.4655   5.9302659963e+01   3.8494395417e+01    0.4199351    0.2227749  74.46  0.001432458    2.475    0.596
        37 -10.3955     44.4289    160.5668   6.1175528364e+01   3.6036557800e+01    0.4586893    0.3212029 -11.18  0.002148438    1.920    0.479
        38 -10.4246     51.1573    156.2597   5.8502138964e+01   3.6373200333e+01     0.416627     0.354814  -0.51 0.0009238775    1.369    0.269
        39 -11.5070     73.4828    157.6604   5.1716055587e+01   3.3018543339e+01    0.9815165    0.7440225  77.79  0.004810608    1.486    0.327
        40 -10.1516     75.1502    137.8550   4.7800046810e+01   3.7883901372e+01    0.3627808    0.3292061  49.03    0.0011766    1.081    0.075
        41 -10.7919     77.0777    131.9851   4.6038146412e+01   3.9104425669e+01    0.6705194    0.4737141 -23.98 0.0009780552    1.897    0.473
        42 -11.8063     70.0039    144.7494   5.0697144000e+01   3.6863251913e+01    0.9123694    0.6589266  37.30  0.002521323    1.345    0.257
        43 -10.2454     64.9552    154.2895   5.3838883295e+01   3.5090183928e+01    0.4158536    0.3585778 -31.42  0.001350419    1.319    0.242
        44 -11.3885     64.1699    148.8906   5.3256174814e+01   3.6611925391e+01    0.4484224    0.4251686  13.43 0.0005049543    1.137    0.120
        45 -11.7366     59.9167    137.0285   5.2726959084e+01   4.0354371928e+01     1.570389    0.6326174 -81.12  0.004121928    5.049    0.802
        46 -10.3951     32.6201    156.3519   6.4499368920e+01   3.8436018795e+01    0.4222025    0.2842064 -35.21  0.002004921    1.843    0.457
        47  -8.4076    167.4605    156.5308   2.7480577804e+01   1.7957535193e+01    0.1340973    0.1235241 -25.99 0.0005686493    1.042    0.040
        48 -10.4574     23.2198    145.5159   6.6543951246e+01   4.2263828654e+01    0.3965579    0.2864603 -30.02  0.001325846    1.691    0.409
        49 -11.4298     25.1216    150.6233   6.6397109103e+01   4.0705716739e+01    0.6062091    0.4479833  55.46   0.00316853    1.279    0.218
        50  -9.0174    108.7847    145.5715   3.9210908588e+01   3.0359408370e+01    0.2776339    0.2711833 -61.22 0.0007806167    1.030    0.029
        51  -9.1944     36.8404    142.8127   6.1545639114e+01   4.1647765782e+01    0.3061516    0.2010632 -80.45 0.0008926637    1.509    0.337
        52  -9.0238     89.8633    134.8449   4.2549314614e+01   3.6250133852e+01    0.2428117    0.2134105 -21.06  0.001232695    1.291    0.226
        53  -8.8189    104.3263    130.8121   3.7365179801e+01   3.4684710183e+01    0.2243066    0.1984217  50.04  0.001154672    1.138    0.121
        54  -9.4619     40.7406    129.7911   5.8363683315e+01   4.4777038002e+01    0.4572214    0.2558697  65.16   0.00102444    2.162    0.537
        55  -9.5229     90.4997    121.3628   3.9423929568e+01   3.9517685063e+01    0.3491821    0.2807272  19.85 0.0007358344    1.420    0.296
        56  -8.0310    102.8801    116.1292   3.4382476797e+01   3.8480029637e+01    0.2027939    0.1829387   1.78 0.0002578335    1.277    0.217
        57  -9.6804     58.1601    110.2374   4.8203105364e+01   4.7784103711e+01    0.7235574    0.3800802  75.16  0.002152585    4.103    0.756
        58  -9.2471     53.7380    104.9393   4.8759028563e+01   4.9841345209e+01    0.2402616    0.2168088   8.45 0.0004247754    1.215    0.177
        59  -8.7727     47.0525    122.6219   5.4852652069e+01   4.5975121177e+01    0.3262957    0.1146204  35.62  0.001120176    2.617    0.618
        60 -10.1675     22.5025    104.5939   6.1770340728e+01   5.3612461741e+01    0.4124445    0.2469211  45.69 0.0008920783    1.733    0.423
        61  -8.7104     12.3317     97.9816   6.5309245423e+01   5.6239462637e+01    0.2553972   0.04429367 -53.67 0.0007044895    4.277    0.766
        62  -8.2787     74.7926     97.6130   3.8883259677e+01   4.8288736439e+01    0.2219688    0.1397192  48.09 0.0009403279    1.642    0.391
        63  -8.3992     23.5299     83.5258   5.7495023009e+01   5.9217245424e+01     0.142996    0.1345834 -57.42 0.0001513415    1.008    0.008
        64  -8.0328     44.9594     79.4981   4.6171868309e+01   5.7698690926e+01    0.2144061      0.14656  28.78 0.0003746025    1.503    0.335
        65 -11.2095      7.7702     75.6611   6.4107523724e+01   6.2535901862e+01    0.6211537    0.3448819 -89.24  0.002783293    1.998    0.499
        66  -7.6348     28.3310     78.3389   5.3929466668e+01   6.0087078251e+01    0.1576149    0.1008213 -33.00 -0.0002399654    1.741    0.426
        67  -8.3916     93.7810    244.3287   5.7005251153e+01   1.1406418608e+01    0.1636292    0.1352741  39.01 0.0007681994    1.136    0.119
        68 -11.9562    219.2930     61.0756   3.5874429691e+02   2.4743369209e+01    0.6384342    0.5652323   7.49  0.004360369    1.607    0.378
        69 -11.8337    228.3581     57.6033   3.5716921385e+02   2.3576658533e+01    0.7616537      0.45184 -56.75  0.004587655    1.472    0.321
        70 -11.5190    236.6666     51.3904   3.5519021501e+02   2.2931306056e+01    0.6085427    0.3623907  60.54  0.001115649    2.103    0.525
        71  -8.9360     13.3409     60.4335   5.7744862693e+01   6.6048311788e+01    0.2591354    0.1655768 -71.62 0.0007263763    1.575    0.365
        72  -8.5375     58.1540     63.9122   3.5178425241e+01   5.9261480969e+01    0.2242205    0.2005156  76.75 0.0006680296    1.251    0.201
        73 -11.6889    248.1500     44.0833   3.5290044831e+02   2.1902503694e+01    0.6967667     0.330617 -36.33  0.003123135    1.646    0.392
        74  -9.2276      1.8533     24.1257   5.4406758527e+01   7.5307529170e+01    0.3179817    0.0661065 -60.32  0.001098516    3.893    0.743
        75  -8.3161     60.4802     21.4873   1.5456156309e+01   6.6509611372e+01    0.1344601    0.1252837  54.50  1.59498e-05    1.051    0.049
