#   1 NUMBER                 Running object number                                     
#   2 MAG_AUTO               Kron-like elliptical aperture magnitude                    [mag]
#   3 X_IMAGE                Object position along x                                    [pixel]
#   4 Y_IMAGE                Object position along y                                    [pixel]
#   5 X_WORLD                Barycenter position along world x axis                     [deg]
#   6 Y_WORLD                Barycenter position along world y axis                     [deg]
#   7 A_WORLD                Profile RMS along major axis (world units)                 [deg]
#   8 B_WORLD                Profile RMS along minor axis (world units)                 [deg]
#   9 THETA_WORLD            Position angle (CCW/world-x)                               [deg]
#  10 FWHM_WORLD             FWHM assuming a gaussian core                              [deg]
#  11 ELONGATION             A_IMAGE/B_IMAGE                                           
#  12 ELLIPTICITY            1 - B_IMAGE/A_IMAGE                                       
         1 -14.2900     68.3150    144.4585   1.0300991866e+02   3.7553351535e+01     3.723618     1.736034 -87.23  0.003073344    5.832    0.829
         2 -13.4970    204.8231     39.6936   4.3170529361e+01   2.9265578004e+01     1.269444    0.9143478  37.48  0.003982625    1.839    0.456
         3 -13.5331    212.8388     35.3043   4.1149924896e+01   2.7959562310e+01     1.100104    0.7515795 -57.03  0.004281005    1.363    0.266
         4 -12.9919    219.9864     27.8230   3.8633578343e+01   2.7259813596e+01     0.659126    0.5382094  62.58  0.001250818    1.336    0.252
         5 -13.7532    232.5620     15.8305   3.4831582781e+01   2.5885020526e+01    0.7797301    0.7283315 -59.32   0.00280018    1.264    0.209
         6  -9.9015    119.9736      1.7655   4.4832013456e+01   5.4143082205e+01    0.2063395    0.1371933 -81.97  0.001064317    1.942    0.485
         7  -9.6614    249.9788      1.4899   3.0668913120e+01   2.3802242470e+01    0.1691189   0.09770112  83.03  0.001027437    1.574    0.365
         8  -9.3218     61.6553      1.2820   5.9933801707e+01   6.6658518062e+01    0.1048265   0.09718197  86.46 0.0004609268    1.638    0.390
         9 -11.9042     63.6471    173.5678   1.0866213589e+02   3.1025264084e+01    0.3379725    0.2723879 -41.24  0.001038256    1.495    0.331
        10 -14.8166     85.9541    228.3611   1.0996382267e+02   1.5732707433e+01     2.658968     1.344235  40.22  0.008937865    1.694    0.410
        11 -15.5448     50.6001    248.3357   1.1875516327e+02   1.6589043971e+01     10.30117     2.646485  29.03   0.01671423   10.893    0.908
        12 -16.3661     37.3648    194.2304   1.1721987415e+02   2.9378155834e+01     9.534288     3.872172  77.79    0.0356368    3.660    0.727
        13  -9.8918    144.2893    179.3759   8.9447169154e+01   1.6303198878e+01    0.2729791    0.1820697 -37.18  0.001257885    1.679    0.404
        14 -11.6716     73.8966    163.8854   1.0461951927e+02   3.1958451675e+01    0.3488609    0.3131405  28.67 0.0003732093    1.251    0.201
        15 -14.2236     79.5398    157.1406   1.0202168349e+02   3.2784675849e+01     3.421301     1.205668  53.76  0.001628661    4.864    0.794
        16  -9.4478    174.6078    248.8641   9.4262345115e+01  -1.5601448443e+00    0.1460467    0.1207842 -61.22 0.0007734468    1.730    0.422
        17  -9.1052    108.5635    191.8008   1.0015384106e+02   1.9954190707e+01    0.1902444    0.1351614 -78.59  0.000936118    1.640    0.390
        18  -9.7416    124.4741    153.1250   8.9180085297e+01   2.5997202813e+01    0.2762442    0.2045318  59.30 0.0006668143    1.492    0.330
        19  -9.1233    174.6848    149.3002   7.6119541660e+01   1.6636594951e+01    0.1495038    0.1233432  88.70 0.0003156852    1.613    0.380
        20 -10.3454    133.5102    142.5051   8.4522681254e+01   2.6680282127e+01    0.6077968    0.1571024 -54.66  0.001372796    5.921    0.831
        21  -9.7745    137.6477    170.7055   8.9388208425e+01   1.9454661617e+01    0.1530095    0.1189146  -0.53 0.0003734175    1.683    0.406
        22 -11.9686     29.7595    143.3157   1.1378598826e+02   4.2284739411e+01    0.3928877    0.3211161 -10.76  0.002187712    1.606    0.377
        23 -10.7268     96.1417    143.1427   9.4825008579e+01   3.3567411278e+01    0.3233425    0.2894154 -37.81 0.0008508415    1.190    0.159
        24  -9.7455     99.4663    140.0175   9.3243275910e+01   3.3756455461e+01    0.3310559    0.2293672 -31.08  0.001203995    1.795    0.443
        25 -12.3088     84.2545    141.6933   9.7925182310e+01   3.5879531686e+01    0.3157768     0.265776 -53.19 0.0004021078    1.165    0.141
        26 -15.7770      7.1581    240.6274   1.2619628693e+02   2.2835084700e+01     8.256081     1.701598 -79.19   0.03337077    4.498    0.778
        27 -11.6252     74.9616    136.0770   9.9553964589e+01   3.8693897753e+01    0.4970978    0.2207514  49.91  0.001164957    2.716    0.632
        28 -11.8596     69.6125    133.1958   1.0059637285e+02   4.0182742509e+01    0.4762227    0.2791603  24.94  0.002120396    2.014    0.503
        29 -10.8733    107.0381    131.3496   8.9198306941e+01   3.4489607614e+01    0.4725873     0.342252  43.47  0.001621183    1.397    0.284
        30 -11.3263     46.8324    129.8845   1.0688588058e+02   4.3880082104e+01    0.3549163     0.172176  35.23  0.001595995    2.174    0.540
        31 -10.5603     95.3462    127.8358   9.1797984064e+01   3.7448157678e+01    0.2983694    0.2454487 -33.23 0.0004721134    1.313    0.238
        32  -9.9494    115.0454    125.5084   8.5558916554e+01   3.4348740506e+01     0.236074    0.1543652  38.47 0.0006063548    1.558    0.358
        33  -9.7914    105.9013    119.9816   8.6848442119e+01   3.7417768461e+01    0.2232676    0.2149551 -24.69 0.0003272521    1.060    0.057
        34  -9.4331    168.0819    113.0685   6.8865038215e+01   2.5590704548e+01    0.2542672    0.1946537 -80.71   0.00112689    1.741    0.426
        35 -10.6779     35.1994    111.5658   1.0743066981e+02   4.9596841136e+01    0.2965571    0.1606748  47.99  0.001393702    2.217    0.549
        36  -9.8978    205.3999    110.4894   6.0677008627e+01   1.7675415866e+01    0.2866846    0.2457679  44.60 0.0008966718    1.242    0.195
        37 -13.4078     60.6694    160.1045   1.0758829329e+02   3.4694741773e+01    0.5432861    0.3258512 -44.69  0.001618446    1.925    0.481
        38  -9.3174    161.2852     82.3365   6.2067935492e+01   3.3183234772e+01     0.153576    0.1221183  10.40 0.0005668164    1.627    0.385
        39  -9.9566     31.2844     61.1972   9.7480963971e+01   6.1511994955e+01    0.4254365    0.1486397  39.60   0.00164176    3.877    0.742
        40 -11.2238     13.4150     60.2822   1.0494504769e+02   6.3088152174e+01    0.2420411    0.1828775 -41.13 0.0004359374    1.067    0.063
        41  -9.8090     34.1805     55.5336   9.4520172233e+01   6.2394262284e+01    0.2056361    0.1935704  69.28  0.001363543    1.454    0.312
        42 -10.7430      2.3270     50.1554   1.0738650949e+02   6.5809318836e+01    0.2566311   0.06168265 -55.85  0.001099905    2.626    0.619
        43 -15.5169     10.4417    209.6060   1.2401898226e+02   2.8745966196e+01      2.58977     1.334313  82.31   0.01498501    1.681    0.405
        44  -9.2002     99.3133    180.9828   1.0073523290e+02   2.3944124943e+01    0.1982094     0.181714 -81.82 0.0005490681    1.088    0.081
        45 -12.0880     58.0505    179.1712   1.1077175076e+02   3.0415084513e+01    0.4162102    0.2915628 -35.78  0.002151896    1.974    0.493
        46 -11.0409      9.4757     50.0113   1.0405002237e+02   6.5464075611e+01    0.1905102   0.09697844 -56.65  0.001042421    1.623    0.384
        47 -10.1809     13.0000     43.9644   1.0065059865e+02   6.6454703007e+01    0.2007176   0.05731398 -57.39 0.0008113392    3.004    0.667
        48 -10.6080    132.3892     39.5151   5.5314798917e+01   4.7127734451e+01    0.2704118    0.2408749 -84.84 0.0008028985    1.249    0.199
        49  -9.3022    135.0499     33.9674   5.2889883587e+01   4.7205306314e+01    0.2166518    0.1642366 -76.04 0.0005741185    1.642    0.391
        50 -13.1338     29.0094    206.7913   1.2004999345e+02   2.7499766853e+01    0.4934978    0.4042458 -47.22  0.001061469    1.658    0.397
        51  -9.9588    189.6803     15.0430   3.8755282064e+01   3.5867537593e+01    0.1812032    0.1621034 -67.01 0.0008058221    1.117    0.105
        52 -10.9541    184.0370    216.0550   8.7237070725e+01   2.1494084563e+00    0.2160564    0.1866351  22.90   0.00132285    1.042    0.040
        53 -10.7472    193.3446    195.4145   8.1616079803e+01   4.1323254699e+00    0.9054711    0.4678119 -63.79  0.002276425    8.432    0.881
