#   1 NUMBER                 Running object number                                     
#   2 MAG_AUTO               Kron-like elliptical aperture magnitude                    [mag]
#   3 X_IMAGE                Object position along x                                    [pixel]
#   4 Y_IMAGE                Object position along y                                    [pixel]
#   5 X_WORLD                Barycenter position along world x axis                     [deg]
#   6 Y_WORLD                Barycenter position along world y axis                     [deg]
#   7 A_WORLD                Profile RMS along major axis (world units)                 [deg]
#   8 B_WORLD                Profile RMS along minor axis (world units)                 [deg]
#   9 THETA_WORLD            Position angle (CCW/world-x)                               [deg]
#  10 FWHM_WORLD             FWHM assuming a gaussian core                              [deg]
#  11 ELONGATION             A_IMAGE/B_IMAGE                                           
#  12 ELLIPTICITY            1 - B_IMAGE/A_IMAGE                                       
         1  -9.2649     35.9740    228.1332   1.2901257355e+02   2.5648861519e+01    0.1173147   0.09322973  66.92 0.0004528637    1.250    0.200
         2 -21.2716    145.6365    163.7785   1.0170110617e+02   2.1146761883e+01     9.948432     7.729384  53.85   0.04881546    1.183    0.155
         3 -10.5405     71.0564    225.0592   1.2308619934e+02   2.2036420614e+01    0.2104607   0.09637643  58.32  0.001272305    1.777    0.437
         4  -9.3733     67.1904    222.6101   1.2355964259e+02   2.2916982095e+01    0.1030249   0.05947378  75.43 0.0005689834    1.593    0.372
         5  -9.9145     56.9945    220.9211   1.2515860410e+02   2.4438219983e+01    0.1950554   0.09845334 -73.83   0.00127543    2.032    0.508
         6  -9.2444    164.3682    250.2119   1.1008813443e+02   5.4070908886e+00    0.1038648   0.07851154  47.19 0.0002063587    1.101    0.092
         7 -12.4645     53.3463    216.6904   1.2549635475e+02   2.5575037114e+01    0.1908386    0.1283961  68.63 0.0005216508    1.113    0.102
         8  -9.0477     46.0119    217.6276   1.2679305636e+02   2.6265654048e+01    0.2186002   0.09706499  54.14   0.00138096    1.676    0.403
         9 -11.5243     47.6562    213.1520   1.2623742603e+02   2.6835792655e+01    0.1830151    0.1677878  85.77  0.001076897    1.481    0.325
        10  -9.7264     63.2507    211.9943   1.2346176766e+02   2.5174468238e+01    0.2426665    0.1836253 -61.93  0.001808539    1.719    0.418
        11  -9.9594     59.3362    206.9350   1.2377438172e+02   2.6528305101e+01    0.2500832    0.1228921  70.26  0.001462121    1.955    0.488
        12 -11.1613     40.6553    213.0177   1.2742074651e+02   2.7647115470e+01    0.1680934    0.1138494  56.58 0.0002093769    1.176    0.150
        13 -11.5956     29.2847    180.9501   1.2746113013e+02   3.4683961048e+01    0.2587647    0.1690565  89.62  0.000687566    1.246    0.198
        14  -9.8574     46.2223    208.0519   1.2615729406e+02   2.7879932513e+01    0.1385552    0.1096594  73.78  0.000333535    1.150    0.130
        15 -11.3074     51.5641    204.3917   1.2497026072e+02   2.7904914197e+01    0.1895867    0.1507275  62.05 0.0005013163    1.180    0.153
        16  -9.5719     39.3486    204.9238   1.2715746055e+02   2.9197891933e+01    0.1456505    0.1011354  80.79 0.0006434325    1.155    0.134
        17 -10.7733     32.1677    201.4044   1.2820247410e+02   3.0595216316e+01    0.3528949    0.1779863  73.32  0.002283191    1.658    0.397
        18 -11.5164     25.7161    202.4559   1.2938360042e+02   3.1074133049e+01    0.2226746    0.1701567  78.71 0.0002039099    1.155    0.135
        19 -11.5491     42.6211    195.3150   1.2594783448e+02   3.0563446945e+01    0.2513319    0.1616545  79.76 0.0007032897    1.261    0.207
        20 -11.2299     34.4561    189.3039   1.2704212584e+02   3.2564843376e+01    0.2950652    0.1560343 -88.48  0.001014909    1.651    0.394
        21 -11.2946     35.2646    183.6357   1.2650822705e+02   3.3548600861e+01    0.2049147    0.1465087  67.24 0.0003189169    1.084    0.077
        22 -10.3028     39.9178    183.5241   1.2561551551e+02   3.3068086113e+01    0.2012714    0.1836331  20.36  0.001429033    1.723    0.419
        23 -10.1883     26.3198    173.9759   1.2756719730e+02   3.6332899675e+01     0.245079    0.1103295  49.65 0.0009083045    1.861    0.463
        24 -11.5272     20.6195    200.6222   1.3016836167e+02   3.1908650888e+01    0.2703949    0.2082678  77.66  0.002246093    1.168    0.143
        25 -10.4126     15.0279    166.6289   1.2931178378e+02   3.8844342201e+01    0.2535664    0.1253785 -82.37  0.001582325    1.645    0.392
        26 -16.1931     10.1935    229.3416   1.3307294786e+02   2.8061639097e+01     3.199604     1.094334 -81.07   0.02010647    2.628    0.620
        27 -12.2719     35.1673    153.5825   1.2416003985e+02   3.9568591727e+01    0.3178339    0.3031608 -19.62 0.0006020296    1.603    0.376
        28 -11.6204     25.3058    155.1820   1.2641105894e+02   4.0213519094e+01    0.2176407    0.1615166  77.76 0.0003047607    1.043    0.042
        29 -10.6637     29.0841    152.2094   1.2535968836e+02   4.0466283519e+01    0.1848172    0.1477573 -86.94  0.000364053    1.141    0.123
        30  -9.6604     20.9133    149.1208   1.2688116048e+02   4.1880440045e+01    0.1661623    0.1260635 -88.90 0.0004956172    1.089    0.082
        31 -11.3857    158.7229    248.5124   1.1080050012e+02   6.4327120903e+00    0.1605821    0.1210101  56.90 0.0004969522    1.286    0.222
        32 -11.7340     36.1904    142.0962   1.2284182162e+02   4.1898655928e+01    0.2728953    0.1838564 -73.38 0.0008835731    1.294    0.227
        33 -11.7120     26.9711    138.3161   1.2460090641e+02   4.3615655009e+01    0.3010281    0.1670167 -77.06 0.0008444057    1.474    0.322
        34  -9.5070     24.3407    131.0538   1.2452895957e+02   4.5430082496e+01    0.1653352    0.1139562 -88.80  0.000406115    1.149    0.129
        35 -12.3855     33.0382    128.5489   1.2216119012e+02   4.5165684882e+01    0.2459083    0.1861738  86.99 0.0003441773    1.073    0.068
        36 -10.9018     43.0315    111.9282   1.1746266144e+02   4.7875519958e+01    0.2873121    0.1916417  18.36  0.001629893    2.164    0.538
        37  -9.9977     22.4838    112.1807   1.2300315227e+02   4.9764043497e+01    0.1762938    0.1493336  70.56 0.0004117589    1.205    0.170
        38  -5.7444    137.8597    247.6620   1.1404035819e+02   9.5806845769e+00    0.2125111    0.1335575 -52.61  0.001520061    2.152    0.535
        39 -10.8951    141.1069    245.3749   1.1329482491e+02   9.3978803806e+00   0.07792711    0.0650418 -40.87 0.0002001343    1.701    0.412
        40 -12.9499    180.4677    246.2646   1.0710340879e+02   3.4699635187e+00    0.2123266    0.1658244  45.87  0.001216696    1.165    0.142
        41 -11.0003     33.7514    103.7821   1.1883671068e+02   5.0656914394e+01    0.2848818    0.1881633 -35.85 0.0008039734    2.065    0.516
        42 -10.9212     50.9336    102.7435   1.1380203172e+02   4.9099167441e+01    0.2171132     0.202074 -71.35 0.0003151071    1.167    0.143
        43 -10.0245    219.8276    101.7942   7.3789073559e+01   1.6107938967e+01    0.2107702    0.1856247  10.36 0.0003840167    1.131    0.116
        44 -10.3733    215.0533    100.9644   7.4375767340e+01   1.7310438585e+01    0.2526854    0.2139315  60.89 0.0004193819    1.304    0.233
        45 -12.4787    123.7010    246.8723   1.1623181760e+02   1.1708317016e+01    0.1896073    0.1695146  48.69  0.001025246    1.294    0.227
        46 -10.5043    192.0760     95.8718   7.7135681615e+01   2.3457871980e+01    0.3382204    0.2119876 -37.76 0.0007392998    1.563    0.360
        47 -10.4675     59.8131     91.4262   1.0903179875e+02   5.0617684375e+01    0.3043879    0.1706553 -50.33  0.001526605    1.663    0.399
        48 -11.4701    126.9511    242.4775   1.1530196175e+02   1.1827115284e+01    0.1655862    0.1362446  85.53  0.001332133    1.394    0.283
        49 -11.4789    113.4873    246.7238   1.1785208495e+02   1.3159670672e+01    0.1106703   0.09297051  75.70 0.0003562676    1.270    0.212
        50  -8.3101    209.5716    246.5328   1.0259572428e+02  -8.4413862247e-01    0.1071387   0.07635769  30.61 0.0008047898    1.054    0.051
        51 -11.1242    199.8441     89.3957   7.3973239914e+01   2.2679855031e+01    0.3760317    0.2755424  40.00  0.001314457    1.417    0.294
        52 -11.9317    163.0154    245.8140   1.0982601177e+02   6.1149893441e+00    0.1822055    0.1198852  58.77 0.0009642565    1.584    0.369
        53 -10.8161    130.9463    245.5144   1.1494345023e+02   1.0852283580e+01     0.126298   0.07959175  44.29 0.0008847023    1.208    0.172
        54 -11.3608    110.1690    244.6945   1.1821126028e+02   1.3895853933e+01    0.1457606    0.1287531 -72.05  0.001238134    1.492    0.330
        55  -9.3954     34.8015     85.1528   1.1550014395e+02   5.4807840060e+01    0.1642706    0.1230277 -51.77  0.000290015    1.290    0.225
        56 -10.9226     62.9721     77.8520   1.0493617411e+02   5.3280529121e+01    0.3274784    0.2344887  69.57  0.001489487    1.763    0.433
        57 -11.3031     77.6302     85.4107   1.0227976051e+02   4.9498332695e+01    0.3303701    0.2455765  44.64  0.001809702    1.478    0.323
        58 -11.4302    168.4448     75.0229   7.5874213168e+01   3.2749378219e+01    0.3851105    0.3513821  78.02  0.001105323    1.177    0.151
        59 -11.1629    170.7529     71.5954   7.4372255824e+01   3.2765908512e+01     0.366152    0.2753866 -77.73   0.00144667    1.737    0.424
        60  -9.2843    209.0156    251.0000   1.0324085746e+02  -1.1906743408e+00     0.154301   0.04420417  42.44 -0.007547014    2.552    0.608
        61 -11.3408    116.5310    243.4335   1.1707735380e+02   1.3181086697e+01    0.1459126    0.1120359 -87.94 0.0009449223    1.511    0.338
        62 -11.2055     86.3537     67.1625   9.4512694880e+01   5.2060364224e+01    0.2660627    0.2179529  -8.32  0.001003554    1.507    0.336
        63 -11.7157     95.4604    241.0044   1.2027851739e+02   1.6420075241e+01    0.1731174     0.132249 -77.22  0.001101149    1.532    0.347
        64  -9.2272     35.2526    241.8974   1.2978194676e+02   2.3571707032e+01    0.1121759   0.08818685  68.30 0.0008609905    1.268    0.211
        65 -11.0573    138.0024     63.9820   7.9169264105e+01   4.2074720876e+01    0.2291603    0.2242099 -19.60 0.0003276397    1.015    0.015
        66 -12.2419    129.7890     61.6167   8.0405852004e+01   4.4408387414e+01    0.3774438    0.3260083 -88.22 0.0009729713    1.361    0.265
        67  -9.7847    199.2487    241.4709   1.0355844204e+02   1.1827369890e+00   0.09611819    0.0787572  24.19 0.0001488408    1.159    0.137
        68 -10.8559    115.1031    237.6105   1.1678717757e+02   1.4189740506e+01    0.1674021    0.1231397 -73.96  0.001040577    1.645    0.392
        69 -11.3427    190.6113    249.4381   1.0588601519e+02   1.6354616133e+00    0.2002921     0.118461  31.75 0.0006441896    1.411    0.291
        70 -10.3462     76.3829    239.2561   1.2321788388e+02   1.9164648719e+01   0.09616381   0.06858488  50.67 0.0002246753    1.206    0.171
        71 -11.3697    174.9468    236.5948   1.0684120015e+02   5.3988415173e+00    0.1521048    0.1284266  40.31  0.001190841    1.128    0.113
        72 -10.7424    121.9916     47.9855   7.7631108129e+01   4.8604331798e+01    0.2228355    0.2129027 -12.48  0.001235532    1.017    0.017
        73  -9.9503     84.2274    233.3092   1.2151298303e+02   1.9050420828e+01    0.2325548    0.1100237 -65.12     0.001357    2.450    0.592
        74 -11.1891     88.1629    230.9279   1.2067618832e+02   1.8892705996e+01    0.1966309    0.1200597  69.98  0.001325524    1.506    0.336
