#   1 NUMBER                 Running object number                                     
#   2 MAG_AUTO               Kron-like elliptical aperture magnitude                    [mag]
#   3 X_IMAGE                Object position along x                                    [pixel]
#   4 Y_IMAGE                Object position along y                                    [pixel]
#   5 X_WORLD                Barycenter position along world x axis                     [deg]
#   6 Y_WORLD                Barycenter position along world y axis                     [deg]
#   7 A_WORLD                Profile RMS along major axis (world units)                 [deg]
#   8 B_WORLD                Profile RMS along minor axis (world units)                 [deg]
#   9 THETA_WORLD            Position angle (CCW/world-x)                               [deg]
#  10 FWHM_WORLD             FWHM assuming a gaussian core                              [deg]
#  11 ELONGATION             A_IMAGE/B_IMAGE                                           
#  12 ELLIPTICITY            1 - B_IMAGE/A_IMAGE                                       
         1 -12.5767      1.9030     23.8403   8.4730353594e+01   7.6254127606e+01    0.7213123    0.2032217 -71.72  0.002388365    3.630    0.725
         2 -13.7613      6.4645      8.2093   7.1826822708e+01   7.9363672738e+01     1.184571    0.7088576 -38.87  0.006433312    1.581    0.367
         3 -11.8681     14.1182     11.1228   6.5638630309e+01   7.7931536859e+01    0.3024388    0.1818612 -41.87  0.001204985    1.593    0.372
         4 -12.3528     16.4666      5.4818   5.8884207505e+01   7.8651620099e+01    0.4275531    0.3124863 -11.23  0.002179826    1.517    0.341
         5 -14.6702    245.4879      9.9123   1.1804832281e+01   2.5669986830e+01     1.671118    0.5193669 -40.01  0.008655232    1.985    0.496
         6 -13.9511     12.1806     21.9550   7.4113221419e+01   7.5892518296e+01    0.8707561    0.4086859 -39.98  0.003900854    2.155    0.536
         7 -12.1668     26.7069     14.5946   5.6987384420e+01   7.5468728497e+01    0.3021346    0.1888959 -19.31  0.001428719    2.130    0.530
         8 -12.7424     20.3608     12.3209   6.0630360717e+01   7.6859611030e+01    0.4721808    0.2488975 -31.51  0.002160029    2.227    0.551
         9 -13.0114     25.0554      3.6580   4.9617852785e+01   7.7547553982e+01    0.5530996    0.4262536   9.94  0.003246207    1.397    0.284
        10 -10.7394     65.3919    238.5110   8.8482476403e+01   1.6356384287e+01    0.2634274    0.1078621  48.19  0.001301047    2.181    0.541
        11 -12.3360    248.6971    223.3551   5.2158539361e+01  -1.4438503345e+00    0.3913676    0.1644247 -25.38  0.002473101    1.992    0.498
        12 -12.7099    242.0963    236.3427   5.4917203479e+01  -2.2479783030e+00    0.5309265    0.2183896 -11.21  0.002664099    3.569    0.720
        13 -11.6271    233.3797    249.7076   5.7972369527e+01  -2.8873155636e+00    0.2832873    0.1371176  15.70  0.001925682    1.763    0.433
        14 -12.8487    234.7056    242.8001   5.6865287261e+01  -2.2849397811e+00     0.404065    0.1866271 -15.94  0.002581342    2.108    0.526
        15 -11.9960    250.0674    231.7743   5.3160374772e+01  -2.4560000695e+00    0.2837063    0.1311368 -27.82  0.001720704    1.746    0.427
        16 -11.6659    249.0519    249.2524   5.5666479542e+01  -4.1339743721e+00    0.3266865    0.1847641  15.01  0.002226388    1.454    0.312
        17 -11.0517    249.2833    243.9988   5.4938897647e+01  -3.6351919041e+00    0.2029894     0.131992 -19.76  0.001016722    1.279    0.218
        18 -11.5955    241.0039    249.9947   5.6901733939e+01  -3.5539588041e+00    0.3311018     0.139483  23.99  0.001802432    2.082    0.520
        19 -12.3451    243.3873    244.4569   5.5830723994e+01  -3.1948208710e+00    0.3839437    0.1733653 -19.70  0.002098721    1.946    0.486
        20 -12.4919    247.5022    238.2642   5.4413894357e+01  -2.9087458645e+00    0.3716411     0.165819 -21.74  0.002191779    1.901    0.474
        21 -12.2762    225.9726    247.1500   5.8743695995e+01  -1.9794883797e+00    0.3118827    0.1686911 -18.47  0.001939343    1.574    0.364
        22 -10.9713    157.2700    250.4071   7.0735875073e+01   4.3512588206e+00    0.2161527   0.08543153  24.48  0.001143257    2.130    0.531
        23 -11.5454    104.2737    250.2316   8.1114295541e+01   1.0142536839e+01    0.3046421   0.08642915  34.97  0.001383363    2.527    0.604
        24 -12.1306     87.4644    250.0908   8.4592111660e+01   1.1997483545e+01    0.4418219    0.1398294  26.14  0.001966695    2.632    0.620
        25 -12.2165     75.5226    249.3217   8.7051351989e+01   1.3404486596e+01    0.5313779    0.1413532  36.56  0.002398263    2.506    0.601
        26 -12.1738     66.2658    247.9417   8.8928013185e+01   1.4613305412e+01    0.4257937    0.1841882  44.33  0.002305968    1.864    0.464
        27 -11.7641     51.5972    249.2790   9.2143446097e+01   1.5884401603e+01    0.4775197    0.1593905  35.68  0.002402439    2.011    0.503
        28 -11.7465     45.8550    243.8564   9.3092567956e+01   1.7412550942e+01    0.4134325    0.2073682  51.25  0.002124054    1.689    0.408
        29 -12.1343     37.8228    247.8737   9.5017191562e+01   1.7478562925e+01    0.5857801    0.1884489  47.03  0.002892774    2.293    0.564
        30 -10.9776     27.2252    248.4722   9.7297632979e+01   1.8363142271e+01    0.3373249    0.1550808  46.11  0.001984981    1.582    0.368
        31 -12.0387     20.9008    248.0554   9.8622059686e+01   1.9007734627e+01     0.448534    0.2121552  50.83  0.002220798    1.604    0.377
        32 -12.7029      2.5954    209.0175   1.0166380966e+02   2.8246091888e+01    0.8060788    0.3050008  82.59  0.003770136    2.599    0.615
        33 -11.6352     19.0529    220.5258   9.8101654791e+01   2.4446027708e+01    0.3767873    0.1422328  55.66  0.001813975    2.195    0.544
        34 -12.5254     13.0188    215.8312   9.9362227480e+01   2.5944912606e+01    0.5443136    0.2235901  49.11   0.00237992    1.822    0.451
        35 -11.9854      5.1475    226.7186   1.0147729039e+02   2.4388302509e+01    0.4685118    0.2261072  56.25  0.001962199    1.613    0.380
        36 -12.0423      2.6359    219.0533   1.0188021429e+02   2.6138467378e+01    0.4185553    0.2451491  78.95  0.001712552    1.613    0.380
        37 -11.5329     14.5644    230.7361   9.9469024961e+01   2.2803636790e+01    0.4198631     0.192994  50.61  0.002192333    1.638    0.390
        38 -11.2430     11.4785    224.4109   9.9981874102e+01   2.4320521462e+01    0.4310206    0.1750164  45.98  0.002217982    1.756    0.430
        39 -12.4732     16.6058    239.0978   9.9268713605e+01   2.1027559775e+01     0.734013    0.1893571  40.76  0.003492628    2.293    0.564
        40 -12.3487      6.9276    234.8083   1.0126595919e+02   2.2665202215e+01    0.6449833    0.2260537  42.09  0.003404542    1.864    0.464
        41 -11.8715     12.7991    247.9273   1.0032349300e+02   1.9737053284e+01    0.4266785    0.1770583  46.13  0.002008755    1.658    0.397
        42 -12.0612      4.1570    249.6195   1.0215714201e+02   2.0156367274e+01    0.3665405    0.2422282  31.66  0.002134402    1.254    0.203
        43 -12.6305      3.5282    241.6632   1.0214030195e+02   2.1654043355e+01    0.6042355    0.2436146  56.43  0.003117173    1.889    0.471
        44 -11.3054     45.3783    235.6794   9.2762664000e+01   1.8957883527e+01    0.2775964    0.1334664  50.24  0.001521137    1.743    0.426
        45 -11.9612     73.4852    239.2691   8.6754797923e+01   1.5346815211e+01    0.3155358    0.1432666  47.39  0.001646202    1.984    0.496
        46 -11.8859    127.8776    246.6169   7.5977510356e+01   8.0794177902e+00    0.2395621    0.1081952  37.72  0.001312401    1.917    0.478
        47 -12.3507    231.6273    232.7430   5.5948894874e+01  -9.2705489847e-01    0.2677649     0.149884 -13.56  0.001903792    1.513    0.339
        48 -11.6174     60.8122    230.1685   8.8929950069e+01   1.8383539566e+01     0.274554    0.1342825  51.67  0.001437187    1.896    0.473
        49 -11.3917     40.2369    229.8253   9.3612046171e+01   2.0586174066e+01     0.303544    0.1819669  59.93  0.001813973    1.536    0.349
        50 -12.6080     26.2540    227.1615   9.6691031130e+01   2.2454571351e+01    0.5119955    0.2519018  77.30  0.002754067    2.154    0.536
        51 -12.0693    236.7055    226.3525   5.4299584361e+01  -6.8543199760e-01    0.2815115     0.136553 -24.62  0.001876589    1.728    0.421
        52 -10.7757     32.9886    227.9850   9.5181386359e+01   2.1654675190e+01    0.2137444    0.1004331  52.13  0.001139125    1.758    0.431
        53 -10.5825     44.9749    219.9701   9.1948316053e+01   2.2054136412e+01    0.2179166    0.1110451  53.01  0.001143542    1.730    0.422
        54 -11.6384    238.9206    216.9291   5.2610789964e+01   1.7022595745e-01    0.2583317    0.1099241 -25.57  0.001546619    2.061    0.515
        55 -11.3381     35.1833    216.1085   9.4069251224e+01   2.3836430077e+01    0.3362161    0.1582438  80.84  0.001632127    2.435    0.589
        56 -12.0724    248.4020    213.7421   5.0794255542e+01  -3.6058181833e-01    0.3470208    0.1463641 -28.35  0.002170791    1.923    0.480
        57 -10.6936     49.0110    228.9825   9.1553748030e+01   1.9858033762e+01    0.2119772    0.1074329  52.28  0.001141836    1.740    0.425
        58 -11.0512     28.7300    210.5663   9.5352749745e+01   2.5630325194e+01    0.2259518    0.1192744  63.30  0.001186614    1.759    0.432
        59 -11.4403     21.5077    210.3143   9.7111785251e+01   2.6359045623e+01    0.2643301    0.1658928  58.07  0.001557805    1.336    0.252
        60 -12.9386     12.8990    203.5687   9.8977080477e+01   2.8583502787e+01    0.5192661    0.2638529  52.76  0.002786094    1.567    0.362
        61  -9.9518    250.4922    199.5082   4.8340569969e+01   1.0648364032e+00    0.1048809   0.07372601 -12.80 0.0008105467    1.014    0.014
        62 -12.7773      2.3772    176.9114   1.0085807278e+02   3.5593687581e+01    0.4970914    0.2174157  72.07  0.002286988    2.060    0.515
        63 -12.5907      4.0404    195.3263   1.0095458263e+02   3.1150171091e+01    0.5293652    0.2476924  67.63  0.002667475    1.867    0.464
        64 -12.6594      3.7553    186.5951   1.0077687653e+02   3.3183965889e+01     0.658735    0.2126401  61.39  0.002700092    2.666    0.625
        65 -12.3735     17.0505    194.7833   9.7574156832e+01   3.0193268403e+01    0.3920239    0.1336606  32.39  0.001723616    2.229    0.551
        66 -11.2006     11.3461    189.3398   9.8852775579e+01   3.1936665371e+01    0.2709029    0.1053466  66.37    0.0011658    2.405    0.584
        67 -11.0605     17.9677    188.9816   9.7072590915e+01   3.1452596409e+01    0.2326572    0.1141572  54.81  0.001138801    1.717    0.418
        68 -12.3243     12.0871    181.9555   9.8357095665e+01   3.3618828733e+01    0.3270026    0.1534993  77.01  0.001523182    2.039    0.510
        69 -10.4497     17.4997    179.5067   9.6744156111e+01   3.3747762396e+01    0.1363468    0.1093854  57.53  0.000810467    1.031    0.030
        70 -13.7058      1.8562    163.3274   1.0056594638e+02   3.8991437253e+01    0.6627961    0.4325247  74.39  0.003643933    1.326    0.246
        71 -12.3939      3.8447    152.7733   9.9557164777e+01   4.1560980431e+01     0.346215    0.1751046 -77.23  0.001621971    1.857    0.461
        72 -11.6418      2.8558    141.5719   9.9391514269e+01   4.4582290796e+01    0.3017507    0.1433188  71.77  0.001323679    1.927    0.481
        73 -11.7593      4.5930    135.2970   9.8492283324e+01   4.6156998381e+01    0.2847278    0.1195261  88.57  0.001149871    2.211    0.548
        74 -10.6873      2.0000     93.0305   9.6759897061e+01   5.8005041359e+01    0.2417811   0.07224543 -81.37 0.0008059476    2.967    0.663
        75 -12.9026      3.7982     48.8291   8.9957494054e+01   6.9945520500e+01    0.6297928    0.3126695 -68.38  0.002906582    1.755    0.430
        76 -12.6793      2.6587     39.0432   8.8618198604e+01   7.2505267812e+01    0.6505024    0.1825008 -67.41  0.002406245    2.844    0.648
        77 -12.8255    211.8972    246.2622   6.0808796397e+01  -6.0680999458e-01    0.4656581    0.2292221  -4.60  0.002781741    2.320    0.569
        78 -12.2863     98.6542    243.3675   8.1668757172e+01   1.1859240371e+01    0.3716888    0.1424563  42.23  0.001813252    2.301    0.565
        79 -12.5501     85.1747    242.8939   8.4500288353e+01   1.3437851290e+01    0.3285348    0.1681737  47.07  0.001837699    1.820    0.451
        80 -12.1422     57.6836    240.6337   9.0321623446e+01   1.6788841387e+01    0.4916353     0.179156  48.85  0.002345271    2.413    0.586
        81 -12.0030      8.6881     42.3090   8.4839267800e+01   7.1334009189e+01    0.3789863    0.1705237 -68.35  0.001642462    2.021    0.505
        82 -12.5558     13.4161     35.5346   7.8999015389e+01   7.2641089887e+01     0.389801    0.2523271 -79.28   0.00194623    1.756    0.430
        83 -12.1228     19.4475     28.8371   7.1314928343e+01   7.3586206333e+01    0.4361274     0.210311 -39.69  0.001887562    2.185    0.542
        84 -12.2419     30.2119    239.5123   9.6309717585e+01   1.9716777134e+01    0.4499746    0.2305781  51.53  0.002300517    1.562    0.360
        85 -12.4216    226.4546    239.3722   5.7635390368e+01  -1.1840594266e+00    0.2770811    0.1336186 -19.05  0.001796073    1.932    0.482
        86 -12.0457    108.2937    239.6218   7.9282721377e+01   1.1377709157e+01    0.2944714    0.1342995  41.26  0.001549586    1.955    0.488
        87 -10.8479     38.6982    239.2520   9.4430419751e+01   1.8954612702e+01    0.2691336    0.1307024  50.58  0.001500545    1.682    0.405
