#   1 NUMBER                 Running object number                                     
#   2 MAG_AUTO               Kron-like elliptical aperture magnitude                    [mag]
#   3 X_IMAGE                Object position along x                                    [pixel]
#   4 Y_IMAGE                Object position along y                                    [pixel]
#   5 X_WORLD                Barycenter position along world x axis                     [deg]
#   6 Y_WORLD                Barycenter position along world y axis                     [deg]
#   7 A_WORLD                Profile RMS along major axis (world units)                 [deg]
#   8 B_WORLD                Profile RMS along minor axis (world units)                 [deg]
#   9 THETA_WORLD            Position angle (CCW/world-x)                               [deg]
#  10 FWHM_WORLD             FWHM assuming a gaussian core                              [deg]
#  11 ELONGATION             A_IMAGE/B_IMAGE                                           
#  12 ELLIPTICITY            1 - B_IMAGE/A_IMAGE                                       
         1 -12.2382     54.9184    146.8854   1.0457727879e+02   3.8542814250e+01     4.719802    0.8494298 -57.31   0.01391206    3.974    0.748
         2 -13.1359    198.6785     42.1804   4.2288851438e+01   3.0577175347e+01     1.017641     0.893008 -74.96  0.003140597    1.019    0.018
         3 -13.7439    208.2262     33.0371   3.8947721944e+01   2.9572735790e+01     1.358483     0.927941 -14.24  0.001393159    2.080    0.519
         4 -12.1242    235.9211      8.6917   3.1166057040e+01   2.6415330278e+01    0.5584005    0.4224066  34.93  0.002984741    2.133    0.531
         5 -12.7398    232.1164      4.7481   3.0629131557e+01   2.7617868250e+01    0.7017882    0.6028662  59.75  0.005065372    1.478    0.323
         6 -10.9492     43.4716      6.3329   6.5672860696e+01   6.8787196407e+01    0.2604851    0.1481114  19.33  0.001458455    1.724    0.420
         7 -11.0354     53.5092      5.0005   6.0944471078e+01   6.7259229302e+01    0.2222244    0.1686181  54.10  0.001411595    1.620    0.383
         8  -9.8696    164.0233    211.5100   8.8236145812e+01   6.1884124813e+00    0.2157049     0.125336  36.61  0.001031883    1.591    0.371
         9 -11.2882    139.9035    249.1951   9.8994472669e+01   3.2985653136e+00    0.4252805    0.3163141 -44.66  0.002638152    1.581    0.367
        10 -13.9180     43.1658    196.0601   1.1387884400e+02   2.7882162642e+01     3.724646     1.367655  63.19   0.00968114    4.464    0.776
        11 -10.6273    111.1334    203.1423   9.8820638139e+01   1.6715777963e+01    0.2658701    0.2132707  57.61  0.000641812    1.243    0.196
        12  -9.7935     30.9948    202.5649   1.1720473010e+02   2.7736937730e+01    0.3446007    0.1832975  58.98  0.001597025    1.769    0.435
        13 -16.3826      6.5044    204.9012   1.2256287364e+02   2.9594794655e+01     16.42158     1.020975 -75.67  0.009147502   10.429    0.904
        14 -11.1621    121.7579    197.9147   9.5505454096e+01   1.6102009002e+01    0.4506389    0.2953896 -73.05   0.00208808    1.972    0.493
        15 -10.3020     60.1949    197.7292   1.1010101351e+02   2.5417703583e+01    0.2319436    0.2062116  63.38 0.0002891311    1.074    0.069
        16 -11.0683    113.0226    196.3616   9.7327373652e+01   1.7898628105e+01    0.6113215    0.3485587 -18.71  0.001911492    4.843    0.794
        17  -9.9725    142.2072    209.0400   9.2621010423e+01   1.0329637665e+01    0.2833426    0.1529056 -31.73  0.001166718    2.577    0.612
        18 -11.0511    193.0800    194.9370   7.9085052573e+01   4.3506555337e+00     1.045014    0.5205811 -60.37  0.003234838    5.256    0.810
        19  -8.3882     24.4474    193.5844   1.1790653195e+02   3.0461008945e+01    0.1266021   0.09967866  76.67 0.0008012846    1.067    0.063
        20  -9.7379     66.8872    180.5835   1.0634404135e+02   2.8598639956e+01    0.6457502    0.3061425  65.96  0.002298349    3.380    0.704
        21 -10.4854     43.5684    178.5489   1.1192429296e+02   3.1992100104e+01    0.5025788      0.32221 -28.19    0.0018806    2.479    0.597
        22 -12.7137     56.2813    185.6913   1.0963088525e+02   2.8750691866e+01     0.759177    0.6647983  83.84  0.002854838    1.009    0.009
        23 -10.0776     49.8208    180.8248   1.1064010921e+02   3.0713022916e+01    0.3309298    0.2056528  66.89  0.001114074    1.702    0.412
        24 -10.4719    147.8229    188.1038   8.7678031212e+01   1.3665038434e+01    0.4298357    0.3064592  88.27  0.001874163    2.349    0.574
        25  -9.8802    120.1659    186.1435   9.3909001135e+01   1.8983756976e+01    0.1991242    0.1698533  78.20 0.0004106195    1.311    0.237
        26 -17.3604     13.4871    242.6384   1.2334066145e+02   2.1106339413e+01     5.757173     2.164317  25.67   0.02639174    3.818    0.738
        27 -10.9317    107.6011    203.7981   9.9744540865e+01   1.7140055219e+01     0.418898    0.2350951  56.80  0.001789776    2.072    0.517
        28  -9.1369     79.7562    183.0658   1.0345493652e+02   2.6190169861e+01    0.2150876    0.1781673  80.94 0.0005855198    1.201    0.167
        29  -9.9005     99.3993    181.1065   9.8205438882e+01   2.3628821898e+01    0.2658218     0.251592  57.26 0.0006476636    1.034    0.032
        30  -9.0213     37.9070    181.3135   1.1361449154e+02   3.1953629842e+01    0.1696274    0.1523549  71.79 0.0002863879    1.103    0.094
        31  -9.2914     89.1246    210.9355   1.0499834858e+02   1.8421016641e+01    0.1985129      0.17506  68.91 0.0005267781    1.054    0.051
        32  -9.5154    241.3235    177.6587   6.6596920875e+01  -4.8181906753e-01    0.1216878    0.1018939 -60.73 0.0007050846    1.727    0.421
        33 -10.4543    186.9743    175.5109   7.6489164414e+01   9.0819547911e+00    0.3773803    0.3076838 -41.68  0.001085657    1.241    0.194
        34 -11.3306     74.1414    167.1272   1.0249566489e+02   3.0889948566e+01    0.4279309    0.3504899 -64.77 0.0008247545    1.161    0.139
        35  -9.1589    147.9732    174.3045   8.4979801633e+01   1.6603857206e+01    0.2085833    0.1872828  33.10 0.0003462344    1.094    0.086
        36 -11.9264     82.4412    158.9059   9.8885133915e+01   3.1708988283e+01    0.9795831    0.6774008  76.05  0.004508534    1.811    0.448
        37  -8.4597    193.3738    170.2147   7.4056629194e+01   8.9370352951e+00    0.1981057    0.1309648 -48.68 0.0007289803    1.613    0.380
        38 -10.4179    240.2896    169.0027   6.5035456252e+01   1.1044289329e+00    0.1936996    0.1546831 -24.62 0.0004927921    1.053    0.051
        39 -11.7477    114.1076    244.6092   1.0371379614e+02   7.9551054576e+00      0.54121    0.3993664  74.13  0.003208062    1.628    0.386
        40  -9.4939     34.7862    166.4781   1.1276127207e+02   3.5895775763e+01    0.3744136    0.2045829  54.67  0.001317014    1.927    0.481
        41  -9.2018     35.8758    158.3907   1.1150804584e+02   3.7788411093e+01    0.2301983    0.1604149 -87.63 0.0005700662    1.353    0.261
        42 -13.0478     71.0263    153.6948   1.0114142955e+02   3.4691999457e+01     0.663182    0.6006527 -49.23  0.001283207    1.137    0.120
        43  -9.7003     32.1408    156.7444   1.1230549144e+02   3.8574603288e+01    0.2610589    0.1376492 -48.33  0.001230096    2.003    0.501
        44 -11.5525     89.7148    151.9240   9.5592832433e+01   3.2308473424e+01    0.7304697    0.4986244 -23.94  0.003182209    2.054    0.513
        45 -10.6388    133.6676    144.5821   8.2164975568e+01   2.6096565088e+01      1.31319    0.3424746 -54.63  0.002931278    6.074    0.835
        46  -9.0141    174.9811    149.0118   7.3326880548e+01   1.6751020621e+01    0.2350689    0.1915106 -84.37 0.0006819357    1.678    0.404
        47  -8.4980    110.9829    149.3101   8.9209423852e+01   2.9298526155e+01    0.2554729    0.1064831  55.04 0.0005883806    4.198    0.762
        48 -10.4133     38.6087    146.3009   1.0915011684e+02   4.0539320415e+01    0.3119486    0.2349262  55.99 0.0006827315    1.412    0.292
        49  -9.3637    143.7589    145.7745   7.9888904319e+01   2.3800865919e+01     0.256338    0.1272651 -57.35    0.0008945    2.484    0.597
        50 -14.3445     68.8677    144.2185   1.0008638352e+02   3.7388486448e+01     5.040286     2.115901  59.87   0.01271376    6.398    0.844
        51 -10.2231    103.2309    138.2125   8.8952012828e+01   3.3400264599e+01    0.6018126    0.3490414 -26.74  0.002176044    2.722    0.633
        52 -10.1672    105.8844    130.8662   8.6521828804e+01   3.4704903377e+01    0.3730284    0.3273766 -61.12  0.001272967    1.143    0.125
        53 -11.6210     90.5865    137.7032   9.2468763630e+01   3.5707377327e+01    0.2982974    0.2660752 -33.20 0.0008123343    1.170    0.146
        54 -11.2836     43.5323    130.2451   1.0519849504e+02   4.4075230378e+01    0.6056896    0.3241506  84.68  0.002310757    3.029    0.670
        55 -10.0242    135.7758    129.0157   7.7922241715e+01   2.9248844404e+01    0.5179356    0.1280579 -50.21  0.001282916    4.595    0.782
        56  -9.7880    112.0735    129.2257   8.4377890849e+01   3.3938410181e+01    0.3524837     0.288186   8.72 0.0009506763    1.455    0.313
        57 -11.4307     70.1774    171.5888   1.0422332680e+02   3.0345663964e+01    0.4744776    0.2980327 -33.33  0.002117838    2.236    0.553
        58 -10.3033     99.2197    124.9169   8.7046144862e+01   3.7355984271e+01    0.3330649    0.2626459 -16.31 0.0006989039    1.532    0.347
        59 -10.6377    118.3479    123.3035   8.1169532318e+01   3.4114120495e+01    0.5380479    0.3582137  -7.39  0.002026111    2.556    0.609
        60  -9.0766     91.3760    124.1745   8.9206528150e+01   3.8910706351e+01    0.2711785      0.18893  56.43 0.0004734788    1.709    0.415
        61  -9.2677    135.0000    119.9313   7.5829952861e+01   3.1460912116e+01    0.2625982   0.08844279 -45.48 0.0006565833    2.902    0.655
        62  -9.3395    108.1247    118.2741   8.2799932995e+01   3.7287715216e+01    0.2413481    0.2029618 -35.08 0.0002974209    1.191    0.160
        63  -9.8719    231.3125    113.7234   5.4659846681e+01   1.2212766147e+01    0.2617965    0.2321452 -47.72 0.0007356997    1.065    0.061
        64 -12.4443     48.6577    107.1883   9.9076679769e+01   4.9247559337e+01    0.8431826    0.6399683  52.00  0.003246751    1.568    0.362
        65  -9.2815    134.6723    106.1481   7.2250306216e+01   3.4551754363e+01    0.3227576    0.1380779 -50.11   0.00108665    2.538    0.606
        66  -8.4678    139.4722    106.4040   7.1090702199e+01   3.3444327283e+01     0.152701    0.1521593 -63.34 0.0001041352    1.029    0.029
        67  -9.2795    205.3398    110.1371   5.8075495104e+01   1.8101169346e+01    0.2329496    0.2025039  32.73 0.0007454957    1.295    0.228
        68 -10.9293    115.8453    107.7694   7.7812501138e+01   3.8175223428e+01    0.6593794    0.3751349 -26.12  0.002388268    2.543    0.607
        69  -9.6827    128.0830     95.3376   7.0947535811e+01   3.8270349111e+01    0.4017934    0.2610435  70.44  0.001571483    2.345    0.574
        70  -9.5623     46.2088     90.6048   9.6062142877e+01   5.3484166346e+01    0.1840079    0.1299876   4.29 0.0005960466    1.661    0.398
        71  -9.4477    155.7392     87.9118   6.2072566749e+01   3.3447600795e+01    0.3973249    0.2497858 -69.80  0.001434131    2.518    0.603
        72  -8.4009    116.2451     85.3582   7.1244744831e+01   4.2866772563e+01     0.209763    0.1429643  53.65 0.0008636633    1.593    0.372
        73  -8.7618    158.3560     83.1601   6.0162137588e+01   3.3714563142e+01    0.2191283    0.1340811 -47.69 0.0004828261    1.671    0.402
        74  -8.2068     70.6459     82.2500   8.4859908388e+01   5.2054869090e+01    0.1351952    0.1131084  66.87 0.0002905015    1.597    0.374
        75  -8.1811    184.6881     76.7227   5.3289967453e+01   2.8645905061e+01    0.1401669    0.1142858  21.64 0.0002620688    1.561    0.359
        76  -9.4439     58.1594     67.1048   8.4736640817e+01   5.7083842093e+01    0.2189762    0.1866705  10.42 0.0003159169    1.167    0.143
        77 -12.7832    187.7335     50.6666   4.5944389870e+01   3.1971721599e+01    0.8926201    0.7719272  39.45 0.0008442726    1.351    0.260
        78 -11.6223    125.5397    245.8773   1.0151099511e+02   6.0242050129e+00    0.5819948    0.4190602 -72.09  0.003087544    1.796    0.443
        79  -8.5515     69.2424     52.6510   7.5467268362e+01   5.8082778522e+01    0.1862422    0.1196548  27.69 0.0009310451    1.573    0.364
        80  -8.1127     35.6381     37.7256   8.3633793983e+01   6.5493682495e+01    0.1311066   0.08289023  -8.95 0.0003796069    1.661    0.398
        81 -11.2003     23.3320     34.1389   8.8098265677e+01   6.7450600469e+01    0.2967935     0.217816  42.53  0.001322632    1.971    0.493
        82 -11.0017    203.0411    200.6933   7.8174299310e+01   1.6859078563e+00     0.363655    0.1546037  30.52  0.001476808    2.545    0.607
        83 -11.0999    223.8112     31.3321   3.6965066269e+01   2.6345664256e+01    0.3720167    0.2531145   3.56  0.001832958    2.900    0.655
        84  -9.1120    197.9394     23.6343   3.7807804424e+01   3.3046170731e+01    0.2020677    0.1758069 -24.14 0.0006702539    1.387    0.279
        85  -9.0164    189.6733     14.9525   3.6556854139e+01   3.5915526553e+01    0.1755908    0.1525559 -66.33 0.0006083172    1.100    0.091
        86 -10.8566    119.9336    245.8838   1.0266581252e+02   6.8604046216e+00    0.4123258      0.24161  62.24  0.002048014    2.236    0.553
        87 -10.8962    150.3690    220.3262   9.2640053528e+01   6.7930368904e+00     0.263816    0.2142339 -24.78  0.001334836    1.357    0.263
        88 -10.7317    184.0066    212.5033   8.4190798617e+01   2.7153295354e+00    0.2338105    0.1814651  -7.27  0.001321276    1.308    0.236
