#   1 NUMBER                 Running object number                                     
#   2 MAG_AUTO               Kron-like elliptical aperture magnitude                    [mag]
#   3 X_IMAGE                Object position along x                                    [pixel]
#   4 Y_IMAGE                Object position along y                                    [pixel]
#   5 X_WORLD                Barycenter position along world x axis                     [deg]
#   6 Y_WORLD                Barycenter position along world y axis                     [deg]
#   7 A_WORLD                Profile RMS along major axis (world units)                 [deg]
#   8 B_WORLD                Profile RMS along minor axis (world units)                 [deg]
#   9 THETA_WORLD            Position angle (CCW/world-x)                               [deg]
#  10 FWHM_WORLD             FWHM assuming a gaussian core                              [deg]
#  11 ELONGATION             A_IMAGE/B_IMAGE                                           
#  12 ELLIPTICITY            1 - B_IMAGE/A_IMAGE                                       
         1 -13.4403    229.0135      3.3573   3.6922252385e+01   2.7500498270e+01     1.661712    0.6310195  58.81   0.00534011    2.660    0.624
         2 -13.9723    195.5682     38.0304   4.9387132980e+01   3.1548359501e+01     1.321467      1.09633 -41.45  0.003554854    1.203    0.169
         3 -14.6522    205.2994     27.5389   4.5265196028e+01   3.0456353955e+01     1.719982     1.304972  32.22  0.001723092    1.691    0.409
         4  -9.8540    155.8391     11.1645   4.7213658607e+01   4.4812150040e+01    0.2115433    0.1740455 -81.81 0.0008506327    1.276    0.217
         5  -9.9937     65.0045      9.4981   6.8735848291e+01   6.5329535785e+01    0.1547429    0.1148971  73.51 0.0008104498    2.546    0.607
         6 -12.0993     33.4786      4.2357   7.9521930903e+01   7.0725536522e+01    0.2821365    0.2473353 -38.39  0.001548081    1.671    0.402
         7 -12.4713     59.8748      2.9758   6.7416543099e+01   6.6929972858e+01    0.5981141     0.222385  46.35  0.002737546    2.527    0.604
         8 -10.9991    113.3151    207.6484   1.0708018130e+02   1.6247754563e+01    0.2878677    0.2084238  71.42  0.001431147    1.467    0.318
         9 -11.5249    140.1620    249.5254   1.0700066331e+02   4.6380562137e+00    0.3238354    0.2508353 -88.70  0.002132246    1.707    0.414
        10 -16.6774     73.0263    150.0049   1.0809526687e+02   3.5263646435e+01     22.22686     10.89836  84.49   0.04515741    4.789    0.791
        11  -9.9184     51.9978    171.9649   1.1621505347e+02   3.2847521228e+01    0.2646343    0.1628985  70.71  0.000851075    1.629    0.386
        12 -10.6742    230.4083    167.1206   7.5655955118e+01   2.2799181047e+00    0.3196281    0.1129786 -44.18  0.001136617    3.276    0.695
        13 -10.0084    160.1558    163.9655   8.9306372964e+01   1.6578516641e+01    0.2421272    0.1766161 -81.25  0.001074671    2.049    0.512
        14 -12.3008     91.3138    154.5815   1.0416187488e+02   3.1422275704e+01    0.6259141    0.4537037 -25.71  0.001788885    2.027    0.507
        15 -15.4457     10.4116    206.4278   1.2761055277e+02   2.9826372601e+01    0.6029699    0.5039688 -72.01  0.002607168    1.461    0.316
        16 -11.6629    133.8252    144.9992   9.1533340264e+01   2.5961366508e+01     1.200356    0.3217505 -55.10   0.00292708    5.461    0.817
        17 -10.8382    174.4148    149.0709   8.2920753767e+01   1.6669241587e+01    0.3346429    0.2821791 -65.03 0.0009375483    1.386    0.279
        18 -16.1851     50.7060    202.7654   1.1957285525e+02   2.6250719139e+01     4.428505     2.099684  62.88   0.02235983    2.079    0.519
        19 -10.6673    143.7318    145.5044   8.9218080843e+01   2.3843490321e+01    0.3272286    0.1885761 -60.65  0.001290377    2.139    0.532
        20  -9.8932     86.0013    145.0822   1.0387082760e+02   3.4519788949e+01    0.2112079    0.1913109 -89.84 0.0003168255    1.033    0.032
        21 -11.2565    104.3180    139.6679   9.7982960361e+01   3.2769655860e+01    0.5465804      0.34608 -31.78  0.002309173    2.174    0.540
        22 -12.3882     91.8598    139.7551   1.0132159782e+02   3.4863617817e+01    0.2929702    0.2609503 -60.18 0.0004302493    1.092    0.085
        23 -13.2932    195.7404    198.3348   8.8446423317e+01   3.4482074567e+00     1.260779     1.111765  87.84  0.007429676    1.643    0.391
        24 -11.6193    135.6564    127.8956   8.7168687259e+01   2.9436823102e+01    0.6463705    0.1976761 -50.10  0.001891209    3.450    0.710
        25 -10.4153     81.1138    194.5553   1.1232535297e+02   2.3933022212e+01    0.4276072    0.2275464  54.72  0.002115996    1.784    0.439
        26 -10.7833    105.9611    130.8502   9.5679117848e+01   3.4564269226e+01    0.3550925    0.3152435 -80.88  0.001087923    1.147    0.128
        27 -10.5689    112.8131    130.2745   9.3702926326e+01   3.3436459725e+01    0.3434178    0.2809447  -0.79  0.001102929    1.597    0.374
        28 -10.0176    152.8587    198.5820   9.7312865026e+01   1.1163955359e+01    0.3790587    0.1752188 -57.09  0.001537157    2.839    0.648
        29 -11.2654     99.8023    126.5986   9.6435009263e+01   3.6669147380e+01    0.4200387    0.3028181 -12.32  0.001779994    2.129    0.530
        30  -9.9843    160.5011    127.6324   8.1036149262e+01   2.4124959163e+01    0.3301022    0.2261638 -74.20  0.001311061    2.233    0.552
        31 -11.7052    119.1379    123.8593   9.0518460196e+01   3.3713426046e+01    0.7499232    0.4495586 -22.09  0.002639301    3.026    0.670
        32 -11.7812     23.8565    120.3021   1.1701880184e+02   4.7920939405e+01    0.3045466    0.1995607  56.21  0.001406505    1.698    0.411
        33 -10.1252    108.8720    119.0849   9.2181175909e+01   3.6798200162e+01    0.2169539    0.2116918 -61.54 0.0003692057    1.020    0.019
        34 -12.5117     19.3278    111.0116   1.1704713897e+02   5.0478462080e+01    0.6328816    0.3187504  50.14  0.002702578    2.377    0.579
        35  -9.8486    167.5598    112.5279   7.5562555406e+01   2.5667803274e+01     0.345017    0.2396175 -81.22  0.001346584    2.333    0.571
        36 -10.6195    134.5611    104.8491   8.1536872718e+01   3.4777690606e+01    0.7964247    0.1522595 -44.13   0.00186829    5.145    0.806
        37 -12.2200    118.2156    108.7748   8.6992644057e+01   3.7351809708e+01    0.7684579    0.5056061 -54.59  0.003390517    1.555    0.357
        38 -15.9053     85.6269    228.7200   1.1509620892e+02   1.6437904741e+01     2.690122     2.382066 -25.18   0.01831264    1.743    0.426
        39 -11.1047    146.7227    182.9566   9.5959525091e+01   1.5324809326e+01    0.3210561    0.2293603  45.96  0.001083202    1.306    0.234
        40 -10.1324    205.6371    110.1018   6.7086834603e+01   1.7335088532e+01     0.274643    0.2206663  42.05 0.0006241286    1.306    0.234
        41  -9.3799    159.7161    196.9368   9.5582859309e+01   1.0225000322e+01    0.1770777    0.1763424 -48.70 0.0003801254    1.124    0.110
        42 -11.1392     53.5378     90.8972   1.0239678457e+02   5.2000880897e+01     0.361319    0.2316896 -56.51  0.001220914    1.355    0.262
        43 -11.3861     41.8831     91.9640   1.0655973355e+02   5.3026105205e+01     0.245454    0.2236363  14.67 0.0006783225    1.285    0.222
        44  -9.3005    157.1694     81.1665   6.9157531295e+01   3.4333629032e+01    0.2150109    0.1856065 -72.59 0.0004526153    1.307    0.235
        45  -9.3558    184.4829     77.0141   6.2246955689e+01   2.8340289964e+01    0.2342618      0.15013 -34.24 0.0005835746    1.554    0.357
        46 -10.2203     61.6292     68.8057   9.3586992130e+01   5.5907466407e+01    0.2395404    0.2171139  53.27 0.0007188801    1.354    0.261
        47 -11.0607    124.8628    244.5625   1.0928974835e+02   7.7913370838e+00    0.4716471     0.159701 -60.07  0.001996207    4.026    0.752
        48 -13.7637    185.5301     46.1346   5.3202283686e+01   3.2976589052e+01     1.128358    0.9853031  21.93   0.00178922    1.337    0.252
        49 -15.9177     47.2826    221.5469   1.2176619649e+02   2.2872414473e+01     3.055889     1.291211  82.45   0.01402863    2.986    0.665
        50 -12.0301    163.7126    217.4356   9.8087655028e+01   5.9127834730e+00      0.48522    0.2041109  36.37  0.002095511    2.174    0.540
        51 -10.8476    151.3467     54.6735   6.2245694201e+01   4.0377716261e+01    0.3009495    0.2594268 -84.47  0.000366601    1.315    0.240
        52 -10.9867    152.9368     48.1852   5.9810655948e+01   4.0978151064e+01      0.34397    0.2802404 -78.45  0.001003269    1.440    0.306
        53 -10.3952    204.7154    176.5154   8.2462541740e+01   5.4652383762e+00    0.4039679    0.2154945 -48.86  0.001746313    2.291    0.564
        54 -12.2665     72.7432    175.3650   1.1181522687e+02   2.9368658511e+01    0.4265294    0.2752072 -43.17  0.001756746    2.028    0.507
        55 -12.1985     76.6591    170.5493   1.1024596551e+02   2.9915635047e+01    0.3339143    0.2921425 -35.28  0.001187489    1.472    0.321
        56 -18.1614      6.5817    240.3573   1.2988673601e+02   2.3760137783e+01     5.713693     2.686743 -83.37   0.02497518    1.832    0.454
        57  -9.8733    189.6622     15.0006   4.3743555588e+01   3.5817476872e+01    0.1878205    0.1724165 -51.10 0.0007322581    1.136    0.120
        58 -11.5450    140.6135    173.9444   9.5702857890e+01   1.8326309533e+01    0.5890603    0.3871839  82.36  0.002116855    2.558    0.609
        59 -10.6301     53.2607    166.1697   1.1524566499e+02   3.4030038933e+01    0.5530177    0.1652795 -57.58  0.002143431    3.019    0.669
        60 -11.7162     47.4874    172.6270   1.1732365979e+02   3.3230899838e+01    0.3876947    0.2273566 -65.00 0.0009528088    1.570    0.363
