#   1 NUMBER                 Running object number                                     
#   2 MAG_AUTO               Kron-like elliptical aperture magnitude                    [mag]
#   3 X_IMAGE                Object position along x                                    [pixel]
#   4 Y_IMAGE                Object position along y                                    [pixel]
#   5 X_WORLD                Barycenter position along world x axis                     [deg]
#   6 Y_WORLD                Barycenter position along world y axis                     [deg]
#   7 A_WORLD                Profile RMS along major axis (world units)                 [deg]
#   8 B_WORLD                Profile RMS along minor axis (world units)                 [deg]
#   9 THETA_WORLD            Position angle (CCW/world-x)                               [deg]
#  10 FWHM_WORLD             FWHM assuming a gaussian core                              [deg]
#  11 ELONGATION             A_IMAGE/B_IMAGE                                           
#  12 ELLIPTICITY            1 - B_IMAGE/A_IMAGE                                       
         1 -14.1313      2.7658     88.3939   1.3433712187e+02   5.6977413275e+01      3.12938    0.1588108 -64.14  0.008235563    7.287    0.863
         2 -14.8552      4.3380    137.5657   1.4093594897e+02   4.5949560465e+01     4.882721     1.432675 -79.65   0.01702975    4.149    0.759
         3 -13.3794    217.3552     10.6733   5.8857735393e+01   3.0057014013e+01    0.8877214    0.7563364  67.99  0.003059577    1.285    0.222
         4 -13.4477    201.5472     28.5925   6.4629505829e+01   3.1635268093e+01     1.381661     1.237522  47.30  0.007289798    1.351    0.260
         5  -8.7003    152.4879    212.9568   1.1699344389e+02   7.3959463288e+00    0.1876635    0.1411373 -52.39 0.0003309805    1.450    0.311
         6 -12.9925    237.8539    246.4148   1.0575125336e+02  -1.2598054556e+01     1.248079    0.5003685  28.09   0.00564348    2.620    0.618
         7 -12.8257     43.1517    212.9810   1.4016055130e+02   2.4942816144e+01     1.064655    0.6814798 -72.51  0.005002734    1.412    0.292
         8 -12.8612     27.4648    230.5732   1.4457317452e+02   2.3090572479e+01    0.2835115    0.2266094 -85.48 0.0007654864    1.237    0.191
         9 -14.0468     32.2812    224.3243   1.4322136529e+02   2.3825342340e+01    0.7993892    0.5718301  75.62  0.002596583    1.087    0.080
        10 -11.8542    234.1035    236.9609   1.0481594566e+02  -1.0746994999e+01    0.3257145    0.2310082 -36.41  0.001562638    1.537    0.349
        11 -12.9624    127.3430    232.8754   1.2533318963e+02   7.9840077657e+00     1.282489    0.5485852  39.48  0.005526311    2.137    0.532
        12 -12.2676    121.7784    248.1048   1.2843885359e+02   6.0625925946e+00    0.6537915    0.4800344  76.74   0.00386613    1.484    0.326
        13  -9.2350    228.2863    227.6609   1.0425681917e+02  -8.4949553255e+00    0.1112952    0.1037987 -89.90 0.0003820661    1.635    0.388
        14 -12.5964     32.3092    246.8237   1.4488180903e+02   1.9285330934e+01     1.135005    0.8788586 -46.87  0.007696974    2.155    0.536
        15 -12.4850     55.5002    210.9091   1.3747019764e+02   2.3817420293e+01     4.437613     1.390998  62.82   0.00714634   19.466    0.949
        16  -9.2193    156.6935    249.6532   1.2177968641e+02  -8.5004343690e-02     0.125549   0.09646922   7.15 0.0007042804    1.699    0.411
        17 -12.6506      9.7212    206.9102   1.4609328155e+02   2.9930172796e+01    0.6496341    0.4575212  36.56  0.002809807    1.736    0.424
        18 -10.1645     53.7710    203.5730   1.3704745257e+02   2.5678193729e+01    0.3125503    0.1852083  81.39  0.001627545    1.711    0.416
        19 -11.6767     55.8484    197.4447   1.3592285172e+02   2.6794485747e+01    0.2790734    0.2255591 -67.82 0.0004554888    1.256    0.204
        20  -9.5347    191.7907    192.9734   1.0496290745e+02   3.8520948844e+00    0.3964489     0.183285 -62.58 0.0009593468    7.261    0.862
        21 -11.4125      6.0751    191.6005   1.4564939874e+02   3.3590805466e+01      0.27687    0.2164221 -85.76 0.0005788406    1.109    0.098
        22 -11.2416      3.8837    183.8322   1.4547587364e+02   3.5496438584e+01    0.3631257    0.2028703  67.94  0.001051983    1.675    0.403
        23 -11.9585     62.6864    189.0256   1.3339898370e+02   2.7820840417e+01    0.2700007    0.2433555 -86.78 0.0004370631    1.127    0.113
        24 -10.7426     73.7911    176.3002   1.2906402877e+02   2.9257347334e+01    0.2401397    0.2104073 -77.89 0.0002991084    1.065    0.061
        25 -13.2524     60.1072    174.1555   1.3201701612e+02   3.1683940851e+01    0.5447815    0.2801368 -47.13   0.00208654    2.281    0.562
        26 -12.8239      9.7128    120.9877   1.3742143570e+02   4.9366333324e+01    0.5965212    0.5295614  82.10  0.003590317    1.234    0.190
        27  -9.3058     92.9346    170.1650   1.2342265209e+02   2.7743717260e+01    0.2328672     0.179096  75.11 0.0009320996    1.368    0.269
        28 -11.8869     81.5096    167.2526   1.2575908907e+02   3.0274171796e+01    0.7028379    0.5606166 -51.63  0.003822863    1.302    0.232
        29 -14.0597      9.4315    239.7122   1.4826713994e+02   2.3234073963e+01     2.013818     1.390063 -82.23   0.01479647    1.298    0.230
        30 -10.4919     94.9247    151.8419   1.1955979378e+02   3.1845873920e+01    0.3190762    0.2952386 -47.53 0.0007856839    1.146    0.127
        31 -11.8138     83.5429    150.6650   1.2231797953e+02   3.3989728866e+01    0.3177905     0.247775 -47.84 0.0005839642    1.304    0.233
        32  -8.8179    134.0000    147.9937   1.0872046622e+02   2.5397956564e+01    0.2617143   0.08794983 -49.59 0.0008032095    2.948    0.661
        33  -9.2741     98.2448    147.7635   1.1787789876e+02   3.2265385629e+01      0.21614    0.1946459 -87.60 0.0005713661    1.095    0.087
        34 -12.0936     67.6248    142.8108   1.2510841664e+02   3.8253100082e+01    0.6733109     0.449981  88.60  0.002666277    1.843    0.457
        35 -11.0343     64.6663    141.6827   1.2570319437e+02   3.8930640458e+01    0.3415094    0.2482136 -46.57 0.0008120849    1.381    0.276
        36  -9.8910    107.9529    136.8006   1.1296024526e+02   3.3157397480e+01    0.4245069    0.2815252 -20.09  0.001689121    2.445    0.591
        37 -10.6124     94.7679    134.1814   1.1595824991e+02   3.6137488057e+01    0.2516608    0.2269753 -39.59 0.0003259396    1.150    0.130
        38  -9.1721    105.7607    123.5060   1.1048148072e+02   3.6696869960e+01    0.2000334    0.1509466  39.80 0.0004682799    1.385    0.278
        39 -10.1079     74.6305    119.3550   1.1839520413e+02   4.2868820824e+01    0.2674754    0.2158205  72.80 0.0007163881    1.487    0.328
        40  -8.7515     61.8155    118.5558   1.2198946171e+02   4.4834145226e+01     0.180431    0.1264619  49.44 0.0008909532    1.647    0.393
        41  -9.1909     66.6012    113.2341   1.1940395568e+02   4.5433509274e+01    0.1993257    0.1829967  55.98 0.0004308161    1.220    0.180
        42  -9.3911     62.6342     78.9199   1.1197238593e+02   5.3421166709e+01    0.2922746     0.169327  51.36  0.001010785    2.504    0.601
        43 -10.1051    159.9211     77.5088   8.4426631186e+01   3.4457543075e+01     0.234807    0.1445807  54.70  0.001028225    1.576    0.366
        44  -8.8998     42.3940     67.2357   1.1567470875e+02   5.8174497467e+01    0.1913619    0.1454255  47.77 0.0009014113    1.792    0.442
        45 -10.4668     64.8132    248.3018   1.3926756351e+02   1.4786738792e+01    0.2723308    0.1740394  71.78 0.0008084522    1.359    0.264
        46 -11.2037     45.7625    247.5706   1.4261002448e+02   1.7475410195e+01    0.3566197    0.2156976 -82.38  0.002249832    1.503    0.335
        47 -10.7225    197.9899    246.2757   1.1319759915e+02  -6.4497125463e+00    0.1883426    0.1481738  30.39 0.0009096569    1.083    0.076
