#   1 NUMBER                 Running object number                                     
#   2 MAG_AUTO               Kron-like elliptical aperture magnitude                    [mag]
#   3 X_IMAGE                Object position along x                                    [pixel]
#   4 Y_IMAGE                Object position along y                                    [pixel]
#   5 X_WORLD                Barycenter position along world x axis                     [deg]
#   6 Y_WORLD                Barycenter position along world y axis                     [deg]
#   7 A_WORLD                Profile RMS along major axis (world units)                 [deg]
#   8 B_WORLD                Profile RMS along minor axis (world units)                 [deg]
#   9 THETA_WORLD            Position angle (CCW/world-x)                               [deg]
#  10 FWHM_WORLD             FWHM assuming a gaussian core                              [deg]
#  11 ELONGATION             A_IMAGE/B_IMAGE                                           
#  12 ELLIPTICITY            1 - B_IMAGE/A_IMAGE                                       
         1 -16.1215    222.1917    177.4430   7.8842601740e+01   2.1662345824e+00     14.92605     4.202519 -39.35   0.05132867    3.517    0.716
         2 -16.7752    232.8015     82.9208   5.5199070466e+01   1.5928573676e+01     2.698941     2.040886  38.11    0.0141277    1.561    0.360
         3 -16.7541    236.0852     30.7533   4.2101050411e+01   2.2699058924e+01     2.706928     1.374968 -32.13   0.01299998    1.896    0.473
         4 -17.9031    243.7353     64.9582   4.9397426301e+01   1.6294623283e+01     5.350317     2.134093 -49.06   0.02101225    2.520    0.603
         5 -16.5489    246.4295     42.1792   4.3744614964e+01   1.8911374271e+01     2.072295    0.7393468 -29.14  0.008003055    2.931    0.659
         6 -15.7713    140.8640     74.5179   7.0287104562e+01   3.9461680956e+01     10.13476     9.189445   9.69   0.05267174    1.160    0.138
         7 -15.4256    193.9481     44.5352   5.0779306360e+01   3.1024764045e+01     3.972653      2.23131  -4.34   0.01439138    3.358    0.702
         8 -16.1862    206.4198     63.2748   5.4053835917e+01   2.5179742001e+01     3.078487     1.624938 -23.85   0.01240418    2.240    0.554
         9 -15.7711    218.7897     67.6771   5.3375283680e+01   2.1536257485e+01     3.170057    0.5473352 -37.29  0.008711777    4.408    0.773
        10  -8.1650    163.7324     18.5984   4.7629489547e+01   4.1915322828e+01    0.3800578    0.1781445 -36.07  0.001275482    2.164    0.538
        11  -9.4009    174.4785     17.2070   4.5648757788e+01   3.9328750330e+01    0.2814166    0.1988257  -0.59  0.001419456    1.835    0.455
        12 -10.1642    177.8758     15.1768   4.4592741765e+01   3.8680339573e+01    0.3430426    0.1893378 -42.89  0.001237063    1.850    0.459
        13  -8.8475    167.3482     13.8145   4.5616253956e+01   4.1493443289e+01    0.4239414    0.2237281 -23.27  0.001937011    2.100    0.524
        14  -8.3780    184.9693      9.0473   4.1957716577e+01   3.7513218407e+01    0.2331583    0.2124352 -50.75  0.001037787    1.146    0.128
        15  -8.2648    171.9393      7.4785   4.3086917584e+01   4.0948781589e+01    0.3138664    0.1443368 -14.69  0.001290259    2.845    0.648
        16  -8.3554    179.1819      6.2937   4.1852986194e+01   3.9233843341e+01    0.1703196    0.1286779 -50.14 0.0006555688    1.355    0.262
        17 -10.0644    166.3208      5.1194   4.3100109459e+01   4.2585914600e+01    0.2882538    0.2229053 -10.23 0.0006819795    1.525    0.344
        18  -8.2759    185.2975      4.2110   4.0568287205e+01   3.7896337064e+01    0.1266723   0.08808456  52.87 0.0006713474    1.446    0.309
        19  -9.0308    210.6426      2.0657   3.7518236024e+01   3.1887989078e+01    0.1672038    0.1166604 -34.37 0.0004004601    1.478    0.324
        20  -8.9712    175.2667      1.3718   4.0891242329e+01   4.0666728622e+01    0.2121174    0.1130174  70.11 0.0005981078    1.652    0.395
        21  -8.3112    176.9548    130.0723   7.7346710407e+01   1.9993525469e+01    0.4513434    0.2278919 -57.93 0.0007295501    3.097    0.677
        22  -8.7113    164.5112    151.7570   8.5200366392e+01   1.8231458265e+01    0.3046011    0.2763623 -68.38 0.0009453934    1.231    0.187
        23  -9.2459    147.0156    130.5815   8.4393410880e+01   2.6449082511e+01    0.3580165    0.2861924  77.15 0.0004409992    1.561    0.359
        24  -9.7658    145.4470    125.6557   8.3567141858e+01   2.7863698324e+01    0.4080014     0.373899 -72.74 0.0008329008    1.170    0.145
        25  -8.5389    173.1550    132.4056   7.8753387423e+01   2.0360088552e+01    0.4618272    0.2932531  64.33   0.00185784    2.137    0.532
        26  -8.9666    192.4025    123.7807   7.2532418460e+01   1.7790448847e+01    0.2406783    0.2244666 -16.36 0.0002828024    1.044    0.042
        27  -9.5676    198.5719    129.1647   7.2618523668e+01   1.5402315808e+01    0.2654894    0.2237345  31.28    0.0010316    1.226    0.184
        28  -8.7997    195.5656    126.4332   7.2550492502e+01   1.6580572329e+01    0.2799384    0.2220819 -61.74 0.0006976007    1.501    0.334
        29  -9.2521    135.3567    151.2315   9.1934008683e+01   2.4280827550e+01    0.4729131    0.3710551 -29.28  0.002287996    1.469    0.319
        30  -7.7370    143.9040    209.2738   1.0045777243e+02   1.0794123101e+01    0.1889024    0.1535813  42.73 0.0006905303    1.083    0.077
        31  -9.9535    186.0901    202.1326   9.0623043546e+01   4.5890345164e+00      0.25592    0.1726552  41.61  0.001362347    1.376    0.273
        32  -8.9374    152.3053    125.0163   8.1738815229e+01   2.6509016041e+01     0.272974     0.225627  31.17 0.0004013239    1.278    0.217
        33  -8.3248    174.7313    120.8851   7.5532202511e+01   2.2346728317e+01    0.5177202    0.2422584 -52.67  0.001757199    2.693    0.629
        34  -8.3037    172.0852    195.4319   9.2280866966e+01   8.2736805507e+00    0.2758778    0.1658089  -6.32   0.00103387    3.422    0.708
        35  -7.8627      2.0000    194.9671   1.2805256620e+02   3.2887249975e+01    0.1842949   0.04958246 -78.72 0.0008134268    3.019    0.669
        36 -11.4548    133.6651    140.8488   9.0090979612e+01   2.6941644399e+01      0.80085    0.7141608 -47.10  0.004197127    1.121    0.108
        37  -7.6730    170.2320    120.0749   7.6321178426e+01   2.3532917755e+01    0.2195234    0.1840026 -39.56 0.0006689054    1.171    0.146
        38  -8.9549      3.4328    112.4902   1.2112738965e+02   5.1214320080e+01    0.2426408    0.1620225 -53.30 0.0006632024    1.387    0.279
        39  -9.3534    158.5706    108.4420   7.5925389698e+01   2.8595044794e+01    0.6204379    0.3853534  66.51   0.00239648    2.219    0.549
        40 -14.0951    241.2816    138.7523   6.7097019383e+01   4.9671769588e+00     2.168958     1.294353  62.83  0.009616972    2.594    0.615
        41  -7.8248    182.3261    187.2942   8.8654578096e+01   7.8342187102e+00    0.1427641    0.1042911   7.92 0.0004127097    1.623    0.384
        42  -9.4229    146.8279    146.1684   8.8066771494e+01   2.3082716603e+01    0.2681753    0.2146662  57.35  0.001309423    1.326    0.246
        43  -8.5676     11.3997    106.1079   1.1800688553e+02   5.2215771232e+01    0.2292251    0.1270084  65.72 0.0009322925    2.284    0.562
        44  -9.3041    172.7328    102.3011   7.1060469262e+01   2.6513429763e+01    0.2416289    0.2161242 -55.95 0.0002208812    1.158    0.136
        45 -10.1998    175.9009     99.6231   6.9648712880e+01   2.6280755583e+01    0.2838946    0.2718489 -19.15  0.000373391    1.043    0.041
        46  -8.3655     34.2346    185.3244   1.2095218154e+02   3.1860773854e+01    0.2188006    0.1352566 -77.47 0.0003135502    1.394    0.283
        47  -9.5852    171.5545    182.3199   8.9961133904e+01   1.0778192398e+01    0.2402243    0.1778127  47.36 0.0008682315    1.338    0.253
        48  -9.8684      4.7077     97.6592   1.1887065916e+02   5.4584007531e+01    0.3640475    0.1587875 -70.97  0.001104572    1.769    0.435
        49  -8.3847     15.0611     98.4883   1.1576325589e+02   5.3758862170e+01    0.1498986    0.1256575  13.72 0.0005131633    1.514    0.339
        50  -8.4994     68.7624     96.7249   9.8023503299e+01   4.8680547181e+01    0.2346954    0.1947536 -29.50 0.0006356724    1.248    0.199
        51  -8.3958     44.3353     95.4358   1.0571207735e+02   5.1977784684e+01    0.2161203    0.1972074 -54.43 0.0004108226    1.077    0.071
        52  -9.9473    142.2981    145.4655   8.8999903908e+01   2.4164526608e+01    0.4266575     0.272809 -41.47  0.001743487    1.615    0.381
        53  -8.2789     64.0696     88.2045   9.7389390292e+01   5.1294271653e+01    0.2531084    0.1847243 -51.83 0.0006340054    1.216    0.178
        54  -8.2546     49.0198     88.9175   1.0266208870e+02   5.2990773936e+01    0.2096528    0.1744324 -46.55 0.0005770691    1.054    0.052
        55  -7.5926     23.4441     84.0022   1.1039909529e+02   5.6523348458e+01    0.1843466    0.1009016 -60.97 7.175416e-05    1.450    0.310
        56  -8.4161     84.9831    173.0227   1.0809770283e+02   2.8122943297e+01    0.1995612    0.1839147 -89.79 0.0003268527    1.072    0.067
        57  -8.4792    104.3509    145.9643   9.8652889130e+01   3.1283360301e+01    0.2469241    0.2173548  34.61 0.0004004356    1.222    0.182
        58  -8.6735    171.9046    161.2643   8.5623872320e+01   1.4785712670e+01    0.3628764    0.2535364 -32.21  0.001718953    1.528    0.345
        59  -8.2805    180.0000    156.9820   8.2942543555e+01   1.3976671195e+01    0.3879727    0.1965016 -40.95   0.00157465    1.997    0.499
        60  -9.3176    178.7520    151.3904   8.1970549284e+01   1.5334798752e+01    0.4625788    0.4338959  69.35   0.00219761    1.202    0.168
        61  -7.9095     17.6799     56.9903   1.0633569298e+02   6.2909396545e+01    0.1753294    0.1257756 -54.52 0.0006571224    1.151    0.131
        62  -8.5739     47.1507    158.5896   1.1524019232e+02   3.6518987473e+01    0.2577915    0.1734848  76.63 0.0009955006    1.472    0.321
        63  -7.0718     25.6783     50.2804   1.0107672872e+02   6.3689630002e+01     0.107189   0.09539697  82.16 0.0003020639    1.586    0.370
        64  -9.0296    168.9009     43.9677   5.4677621470e+01   3.7462218866e+01    0.2747165    0.2214493  20.38 0.0005822548    1.463    0.317
        65 -15.9201    242.9880     91.8346   5.5907937039e+01   1.2308424708e+01     1.537529     1.000509 -23.73  0.007546991    1.603    0.376
        66 -10.0851    165.3138     38.5605   5.3632401610e+01   3.9115283305e+01    0.3502424    0.2473497  59.28  0.001725257    1.345    0.257
        67  -8.1593    167.4254    157.2409   8.5748203043e+01   1.6507317909e+01    0.2114172    0.1434804 -55.06 0.0009512037    1.678    0.404
        68  -7.6664     64.4161     38.2204   8.0705141199e+01   6.1291158992e+01    0.1691985    0.1175651 -41.71 0.0002424804    1.478    0.323
        69  -9.0005    171.9497     34.1532   5.1146931571e+01   3.7994734879e+01     0.313149    0.2286777  29.34  0.001062346    1.638    0.390
        70  -7.7509    167.0313     34.0863   5.1939315501e+01   3.9259670221e+01    0.2570936    0.1618036  53.72   0.00068143    1.507    0.336
        71 -10.2995    178.0665     31.1912   4.9297371627e+01   3.6804754112e+01    0.4153512    0.3223622  13.92  0.001451931    1.627    0.385
        72  -9.5596    177.2943     25.7522   4.7794918122e+01   3.7656637152e+01    0.4148872    0.2653278  46.78   0.00201103    1.622    0.384
        73  -9.5450    170.2645     29.4965   4.9992409601e+01   3.9004397046e+01     0.239792    0.2174272 -45.54 0.0004309028    1.140    0.123
        74  -8.4242    162.5504     26.1703   5.0201055114e+01   4.1369595062e+01    0.2488084    0.2434073 -71.36  0.001163873    1.066    0.062
        75 -10.6871    167.3545     23.0324   4.8455311052e+01   4.0504879481e+01    0.2913929    0.2731726 -21.58 0.0006061476    1.163    0.140
        76  -9.9410     56.1054    143.2510   1.1087524701e+02   3.9119285354e+01     0.330873    0.1541815 -52.70   0.00147397    2.048    0.512
        77  -8.9891    181.6257     19.1281   4.5250588919e+01   3.7306480766e+01    0.2178698    0.1965428 -43.45  0.001054855    1.159    0.137
        78  -9.1047    151.0909    142.3710   8.6192912562e+01   2.3020987103e+01    0.3674483    0.2201271 -42.48 0.0004283045    1.689    0.408
        79  -9.8676     68.3991    150.1139   1.0872838449e+02   3.5881289872e+01    0.4744308    0.2458438 -67.31 0.0007011438    1.819    0.450
        80  -9.4503    158.9403    140.4145   8.3896304613e+01   2.1779304537e+01    0.4472226    0.2709506 -38.17  0.001388314    1.708    0.414
        81  -7.4604    184.6219     15.4821   4.3819624793e+01   3.6941844900e+01    0.1327095    0.1240109  86.66 0.0001459571    1.042    0.040
        82  -7.6154    181.6196     12.4813   4.3334504236e+01   3.8011586063e+01    0.1341912    0.1203408  52.14 0.0002483895    1.168    0.144
        83  -8.2186    205.2943    148.6096   7.5862387848e+01   1.0364425192e+01    0.1894792    0.1688177  49.85 0.0003867814    1.241    0.194
        84 -10.4362     64.4741    144.8703   1.0892304638e+02   3.7667098601e+01    0.4263854    0.2914534 -31.77   0.00211133    2.032    0.508
        85  -7.2189     56.0098    217.0109   1.1929767324e+02   2.2672478010e+01    0.1362521     0.105995  65.70            0    1.046    0.044
        86 -10.4638     45.6227    142.0800   1.1345922513e+02   4.0619503232e+01     0.496829    0.2343802 -70.94  0.002291834    1.898    0.473
        87 -10.0154    140.6217    133.6969   8.6712184754e+01   2.7115294679e+01     0.448974    0.2776783  46.00  0.001158802    1.632    0.387
        88  -8.2403    154.0083    146.7028   8.6487607153e+01   2.1480631386e+01    0.2093387    0.1959315  38.95 0.0006330978    1.058    0.054
        89  -8.7632    144.3369    155.5172   9.0683870955e+01   2.1557435024e+01    0.3509475    0.2575512 -47.19  0.001165326    1.390    0.280
