#   1 NUMBER                 Running object number                                     
#   2 MAG_AUTO               Kron-like elliptical aperture magnitude                    [mag]
#   3 X_IMAGE                Object position along x                                    [pixel]
#   4 Y_IMAGE                Object position along y                                    [pixel]
#   5 X_WORLD                Barycenter position along world x axis                     [deg]
#   6 Y_WORLD                Barycenter position along world y axis                     [deg]
#   7 A_WORLD                Profile RMS along major axis (world units)                 [deg]
#   8 B_WORLD                Profile RMS along minor axis (world units)                 [deg]
#   9 THETA_WORLD            Position angle (CCW/world-x)                               [deg]
#  10 FWHM_WORLD             FWHM assuming a gaussian core                              [deg]
#  11 ELONGATION             A_IMAGE/B_IMAGE                                           
#  12 ELLIPTICITY            1 - B_IMAGE/A_IMAGE                                       
         1 -17.7520    219.6088    109.4383   9.2412954493e+01   1.5906121640e+01     5.034052     3.189107 -41.36     0.020488    1.704    0.413
         2 -16.5738    144.4780     93.4227   1.0317576834e+02   3.4843685311e+01     4.712181     3.447039  -5.99   0.02150797    1.827    0.453
         3 -16.6186    156.2282     69.4109   9.3507581365e+01   3.6414152110e+01     3.977105     1.673078 -41.81   0.01436391    2.416    0.586
         4 -16.0183    136.4482     77.8112   1.0068286137e+02   3.9578868006e+01     2.638029     1.753481 -83.21  0.009453178    2.830    0.647
         5 -16.1473    145.1822     72.5749   9.6974466408e+01   3.8508854781e+01     3.819806     1.744917 -52.52   0.01271956    3.102    0.678
         6 -13.0207    173.0009     24.7437   7.5852835690e+01   3.8507822191e+01    0.5840479    0.3440047  -4.06  0.001422321    2.160    0.537
         7 -16.1614    107.1753     11.1165   8.3124228753e+01   5.7223164813e+01     2.854122     1.499214  62.09   0.01066273    1.937    0.484
         8 -10.2980     18.4235    236.7588   1.5044910710e+02   2.5919726018e+01      0.10076   0.07864782  88.55 0.0004927574    1.420    0.296
         9 -14.1727    248.0203    244.0714   1.1232697860e+02  -3.5236534835e+00     0.748752    0.3510088 -19.76  0.005059832    2.304    0.566
        10 -16.1956    223.2796    215.8471   1.1213132983e+02   2.2141510950e+00     2.900477     1.453601  31.36     0.017781    1.558    0.358
        11 -15.7132    149.2282    239.9946   1.2779564984e+02   9.9282992967e+00     1.016616    0.7937959  52.71  0.006326027    1.367    0.268
        12 -17.1002    162.2728    223.5580   1.2361240976e+02   1.0121773351e+01     2.267699     1.456095 -47.31   0.01515366    2.087    0.521
        13 -17.4346    184.7679    229.4652   1.2043019244e+02   6.2005749413e+00     2.562562     1.570906 -37.05   0.01743355    2.088    0.521
        14 -11.0272    100.2264    250.8905   1.3725743801e+02   1.4947024273e+01    0.2549794   0.05142745  35.74  0.001008547    4.099    0.756
        15 -14.6388     95.1130    167.0878   1.2996927960e+02   2.9211794365e+01     1.378913    0.8953596  89.51  0.007408042    1.968    0.492
        16 -16.3313     88.9525    141.7074   1.2783571577e+02   3.5267333556e+01     1.834952     1.563296  -3.95  0.006774931    1.566    0.362
        17 -19.4525     54.6702    146.2327   1.3719898886e+02   3.8882097782e+01     18.23761     1.229529 -67.35   0.04045256   10.529    0.905
        18 -11.8565     33.5508    223.1971   1.4730809289e+02   2.6607845099e+01    0.2277229    0.1436073  36.11  0.001692521    1.475    0.322
        19  99.0000    133.6402    218.8033   1.2828556145e+02   1.4892553361e+01    0.4092026    0.3739669  85.65  0.003204923    1.373    0.272
        20 -12.3558    114.0522    213.1515   1.3138743830e+02   1.8503349447e+01    0.5050249    0.3196942  21.10  0.002617361    1.980    0.495
        21 -12.6883    112.4103    207.0681   1.3105789104e+02   1.9680910484e+01    0.5156737    0.4152284  -8.55   0.00303235    1.809    0.447
        22 -14.1185    137.0337    201.3785   1.2554296266e+02   1.6944122725e+01    0.6299767    0.4598657  80.05  0.003803116    2.013    0.503
        23 -15.4781    142.1099    195.3116   1.2374167563e+02   1.7087333352e+01     1.887831    0.6409233  39.63  0.008279018    2.404    0.584
        24 -14.8440    127.1745    207.6372   1.2823461216e+02   1.7465088816e+01     1.020858     0.804662 -21.14  0.005730252    1.759    0.431
        25 -14.3955    123.9301    200.3974   1.2801037506e+02   1.9065204974e+01    0.6199059    0.4044977  44.34  0.002539723    1.249    0.199
        26 -16.9027     79.2976    227.0332   1.3919138566e+02   2.0920000585e+01     1.569357      1.09345 -61.22  0.008656687    1.835    0.455
        27 -11.2258    141.5091    218.3177   1.2676436299e+02   1.3825939330e+01    0.1670643    0.1626825 -51.89  0.001051464    1.335    0.251
        28  -9.8870     31.5801    217.4285   1.4740429111e+02   2.7748411119e+01    0.1019521   0.07392844  58.35 0.0001429243    1.014    0.014
        29 -12.2803     18.9064    249.7966   1.5076849767e+02   2.3934795371e+01    0.2117931   0.09017016  51.83  0.001006849    1.518    0.341
        30 -10.8813     29.9703    207.9259   1.4726144364e+02   2.9514186944e+01    0.1327806    0.1216213  -3.25 0.0009611229    1.707    0.414
        31 -11.8776     11.2755    206.0352   1.5069299668e+02   3.1564318754e+01    0.2590735    0.1734696  37.42  0.001389595    1.441    0.306
        32 -11.1803      1.5090    249.8119   1.5351433528e+02   2.5467484408e+01    0.1080858   0.07046068  79.93 0.0008840226    1.406    0.289
        33 -12.5796     89.8067    185.6837   1.3337125874e+02   2.6481381847e+01     0.330704    0.3026338  -5.55  0.001395589    1.461    0.316
        34 -14.2404     81.7768    176.6781   1.3413804060e+02   2.9248978598e+01    0.8277997    0.4885877 -49.91  0.003872007    2.100    0.524
        35 -12.6276    130.2311    232.5199   1.3037559493e+02   1.3484315341e+01    0.4207353    0.3542481  35.94  0.002555152    1.143    0.125
        36 -12.1966    185.4245    168.3249   1.1097241826e+02   1.3927478209e+01    0.5702221    0.3221202 -20.67  0.002781065    2.298    0.565
        37 -10.8084    103.8457    162.8226   1.2737484283e+02   2.8720448687e+01    0.1770331    0.1638489  31.23 0.0004250441    1.172    0.147
        38 -14.8755    179.6004    104.0163   9.8285676498e+01   2.5188244125e+01     1.962642    0.9451288 -36.89   0.00766325    2.073    0.518
        39 -15.1914    186.0335     80.0945   9.0693297926e+01   2.7560461640e+01     1.906255    0.9470538 -34.63  0.007116025    1.940    0.485
        40 -11.1461     11.8497    248.3229   1.5185357944e+02   2.4787241558e+01    0.1144953   0.08244009  57.46 0.0004441719    1.117    0.105
        41 -14.1716    158.1597    141.8893   1.1143792044e+02   2.3124990921e+01     1.103988    0.7385755  57.08  0.005006874    1.719    0.418
        42 -15.3161    204.9375    132.2389   1.0012312719e+02   1.5574779336e+01     1.848079      1.21567  11.05  0.009210088    1.795    0.443
        43 -10.3254     29.4071    229.3466   1.4830444165e+02   2.6033009215e+01   0.09811137   0.06731293  54.54 9.484035e-05    1.032    0.031
        44 -12.7715    105.6559    139.9140   1.2332363748e+02   3.3002311736e+01    0.4425631    0.3222246 -27.04  0.001166925    1.900    0.474
        45 -12.0253     32.4595    134.3510   1.4175020952e+02   4.3835526279e+01    0.1972362    0.1761955  51.23 0.0006044305    1.197    0.164
        46 -10.1574     96.6333    227.1895   1.3600699206e+02   1.8722477184e+01    0.1053876    0.1000608  78.38 0.0002360068    1.313    0.238
        47  -8.2158     97.5830    247.4318   1.3745256258e+02   1.5733921537e+01    0.1031901   0.07393765  45.54 0.0001026225    1.011    0.011
        48 -12.7242     19.0012    243.7457   1.5057160288e+02   2.4813334070e+01    0.2585331     0.186083  33.30  0.001898787    1.541    0.351
        49 -11.4297     89.2285    243.7775   1.3863381615e+02   1.7259044049e+01    0.1490525   0.09924296  52.77 0.0007986908    1.177    0.150
        50 -10.8398    103.5480    236.5223   1.3553850559e+02   1.6483028867e+01    0.1154832   0.08956653  66.63 3.226846e-05    1.337    0.252
        51 -11.8085    111.2581     38.9235   9.3996976050e+01   5.2322970680e+01    0.4750403    0.2438257  32.80  0.001754552    2.600    0.615
        52 -13.4106    169.2701     31.7206   7.8766266164e+01   3.8653430737e+01    0.5817468      0.50967 -43.17  0.002286647    1.149    0.130
        53 -10.5245    103.3821    232.2000   1.3520068103e+02   1.7117437407e+01     0.601447    0.2654558  30.83  0.003254858    2.260    0.557
