#   1 NUMBER                 Running object number                                     
#   2 MAG_AUTO               Kron-like elliptical aperture magnitude                    [mag]
#   3 X_IMAGE                Object position along x                                    [pixel]
#   4 Y_IMAGE                Object position along y                                    [pixel]
#   5 X_WORLD                Barycenter position along world x axis                     [deg]
#   6 Y_WORLD                Barycenter position along world y axis                     [deg]
#   7 A_WORLD                Profile RMS along major axis (world units)                 [deg]
#   8 B_WORLD                Profile RMS along minor axis (world units)                 [deg]
#   9 THETA_WORLD            Position angle (CCW/world-x)                               [deg]
#  10 FWHM_WORLD             FWHM assuming a gaussian core                              [deg]
#  11 ELONGATION             A_IMAGE/B_IMAGE                                           
#  12 ELLIPTICITY            1 - B_IMAGE/A_IMAGE                                       
         1  -9.8876     64.3323     55.6642   1.0651042732e+02   5.7918075928e+01    0.1186294      0.10661  87.26 0.0003585157    1.736    0.424
         2 -10.6958     83.4203    215.2787   1.3394202430e+02   1.9334329875e+01    0.3688287    0.1587629  64.56  0.001338716    3.428    0.708
         3  -9.9424     69.5360    207.4935   1.3597945205e+02   2.3095231264e+01    0.1323566    0.1096288  76.60 -5.851197e-05    1.003    0.003
         4  -9.5456     64.6653    191.3462   1.3512964482e+02   2.7416873689e+01    0.1456886   0.08767472  71.54 0.0007049073    1.770    0.435
         5  -9.9661    126.9996    178.0000   1.1830992299e+02   2.0119226933e+01    0.2590005   0.08272751  40.81 0.0008115338    3.006    0.667
         6  -9.7480     69.3282    166.3225   1.3060032055e+02   3.2654783740e+01    0.1361464    0.1045827 -34.49 0.0004582926    1.692    0.409
         7 -10.2915     63.5179    166.4869   1.3206890888e+02   3.3414790243e+01     0.137833    0.1192433 -88.74 0.0001144972    1.020    0.020
         8 -11.0609    121.1197    151.8881   1.1461274252e+02   2.7369590646e+01    0.2498618    0.2116373  77.51  0.001208168    1.270    0.213
         9 -11.4825     97.0295    149.9397   1.2056331497e+02   3.2288079050e+01    0.3561181    0.2387197  86.14  0.001529643    2.044    0.511
        10 -11.0891     51.6185    149.0131   1.3249253639e+02   3.9114051505e+01    0.3270369    0.1137566 -64.22  0.001270193    2.517    0.603
        11 -12.3508    146.8753    146.0309   1.0675780307e+02   2.3384029717e+01    0.4246814    0.3765247   9.69  0.002099242    1.302    0.232
        12 -13.4045     96.4981    136.7360   1.1799865757e+02   3.5560096119e+01    0.7625173    0.5834489 -18.96  0.003633486    1.737    0.424
        13 -12.9694    109.6521    133.3152   1.1360155460e+02   3.3990716814e+01    0.6313657    0.4459966 -21.34  0.002724003    1.991    0.498
        14  -9.9526     56.6581    135.6706   1.2894368697e+02   4.1709326201e+01    0.1413663   0.09682543 -34.49 0.0007051312    1.744    0.427
        15 -12.5937    132.5202    129.2384   1.0646504697e+02   3.0323640535e+01    0.8595183    0.2379727 -47.72  0.002415123    3.632    0.725
        16 -12.4520    190.1942    133.0050   9.3604038329e+01   1.6403122140e+01     0.505459    0.3849802 -27.37   0.00234265    1.456    0.313
        17 -12.6788    119.7285    135.8203   1.1143377556e+02   3.1440294181e+01    0.5495984    0.3850068 -38.06  0.002467816    1.557    0.358
        18 -10.7220     56.1683    129.3308   1.2794329716e+02   4.3283498685e+01    0.2486124    0.1337664  18.87   0.00109072    2.580    0.612
        19 -12.1006     99.0014    123.2622   1.1426803935e+02   3.8316755625e+01    0.4947478     0.208174 -58.50  0.001708725    2.714    0.632
        20 -12.2471     87.0487    119.7014   1.1691410055e+02   4.1189853975e+01    0.4787314    0.2507244 -58.10  0.001993259    1.925    0.481
        21 -11.3481    158.3358    118.8176   9.7316454918e+01   2.6837498667e+01     0.406143    0.1898799 -54.23  0.001355897    2.634    0.620
        22 -12.0105    142.2463    118.9503   1.0135724943e+02   3.0502553257e+01    0.3680051    0.3397382 -30.60   0.00186747    1.132    0.117
        23 -11.7667    200.0742    115.7409   8.7382941192e+01   1.7575670326e+01    0.4822697    0.2211145 -37.36  0.001764617    2.250    0.556
        24 -11.0104    184.9978    117.0235   9.0799140056e+01   2.0890189382e+01    0.2591632    0.2018608   9.35  0.001147488    1.746    0.427
        25 -12.1812    102.7640    111.6610   1.1033774824e+02   4.0304579439e+01    0.4140044     0.269442  34.34  0.001871801    1.627    0.385
        26 -11.5585    116.5030    108.5950   1.0559148593e+02   3.8318462712e+01    0.4466888    0.1508031 -50.24  0.001381862    3.155    0.683
        27 -12.5501    105.0772    105.9433   1.0817772421e+02   4.1148794782e+01    0.8099647    0.3876915  59.91  0.002398324    4.319    0.768
        28 -10.5673    186.4079    106.2028   8.7768345051e+01   2.2710451568e+01    0.2348779    0.1427353 -51.27 0.0009468339    1.739    0.425
        29 -12.8284    118.2679     95.9244   1.0163175556e+02   4.0671203805e+01    0.5240256    0.4259804  65.96  0.002577271    1.441    0.306
        30 -12.9968    148.5090     96.9205   9.3891242232e+01   3.3706568379e+01    0.6799957    0.4791461  76.62  0.002854585    1.928    0.481
        31 -10.3574    183.4900     89.4960   8.4039703575e+01   2.6608504056e+01     0.154234    0.1477154  81.77 0.0008105919    1.006    0.006
        32 -11.5968    100.8174     85.9196   1.0387902046e+02   4.6192208577e+01    0.3807764    0.2556667  -7.64  0.001633336    2.167    0.538
        33 -11.0269     69.2878     99.4299   1.1750858672e+02   4.8504300946e+01    0.3003798    0.1884288  68.04  0.001230006    2.965    0.663
        34 -12.2312     82.7641     99.6657   1.1329682660e+02   4.6436246943e+01    0.5239589    0.2703926 -65.01  0.001949811    2.894    0.654
        35 -11.8514     53.6153     89.6027   1.2020398721e+02   5.2661272294e+01    0.2975575     0.214218   4.21  0.001644944    1.625    0.385
        36 -11.2349    102.7746     96.4400   1.0628674031e+02   4.3644677288e+01    0.2980223     0.217537  65.12   0.00113226    1.819    0.450
        37 -11.6104    179.6050     76.4736   8.1353305571e+01   2.9902737514e+01    0.3943124    0.2466201  70.68   0.00167488    1.797    0.444
        38 -12.8365     60.9832     70.8244   1.1251062757e+02   5.5593631274e+01    0.5466897    0.3591506   7.02  0.002845104    1.801    0.445
        39 -11.2252    100.3343     71.2355   9.9568721169e+01   4.9107074939e+01    0.2620308    0.2135514  39.69  0.001413741    1.223    0.182
        40 -12.3266    210.4529     62.1645   7.2348038187e+01   2.4595146935e+01    0.5485998    0.3684765 -70.76  0.002633371    1.649    0.394
        41  -9.5759     24.6827     66.3263   1.2458035793e+02   6.0262037844e+01    0.1074932   0.09247728  82.00 0.0007045253    1.675    0.403
        42 -11.0723     20.8935     55.3337   1.2309462454e+02   6.2660242745e+01    0.2709567    0.1431074 -60.48  0.001467936    2.039    0.510
