#   1 NUMBER                 Running object number                                     
#   2 MAG_AUTO               Kron-like elliptical aperture magnitude                    [mag]
#   3 X_IMAGE                Object position along x                                    [pixel]
#   4 Y_IMAGE                Object position along y                                    [pixel]
#   5 X_WORLD                Barycenter position along world x axis                     [deg]
#   6 Y_WORLD                Barycenter position along world y axis                     [deg]
#   7 A_WORLD                Profile RMS along major axis (world units)                 [deg]
#   8 B_WORLD                Profile RMS along minor axis (world units)                 [deg]
#   9 THETA_WORLD            Position angle (CCW/world-x)                               [deg]
#  10 FWHM_WORLD             FWHM assuming a gaussian core                              [deg]
#  11 ELONGATION             A_IMAGE/B_IMAGE                                           
#  12 ELLIPTICITY            1 - B_IMAGE/A_IMAGE                                       
         1 -12.5852     50.5735     75.7828   7.9697308557e+01   5.6928848823e+01    0.5445693    0.5249434  18.75  0.001494781    1.097    0.088
         2 -13.9197    195.4097     48.0653   3.3884118068e+01   3.0739304680e+01     1.213075     0.994232  33.02   0.00388913    1.648    0.393
         3 -13.9566    223.0577     19.6726   2.4414717188e+01   2.8322269324e+01      0.93841    0.8489305  83.50  0.004473305    1.281    0.219
         4 -13.0131    230.6491      6.3078   2.1010243888e+01   2.8242383583e+01      1.68603    0.6062596  86.80  0.007599588    3.037    0.671
         5 -12.1026     50.2242      9.0454   5.2789722466e+01   6.8976080119e+01    0.4536043    0.2257628  22.10  0.001935597    2.964    0.663
         6 -12.0716     40.9975      8.2314   5.6579114274e+01   7.0682935793e+01    0.4731626    0.2561777  -4.76  0.002148086    2.868    0.651
         7 -12.5820     65.6951      2.4882   4.3492621693e+01   6.6650100003e+01     1.248121     0.138618  55.75  0.003524739    5.706    0.825
         8 -19.5352     16.2004    147.2597   1.0450733071e+02   4.2492275129e+01     19.27233     5.840607 -80.00   0.06833685    3.255    0.693
         9 -11.5272    241.8582    249.1081   6.7177273132e+01  -8.2907215055e+00    0.3079154    0.1816354 -10.74  0.002084574    1.513    0.339
        10 -11.8112    247.7364    247.8289   6.6052226709e+01  -8.7552871148e+00     0.321969    0.2645421  -3.48  0.002644606    1.309    0.236
        11  -9.2553     77.0410    221.0400   9.6143138942e+01   1.8134738864e+01     0.198303    0.1268945  60.05 0.0005194627    1.532    0.347
        12  -8.3170     33.0080    190.4954   1.0375514243e+02   3.0277531811e+01    0.2530577    0.1794058  42.42 0.0009300424    1.316    0.240
        13 -12.3265     99.2477    181.9015   8.5922581698e+01   2.3491120339e+01    0.8061669    0.3862236 -61.25  0.001742658    2.220    0.549
        14 -12.7023     40.1398    208.9055   1.0350937583e+02   2.5302268808e+01    0.4735639    0.2663884  70.61  0.002482168    1.753    0.429
        15 -11.6163     39.1033    183.5672   1.0162511286e+02   3.1257560395e+01    0.4316815     0.320135 -24.58  0.002338586    1.974    0.493
        16 -10.3168     56.2460    210.6711   9.9923597979e+01   2.3014734496e+01    0.1989505    0.1438037  78.44   0.00115952    1.341    0.254
        17  -9.3574     93.5491    184.4437   8.7743129535e+01   2.3791425872e+01    0.3900026    0.1686016  32.74  0.001549468    2.272    0.560
        18 -11.6866    180.7000    176.2482   6.6073528542e+01   1.0897055993e+01    0.6023749    0.3808943 -46.27  0.002086198    1.618    0.382
        19  -9.7355    155.1561    179.1428   7.2050415418e+01   1.4703713495e+01    0.2998119     0.192409  63.95  0.001291707    2.427    0.588
        20 -10.5199     53.9570    205.3851   9.9980698544e+01   2.4463358603e+01    0.2473406    0.1483091  63.02  0.001040482    1.616    0.381
        21  -9.7866     72.6635    203.2807   9.5300169628e+01   2.2526308537e+01    0.2686057    0.1527377  86.93  0.001230809    2.241    0.554
        22 -11.7647    230.6740    167.9028   5.5355309777e+01   4.3541480292e+00    0.4542367    0.1947913 -41.63  0.002119118    2.124    0.529
        23  -9.5523    199.8594    173.4930   6.1807669459e+01   8.2208418535e+00    0.2373564     0.175308 -52.30 0.0009490955    1.574    0.365
        24 -10.9887    247.4003    164.1633   5.2051921375e+01   2.5197194073e+00    0.2394149    0.1518931 -44.44 0.0009592658    1.574    0.365
        25  -9.7372     97.3741    162.8375   8.3337091674e+01   2.8279959534e+01     0.203658    0.1850324 -60.10  0.001115543    1.125    0.111
        26 -11.1833     87.4367    152.6541   8.4308632455e+01   3.2380821554e+01    0.3012075    0.2743217 -57.07 0.0005115491    1.124    0.110
        27 -12.0605     93.4558    146.9049   8.1549202604e+01   3.2817402515e+01    0.6681213     0.557761 -22.36  0.001990711    1.459    0.315
        28 -10.9601    133.8643    145.8735   7.0505653852e+01   2.5719589976e+01     1.235341    0.3166936 -55.61  0.002815757    6.347    0.842
        29  -9.6893    111.9699    150.0570   7.7044018036e+01   2.8830035873e+01    0.2294796    0.2132984  65.46 0.0004106619    1.074    0.069
        30 -10.6966    115.8379    133.2333   7.2458839379e+01   3.2103378965e+01    0.6365529    0.3880502  84.32  0.002010905    3.545    0.718
        31 -11.7530    106.0816    132.9708   7.5114447444e+01   3.4001159835e+01    0.7308787    0.4094563 -58.26  0.001685552    1.844    0.458
        32  -9.7972    101.0401    129.0327   7.5695903288e+01   3.5880706992e+01     0.317255    0.2187226  58.26  0.001413983    1.636    0.389
        33 -11.6666     93.8831    133.5588   7.8767588609e+01   3.6044871788e+01    0.2967809    0.2672387 -59.69 0.0003927353    1.093    0.085
        34 -10.9627    134.1292    128.1695   6.6485231067e+01   2.9655273042e+01    0.5311795    0.4808639 -80.43  0.002496916    1.176    0.149
        35 -10.1447    113.6381    127.2300   7.1703987868e+01   3.3944247483e+01    0.2901866    0.2627361 -22.23  0.000819692    1.227    0.185
        36 -10.4424    101.3234    122.3114   7.4088861234e+01   3.7457533770e+01    0.2835382    0.2536588 -13.90 0.0006792125    1.289    0.224
        37  -9.3291     95.9138    125.1551   7.6343571284e+01   3.7754820415e+01    0.2284886    0.2034125  75.99 0.0004355706    1.176    0.150
        38  -9.2885    135.0000    119.9704   6.4302231472e+01   3.1303455037e+01    0.2598631   0.08641603 -46.84 0.0008049579    2.960    0.662
        39  -9.1731    109.3373    116.8863   7.0462396972e+01   3.7219950745e+01    0.2099626    0.1905963 -51.33 0.0003425986    1.090    0.082
        40 -11.6533     68.7560    115.9108   8.2899903106e+01   4.4568334973e+01    0.3852564    0.3214577  -5.23  0.001981648    1.459    0.315
        41  -8.9704    183.2728    116.5413   5.2826572765e+01   2.1860171216e+01    0.1944806      0.13822  35.57 0.0007523053    1.627    0.385
        42 -10.0070    205.3747    110.4372   4.7511440379e+01   1.8509928854e+01    0.2678631    0.2378087  21.86 0.0007459616    1.320    0.242
        43 -11.4223    116.5943    109.5459   6.6562673696e+01   3.7461074980e+01    0.4401603    0.3733883  84.67  0.002156451    1.342    0.255
        44 -10.7040     74.5270    111.1060   7.9899235571e+01   4.4874705144e+01    0.2871157    0.2122716  46.68 0.0008917268    1.407    0.289
        45 -10.1098    134.4374    105.2476   6.0707345270e+01   3.4632927422e+01    0.3827065    0.1470683 -47.52  0.001288598    2.595    0.615
        46 -11.2081    119.6916    103.4687   6.4110720139e+01   3.8179489134e+01    0.3095813    0.2631294 -17.77  0.001529034    1.385    0.278
        47 -12.3103     73.1287    230.4280   9.7911043829e+01   1.6746316279e+01    0.4158408    0.1780592 -70.85  0.001934329    2.703    0.630
        48 -10.2773     40.4822    200.9557   1.0279810567e+02   2.7044569667e+01     0.171385    0.1381058  70.27 0.0003882503    1.063    0.060
        49  -9.6345     34.0840    199.6310   1.0421523930e+02   2.8050862773e+01    0.1879684    0.1375831  72.16   0.00112659    1.194    0.163
        50 -10.2759    191.7086    192.4849   6.6874003424e+01   6.2225995632e+00    0.7581727    0.3951929 -63.79  0.002154515    7.451    0.866
        51  -9.0964    164.6154    248.6745   8.0886447072e+01   1.0632496565e+00    0.2001749    0.1073667 -39.71  0.001120619    2.124    0.529
        52  -9.3083    101.9220     73.2105   6.0406346167e+01   4.8366787754e+01    0.2158497     0.197447  81.18 0.0003385469    1.182    0.154
        53 -10.1980     93.3909     67.8617   6.1330058694e+01   5.1211570628e+01     0.330277    0.2701282  78.09  0.001103411    1.505    0.336
        54  -8.9080     57.4405    194.0652   9.8035801337e+01   2.6606199511e+01    0.1697379    0.1239216 -78.18 0.0002998977    1.358    0.263
        55 -12.7249    179.2968     60.7940   3.9435468525e+01   3.2560997706e+01    0.5999693    0.5032001 -52.03 0.0008073406    1.114    0.102
        56  -9.7746     90.4001    227.5960   9.3833806455e+01   1.5005943539e+01    0.2449555    0.1729477  35.34  0.001298578    1.252    0.201
        57  -9.8304     75.1279    249.4293   9.9131014712e+01   1.2873956620e+01    0.1003505   0.07351778 -55.56 0.0006292064    1.698    0.411
        58 -12.4894    201.0605     42.8841   3.1919335014e+01   3.0182855708e+01    0.4794579    0.4077403 -42.57  0.001369795    1.197    0.165
        59  -8.6082    156.3286     79.6477   4.8711083367e+01   3.4757883100e+01    0.1595975    0.1121783 -73.57 0.0002486483    1.770    0.435
        60 -10.9146     39.5508     44.4855   7.4296068007e+01   6.5057382717e+01    0.4268288    0.2023287  40.71   0.00150701    2.343    0.573
        61 -10.6298    149.7893    192.3995   7.5578538240e+01   1.2973075564e+01    0.1976269    0.1244613  25.50 0.0007036015    1.660    0.398
        62  -9.5622     50.4254    249.4399   1.0415885257e+02   1.5858375156e+01    0.1144436   0.09310931  52.17 0.0004635458    1.072    0.067
        63 -11.1544     51.0807    245.2425   1.0374811755e+02   1.6571494247e+01    0.1734196    0.1371578 -80.17 0.0006538715    1.393    0.282
        64 -10.0853    189.8367     15.1071   2.6139143313e+01   3.6156045028e+01    0.2094671    0.1477039 -65.66 0.0007999086    1.258    0.205
        65 -10.0960     77.5325     12.6708   4.4645725722e+01   6.3122764547e+01    0.2265244    0.1101527  56.51 0.0008339126    1.887    0.470
        66  -9.8059     94.5195    247.1182   9.4917949207e+01   1.0789009602e+01    0.2463655    0.1837083  71.05   0.00113238    1.483    0.326
        67  -9.4547     29.5683    244.0163   1.0802132926e+02   1.9201663428e+01    0.1359827    0.1004837 -75.54 0.0004622953    1.502    0.334
        68 -10.9416     60.3589     20.9376   5.4580333224e+01   6.5598865100e+01    0.2433978    0.2340244   6.41 0.0007472368    1.146    0.127
