#   1 NUMBER                 Running object number                                     
#   2 MAG_AUTO               Kron-like elliptical aperture magnitude                    [mag]
#   3 X_IMAGE                Object position along x                                    [pixel]
#   4 Y_IMAGE                Object position along y                                    [pixel]
#   5 X_WORLD                Barycenter position along world x axis                     [deg]
#   6 Y_WORLD                Barycenter position along world y axis                     [deg]
#   7 A_WORLD                Profile RMS along major axis (world units)                 [deg]
#   8 B_WORLD                Profile RMS along minor axis (world units)                 [deg]
#   9 THETA_WORLD            Position angle (CCW/world-x)                               [deg]
#  10 FWHM_WORLD             FWHM assuming a gaussian core                              [deg]
#  11 ELONGATION             A_IMAGE/B_IMAGE                                           
#  12 ELLIPTICITY            1 - B_IMAGE/A_IMAGE                                       
         1 -13.0458    200.0389     36.4548   5.4668624600e+01   2.9872499740e+01     1.300623     1.020982  45.49  0.006776126    1.352    0.260
         2 -13.8747    215.2582     21.1990   4.8476307499e+01   2.7761652551e+01     1.810432     1.121066  31.95  0.008391568    2.059    0.514
         3 -10.0342      2.3175      3.1661   1.1231921229e+02   7.7052731323e+01    0.3472376   0.04807118 -61.15  0.001240048    3.718    0.731
         4 -10.0626    239.8120      1.5629   4.1239894177e+01   2.3817327965e+01    0.4035784    0.1498889  74.03  0.001445848    2.802    0.643
         5 -10.7561     83.3103    246.1708   1.1878616287e+02   1.7684476070e+01    0.1999931    0.1360236  59.40 0.0008055154    1.292    0.226
         6 -13.5433    139.5710    249.1967   1.0918937361e+02   1.0161831073e+01      1.51797     0.429606  32.60  0.006526142    3.488    0.713
         7 -14.0304     34.8073    245.6263   1.2718835585e+02   2.3105054777e+01     11.03965     3.225672  25.79   0.03207897   11.092    0.910
         8 -15.2465     38.3651    195.3306   1.2432360024e+02   3.0974190272e+01     9.090085     2.639118  71.85   0.02960063    6.669    0.850
         9 -10.0101     37.6445    231.6459   1.2616408297e+02   2.4925343141e+01    0.2757936   0.08480071  59.90  0.001451224    2.790    0.642
        10 -13.9495     36.2021    210.9058   1.2553615514e+02   2.8452052761e+01    0.9270563    0.5876731  48.11  0.006326444    1.162    0.139
        11 -12.5910      5.4286    247.7234   1.3213471438e+02   2.5539464486e+01    0.7750654     0.327953  56.44  0.002259869    1.511    0.338
        12 -12.8590     28.7449    219.4405   1.2731217841e+02   2.7770562032e+01    0.3748425    0.2738224 -60.73 0.0007727214    1.944    0.486
        13 -10.6315     70.1119    249.8930   1.2131098820e+02   1.8712093158e+01    0.2259764    0.1333426  43.14  0.001040922    1.166    0.142
        14 -10.4798    102.8961    235.8947   1.1453005529e+02   1.6673776130e+01    0.1556514    0.1242964  32.20 0.0006990977    1.277    0.217
        15  -8.9039     73.6220    205.6920   1.1775886580e+02   2.5085594315e+01     0.102675   0.08552776   4.83 6.321267e-05    1.784    0.439
        16 -10.0926    192.7951    194.1277   9.2872770933e+01   9.1268325892e+00    0.5504574    0.3211021 -62.88  0.001859492    7.995    0.875
        17 -12.7521      4.1496    183.9953   1.3096556399e+02   3.6239473977e+01     1.208071    0.3933745 -87.67 0.0009660167    2.816    0.645
        18 -11.5815     57.4880    188.4613   1.1982599569e+02   3.0118757844e+01    0.3043376    0.2500322 -35.09  0.001241919    1.867    0.464
        19 -11.6318     63.5724    181.6451   1.1794426272e+02   3.0671196898e+01    0.2356724    0.2271092 -33.36 0.0008846241    1.444    0.308
        20  -8.7111     49.5064    180.5083   1.2099620296e+02   3.2548161971e+01    0.1181101    0.0911613  59.78 0.0008105952    1.007    0.007
        21 -10.9679     74.0906    170.4830   1.1448572785e+02   3.1494065210e+01    0.2216878    0.1918222  51.69 0.0004246733    1.111    0.100
        22 -13.1663     60.6435    167.6614   1.1737876739e+02   3.3778212322e+01    0.4165983    0.2730725 -46.45  0.001555658    2.110    0.526
        23 -12.1765     81.6641    162.1903   1.1175731196e+02   3.2114115961e+01    0.9033967    0.4689323  56.63  0.004457392    1.914    0.478
        24 -12.6271     67.6195    143.8934   1.1307403703e+02   3.7890314842e+01    0.8092408     0.494201  72.98  0.002732052    1.780    0.438
        25 -11.8605     57.9520    132.4401   1.1427371042e+02   4.1683592826e+01     2.750284    0.8329264 -80.95  0.005679054   11.335    0.912
        26  -9.6437    236.3373    158.6757   7.9263933346e+01   6.3559859421e+00    0.1045348   0.09908592 -60.35 0.0007051189    1.719    0.418
        27  -8.9505     33.0000    234.9667   1.2711952623e+02   2.4881645064e+01    0.1365099   0.05077924 -81.18 0.0008088535    2.987    0.665
        28  -9.8459     95.9890    147.5082   1.0622942781e+02   3.2985779790e+01    0.2527995     0.230487  70.24 0.0008326576    1.058    0.055
        29  -9.2462     99.1392    143.8178   1.0485723460e+02   3.3249330036e+01    0.2018058    0.1659207 -11.85 0.0003858101    1.708    0.414
        30 -11.9673     84.1595    146.2085   1.0905987420e+02   3.5068347616e+01    0.2545516    0.2397394 -65.90 0.0005663587    1.215    0.177
        31 -14.7200     11.8593    234.6161   1.3079305153e+02   2.6935589858e+01      12.5717     1.361408 -85.91   0.03324999   16.189    0.938
        32  -9.5506    108.4125    133.9976   1.0079647493e+02   3.3742723202e+01    0.2878368    0.2285782  -5.30  0.001339689    1.795    0.443
        33 -10.4471     95.3381    130.7888   1.0367904567e+02   3.6645214924e+01    0.2512634    0.2278126 -19.49 0.0003962683    1.374    0.272
        34  -9.2133    105.8664    121.6256   9.9103564970e+01   3.6826450151e+01    0.2041173    0.1884971 -46.47 0.0003380937    1.185    0.156
        35 -10.1171    168.3186    113.1363   8.1914677557e+01   2.5855124937e+01    0.3303884    0.2711776 -78.77  0.001116097    1.656    0.396
        36  -9.3720    204.1986    110.8639   7.4406058962e+01   1.8543020416e+01     0.294662    0.1626433  27.86  0.001248645    2.221    0.550
        37  -9.8010     49.0801    233.4406   1.2418306292e+02   2.3447643732e+01    0.1797776    0.1263271  74.73 0.0006048944    1.356    0.263
        38  -9.8574     13.2485     59.9847   1.1978741711e+02   6.3312405785e+01    0.1720215   0.09106709 -74.72 0.0006550443    1.577    0.366
        39 -13.7249     10.1112    206.8567   1.3040870148e+02   3.1621342681e+01     1.084033    0.6635714  27.87  0.006714292    1.784    0.440
        40  -9.9509    193.5098    249.4995   1.0020252457e+02   3.0154819261e+00    0.1054256   0.07133055  28.11 -2.224508e-05    1.001    0.001
        41 -10.6150    184.7620    249.5680   1.0162995614e+02   4.1500070880e+00    0.2144624   0.07179981  35.13  0.001152853    2.134    0.531
        42 -10.1137    189.6611     15.1341   4.9260499625e+01   3.4971293071e+01    0.2488556    0.1958834 -84.56 0.0006007899    1.306    0.234
        43 -11.3001    170.6658    247.0344   1.0368255618e+02   6.2714955670e+00     0.257741    0.1063025  32.64  0.001493463    1.842    0.457
