#   1 NUMBER                 Running object number                                     
#   2 MAG_AUTO               Kron-like elliptical aperture magnitude                    [mag]
#   3 X_IMAGE                Object position along x                                    [pixel]
#   4 Y_IMAGE                Object position along y                                    [pixel]
#   5 X_WORLD                Barycenter position along world x axis                     [deg]
#   6 Y_WORLD                Barycenter position along world y axis                     [deg]
#   7 A_WORLD                Profile RMS along major axis (world units)                 [deg]
#   8 B_WORLD                Profile RMS along minor axis (world units)                 [deg]
#   9 THETA_WORLD            Position angle (CCW/world-x)                               [deg]
#  10 FWHM_WORLD             FWHM assuming a gaussian core                              [deg]
#  11 ELONGATION             A_IMAGE/B_IMAGE                                           
#  12 ELLIPTICITY            1 - B_IMAGE/A_IMAGE                                       
         1 -12.5344    226.0871     22.4798   2.0652639221e+01   2.8805224694e+01    0.4370373    0.2678431  87.31  0.001885875    1.490    0.329
         2 -14.0465    190.2932     61.0305   3.1405333688e+01   3.0605283320e+01     1.958635     1.063049 -44.88   0.01076155    1.653    0.395
         3  99.0000    148.8495     42.6786   3.2702622041e+01   4.1766918678e+01     1.651131    0.7818683  66.02  0.007974039    1.950    0.487
         4 -14.0696    148.2488     64.4510   3.8344678518e+01   3.8849636355e+01     2.701414     1.190675  41.69   0.01025286    3.372    0.703
         5 -12.6556    139.3856     53.8540   3.7164570600e+01   4.2358842747e+01     2.051782     1.220121  88.98  0.009474354    2.250    0.555
         6 -13.3942    205.9821     45.9597   2.6633050986e+01   2.9629993604e+01     1.642407    0.8730846 -89.27    0.0080294    2.105    0.525
         7 -11.1919    220.2753     29.7775   2.2364508274e+01   2.8996896820e+01     1.988021    0.6527708  79.94  0.009079981    3.676    0.728
         8 -12.8160    221.9063     41.6806   2.4427928900e+01   2.7280369421e+01    0.9028007    0.4268457 -60.61  0.005206412    1.886    0.470
         9 -13.1700    186.9012     33.2503   2.5868750739e+01   3.4897141729e+01     1.526209    0.6948929  68.86  0.008216367    2.060    0.514
        10 -12.6006    162.3851     29.4444   2.7647154471e+01   4.0425123994e+01     1.086218    0.4580202 -77.92  0.003811586    4.658    0.785
        11 -12.9322    171.6228     43.7507   2.9865536430e+01   3.6730751161e+01     1.451854     0.733358 -80.85  0.006450899    2.740    0.635
        12 -12.3477    160.6715     38.3844   2.9990225147e+01   3.9730764537e+01    0.5450189    0.3480195 -24.74  0.003008437    2.106    0.525
        13 -12.1981    232.7144     47.1403   2.4561112147e+01   2.4740418823e+01       1.0199    0.6858644  29.16  0.005347289    4.238    0.764
        14  99.0000     30.5868     20.2428   5.8178145999e+01   6.9418586054e+01     1.473815    0.8790011  35.93  0.008448615    1.416    0.294
        15 -14.6801     40.8638     71.6286   7.3025541269e+01   5.9109086092e+01      2.43064     1.516091  42.24   0.01174852    1.760    0.432
        16 -13.8368     62.4553     34.4396   5.0504967010e+01   6.1807203793e+01     3.179227     1.410036 -38.80   0.01317297    2.580    0.612
        17 -12.8739     52.0293     20.1440   4.8497423499e+01   6.5611795346e+01     1.181427    0.8218199  24.76  0.006417771    1.424    0.298
        18 -13.2216     39.4537     57.5407   6.9031550406e+01   6.2107052035e+01     1.384126    0.9795226 -37.87  0.006027124    1.437    0.304
        19 -13.6747     49.8510     49.7412   6.1467728460e+01   6.1841224467e+01     1.223446    0.6925666 -22.54  0.005520833    2.361    0.576
        20 -13.6050     74.5378     23.4483   4.2254997743e+01   6.0643535566e+01     1.329983    0.7001289  60.14  0.001470368    1.757    0.431
        21 -12.4960     76.4322     11.8019   3.7260303964e+01   6.1400231830e+01     1.394735    0.9848514 -79.29  0.005925297    1.944    0.486
        22 -13.9582     11.2927     36.9524   7.6610781995e+01   6.9390465394e+01      2.49047       2.1712  11.94   0.01681401    1.218    0.179
        23 -14.0459     79.2204     44.4954   4.8586427989e+01   5.6998487569e+01     1.733991     1.423591  67.76   0.01011248    1.336    0.251
        24 -14.0658    235.5558     59.0171   2.6444402858e+01   2.2731720843e+01     2.206939     1.562213 -14.17   0.01314801    2.833    0.647
        25 -13.6850     92.9601     65.2275   5.1305883784e+01   5.0863595734e+01     1.762643     1.263374 -69.86   0.00855733    1.952    0.488
        26 -11.5356    123.2126     26.8381   3.2494172408e+01   4.9399398722e+01    0.3731649    0.3195467  55.66  0.001636407    1.192    0.161
        27 -11.9527    130.1630     19.3473   2.9276912941e+01   4.8616267856e+01    0.2768643    0.2019429  71.61 0.0004676205    1.157    0.136
        28 -11.2604    235.6074     24.0618   2.0330905790e+01   2.7005060255e+01     0.355574    0.2557803  47.57  0.002540955    2.376    0.579
        29 -11.6193    138.2619     18.7930   2.7996881835e+01   4.6857781874e+01    0.3624338    0.2747409  -6.47  0.001418123    1.958    0.489
        30 -11.7471    194.0938     18.3505   2.2154118644e+01   3.5157420082e+01    0.2855397    0.2054597 -63.91  0.001521446    1.136    0.120
        31 -10.3628    229.9985     14.4199   1.9007661321e+01   2.9008029972e+01    0.2425438    0.1428019 -26.57  0.001542465    2.538    0.606
        32 -10.6965    151.5532     13.6000   2.5061052763e+01   4.4446029210e+01    0.5010106    0.3291892 -79.77  0.002615558    1.395    0.283
        33 -11.2226    145.0516      9.4965   2.4759682180e+01   4.6255913280e+01    0.4528911    0.3397524  65.07  0.001584997    1.275    0.216
        34  -9.5802    227.7921      9.4055   1.8267033794e+01   2.9912263217e+01    0.1523988    0.1020285 -57.65 0.0003210652    1.159    0.137
        35 -10.6203    228.5339      5.5276   1.7562704522e+01   3.0180514914e+01    0.4821687    0.3629466  -0.43  0.003252465    3.101    0.678
        36 -11.9316    223.9079     13.3135   1.9168084913e+01   3.0178930092e+01    0.3238287    0.2135481 -71.47 0.0006999042    1.145    0.127
        37 -10.2424    221.1473      7.9201   1.8376207188e+01   3.1223357845e+01    0.2612241    0.1489381 -49.15  0.001122026    1.438    0.304
        38 -11.0858     92.2033     14.0671   3.4365491976e+01   5.7705932536e+01    0.3321717    0.2144365  39.29 0.0007452167    1.626    0.385
        39 -10.0621     88.5404     11.9246   3.4411578747e+01   5.8719465734e+01    0.1848633    0.1512657 -86.90  0.000721956    1.331    0.249
        40 -11.0184     84.6410      7.9695   3.3853262311e+01   5.9930086380e+01    0.2747259    0.2263367 -30.90   0.00119746    1.474    0.322
        41 -12.4872     86.3813      1.7188   3.1221785063e+01   6.0041736318e+01    0.4890917    0.1226753  59.18  0.002011617    2.700    0.630
        42 -14.0516    116.2382     63.9279   4.4742724944e+01   4.6008692225e+01     1.319666      0.87402  57.43  0.005411316    1.420    0.296
        43 -13.9294    244.2629      9.2730   1.7398470034e+01   2.7176959929e+01    0.8289146    0.3298162 -77.29  0.004874787    2.502    0.600
        44 -10.5698    123.4865     11.9828   2.8173794166e+01   5.0830244321e+01    0.2742682    0.2014527 -81.10  0.001214553    1.319    0.242
        45  -8.2230    124.5287      8.5327   2.7044588025e+01   5.0905524959e+01    0.1741663    0.1213064 -27.93 0.0005608869    1.761    0.432
        46 -10.7205    131.4644     11.4760   2.6929649390e+01   4.9084559227e+01    0.3755279    0.1810031  85.41  0.001340854    2.173    0.540
        47 -10.4920    111.7368      4.2611   2.7632534990e+01   5.4148080657e+01    0.3117719    0.1742887  86.27  0.001250487    1.785    0.440
        48 -11.1847     48.8151      8.8172   4.4628056486e+01   6.7419523659e+01    0.4457462    0.2165734 -31.64  0.001548441    2.429    0.588
        49  -9.1880     45.2941     10.2901   4.6682336897e+01   6.7957313966e+01    0.1618964    0.1179646  -9.68 0.0004457438    1.569    0.363
        50 -11.5218     46.5204      1.9749   4.2257673775e+01   6.8482815444e+01    0.2389857    0.1388654  40.93  0.001233671    1.396    0.284
        51 -11.3888     50.0757      1.0000   4.0532524379e+01   6.7855450178e+01    0.2356621    0.1262766  58.84 0.0005777032    1.632    0.387
        52 -10.1644    171.2419     10.8708   2.2483639378e+01   4.0527985563e+01    0.2011247    0.1214811 -75.69 0.0009188225    1.475    0.322
        53 -11.1018    101.8037     10.6738   3.1313078364e+01   5.5850881362e+01    0.2096929    0.1708766  76.07 0.0004806471    1.080    0.074
        54 -10.3302    100.1963      6.1674   3.0129484988e+01   5.6596431116e+01    0.3460341    0.1615717  68.62  0.001681759    1.774    0.436
        55 -10.0780    103.0494      4.2008   2.8996810305e+01   5.6112340326e+01    0.2611571    0.1564348  71.00  0.000938173    1.371    0.271
        56 -12.3706    194.1441      7.9739   2.0078348601e+01   3.6218001812e+01    0.2480472     0.181773 -71.70  0.001030021    1.051    0.048
        57 -12.6864    173.5474      4.1800   2.0825658360e+01   4.0692290575e+01    0.3351215     0.199988 -27.08  0.001445528    2.147    0.534
        58 -10.1158     27.6858      9.3037   5.4250839178e+01   7.1210746212e+01    0.2217864    0.1392243  39.72  0.001343945    1.340    0.253
        59  -9.7544    157.0474      7.8858   2.3115438959e+01   4.3806077177e+01    0.1709957    0.1197773  53.07  0.001048994    1.651    0.394
        60 -10.5157    210.7534      6.1782   1.8664542847e+01   3.3267774071e+01    0.1666521    0.1226618 -67.92 0.0005823877    1.053    0.050
        61 -11.5449    115.8382      9.0443   2.8451870921e+01   5.2819760791e+01    0.4986114     0.287801  27.06  0.002445857    2.811    0.644
        62 -11.5391    183.6971      3.5635   1.9927936836e+01   3.8698046062e+01    0.2310893    0.1556119 -66.26 0.0006756916    1.214    0.176
        63 -10.0825    218.7153      2.0881   1.7480126226e+01   3.2236781274e+01     0.158134    0.1445232  56.69  0.001345897    1.715    0.417
        64  -9.6877    150.8783      6.8622   2.3483692531e+01   4.5228214781e+01    0.1610525    0.1102272 -73.99 0.0003464099    1.311    0.237
        65 -10.7654      3.2099      6.4013   6.7889138238e+01   7.5037551675e+01    0.3031007    0.1681998  16.35  0.001791681    1.571    0.363
        66 -11.0565     73.4053     96.5959   6.7173766457e+01   4.8515823966e+01    0.2976123    0.2650437  -0.50  0.001190301    1.144    0.126
        67 -10.2481    249.3396    250.1566   5.7029846054e+01  -8.0802689332e+00     0.154092    0.1014263 -11.11   0.00114717    1.163    0.140
        68 -11.2296    232.6321     94.4431   3.3132561335e+01   1.8156188977e+01    0.3257804    0.1770915 -63.53  0.001789095    2.041    0.510
        69 -11.9383     48.7301     95.3817   7.6382455383e+01   5.2727047572e+01    0.3931899    0.2778618  27.40  0.001428211    1.387    0.279
        70 -10.7885     16.9471     93.9046   8.9912100046e+01   5.6640158559e+01    0.3762493    0.2423539 -86.02  0.001746622    2.063    0.515
        71 -10.3011    143.5491    113.0195   5.1335731065e+01   3.1199111078e+01    0.2133053     0.193784  51.92  4.61036e-05    1.135    0.119
        72 -11.2381    189.7522     94.9645   3.8709962259e+01   2.5458491626e+01    0.4959676    0.2940924 -82.39  0.001795908    2.774    0.640
        73 -11.0739    192.7792     92.2189   3.7687928769e+01   2.5348413336e+01    0.2208896    0.2042017 -48.95 0.0003601564    1.159    0.137
        74 -10.7698     67.9919     94.7605   6.8646316317e+01   4.9865081231e+01    0.2798133    0.2261319  34.14 0.0004838552    1.206    0.171
        75 -13.7023     62.5831     91.2357   6.9712547100e+01   5.1558631852e+01      1.22998    0.5929254  34.60  0.004971648    2.002    0.501
        76 -12.7193     52.4034     86.4370   7.2420958907e+01   5.4236819603e+01    0.5132389    0.3727447 -30.84 0.0005878566    1.421    0.296
        77 -11.8296     47.8066     85.8065   7.4167569695e+01   5.5056657941e+01     0.394194    0.2702017  29.70  0.001944839    1.414    0.293
        78 -11.8566    184.6107     79.2798   3.6084448395e+01   2.8991352399e+01    0.3159443    0.2246918 -39.08  0.001504175    1.419    0.295
        79 -12.9985    199.8963     77.1397   3.3597424045e+01   2.6405473529e+01    0.6119325    0.3521228  78.08  0.003239268    2.118    0.528
        80 -13.1383    174.1311     87.8316   3.9570367748e+01   2.9673726895e+01    0.9090555    0.6701969  22.96  0.004715262    2.174    0.540
        81 -11.0913    180.9413     83.3988   3.7522290482e+01   2.9054118061e+01    0.2883323    0.2521503  49.23  0.001187104    1.350    0.259
        82 -12.5198    196.1516     86.4221   3.6004767328e+01   2.5658605445e+01     0.463113    0.3017675  65.96  0.001843082    1.681    0.405
        83 -11.3825    198.9447     82.2318   3.4766588096e+01   2.5799881156e+01    0.3114338    0.2305988 -86.19  0.001051182    1.431    0.301
        84 -12.0283    191.7022     76.5053   3.4516390546e+01   2.8049002726e+01    0.3692557    0.2874248 -13.28  0.001409708    1.969    0.492
        85 -11.3996     96.6544     90.3115   5.7683605674e+01   4.5424113526e+01    0.6834851    0.4225718  69.57   0.00263787    2.695    0.629
        86 -10.5852     79.6177     90.8901   6.3379154575e+01   4.8629780618e+01    0.2482395    0.1989699  16.05 0.0005185764    1.341    0.254
        87  -9.7241     87.5052     89.6752   6.0383674196e+01   4.7375582392e+01    0.2639405    0.1327357  41.26 0.0009806784    1.914    0.477
        88 -11.9766     70.9013     73.0999   6.1119223397e+01   5.3863412478e+01    0.7291175    0.5161288  59.93  0.003510404    1.780    0.438
        89 -10.2901     64.9121     74.4718   6.3803651725e+01   5.4688049804e+01    0.2647195    0.2032523  30.99 0.0006040335    1.226    0.184
        90 -10.8205     70.9771     87.9759   6.5615504830e+01   5.0828808222e+01    0.3224381    0.2752745  -6.44  0.001277557    1.239    0.193
        91 -12.9905     67.3125     82.5213   6.5368012385e+01   5.2628653003e+01    0.7327995    0.5316582  44.57  0.001172075    1.402    0.287
        92 -11.7138    236.8145     86.1017   3.1179729688e+01   1.8743940317e+01    0.3731646    0.2136361  74.81  0.001772663    2.232    0.552
        93 -12.8287    168.5433     79.4759   3.8563745799e+01   3.2181816909e+01    0.5859531    0.3821965 -58.36  0.001313557    1.522    0.343
        94 -11.9803    162.5249     84.4489   4.0737205509e+01   3.2599360939e+01    0.6242763    0.3952126  56.98  0.002977724    1.614    0.380
        95 -10.1055    154.7562     85.4525   4.2377783895e+01   3.4046133723e+01    0.2789908    0.2024828  55.26  0.001026534    1.399    0.285
        96 -11.7980    133.3467    111.7460   5.3398827811e+01   3.3516631631e+01    0.3299717    0.2796271 -81.70  0.001641172    1.346    0.257
        97 -13.3624      5.0856     54.3625   8.6227807724e+01   6.6564460781e+01    0.9021674     0.776231 -45.41  0.002836714    1.224    0.183
        98  -9.5834    209.8802    111.8748   3.9262173079e+01   1.9053586553e+01     0.167512    0.1335706 -74.24 0.0005314603    1.351    0.260
        99 -14.2339      8.1529     68.7118   8.8432538968e+01   6.3246368869e+01     1.467823     1.412015  80.90  0.009534064    1.321    0.243
       100 -10.2532    118.4934    110.5113   5.6856123445e+01   3.6782611528e+01    0.1467307     0.146621 -39.53 0.0002928163    1.006    0.005
       101 -12.5642     45.1599     28.6970   5.5062115747e+01   6.5833885608e+01     1.468398    0.3335749  41.61  0.003195473    3.816    0.738
       102 -10.0652     97.4649    109.4957   6.2624272190e+01   4.1165409618e+01    0.1512803    0.1469146   3.83 6.613003e-05    1.024    0.023
       103 -10.6076    195.5246    107.0287   4.0369964676e+01   2.2354619842e+01    0.3501672    0.1934549 -54.69  0.001746057    1.762    0.432
       104  -9.8001    153.3055    108.2958   4.8120120909e+01   3.0171348924e+01    0.1359599    0.1130439  -0.27 0.0004178888    1.584    0.369
       105 -12.0658     26.1288     35.9097   6.7560078335e+01   6.7789469484e+01    0.3309928    0.2450558   4.36 0.0006657935    1.236    0.191
       106 -10.4814    183.4045    105.2632   4.1901457491e+01   2.4877474796e+01    0.2715483    0.1945851 -56.81  0.001050335    1.319    0.242
       107 -10.8704    161.8489    107.1708   4.6155517641e+01   2.8683705522e+01    0.1899819     0.167403 -15.37  0.000748801    1.347    0.258
       108 -12.6372     54.9946     72.0825   6.7007813772e+01   5.6862681989e+01    0.6463839    0.3544578 -52.40 0.0004174732    2.059    0.514
       109 -12.8799     58.1037     61.6627   6.2274729876e+01   5.8326189657e+01    0.9928474      0.67076 -51.70  0.002986695    1.753    0.429
       110 -10.4803     15.4050    106.2657   9.2991193298e+01   5.3650790703e+01    0.1919386    0.1335326 -78.23  0.000944529    1.568    0.362
       111 -12.3724    189.0505     83.3428   3.6334373632e+01   2.7488600533e+01    0.4889484    0.2472021 -34.15  0.002045517    2.224    0.550
       112  -9.8849     23.6005     85.0032   8.4813936260e+01   5.8186139582e+01     0.208485    0.1288753 -57.10 0.0006459104    1.578    0.366
       113 -11.3641    250.1227     75.6367   2.8099763361e+01   1.8191802837e+01    0.4178129    0.1945708 -33.08  0.001546075    2.601    0.616
       114 -10.6950    229.1431     82.4280   3.1297050004e+01   2.0509308494e+01    0.3439331    0.1769479 -77.05  0.001604049    3.244    0.692
       115 -10.3243    212.4853     83.4924   3.3346498657e+01   2.3167276149e+01    0.1203404   0.09973259 -58.10 5.924478e-06    1.035    0.034
       116  -9.9132     83.0942     82.8725   5.9853389817e+01   4.9618595877e+01    0.2962591    0.1960836 -25.87  0.001330733    1.881    0.468
       117 -11.0971     82.1230     78.3679   5.8821276733e+01   5.0695028851e+01    0.4298397    0.2198277  50.91  0.001749357    2.103    0.524
       118 -12.5128     86.3186     73.3125   5.5885882996e+01   5.0812948069e+01    0.8846927    0.4542472  45.00  0.001766056    1.828    0.453
       119  -9.3216    241.4504     81.5441   2.9912421960e+01   1.8682386118e+01    0.1135325   0.08425578 -57.07 0.0001916723    1.038    0.037
       120 -11.8281     30.0057     81.0619   8.0798226173e+01   5.8421700817e+01    0.3752345    0.2490713 -31.27  0.001426512    1.483    0.326
       121 -11.2036    232.6876     78.9042   3.0290466079e+01   2.0446354254e+01    0.3243651    0.1872482 -76.24  0.001860419    2.128    0.530
       122 -10.4419    209.3208    104.3713   3.7861291721e+01   2.0398285548e+01    0.4249193    0.2654779 -85.20  0.002132423    2.486    0.598
       123 -10.7532    155.3653     76.5886   4.0108923304e+01   3.5403349908e+01    0.2784755    0.2318181  55.02 0.0007293144    1.253    0.202
       124 -10.7441    105.1942     74.4700   5.0636940949e+01   4.6649819177e+01    0.3844095    0.3074486  24.13  0.001491073    1.446    0.308
       125 -12.2699    176.6324     70.0585   3.5179574450e+01   3.2007853380e+01    0.8652662    0.4870369 -71.75  0.004051124    2.336    0.572
       126 -11.6719    164.0390     64.9453   3.5865678092e+01   3.5385815642e+01     0.371686    0.3434835  75.27  0.001339308    1.148    0.129
       127 -10.9964    168.1806     64.1489   3.5053618503e+01   3.4634717198e+01    0.3874265    0.2585817 -39.40  0.001929932    1.535    0.349
       128 -10.7628    151.2277     73.0970   3.9988006646e+01   3.6852327914e+01    0.2600446    0.1975315 -45.65 0.0005116056    1.311    0.237
       129 -10.9469     26.2156     81.1739   8.2610676524e+01   5.8809772926e+01    0.2356552    0.1879097  42.17 0.0003370415    1.454    0.312
       130  -9.3953    243.9969     72.9996   2.8178995593e+01   1.9489777312e+01    0.1913715    0.1304023  53.33 0.0006129692    1.997    0.499
       131  -9.7571    240.4858     73.5577   2.8591116546e+01   1.9960485272e+01    0.1531995     0.103436  74.09 0.0005625997    1.686    0.407
       132 -12.4973     24.7733     43.6692   7.1401962919e+01   6.6650997816e+01    0.5935594    0.5350915  64.74  0.002623115    1.646    0.392
       133 -11.8304    127.2166     58.9350   4.0891167714e+01   4.4334048349e+01    0.4866136    0.2686476  41.95  0.002216903    2.095    0.523
       134 -10.7180    100.7159     53.7996   4.5534678233e+01   5.1005895388e+01    0.5847847    0.2586853  48.66  0.002480259    2.048    0.512
       135 -11.2732    247.5212     56.1196   2.4983366407e+01   2.1197439374e+01     0.322232     0.197847 -67.68   0.00226325    1.413    0.292
       136  -9.8586    244.3976     50.0741   2.4186924708e+01   2.2461231885e+01    0.1660251    0.1097217 -60.12 0.0001072264    1.132    0.116
       137 -10.5626    109.2146     56.3964   4.4193542472e+01   4.8735409566e+01    0.3170262    0.2427665 -57.88  0.001736334    1.463    0.316
       138  -9.9944    134.7148    105.0191   5.1417394944e+01   3.4599936519e+01    0.2044567    0.1832422 -50.06 0.0003553293    1.098    0.089
       139  -9.7724    124.7152     53.8870   3.9985654495e+01   4.5635773485e+01    0.1794163    0.1659588 -85.57 0.0005643537    1.067    0.063
       140  -9.8498    111.7645     52.1839   4.2314254628e+01   4.8787570293e+01    0.1838573    0.1642851  75.93 0.0002916761    1.077    0.071
       141 -10.6813     99.5170     47.4366   4.3817750382e+01   5.2192251148e+01    0.2656668    0.2144653  26.02  0.001115825    1.421    0.296
       142 -10.4522    105.7131     43.7288   4.1120571393e+01   5.1318163454e+01    0.2639152    0.2039409 -38.97 0.0007191376    1.442    0.307
       143 -10.3855    102.9535    104.8094   5.9748468505e+01   4.1123065879e+01    0.2196032    0.1973006   6.29  0.000236252    1.207    0.171
       144 -10.3233    100.7329     40.7449   4.1356178482e+01   5.2826415307e+01    0.2603703    0.1651538  54.12  0.001370238    1.380    0.275
       145  -9.6563    249.9666     38.6752   2.1888317369e+01   2.2982850075e+01    0.1409111    0.1016117 -72.45  0.000969845    1.142    0.124
       146 -12.9763    128.0681     90.0087   4.9148449254e+01   3.8898531802e+01    0.6772802    0.5253538 -50.97 0.0004156301    1.305    0.233
       147  -9.7840    136.4093     37.7146   3.3344154575e+01   4.5156877280e+01    0.3707011    0.1684684  83.91  0.001361502    3.621    0.724
       148  -9.9569    125.1292     37.0745   3.5104842539e+01   4.7779022462e+01    0.2022579    0.1646758  45.69  0.001231732    1.328    0.247
       149 -12.2553    110.1096     35.9479   3.7711952753e+01   5.1320159649e+01    0.2987437    0.2592422   8.29 0.0007738202    1.453    0.312
       150 -11.3201    113.6855     27.7721   3.4480726633e+01   5.1459200479e+01    0.4359784    0.2447892  62.59  0.001767538    1.518    0.341
       151 -10.2968    118.7600     22.0863   3.1859512724e+01   5.0915188535e+01    0.2052167    0.1876395 -64.82 0.0006871646    1.195    0.163
       152 -11.5734     92.3807     32.8755   4.0808171201e+01   5.5670620576e+01    0.3870214     0.310081  20.99   0.00230846    1.474    0.322
       153 -10.0856    131.6591     33.4127   3.2944196840e+01   4.6742401348e+01    0.2574515    0.1294006 -49.83  0.001166701    2.152    0.535
       154 -10.5440     75.1301     33.4741   4.5863435983e+01   5.9337427053e+01    0.2644907    0.1864011  61.41  0.000728115    1.418    0.295
       155  -9.9918    122.2273     32.9884   3.4451377172e+01   4.8925876346e+01     0.194243    0.1732489 -58.98 0.0003951372    1.203    0.169
       156  -9.5299     11.6562    105.2672   9.4418362795e+01   5.4182560741e+01    0.1382657    0.1024182  51.18 0.0003623779    1.607    0.378
       157 -10.7969    104.2019     28.6948   3.6677112833e+01   5.3505965944e+01    0.2585798    0.1867156 -46.14 0.0008552366    1.562    0.360
       158 -11.2955    150.2399     22.7267   2.7474644949e+01   4.3800188176e+01    0.3809183    0.2091032  51.54 0.0009762127    1.997    0.499
       159  99.0000    140.2639     28.0668   3.0174400075e+01   4.5424035994e+01    0.4700964    0.2448701 -80.84  0.002139917    2.579    0.612
       160  -9.4305    128.2971     15.6862   2.8527957322e+01   4.9397877179e+01    0.1374734    0.1210036 -16.54 0.0002783389    1.482    0.325
       161 -10.9789    132.0219     24.0244   3.0293940082e+01   4.7712567403e+01    0.3852846    0.2337671  84.04  0.001700496    1.622    0.383
       162 -10.6920    144.6777    102.8621   4.8643811987e+01   3.2970209957e+01    0.3821485     0.280336  35.77  0.001924739    1.562    0.360
       163  -9.3360    133.8470     29.1981   3.1435109833e+01   4.6734869786e+01    0.1554917    0.1337521  51.57 0.0004146645    1.281    0.220
       164 -11.8713     86.1973     28.3857   4.0837696036e+01   5.7562148058e+01    0.3697783    0.2173822  62.38 0.0007217379    1.567    0.362
       165 -10.6247    109.4700    102.9571   5.7382617951e+01   4.0209564636e+01    0.2259158    0.1472868 -46.92 0.0004921366    1.556    0.357
       166 -10.1329    146.1637     27.5891   2.9229976788e+01   4.4166916540e+01    0.3585514    0.2138395 -54.75  0.002013769    1.696    0.410
       167 -10.0699    244.5167     19.5412   1.9058689709e+01   2.6041796143e+01     0.188539    0.1250427  86.19  0.001027895    1.445    0.308
       168 -10.3864    246.5018     23.0057   1.9517266234e+01   2.5340498097e+01    0.2283195    0.1402573 -87.37 0.0009353661    1.480    0.324
       169 -11.8815     69.6452    102.5596   7.0146191675e+01   4.7805985861e+01    0.3584005    0.2509549 -43.37 0.0008296627    1.435    0.303
       170 -11.4525    241.1693     22.9210   1.9806953019e+01   2.6212576513e+01    0.1898423     0.158744 -80.83 0.0003431819    1.300    0.231
       171 -12.4361    176.0690     23.6956   2.4866460048e+01   3.8193036588e+01    0.2453037    0.1897662 -52.79 0.0004171955    1.257    0.205
       172 -10.4313    179.4800     20.4251   2.3830501348e+01   3.7849207925e+01    0.2164221    0.1249604  64.54 0.0007843323    1.690    0.408
       173  -8.0584    102.4970     23.4195   3.5330336053e+01   5.4464861819e+01    0.1930734    0.1074596  71.15 0.0009686439    1.726    0.421
       174  -9.3777     98.2268     21.7889   3.5695441141e+01   5.5598002358e+01    0.2608498    0.2313311  38.66  0.001731958    1.215    0.177
       175  -9.8103     89.1488     22.4837   3.8004855643e+01   5.7557291964e+01    0.1774842    0.1641536  51.77  0.001191551    1.107    0.097
       176 -10.8999    201.3465     20.2826   2.1975105644e+01   3.3552023464e+01    0.2206575    0.1748197 -46.36 0.0006625434    1.358    0.264
       177  -9.6374    205.4460     18.6042   2.1346133150e+01   3.2960009636e+01    0.1301515     0.110588  85.30 0.0002089499    1.295    0.228
       178  -9.9603    199.8627     15.8040   2.1210078117e+01   3.4315718562e+01     0.149307    0.1203145 -82.61 0.0003924801    1.127    0.112
       179  -9.8959    160.2799     23.9414   2.6584858993e+01   4.1491015536e+01    0.1615345     0.133466 -66.84 0.0004428301    1.134    0.118
       180 -10.4141    230.6384    102.4724   3.4830017105e+01   1.7233064791e+01    0.1951729    0.1546628 -50.71 0.0001417987    1.027    0.027
       181 -10.1937    162.4243     19.9415   2.5405661072e+01   4.1460550812e+01     0.366336    0.1846075 -76.24   0.00170979    2.225    0.551
       182 -12.0903    162.3106     56.4782   3.4106375442e+01   3.6984495374e+01     1.025522    0.3476945 -38.08  0.004172301    2.933    0.659
       183 -10.1037    169.0308     19.1915   2.4554134716e+01   4.0142303549e+01    0.1963895    0.1543492 -57.72 0.0005936278    1.215    0.177
       184 -10.6955    238.0871     30.5832   2.1290453291e+01   2.5848704786e+01    0.2905042    0.1461453  78.14  0.001682995    2.008    0.502
       185 -10.1896    107.5491     17.0988   3.2316987789e+01   5.3957848351e+01    0.1798432    0.1379955  68.09 0.0003477007    1.086    0.079
       186 -11.2814    112.9105    246.8550   8.3745152442e+01   6.7088039231e+00    0.4467412     0.168015 -41.81  0.001770588    3.015    0.668
       187  -8.5640    213.3484     15.9385   2.0299359040e+01   3.1785908997e+01    0.2423253     0.103032 -81.82  0.001282434    2.525    0.604
       188 -10.6731     36.3272    248.4736   1.0245115282e+02   1.5177773554e+01    0.2188256    0.1174022 -75.17  0.001103471    2.052    0.513
       189  -9.6270    218.3551    239.6898   6.0577501312e+01  -3.9020517511e+00   0.09527603   0.09263464  16.16 0.0005114106    1.728    0.421
       190 -14.5878    119.8759     84.2093   4.9577535309e+01   4.1729950824e+01     3.224558     2.076655  61.27  0.002935506    1.675    0.403
       191 -10.2551     15.8937    238.6087   1.0667509411e+02   1.9326071758e+01    0.2083849    0.1632516 -69.41 0.0005704944    1.370    0.270
       192  -9.4830    159.5341    219.5477   6.8954040480e+01   6.1825975578e+00    0.1347105    0.1161045  -7.25 5.972427e-05    1.028    0.027
       193 -11.6459    233.9294     37.1995   2.2715619411e+01   2.5760578876e+01    0.4105644     0.245964 -70.21 0.0007920786    1.415    0.293
       194  -9.7702    171.8163     15.3193   2.3418342107e+01   3.9962764484e+01    0.1640136   0.08559081  67.46 0.0009425274    1.730    0.422
       195  -9.3545    157.5675     15.4771   2.4866227792e+01   4.2959791553e+01    0.1176127   0.09532006 -86.71 3.433586e-05    1.011    0.011
       196  -9.8018    102.9559     15.0460   3.2519137213e+01   5.5193308263e+01     0.137741    0.1246993  72.82 0.0003721343    1.096    0.088
       197 -11.1446    209.9493     21.9083   2.1649369250e+01   3.1760668797e+01    0.3372996    0.1759089  89.84  0.001464069    1.813    0.448
       198  -9.4222    174.4669    131.4926   4.9098609460e+01   2.1637514389e+01    0.1386132    0.1249689 -50.51 0.0001043229    1.040    0.039
       199 -13.2668    135.7093     82.9564   4.5574364579e+01   3.8539629615e+01     1.103874    0.5863681  50.00   0.00133558    1.858    0.462
       200 -10.8578    152.9513    124.1160   5.1842227765e+01   2.7102886313e+01    0.2236854    0.1940109 -50.27            0    1.096    0.087
       201 -14.2653    203.3461     61.0541   2.9916810431e+01   2.8103941517e+01     1.986704    0.8330582 -58.78  0.009131953    2.609    0.617
       202 -13.7205    210.7970     59.5361   2.8832495316e+01   2.6940736603e+01     1.626019    0.7630355 -75.68  0.005817497    3.370    0.703
       203  -9.9349    166.3791     13.7826   2.3584254030e+01   4.1255118643e+01    0.1706913    0.1150125 -60.63 0.0005262798    1.341    0.254
       204  -9.8081    220.7622    121.5093   3.9620775983e+01   1.5690509324e+01    0.1470248    0.1168401  78.90 0.0003698434    1.589    0.371
       205 -12.7700    193.3227     41.2694   2.6913627630e+01   3.2646934216e+01    0.9395393    0.4020117  64.35  0.004007212    2.280    0.561
       206  -9.5381    108.1712     12.8316   3.0862849057e+01   5.4217326963e+01     0.157197    0.1207997  51.13  0.000997832    1.266    0.210
       207 -13.0635     78.8084     58.8533   5.3677494115e+01   5.4871009485e+01    0.8313074    0.3814064  42.33  0.003501001    2.016    0.504
       208 -10.5596    203.5173    116.0586   4.1006650860e+01   1.9406930440e+01    0.3276088    0.2097046  82.59  0.001610926    2.537    0.606
       209 -10.1902    181.7622    115.5820   4.4388119669e+01   2.3325479227e+01    0.2355097    0.1624026 -70.42  0.001091279    1.788    0.441
       210 -12.0060    175.2640     39.2253   2.8407029259e+01   3.6543100759e+01    0.4559648    0.3293586  51.45   0.00283995    1.672    0.402
       211 -10.2372    178.0336    114.6687   4.4841520032e+01   2.4181321783e+01    0.2251135    0.1903609  45.13 0.0007722517    1.328    0.247
       212  -9.1626    241.9824    114.2215   3.5647710800e+01   1.3709156591e+01     0.118878   0.09550367  61.46 0.0004064071    1.577    0.366
       213  -9.9278    238.7383    101.8451   3.3804886959e+01   1.6092878082e+01    0.1922336    0.1599091   0.15  0.001319101    1.876    0.467
       214  -9.5742    235.2921    102.3342   3.4274563414e+01   1.6538530003e+01    0.1688308    0.1094253  57.24 0.0005365181    1.905    0.475
       215 -10.5736    165.0173    101.6903   4.4301240912e+01   2.9068406025e+01    0.1927086    0.1797569  79.45  0.001066694    1.098    0.089
       216 -12.0815    153.3370     96.6497   4.5351413996e+01   3.2353114625e+01    0.5090134    0.4758011  61.78 0.0007947233    1.110    0.099
       217 -11.1924     96.7236    100.5244   6.0483427882e+01   4.3278674120e+01    0.3035171    0.2618194 -20.62 0.0007750972    1.265    0.209
       218 -10.7542     89.2334     93.9626   6.1038239167e+01   4.6143385132e+01    0.2497476    0.2081586  30.53 0.0002069753    1.186    0.157
       219 -12.1553     86.4080     99.0727   6.3374681496e+01   4.5587322258e+01    0.5737712     0.398649  28.97  0.001126246    1.496    0.331
       220 -10.8654    218.6773     99.5032   3.5703250627e+01   1.9618249486e+01    0.2313278    0.1891193 -82.28 0.0006144383    1.296    0.229
       221 -12.4605    106.4977     96.9497   5.6621716607e+01   4.2064735227e+01    0.6650985    0.3692662 -26.96  0.002179144    2.767    0.639
       222 -11.8288    105.5139     92.5447   5.5698820015e+01   4.3161456302e+01    0.3351628    0.2456582  28.54  0.001101039    1.527    0.345
       223 -11.3188    169.1748     97.2812   4.2546471608e+01   2.9033441327e+01    0.4649646    0.3205581  75.26  0.001718888    1.746    0.427
       224 -11.7006    199.7923     96.0006   3.7483476496e+01   2.3443846461e+01    0.3719003    0.2276324 -60.46  0.001211873    1.652    0.395
       225 -10.7934    186.0105     98.0339   3.9933384082e+01   2.5642747684e+01    0.1929888    0.1608724  -8.32 0.0009214932    1.660    0.398
       226 -11.1750     11.8845     97.4371   9.2899400685e+01   5.6151449266e+01     0.285529     0.234402 -33.10 0.0008627347    1.103    0.093
