#   1 NUMBER                 Running object number                                     
#   2 MAG_AUTO               Kron-like elliptical aperture magnitude                    [mag]
#   3 X_IMAGE                Object position along x                                    [pixel]
#   4 Y_IMAGE                Object position along y                                    [pixel]
#   5 X_WORLD                Barycenter position along world x axis                     [deg]
#   6 Y_WORLD                Barycenter position along world y axis                     [deg]
#   7 A_WORLD                Profile RMS along major axis (world units)                 [deg]
#   8 B_WORLD                Profile RMS along minor axis (world units)                 [deg]
#   9 THETA_WORLD            Position angle (CCW/world-x)                               [deg]
#  10 FWHM_WORLD             FWHM assuming a gaussian core                              [deg]
#  11 ELONGATION             A_IMAGE/B_IMAGE                                           
#  12 ELLIPTICITY            1 - B_IMAGE/A_IMAGE                                       
         1 -15.0700     13.0973    158.0354   1.4224217014e+02   3.9883286983e+01     9.347296     3.138096  65.98   0.04550194    3.153    0.683
         2 -13.4162      5.5136     15.0697   1.2559655675e+02   7.0856467255e+01     3.082426    0.4779896 -58.03   0.01201224    3.283    0.695
         3 -13.1789    193.5061     29.4519   6.9449788849e+01   3.2870045069e+01     1.507663      1.26954  39.87  0.007278433    1.154    0.133
         4 -13.5203    206.3962     10.6530   6.1750716282e+01   3.1407872180e+01      1.79971     1.028024  35.29  0.007883625    1.926    0.481
         5 -10.9300     10.7988    239.3347   1.4593399557e+02   2.6587311722e+01    0.3059728   0.09666983  59.11  0.001589383    2.194    0.544
         6 -10.8460    249.5310    248.0938   1.0916022361e+02  -4.2695053717e+00    0.2825741    0.1789151  -2.64  0.002189285    1.557    0.358
         7 -11.0377    109.5828    249.7360   1.3143734070e+02   1.4641430097e+01    0.4510094    0.1144783  49.82  0.002088138    3.472    0.712
         8 -10.8106     98.0017    249.2777   1.3322856990e+02   1.6132995659e+01    0.2557842    0.1603439  38.17  0.001554105    1.372    0.271
         9 -10.4478     97.2081    245.4123   1.3307397658e+02   1.6727974639e+01    0.1655456    0.1233025  73.84 0.0002817823    1.383    0.277
        10 -10.6768     30.6074    250.1877   1.4344779891e+02   2.3305355715e+01    0.2857325    0.1247557  37.14  0.002092916    2.025    0.506
        11 -10.8079     35.4537    243.8098   1.4249510556e+02   2.3719129607e+01    0.2981795    0.2562616 -46.84  0.002816551    2.050    0.512
        12 -11.1980      4.4118    228.8079   1.4656110137e+02   2.8640558355e+01    0.3057998    0.1561939  74.36  0.002282697    1.500    0.333
        13 -11.0866      7.8453    226.1601   1.4597456090e+02   2.8748838823e+01    0.3764895    0.1604111  84.40 0.0007659049    2.058    0.514
        14  -9.6979      2.1594    249.8248   1.4741783290e+02   2.5859458685e+01     0.174572    0.1096173  60.59  0.001181514    1.017    0.017
        15 -10.4015      5.5118    248.4663   1.4692554542e+02   2.5766186545e+01    0.2870576   0.07856412  54.67   0.00193558    2.192    0.544
        16 -10.0299    234.8160    239.3550   1.1020449483e+02  -1.5927502740e+00    0.1775644    0.1153898 -40.92  0.001201303    2.732    0.634
        17  -9.1479     24.4839    237.2740   1.4386750301e+02   2.5671060179e+01    0.1987272   0.07468039 -83.26  0.001339242    2.682    0.627
        18 -12.0097     56.6376    225.9681   1.3832712025e+02   2.4136524593e+01     1.189704    0.7396557 -39.96  0.007428008    3.513    0.715
        19 -13.6847      8.6850    203.7552   1.4510236538e+02   3.2163954149e+01      1.81797    0.7053665  83.92  0.007311985    2.327    0.570
        20  -8.8392     69.5198    234.3613   1.3675109712e+02   2.1496353209e+01    0.1547656   0.07073185  40.95 0.0001585082    1.705    0.414
        21  -8.6909    152.6632    212.9611   1.2046705031e+02   1.3430221042e+01    0.1453204     0.125197  38.73 0.0004077253    1.113    0.101
        22  -8.2907     94.5572    216.5414   1.3121542746e+02   2.1097961810e+01     0.108327   0.07908502  56.49 3.561913e-05    1.105    0.095
        23  -9.2951     34.7013    202.4766   1.4068079031e+02   3.0067937224e+01    0.1610335    0.1100436  49.98 0.0001626984    1.232    0.188
        24 -11.2987     64.6627    198.2007   1.3507038531e+02   2.7641140062e+01    0.2453865    0.2020501 -45.15 0.0007434291    1.757    0.431
        25  -9.6065    192.0488    193.2063   1.1051004919e+02   9.7037255379e+00    0.2819459    0.1793986 -58.49  0.001430786    3.139    0.681
        26  -9.8874    228.4847    227.9934   1.0959739237e+02   2.8783399643e-01    0.2110676     0.184921 -54.82  0.001568694    2.291    0.564
        27 -10.9973      1.7384    239.6560   1.4723156864e+02   2.7297596180e+01    0.9452655   0.07721622 -80.14  0.003524723    9.919    0.899
        28 -11.5445     70.3186    190.3175   1.3336958099e+02   2.8324689280e+01    0.2082625    0.1958921 -79.02 0.0005169286    1.318    0.241
        29 -12.4066     39.0473    232.4650   1.4146051396e+02   2.4984810629e+01     0.221743    0.1987498  74.10 0.0007616926    1.405    0.288
        30 -12.9532     66.9004    175.6031   1.3271206525e+02   3.1343907818e+01    0.3848592    0.2351431 -46.55  0.001452002    2.247    0.555
        31  -8.5684    101.8183    178.0768   1.2588469875e+02   2.6380894897e+01    0.1760089    0.1329823  64.40 0.0005322617    1.271    0.213
        32 -10.7370     79.8323    177.5958   1.3029717655e+02   2.9407876720e+01    0.1954169    0.1767853  64.47 0.0003715096    1.120    0.107
        33 -11.5444     87.1215    168.3137   1.2776434754e+02   3.0162652993e+01    0.5430171    0.4450626  52.80  0.003761565    1.088    0.081
        34 -10.0339    155.2018    228.3992   1.2186395978e+02   1.1084047870e+01    0.1658326   0.07820161  46.52 0.0009572296    1.722    0.419
        35  -9.7750     99.3901    152.1937   1.2296001276e+02   3.1510537439e+01    0.2363445    0.2084008  53.73 0.0007726799    1.051    0.049
        36 -11.6562     88.0273    151.4510   1.2542522809e+02   3.3265831669e+01    0.2372262    0.2218323 -36.52 0.0006100169    1.295    0.228
        37 -12.3373     67.2400    143.8706   1.2921113579e+02   3.7456251781e+01    0.6923493    0.4284938  69.84  0.003913636    1.769    0.435
        38 -11.7612     58.3058    133.7237   1.3006913674e+02   4.0590620498e+01     0.810913    0.3580326 -85.21  0.003349934    3.331    0.700
        39 -13.7372     44.9734    224.2738   1.4012345253e+02   2.5608021796e+01    0.7155042    0.4969942  53.69  0.003532253    1.110    0.099
        40  -8.2123    192.2222    143.9932   1.0136255638e+02   1.6471994504e+01    0.1633191    0.1113139 -29.75 0.0003484649    1.548    0.354
        41  -9.4044    110.5700    137.0177   1.1792009070e+02   3.2774578945e+01    0.3147968    0.2037666 -28.56  0.001241431    2.242    0.554
        42 -10.2334     97.7436    134.4839   1.2056687427e+02   3.5278188646e+01    0.2277301    0.2021551 -25.52 0.0008264208    1.344    0.256
        43 -10.1439     84.4875    135.0207   1.2387699429e+02   3.7069061173e+01    0.2242918    0.1696721  50.51 0.0004250957    1.284    0.221
        44 -10.1230    173.3250    222.8408   1.1808172676e+02   9.0632164011e+00    0.2996963    0.1265872  44.05   0.00162001    1.874    0.466
        45  -9.3262    107.3946    123.9764   1.1628286886e+02   3.5923858656e+01    0.1788852    0.1724802  52.74 0.0001830456    1.029    0.028
        46  -8.9224    102.0512    147.9671   1.2171991855e+02   3.1938477549e+01    0.1828472     0.151168 -18.93 0.0004191542    1.611    0.379
        47 -10.1108    230.5903    231.7904   1.0980634296e+02  -3.5305921597e-01    0.1931904    0.1756672 -34.57  0.001221864    1.903    0.475
        48 -10.3719    167.9790    112.9740   9.9329435969e+01   2.6474317338e+01    0.3231859    0.2956698 -89.59 0.0007365304    1.405    0.288
        49  -8.7892    203.4726    111.5170   9.1637476248e+01   1.9028808027e+01    0.1508711    0.1291275  11.82 1.581711e-05    1.042    0.041
        50  -9.6896     73.8578     86.6538   1.1771582337e+02   4.8992436100e+01    0.2299367    0.1938046 -86.01 0.0006878198    1.308    0.235
        51  -8.6919     36.8603     63.8134   1.2483481023e+02   5.8208732860e+01    0.1545764    0.1353445  79.93   0.00041066    1.304    0.233
        52 -10.2420     29.5194     60.9307   1.2686928915e+02   5.9451309451e+01    0.2827796    0.1762741  36.30 0.0007835099    1.923    0.480
        53 -10.9766    125.4878    249.6967   1.2890670664e+02   1.2605879686e+01    0.3017975    0.1179303  37.02  0.001753385    2.066    0.516
        54 -11.5720    139.7095    248.6199   1.2653150834e+02   1.0845026285e+01    0.3038899    0.2256293  58.12  0.002458998    1.368    0.269
