#   1 NUMBER                 Running object number                                     
#   2 MAG_AUTO               Kron-like elliptical aperture magnitude                    [mag]
#   3 X_IMAGE                Object position along x                                    [pixel]
#   4 Y_IMAGE                Object position along y                                    [pixel]
#   5 X_WORLD                Barycenter position along world x axis                     [deg]
#   6 Y_WORLD                Barycenter position along world y axis                     [deg]
#   7 A_WORLD                Profile RMS along major axis (world units)                 [deg]
#   8 B_WORLD                Profile RMS along minor axis (world units)                 [deg]
#   9 THETA_WORLD            Position angle (CCW/world-x)                               [deg]
#  10 FWHM_WORLD             FWHM assuming a gaussian core                              [deg]
#  11 ELONGATION             A_IMAGE/B_IMAGE                                           
#  12 ELLIPTICITY            1 - B_IMAGE/A_IMAGE                                       
         1 -11.3615     27.1514     32.0266   2.9179545897e+02   7.2571353083e+00   0.04035966  0.004941034 -56.06  0.002256045    5.212    0.808
         2 -11.1107     12.7101     28.3819   2.9195642970e+02   7.3814966760e+00   0.02884786  0.009131127 -68.06  0.001946543    3.756    0.734
         3 -11.0964    249.5967     16.6131   2.8893275041e+02   6.1628023658e+00   0.01387353  0.004262508 -49.97 0.0009617818    3.309    0.698
         4 -11.1831    164.1814    226.6844   2.9113969741e+02   4.2122157718e+00   0.02376907   0.01556297  16.97  0.002385094    1.522    0.343
         5 -10.1476    126.1599    220.8431   2.9158183776e+02   4.4972850188e+00   0.01041661  0.008748113  49.41 0.0004526843    1.212    0.175
         6  -9.4340    143.7617    216.9550   2.9134143509e+02   4.4420257726e+00   0.00883045  0.005781317 -63.24 0.0008801036    1.614    0.380
         7  -9.6367    131.3686    214.7996   2.9148422456e+02   4.5378583877e+00  0.009973099  0.005877661 -51.24 0.0009480608    1.753    0.429
         8  -9.7301    112.1661    213.8264   2.9171832983e+02   4.6587513720e+00   0.00976078  0.007839881 -23.79 0.0009602671    1.359    0.264
         9 -11.8455    166.7482    248.2740   2.9122458876e+02   3.9464858699e+00   0.01667118   0.01398423   0.87  0.001557274    1.228    0.186
        10  -9.9684     89.3282    199.6835   2.9192665171e+02   4.9535053188e+00  0.007287596  0.004857344  54.87 0.0005154028    1.678    0.404
        11  -9.7370    126.5483    197.4707   2.9145052987e+02   4.7669567838e+00   0.00682437   0.00638027   0.86 0.0001976642    1.068    0.063
        12 -10.5433    172.9571    195.8927   2.9086353507e+02   4.5201258009e+00   0.01170698   0.01114002  23.85 0.0007456478    1.016    0.015
        13  -9.7760    173.8128    191.8503   2.9083095362e+02   4.5622386452e+00  0.009125657  0.009041108 -56.64 0.0002925027    1.076    0.071
        14  -9.7058     66.9729    194.9729   2.9218006394e+02   5.1356425444e+00   0.01492152  0.006392888  57.58  0.000958362    4.128    0.758
        15  -9.4464    162.6368    194.3235   2.9098362923e+02   4.5973882341e+00  0.007515517  0.004762317  54.30 0.0002433945    1.786    0.440
        16  -9.1940    156.3233    187.6607   2.9102620221e+02   4.7109685295e+00  0.007346204  0.004872001  56.51 0.0006020379    1.722    0.419
        17 -10.3902     95.1442    187.0098   2.9178557578e+02   5.0678147614e+00   0.01166663  0.007490813  68.00   0.00108723    2.035    0.509
        18 -10.9601     77.9528    176.3945   2.9194265421e+02   5.2892940922e+00   0.02718373  0.006535077  40.61  0.001672922    3.968    0.748
        19 -10.1780    106.0154    175.5123   2.9158774024e+02   5.1395815355e+00   0.01066011  0.004388407  44.82 0.0008105098    2.581    0.613
        20  -9.3096    177.3316    171.6564   2.9067755732e+02   4.7769162928e+00  0.007413789  0.004847659  56.41 0.0007050696    1.755    0.430
        21  -9.9125    139.0295    165.0313   2.9111914867e+02   5.0729974040e+00   0.01168932  0.007615392  56.69  0.001132922    1.770    0.435
        22 -10.5574     79.7539    163.9395   2.9185280454e+02   5.4239455677e+00   0.02154993   0.01034143  62.97  0.001505123    3.696    0.729
        23  -9.6347    219.5247    163.1005   2.9010544507e+02   4.6347119422e+00  0.009688795  0.006857592 -66.34 0.0006923144    1.518    0.341
        24  -9.7115    177.9719    160.9691   2.9061156904e+02   4.8975110088e+00   0.01155853  0.007607674  56.00  0.001129657    1.730    0.422
        25 -10.8442     93.3881    160.7145   2.9166518791e+02   5.3837509783e+00   0.01645657  0.008285489  47.01  0.001414671    2.133    0.531
        26  -9.2476    151.3670    160.6975   2.9094178537e+02   5.0528758532e+00   0.00744966  0.004750195  52.89 0.0007034498    1.739    0.425
        27 -10.4408    106.3988    158.7009   2.9149191905e+02   5.3329611137e+00   0.01680753  0.008282441  47.27  0.001423803    2.203    0.546
        28 -10.1256    197.0104    158.0393   2.9035839732e+02   4.8225525919e+00   0.01164897  0.007621973  55.48  0.001135739    1.734    0.423
        29  -9.5157    167.9866    157.5187   2.9071731193e+02   4.9947751481e+00   0.01029318  0.004519402  45.51 0.0008080231    2.434    0.589
        30 -10.1633    119.8020    156.1827   2.9131103250e+02   5.2857470766e+00   0.01250218  0.006111072  57.02  0.000953756    2.892    0.654
        31 -10.6337     82.1202    155.0222   2.9177501183e+02   5.5142055080e+00   0.01937862  0.009051903  53.37  0.001496149    2.811    0.644
        32 -10.2746     50.1135    155.7168   2.9217835232e+02   5.6883640742e+00   0.01653272  0.007867078  53.94  0.001285859    2.767    0.639
        33 -10.2637    205.0333    155.0404   2.9024214562e+02   4.8114438635e+00   0.01140575  0.007722079  57.27 0.0009815841    1.686    0.407
        34 -10.2103    134.2307    153.6893   2.9111750518e+02   5.2323288438e+00   0.01732493   0.00752499  57.35  0.001146901    3.922    0.745
        35 -10.5897     68.1936    154.0836   2.9194378500e+02   5.6044622902e+00   0.01445483  0.007408426  47.88  0.001246587    2.124    0.529
        36  -9.7789     98.7868    151.1917   2.9154623807e+02   5.4637385262e+00   0.01223058  0.006095286  57.28 0.0009485988    2.800    0.643
        37  -9.7789    189.8542    150.5894   2.9040710392e+02   4.9501434693e+00   0.01037875  0.005547376  36.99 0.0009429666    1.733    0.423
        38 -10.2961    200.8433    149.1203   2.9026218029e+02   4.9042642756e+00    0.0112864   0.00882475  51.21  0.001233802    1.328    0.247
        39 -11.5207    108.2230    146.1202   2.9140098665e+02   5.4688886512e+00   0.03091401   0.01256804  49.79  0.002237134    3.136    0.681
        40 -11.3849     56.5770    146.1172   2.9204573359e+02   5.7632765415e+00   0.03042905   0.01325683  55.50  0.002127797    3.533    0.717
        41 -10.2543     39.2802    147.7030   2.9227031049e+02   5.8432111700e+00   0.01700625  0.007384428  57.21    0.0011309    3.883    0.742
        42 -10.4715     78.4010    147.2230   2.9177922164e+02   5.6261318909e+00   0.00935867  0.006656408 -86.53 0.0009469892    1.704    0.413
        43 -10.2978    149.3632    145.4211   2.9088388770e+02   5.2419774556e+00   0.02156015    0.0102524  58.86  0.001577866    3.276    0.695
        44  -9.4192     13.3417    146.6813   2.9258875281e+02   6.0024369102e+00  0.007371082  0.004817607  54.50 0.0007049456    1.716    0.417
        45 -11.2079     88.4544    144.1735   2.9163719863e+02   5.6043027709e+00   0.01841294   0.01184197  58.58  0.001615256    1.844    0.458
        46  -9.4464    182.5101    142.0193   2.9045208445e+02   5.0918291345e+00  0.009530513  0.005696436  74.70 0.0008095861    2.468    0.595
        47 -10.7015    125.5830    143.4806   2.9117003348e+02   5.4004635934e+00   0.02072474   0.01012376  57.94  0.001583544    2.980    0.664
        48 -10.4290     23.9840    138.9049   2.9241381430e+02   6.0324923791e+00    0.0181486  0.008124011  51.69  0.001378052    2.862    0.651
        49  -9.8537    208.9547    138.4711   2.9010322652e+02   4.9815380953e+00   0.01070694   0.00436786  44.80 0.0008097502    2.608    0.617
        50  -9.9864    198.0001    137.7847   2.9023600043e+02   5.0523082416e+00   0.01241823  0.009177877  84.28  0.001290754    1.654    0.395
        51 -10.9725     69.3341    140.2476   2.9185466916e+02   5.7589306944e+00   0.01815289  0.009532653  73.26  0.001332834    3.464    0.711
        52 -10.4318    113.4483    134.0997   2.9127060120e+02   5.5788663120e+00   0.01526361  0.007449111  41.70  0.001323267    2.001    0.500
        53 -10.9710    132.7556    132.4482   2.9102068021e+02   5.4877766430e+00   0.02081382  0.009945092  53.27  0.001642081    2.694    0.629
        54 -12.0848     83.7307    131.8173   2.9162924180e+02   5.7749601028e+00   0.02432366   0.01609503  65.06  0.001746589    1.884    0.469
        55  -9.7045    143.5011    132.0137   2.9088424334e+02   5.4313977931e+00   0.01514439  0.006188959  52.20  0.001038342    3.478    0.712
        56  -9.9892    205.5574    130.8571   2.9010415594e+02   5.0894990172e+00   0.01373262  0.007400463  53.92  0.001178053    2.249    0.555
        57 -10.3823     39.0276    136.0769   2.9221060997e+02   5.9799084330e+00   0.01156537  0.007617223  56.20  0.001131281    1.732    0.423
        58  -9.6690    169.1846    129.8168   2.9055193852e+02   5.3099835598e+00   0.01231313  0.006069317  57.32 0.0009433351    2.870    0.652
        59  -9.7789    153.0244    129.5310   2.9075195184e+02   5.4057935746e+00   0.01426094  0.007133253  64.88  0.001023818    3.461    0.711
        60 -11.7006     99.5555    128.4044   2.9141315247e+02   5.7244006168e+00   0.02734236   0.01587126  59.95  0.001972173    2.223    0.550
        61 -11.2888     73.4138    129.5984   2.9174605943e+02   5.8595669898e+00   0.01891125     0.011048  56.51  0.001712638    2.079    0.519
        62 -10.1713     12.8259    129.5445   2.9250263605e+02   6.2047410731e+00   0.01395863  0.007969695  61.47  0.001204254    2.346    0.574
        63 -11.1541    118.9782    126.1464   2.9115843517e+02   5.6397770228e+00   0.02926217   0.01007547  45.06   0.00202891    3.265    0.694
        64 -11.8565     59.6310    124.3430   2.9188975044e+02   5.9991915055e+00    0.0345712    0.0171068  65.31  0.002470201    3.613    0.723
        65 -11.5747     44.1168    122.8743   2.9207561462e+02   6.1045555671e+00   0.04108469   0.02128335  72.69  0.002983163    3.604    0.723
        66 -11.2097     28.8304    122.9008   2.9226675124e+02   6.1911445432e+00   0.03363268   0.01551428  63.53  0.002179955    4.362    0.771
        67  -9.7128    179.7684    124.5910   2.9039155750e+02   5.3101170275e+00   0.01019037  0.005662086  36.17 0.0008516769    1.662    0.398
        68 -10.4999    142.1711    119.6641   2.9083378437e+02   5.5825898944e+00   0.01926895     0.011777  67.64  0.001736166    2.232    0.552
        69 -11.0524     71.4377    120.1820   2.9171973282e+02   5.9803495926e+00   0.02203377   0.01154838  63.88  0.001722408    2.960    0.662
        70 -10.6813    131.8017    119.4151   2.9096184290e+02   5.6447725851e+00   0.02043027  0.009961933  51.00  0.001674559    2.446    0.591
        71 -10.2237      3.0686    117.7636   2.9256091202e+02   6.3971481450e+00   0.01407936  0.008079896  72.52  0.001167325    2.669    0.625
        72 -11.5146    109.5661    114.5324   2.9121292403e+02   5.8285804768e+00   0.02813747   0.01550227  68.16  0.002276077    2.827    0.646
        73  -9.3643    193.2921    115.6429   2.9017428860e+02   5.3366154762e+00  0.007205427   0.00494075  59.30 0.0007029357    1.689    0.408
        74 -12.2556     92.9693    112.1813   2.9140742746e+02   5.9506441460e+00   0.03214537   0.02047082  89.39   0.00276548    2.096    0.523
        75 -12.1598     79.4201    112.6447   2.9157917656e+02   6.0225201390e+00   0.03388589   0.01890951  71.62  0.002749267    2.851    0.649
        76 -10.6412    122.6629    113.0636   2.9104143742e+02   5.7708509601e+00   0.01657862  0.008103718  40.07  0.001244352    1.950    0.487
        77 -11.8847     66.9628    110.8973   2.9172532818e+02   6.1138247546e+00   0.02534641   0.01482745  63.25  0.002235148    2.305    0.566
        78 -10.8299     14.4652    110.5497   2.9237947884e+02   6.4163937063e+00   0.01896837   0.01282828  80.63   0.00177164    1.931    0.482
        79 -12.2573     46.3288    103.0575   2.9194069190e+02   6.3224592551e+00   0.04527408   0.01890453  55.69  0.002988354    3.998    0.750
        80 -10.2998    140.3780    105.3107   2.9077819743e+02   5.7597075296e+00   0.01674516  0.007891783  51.07  0.001332009    2.582    0.613
        81 -11.6074     22.9445    102.4584   2.9222972566e+02   6.4623534124e+00   0.03948626   0.01922559  64.66  0.002775243    3.734    0.732
        82 -10.4653    150.3699    103.4155   2.9064319456e+02   5.7245709579e+00   0.01581573   0.00702846 -73.06  0.001231806    2.852    0.649
        83 -11.1987    128.9328    102.4761   2.9090567088e+02   5.8581052240e+00   0.01828999  0.009931629  48.83  0.001634233    2.012    0.503
        84 -12.6650    110.1299     99.2799   2.9112310013e+02   6.0026995135e+00   0.04616452   0.02122223  52.73  0.003565664    2.835    0.647
        85  -9.3614    189.3187    107.6540   2.9018037394e+02   5.4522263812e+00  0.007340264  0.004881986  57.15 0.0007048981    1.727    0.421
        86 -11.1523     82.1442     99.8773   2.9147591796e+02   6.1554553713e+00   0.02236779   0.01404423  70.22  0.002058717    2.162    0.537
        87 -12.4612     64.3773     96.1201   2.9167754412e+02   6.3003935521e+00   0.03707104    0.0209229  64.22  0.003150509    2.515    0.602
        88 -11.5256     95.4548     97.0817   2.9129446530e+02   6.1120335052e+00   0.02062749   0.01422883  70.46  0.001652167    1.821    0.451
        89 -10.3133    138.8381     92.3161   2.9072680624e+02   5.9195593256e+00    0.0134621  0.008938402  72.06  0.001288145    1.966    0.491
        90 -11.8110    124.9423     90.8413   2.9089229140e+02   6.0161619853e+00   0.02255873   0.01375029  60.84  0.001729148    2.070    0.517
        91 -11.3553     34.8964     89.6755   2.9201111471e+02   6.5430883263e+00   0.02700172   0.01490344 -88.81  0.002237076    2.738    0.635
        92 -10.3549      5.0096     91.7337   2.9239592401e+02   6.6888794953e+00    0.0142147  0.008152775  73.22  0.001156466    2.689    0.628
        93 -12.4486     87.4761     86.9111   2.9133895146e+02   6.2757975851e+00   0.03454685   0.01917129  62.22  0.002917622    2.519    0.603
        94 -11.7308     49.5244     85.3161   2.9180462568e+02   6.5105751726e+00   0.03362317   0.01627601  56.85  0.002591952    2.937    0.660
        95 -11.8304    105.6032     83.6822   2.9109494530e+02   6.2098711526e+00   0.03215277   0.01614089  57.04  0.002562636    2.743    0.635
        96 -11.3189     75.0560     80.8543   2.9146129197e+02   6.4170309182e+00    0.0216351   0.01277444  82.21  0.001860935    2.545    0.607
        97 -11.2932     24.6595     80.4392   2.9208908323e+02   6.7086553095e+00   0.02581301   0.01563813  79.54  0.002270099    2.410    0.585
        98 -10.5425    119.0358     80.0145   2.9090722734e+02   6.1757613862e+00   0.01155578  0.007727614  57.21  0.001138832    1.715    0.417
        99 -11.7160     62.3190     76.9606   2.9159937469e+02   6.5348707941e+00   0.01949036   0.01348936  73.75  0.001940111    1.835    0.455
       100 -10.7344    127.9875     75.4906   2.9077083482e+02   6.1771600708e+00   0.01320732  0.009766258  81.43  0.001328888    1.656    0.396
       101 -11.9329     83.0918     73.3604   2.9132018443e+02   6.4583220270e+00   0.02761833   0.01506692  60.69  0.002313498    2.534    0.605
       102 -11.0381     95.6870     71.6001   2.9115321868e+02   6.4069149884e+00    0.0238015   0.01371546  76.27     0.001985    2.708    0.631
       103 -10.7066     42.7773     72.7357   2.9182078592e+02   6.6952187653e+00   0.01356258  0.009838785 -85.31  0.001253632    1.645    0.392
       104  -9.8626    115.6769     72.3496   2.9090752905e+02   6.2840353503e+00  0.007379872  0.004864991  57.05 0.0007048832    1.748    0.428
       105 -10.3145    106.0856     71.8801   2.9102480515e+02   6.3442871313e+00   0.01574811  0.008726255  56.78  0.001361559    2.279    0.561
       106 -11.4013     51.7394     69.7631   2.9169260473e+02   6.6787767821e+00   0.02819085   0.01552099  88.65  0.002294977    2.857    0.650
       107 -10.5117     16.6883     69.7051   2.9213063447e+02   6.8787174057e+00   0.01792846  0.008664347 -69.68  0.001437774    2.365    0.577
       108 -10.9688     37.4427     64.3686   2.9184213455e+02   6.8228176159e+00   0.01821406   0.01263204  74.92  0.001645421    1.835    0.455
       109 -10.0353    100.4806     60.4772   2.9103288118e+02   6.5088070489e+00   0.01212548  0.006830274 -84.39  0.001035459    2.466    0.594
       110 -11.7222     74.1550     60.0545   2.9135965336e+02   6.6639239773e+00   0.02401294   0.01544303  56.98  0.001939698    1.811    0.448
       111 -10.4332     24.7875     58.7345   2.9196988233e+02   6.9602338387e+00   0.01350226  0.009903895 -85.47  0.001272588    1.620    0.383
       112 -11.5264      7.6077     55.1021   2.9216512803e+02   7.0999941079e+00   0.03469637   0.01080389 -61.74  0.002516057    3.153    0.683
       113 -10.9736     63.2605     54.8180   2.9146744312e+02   6.7868637997e+00   0.01720891   0.01252158 -78.85   0.00131577    1.582    0.368
       114 -10.8873     54.3633     53.8987   2.9157371841e+02   6.8482188772e+00   0.02443727   0.01294633 -86.29  0.001967522    2.882    0.653
       115 -10.6100     44.2220     55.0785   2.9170695990e+02   6.8922277120e+00   0.01844119   0.01229864 -87.16  0.001786338    1.893    0.472
       116  -9.9527    100.6549     54.0973   2.9099602676e+02   6.5819409817e+00  0.009080058  0.008583863 -52.54 0.0003282151    1.119    0.106
       117 -11.1877     31.0189     50.2930   2.9184616000e+02   7.0229241119e+00   0.02840241   0.01305079 -77.60  0.002176373    3.083    0.676
       118 -10.7797     93.2304     51.4792   2.9107459810e+02   6.6547492654e+00   0.01747817   0.01112901  65.62  0.001640576    2.027    0.507
       119 -10.2653     20.0135     51.8250   2.9199215233e+02   7.0676523329e+00   0.01244374  0.009038281  87.65  0.001282386    1.689    0.408
       120 -10.3805     82.0254     47.2886   2.9119190831e+02   6.7673768147e+00  0.009943062  0.008683251  29.44 0.0006124636    1.073    0.068
       121 -10.4580     45.1664     44.5039   2.9163776534e+02   7.0097315463e+00   0.01270015  0.009824941 -64.94  0.001394719    1.379    0.275
       122 -10.5069     16.7075     43.5082   2.9198843113e+02   7.1830698638e+00   0.02218946  0.008266916 -67.42  0.001659711    3.030    0.670
       123 -10.8593     58.5869     42.9690   2.9146155659e+02   6.9511634510e+00   0.01770273   0.01087204  72.81  0.001584549    2.302    0.566
       124 -11.3883      5.1357     39.3310   2.9211060101e+02   7.2972828001e+00   0.03602933   0.01078654 -64.10  0.002513238    3.446    0.710
       125 -10.8416     69.3533     41.6471   2.9131971843e+02   6.9051770964e+00   0.01556667   0.01007891  55.93  0.001309173    1.771    0.435
       126 -10.3033     36.8014     39.9266   2.9171757605e+02   7.1104979597e+00   0.01895621  0.009502528 -73.55  0.001607553    2.434    0.589
       127 -13.2187    248.7504    238.9776   2.9015377076e+02   3.5855171167e+00   0.06465441   0.02092127 -66.85  0.004514114    3.504    0.715
       128  -9.9995     60.5103     32.5286   2.9138078990e+02   7.0614939110e+00   0.01146394  0.006836717 -84.27  0.001028324    2.223    0.550
       129 -10.1494     49.7594     32.1478   2.9151322152e+02   7.1271386180e+00   0.01461785  0.008546181 -71.42  0.001371813    1.945    0.486
       130 -10.1233     72.4802     31.5068   2.9122550851e+02   7.0051440277e+00  0.006871162  0.006352811  34.22 6.874105e-05    1.043    0.041
       131 -11.7338    232.1411    236.9862   2.9034954128e+02   3.7037448937e+00   0.01785747  0.006613213 -43.41  0.001266541    3.285    0.696
       132 -10.0421     48.4665     21.0213   2.9146896261e+02   7.2637297421e+00    0.0102934  0.006814249 -64.97   0.00103795    1.612    0.380
       133 -11.1060      3.2584     26.2631   2.9206325283e+02   7.4597421205e+00    0.0223702   0.01034016 -56.56  0.001943453    2.166    0.538
