#   1 NUMBER                 Running object number                                     
#   2 MAG_AUTO               Kron-like elliptical aperture magnitude                    [mag]
#   3 X_IMAGE                Object position along x                                    [pixel]
#   4 Y_IMAGE                Object position along y                                    [pixel]
#   5 X_WORLD                Barycenter position along world x axis                     [deg]
#   6 Y_WORLD                Barycenter position along world y axis                     [deg]
#   7 A_WORLD                Profile RMS along major axis (world units)                 [deg]
#   8 B_WORLD                Profile RMS along minor axis (world units)                 [deg]
#   9 THETA_WORLD            Position angle (CCW/world-x)                               [deg]
#  10 FWHM_WORLD             FWHM assuming a gaussian core                              [deg]
#  11 ELONGATION             A_IMAGE/B_IMAGE                                           
#  12 ELLIPTICITY            1 - B_IMAGE/A_IMAGE                                       
         1 -14.2518    219.3422      3.4026   4.0816999246e+01   2.9171078411e+01     2.689084     1.280692  58.01   0.00831108    2.064    0.515
         2 -13.8321    178.7066     47.2936   5.8673185518e+01   3.4366044838e+01     1.307434      1.02088  13.90 0.0009057289    1.510    0.338
         3 -14.0261    190.5050     37.2201   5.3670495748e+01   3.2673697537e+01     1.129818     1.056801 -56.58  0.003228066    1.065    0.061
         4 -14.6295    197.3596     28.5529   5.0134477307e+01   3.1982433929e+01     1.718135     1.418961  27.94  0.001340556    1.383    0.277
         5 -10.3851     94.2179    250.2197   1.1894384350e+02   1.2720663924e+01    0.2009882      0.12656  40.43  0.001089971    1.490    0.329
         6 -16.8456     71.9276    147.8766   1.1153921639e+02   3.5939346330e+01     15.09747      7.20391  80.43   0.03434666    6.399    0.844
         7 -10.3987     36.7898    220.7972   1.2637876236e+02   2.5050192079e+01    0.2588165    0.1748335  32.42  0.001550075    1.945    0.486
         8  -9.5807     43.8804    220.0523   1.2511224243e+02   2.4382404244e+01    0.1695976    0.1157386 -74.19  0.001202472    1.464    0.317
         9  -8.5798     49.4115    216.6023   1.2388979254e+02   2.4372558539e+01    0.3058396    0.2467624  17.45  0.002120861    2.073    0.518
        10  -9.3281     73.9132    218.7712   1.1966877798e+02   2.0861800315e+01    0.1435041   0.08343168  43.13 0.0008110402    1.578    0.366
        11 -10.7935     58.4069    214.0565   1.2207252778e+02   2.3752364462e+01    0.4016608     0.342272  48.20  0.001552517    1.368    0.269
        12 -13.6237     57.4482    203.0000   1.2128180895e+02   2.5999902985e+01    0.5696196     0.433385  75.36  0.001594772    1.052    0.050
        13 -11.0332     52.0460    209.0587   1.2281357301e+02   2.5484950148e+01     0.356747    0.1549642  50.92  0.001958805    1.944    0.486
        14 -10.5037     49.4500    205.5433   1.2299939962e+02   2.6475668718e+01    0.2005799    0.1409882  86.43  0.000560802    1.194    0.162
        15  -9.9551     43.6596    211.3340   1.2451140098e+02   2.6039305702e+01    0.3194554    0.1365158 -82.95  0.001684412    2.352    0.575
        16  99.0000     44.2729    205.9858   1.2398718239e+02   2.6996042800e+01    0.4101953    0.2300137  29.56  0.002364582    2.421    0.587
        17 -11.9679     39.0229    211.6747   1.2536121379e+02   2.6501730336e+01     0.352425    0.1611849  78.98  0.001889678    2.278    0.561
        18 -11.2703     69.5380    208.6460   1.1952559459e+02   2.3348300838e+01    0.2181829    0.1698067  81.46 0.0002306322    1.099    0.090
        19 -10.5252     74.3626    207.0700   1.1845573116e+02   2.3003495108e+01    0.3225037     0.295712  62.77  0.002353404    1.266    0.210
        20 -12.3867    195.0904    198.4246   9.3429577069e+01   4.3812581807e+00     1.263595    0.7787758 -60.49  0.005720049    2.942    0.660
        21 -11.1047     32.9528    205.9820   1.2603439029e+02   2.8258873304e+01    0.1931141    0.1428522 -69.58  0.001402141    1.470    0.320
        22 -16.5860     59.0577    247.9476   1.2452473760e+02   1.7713851419e+01     6.772834     2.368796  32.30   0.02670676    5.455    0.817
        23 -11.1210     96.4797    200.4326   1.1339044353e+02   2.1108640792e+01    0.3222752    0.2885496  -6.08 0.0009706815    1.647    0.393
        24 -19.4011     10.0807    138.0323   1.2511219917e+02   4.4692794438e+01     17.84363     1.817165 -74.27   0.03933688   10.585    0.906
        25 -10.5350     51.9694    226.9794   1.2422244697e+02   2.2168672716e+01    0.1881473   0.09822869  64.25 0.0004836495    1.631    0.387
        26  -9.0393     45.5393    199.3755   1.2321383558e+02   2.8147507287e+01    0.1673785   0.09604791 -80.23 0.0001554823    1.555    0.357
        27 -10.1372     44.8939    195.6067   1.2301635439e+02   2.8975558065e+01    0.2597847    0.1337036  59.14  0.001300948    1.742    0.426
        28 -12.3915     33.0325    198.3534   1.2546470057e+02   2.9742853962e+01    0.2799858    0.1722758  37.05  0.001511024    1.827    0.453
        29 -11.0262    208.1298    195.8966   9.0504764346e+01   2.4116208350e+00    0.1927934      0.17816  40.97  0.000663167    1.267    0.211
        30 -10.9068     97.6832    193.4330   1.1226477404e+02   2.2302900654e+01    0.3274995    0.2540744 -32.23   0.00155581    1.910    0.476
        31 -10.6690     80.4472    194.4757   1.1590402576e+02   2.4641737357e+01    0.3973162    0.1680641  50.08  0.001516216    2.162    0.537
        32 -12.9864     66.7517    189.5546   1.1812495382e+02   2.7515935376e+01    0.7092263     0.606756  84.95   0.00390113    1.089    0.081
        33  -9.7363     38.6924    192.7687   1.2396209799e+02   3.0247388515e+01    0.1606569    0.1458245  64.98  0.001222704    1.329    0.247
        34 -12.6228    149.5718    188.3316   1.0072338708e+02   1.4461407680e+01    0.4988333    0.3478447 -69.11  0.001985368    1.879    0.468
        35  -9.4055     72.2809    230.4802   1.2099378839e+02   1.8979360693e+01    0.1441139   0.08265532  55.34 0.0002929115    1.397    0.284
        36 -10.4420    155.1623    187.8923   9.9492840304e+01   1.3511882458e+01    0.2091511    0.1826334  68.53 0.0007650965    1.241    0.194
        37 -10.7691     59.5652    228.8477   1.2306157179e+02   2.0902714226e+01     0.163727     0.115228  65.75 0.0004799742    1.089    0.082
        38  99.0000     32.1945    227.7175   1.2758293852e+02   2.4305589524e+01    0.2152971   0.06964064  53.29  0.001144092    2.396    0.583
        39 -10.0283     73.7661    189.6369   1.1670657936e+02   2.6557299100e+01     0.170567    0.1202043  72.03   0.00102603    1.304    0.233
        40  -9.7971    204.8869    167.1640   8.5420388707e+01   7.5268639431e+00    0.6974747    0.3493922 -27.08  0.002887517    2.324    0.570
        41 -10.0654    201.3105    168.6807   8.6435695344e+01   7.9786204150e+00    0.3334529    0.2461706 -56.88   0.00115429    1.831    0.454
        42  -9.8578     50.4538    172.8277   1.1970221047e+02   3.3086222453e+01    0.1841821    0.1652546  46.20 0.0008187213    1.347    0.258
        43 -10.9099     43.8308    171.9207   1.2101073481e+02   3.4041992435e+01    0.4706471    0.1614467  40.43  0.002190175    2.745    0.636
        44 -12.1255    229.7789    168.3525   8.1019171440e+01   2.5610992392e+00    0.4995427    0.2450471 -19.83   0.00204306    2.546    0.607
        45 -10.4170    163.7125    169.5555   9.4302698585e+01   1.5283379737e+01    0.2653914     0.226907 -81.92 0.0003351926    1.450    0.310
        46  -8.6274     38.5673    225.1241   1.2636308685e+02   2.4064840932e+01    0.2460535    0.1310091 -83.19 0.0006400475    1.697    0.411
        47 -10.6396    192.7611    165.1962   8.7396455921e+01   1.0273329187e+01    0.2909737    0.2748965 -35.75 0.0008418393    1.172    0.147
        48 -10.5355    158.6011    161.9971   9.3886051666e+01   1.7752605149e+01    0.2499118    0.1966353  30.24 0.0006238334    1.304    0.233
        49 -12.5492     95.1926    154.0291   1.0694172215e+02   3.1082121996e+01    0.6768399    0.4633754 -33.80  0.003309562    2.006    0.502
        50 -10.8353    188.7155    154.8308   8.5977402769e+01   1.2941397509e+01    0.5317635    0.2674645  42.62  0.002205389    1.927    0.481
        51 -11.4838    133.8997    145.4939   9.6054460223e+01   2.6059913866e+01     1.185623    0.3101343 -54.13  0.003004982    5.384    0.814
        52  -9.9413    113.1757    151.2511   1.0214606063e+02   2.8670626939e+01    0.2783754    0.1821644 -84.32  0.001221344    2.135    0.532
        53 -10.4841    174.4797    148.9222   8.7643196860e+01   1.7026781288e+01    0.2962882    0.2685191  88.58 0.0009735358    1.321    0.243
        54 -10.8871    144.0671    146.6077   9.3915631777e+01   2.3801922692e+01    0.4376868    0.2104925 -58.37  0.001575425    2.750    0.636
        55 -11.6478    106.9550    139.6702   1.0139527127e+02   3.2358494323e+01    0.5715452    0.3350213 -35.01  0.002404282    2.281    0.562
        56 -12.6028     94.8942    139.6422   1.0441221128e+02   3.4398010148e+01    0.2999704    0.2830159 -28.44 0.0004566988    1.231    0.188
        57 -11.2047    105.8971    130.7808   9.9812562000e+01   3.4566467703e+01    0.4573582    0.3191873 -59.83  0.002178877    1.405    0.288
        58 -11.1148    101.9894    126.2369   9.9841758635e+01   3.6289524790e+01    0.3045875    0.2459426 -25.40  0.001072586    1.499    0.333
        59 -11.1256    114.4893    130.1749   9.7482557448e+01   3.3150961966e+01    0.3332103    0.2767664 -24.43 0.0007607696    1.420    0.296
        60 -10.6641    135.7243    128.1263   9.1702478590e+01   2.9452511436e+01    0.4986003    0.1703793 -47.58  0.001614389    2.913    0.657
        61 -10.2485    160.2376    127.1712   8.5663562349e+01   2.4425188037e+01    0.3663561    0.2494594 -60.66  0.001572797    1.825    0.452
        62 -11.1431    119.9726    123.8030   9.4620067708e+01   3.3545457956e+01    0.5149503    0.2944816 -25.52  0.001837248    2.999    0.667
        63  -9.6784    135.0000    119.9537   8.9883422800e+01   3.1374927900e+01     0.258239   0.08591052 -45.47 0.0008023775    2.942    0.660
        64  -9.1258    152.4583    119.5180   8.5539532573e+01   2.7717130460e+01    0.1544071    0.1504004 -67.02 0.0001052935    1.069    0.064
        65 -10.2539    109.9214    119.0354   9.6106619310e+01   3.6516326795e+01    0.2159417    0.2063448 -59.54 0.0003477984    1.009    0.009
        66 -10.1029    167.7711    112.5623   8.0198475498e+01   2.5668559750e+01    0.3637751    0.2609892 -78.83   0.00148345    2.178    0.541
        67  -9.5805    135.0000    112.9776   8.8097857382e+01   3.2881635198e+01    0.2633976   0.08631551 -44.49  0.000806722    2.972    0.664
        68 -11.4037    119.0190    110.5497   9.1591048594e+01   3.6683627614e+01    0.5521046    0.3678403  60.92  0.002417156    1.869    0.465
        69 -10.1525    205.6225    110.0931   7.1761438989e+01   1.7319161132e+01    0.2792125     0.220002  38.91 0.0005809888    1.309    0.236
        70  -9.4927    134.6185    106.2022   8.6387305755e+01   3.4413152504e+01    0.2268384    0.1434295 -34.25 0.0009238119    1.660    0.398
        71 -11.6078     53.2675     90.3338   1.0573358833e+02   5.1711248867e+01    0.3271438     0.184476 -49.72  0.001308613    1.498    0.332
        72  -8.9644    166.4646     93.5397   7.5209211170e+01   2.9679490807e+01     0.157245     0.152783 -46.04 0.0008075736    1.059    0.056
        73 -10.9975     41.7951     91.8832   1.0970007603e+02   5.2592381394e+01    0.2180533      0.17906 -54.68 0.0004712085    1.042    0.040
        74  -9.9113    186.1692     85.9852   6.8912559053e+01   2.6250545974e+01    0.2790391    0.2350303  55.30  0.001014377    1.232    0.188
        75  -9.1205    155.2763     80.3475   7.3807824624e+01   3.4859404940e+01     0.161352    0.1229139   5.30 0.0004760897    1.633    0.387
        76 -11.7235    161.6735     62.9050   6.6913253582e+01   3.6334803314e+01    0.4135229     0.314736 -82.44 0.0004759103    1.757    0.431
        77 -11.5945     62.6944    236.9970   1.2314965181e+02   1.9090148238e+01    0.1977547    0.1321347  67.42 0.0004953968    1.174    0.148
        78 -12.3310     48.8950    233.1075   1.2517291549e+02   2.1452938559e+01    0.2374841     0.140046  74.62 0.0005854834    1.434    0.303
        79  -9.9251     36.0664    234.0347   1.2733272436e+02   2.2766824877e+01      0.14841    0.1124786  75.51 0.0004458756    1.107    0.097
        80 -10.9291     53.6795    231.4024   1.2425325114e+02   2.1177124670e+01    0.2027747    0.1397643 -89.61  0.001039655    1.302    0.232
        81 -11.5590    163.1303     55.6773   6.4284055590e+01   3.7122838866e+01     0.356453    0.2805584  54.02 0.0005665473    1.264    0.209
