#   1 NUMBER                 Running object number                                     
#   2 MAG_AUTO               Kron-like elliptical aperture magnitude                    [mag]
#   3 X_IMAGE                Object position along x                                    [pixel]
#   4 Y_IMAGE                Object position along y                                    [pixel]
#   5 X_WORLD                Barycenter position along world x axis                     [deg]
#   6 Y_WORLD                Barycenter position along world y axis                     [deg]
#   7 A_WORLD                Profile RMS along major axis (world units)                 [deg]
#   8 B_WORLD                Profile RMS along minor axis (world units)                 [deg]
#   9 THETA_WORLD            Position angle (CCW/world-x)                               [deg]
#  10 FWHM_WORLD             FWHM assuming a gaussian core                              [deg]
#  11 ELONGATION             A_IMAGE/B_IMAGE                                           
#  12 ELLIPTICITY            1 - B_IMAGE/A_IMAGE                                       
         1 -14.5720    195.3349     41.1349   4.4396164928e+01   3.1432979555e+01      1.21823    0.9210265  25.23  0.004619854    1.745    0.427
         2 -13.6672    200.7438     35.4356   4.2188130761e+01   3.0893838732e+01    0.6404823    0.5777272 -55.52 0.0009779284    1.032    0.031
         3 -13.7195    225.7669     10.4314   3.3512866104e+01   2.8093583415e+01    0.8130527    0.4660611 -16.61  0.004073317    1.975    0.494
         4 -13.6739    220.2202      8.7823   3.3445549125e+01   2.9460412367e+01    0.7932895    0.4795713 -13.64  0.004186324    1.959    0.490
         5 -12.0273     74.7521     13.0569   5.7241991598e+01   6.5011525018e+01    0.3769871    0.2096516  71.57  0.001584784    2.497    0.600
         6 -12.3775     31.5804      2.5513   7.0813884299e+01   7.4876890500e+01     0.304356    0.1635344  51.76  0.001464542    2.443    0.591
         7 -12.5419     63.3734    249.2729   1.1249106299e+02   1.6430779827e+01    0.2572865    0.1348999  49.00 0.0009407179    1.475    0.322
         8 -17.6566     70.5324    146.3925   1.0092636524e+02   3.6422623985e+01      16.4515     7.817952  79.60   0.02865821    4.845    0.794
         9 -11.9871     63.3625    200.2868   1.0892267189e+02   2.5305573817e+01      0.35829    0.1918498 -56.15  0.000924269    2.165    0.538
        10 -11.7798     66.8547    195.4307   1.0767644438e+02   2.5869589791e+01    0.3058206    0.2272305  77.42 0.0009424036    1.347    0.258
        11 -11.8702    192.8781    194.4370   8.0469164838e+01   7.7790539461e+00    0.7218789     0.376543 -58.92  0.002405958    6.783    0.853
        12 -10.9864     39.3078    199.8615   1.1437949555e+02   2.8112223989e+01     0.187812    0.1239374  49.83 0.0003583061    1.229    0.187
        13 -13.1725     53.1808    195.0519   1.1083566559e+02   2.7581273734e+01    0.4943837    0.2932665 -42.22  0.001807835    2.493    0.599
        14 -10.3620     32.0832    195.7751   1.1577101089e+02   2.9702625871e+01    0.1924112    0.1088358  53.62 0.0009520567    1.450    0.310
        15 -10.2848     63.0550    214.1134   1.1013106514e+02   2.2628493065e+01    0.1625973     0.143779  31.68 0.0003663076    1.243    0.195
        16 -12.7262    147.2589    187.5871   8.8384727858e+01   1.5811816798e+01    0.4862924    0.3099607 -70.75  0.002297469    2.726    0.633
        17 -11.3047     89.3140    211.1107   1.0413492880e+02   1.9924771034e+01     0.237762    0.1808098  65.55 0.0006585171    1.339    0.253
        18 -10.8420     65.6611    207.0284   1.0898197918e+02   2.3686151127e+01    0.2074298    0.1744685  53.58  0.001254006    1.030    0.029
        19 -11.0340     57.1353    211.4857   1.1122015127e+02   2.3821741174e+01    0.2352017    0.2084042  76.87 0.0005354469    1.172    0.147
        20 -11.0158     55.4658    206.1338   1.1118549326e+02   2.5063127879e+01    0.2739031    0.1860242  84.05  0.001018322    1.504    0.335
        21 -10.1373     61.7357    194.0983   1.0875201574e+02   2.6771263328e+01    0.1643502    0.1418242  65.68 0.0002129303    1.059    0.056
        22  -9.7854     33.5319    182.4364   1.1457073156e+02   3.2419420751e+01    0.1225534    0.1032248  64.70 0.0001016598    1.041    0.039
        23 -11.5765    186.6970    174.6600   7.8167451829e+01   1.1708916398e+01    0.3097968    0.2813653 -32.03  0.001091842    1.255    0.203
        24 -11.6416    147.5205    173.5685   8.5994943598e+01   1.8297791948e+01    0.3718458    0.2345154 -69.20  0.001523405    2.642    0.622
        25 -12.3875     52.6279    171.8800   1.0890426634e+02   3.2702713011e+01    0.8065059    0.2707609 -59.56  0.001315287    2.936    0.659
        26 -11.9334     47.8524    172.7293   1.1021274414e+02   3.3059855470e+01    0.4070608    0.2525844 -46.50  0.001605882    2.060    0.515
        27 -11.1706     41.7168    207.8903   1.1435535566e+02   2.6234984427e+01    0.3063931    0.1496591  63.30  0.001356488    1.942    0.485
        28 -17.5294     27.1538    239.7448   1.1895148576e+02   2.1797951792e+01     4.556725      1.56117  28.44    0.0232111    2.672    0.626
        29 -13.6853     93.8071    150.3501   9.5080062503e+01   3.2019548677e+01    0.6496409    0.5226485 -28.86  0.003446514    1.531    0.347
        30 -12.7295    133.7321    145.2826   8.3858640730e+01   2.6275737831e+01     1.102822    0.2710266 -54.47  0.002603638    6.745    0.852
        31 -10.1365    174.6996    149.3189   7.5588793229e+01   1.8000175621e+01    0.1292372    0.1118013 -84.18 0.0002545939    1.621    0.383
        32 -12.5101    106.1856    137.0200   8.9274229847e+01   3.3036591646e+01    0.5271953    0.3084372 -30.64  0.002082546    2.562    0.610
        33 -12.1297    106.0523    130.8743   8.8058480747e+01   3.4478925205e+01    0.4154613    0.3347231 -64.70  0.001246174    1.279    0.218
        34 -11.9983    112.0689    150.4760   9.0282832170e+01   2.8989226940e+01    0.4010546     0.247174  68.77  0.001653405    2.466    0.594
        35 -12.4934     93.8505    136.6928   9.2636528589e+01   3.5207737846e+01     0.279189    0.2655511 -57.40 0.0005788928    1.092    0.084
        36 -12.1753    113.7335    128.6895   8.5487928489e+01   3.3585954104e+01    0.3262387    0.2676843  18.02  0.000841724    1.407    0.289
        37 -11.1845    101.2352    124.4788   8.8057690138e+01   3.6832958574e+01     0.281653    0.2333035 -28.38 0.0005501672    1.402    0.287
        38 -11.7270    119.5714    123.1400   8.2673819910e+01   3.3737318100e+01    0.2890571    0.2038295  -2.06  0.001204688    2.274    0.560
        39 -10.9351     27.5618    204.0629   1.1725044082e+02   2.8445450516e+01    0.4821527   0.04977886  42.75  0.001787839    3.796    0.737
        40 -10.4772    109.3189    117.9891   8.4292688518e+01   3.6865446728e+01    0.2080462    0.1894148 -55.62 0.0003434475    1.087    0.080
        41 -10.7641    231.3030    113.8810   5.8016148927e+01   1.3534892943e+01    0.2179098    0.1866851  24.00 0.0007482526    1.280    0.219
        42 -12.8215    117.9004    109.1863   7.9745236095e+01   3.7196329084e+01    0.5385147    0.4074781  73.44  0.002487861    1.667    0.400
        43 -10.3507    205.6865    110.0660   6.1032284036e+01   1.8845764640e+01    0.1986498    0.1627245 -28.37 0.0005570402    1.089    0.081
        44 -19.1276      4.7740    104.3100   1.1697105774e+02   5.3785862215e+01     17.54953     1.579924 -79.80   0.03221286   12.111    0.917
        45 -13.0958    180.0845     54.0823   5.0193429436e+01   3.3269028666e+01    0.4496039    0.3890095 -27.42 0.0007319782    1.157    0.136
        46 -10.8912     58.5037    248.8202   1.1339373962e+02   1.7038698566e+01    0.1467112    0.1017739 -75.47 0.0009669022    1.726    0.421
        47 -10.7203     71.9591    244.5874   1.1053152244e+02   1.6220382843e+01     0.161629    0.1418174  75.21 0.0006006084    1.266    0.210
        48  -9.9819     58.4987    225.5756   1.1193431396e+02   2.1025352240e+01    0.3232751    0.1055076  53.87  0.001407987    3.007    0.667
        49 -11.4549     49.0702    216.7950   1.1333301575e+02   2.3708677908e+01    0.4118651    0.2435425  53.85  0.002537721    1.387    0.279
        50  -9.8180     60.2236    218.7127   1.1108716562e+02   2.2091165263e+01    0.1124245   0.07086103  60.74  0.000308685    1.440    0.306
