#   1 NUMBER                 Running object number                                     
#   2 MAG_AUTO               Kron-like elliptical aperture magnitude                    [mag]
#   3 X_IMAGE                Object position along x                                    [pixel]
#   4 Y_IMAGE                Object position along y                                    [pixel]
#   5 X_WORLD                Barycenter position along world x axis                     [deg]
#   6 Y_WORLD                Barycenter position along world y axis                     [deg]
#   7 A_WORLD                Profile RMS along major axis (world units)                 [deg]
#   8 B_WORLD                Profile RMS along minor axis (world units)                 [deg]
#   9 THETA_WORLD            Position angle (CCW/world-x)                               [deg]
#  10 FWHM_WORLD             FWHM assuming a gaussian core                              [deg]
#  11 ELONGATION             A_IMAGE/B_IMAGE                                           
#  12 ELLIPTICITY            1 - B_IMAGE/A_IMAGE                                       
         1 -13.8640      2.6483     88.2615   1.3595538944e+02   5.7050062367e+01     2.332828    0.2248278 -64.06  0.007136294    5.459    0.817
         2 -14.9306      5.4496    140.5151   1.4249347034e+02   4.5343454279e+01     4.825874     1.077336 -74.83   0.01614372    4.435    0.775
         3 -13.5506    199.6124     27.5959   6.6460968404e+01   3.2225146969e+01     1.380852     1.256719  46.08  0.007405784    1.306    0.235
         4 -13.4472    215.5716      9.5707   6.0446202490e+01   3.0507480911e+01    0.9364258    0.7749086  79.57  0.002864711    1.127    0.113
         5 -11.5011      2.4453      8.7271   1.1403374915e+02   7.1345656784e+01    0.3832373    0.1317804 -39.26  0.002162277    2.220    0.550
         6 -11.3056     98.3016    249.2629   1.3495983331e+02   1.0265992435e+01    0.3294246     0.179116  46.96  0.001815554    1.530    0.346
         7 -11.7553    247.8348    249.3602   1.0706097064e+02  -1.4069756522e+01    0.5561212    0.2424563  39.25  0.002907014    2.127    0.530
         8 -11.9175    245.6258    245.0912   1.0672935311e+02  -1.3222851107e+01    0.6116283    0.2935812  17.62  0.002816526    2.787    0.641
         9 -12.7116     35.2194    245.9682   1.4578827926e+02   1.9700958663e+01    0.7099391    0.5158962  88.05  0.005186127    1.168    0.144
        10 -11.7352     28.7418    248.4159   1.4701735267e+02   2.0010540300e+01    0.5168527    0.3397629  72.49  0.003694789    1.104    0.094
        11 -13.0913      7.4639    229.3692   1.4932219278e+02   2.6010961774e+01     1.209339    0.6447636  60.66   0.00798664    1.508    0.337
        12 -12.7590      4.8532    247.9390   1.5076211809e+02   2.2732020146e+01     1.284743    0.5989558  45.52   0.00839011    1.934    0.483
        13 -12.7270     14.5593    240.7467   1.4883928511e+02   2.3062337374e+01    0.9203479    0.3975797  40.04  0.005412158    2.343    0.573
        14  -9.7846    129.3117    245.3389   1.2866062255e+02   5.9162781702e+00    0.1182457   0.09942865   8.71 0.0007045655    1.692    0.409
        15 -11.3568    124.4135    249.8475   1.3015067584e+02   5.9414519744e+00    0.5215619    0.1158356  40.88  0.001733425    3.989    0.749
        16 -11.6533     46.7041    248.2446   1.4402359837e+02   1.7836979427e+01    0.3676276    0.2859962 -85.84  0.002369575    1.271    0.213
        17  -9.8634    124.6552    243.3152   1.2930009341e+02   7.0634211029e+00    0.1354532   0.08582117  67.33 0.0007047873    1.715    0.417
        18 -10.3555    120.3928    240.1815   1.2973039028e+02   8.3522531762e+00    0.1738285    0.1170802 -78.48 0.0009576028    1.751    0.429
        19 -13.0482     45.0203    214.8198   1.4155491810e+02   2.4760468532e+01     1.041886    0.7428115 -82.59  0.004966604    1.205    0.170
        20 -14.1005     34.3259    226.2438   1.4449497090e+02   2.3689591804e+01    0.8653067    0.5776376  68.09  0.002413342    1.192    0.161
        21 -12.5022    119.1141    232.0891   1.2894717714e+02   1.0091614614e+01     1.008055    0.1566149  42.34  0.002813173    5.247    0.809
        22 -12.0714     91.3053    227.1957   1.3384617868e+02   1.5618727495e+01     1.013174    0.1326766  46.24  0.002807041    5.711    0.825
        23 -12.9773     29.4294    232.5065   1.4582148314e+02   2.3005542644e+01    0.3171553    0.2482982  84.46 0.0007693622    1.152    0.132
        24 -11.2426     58.3312    212.9688   1.3879193456e+02   2.3427030240e+01    0.5206974    0.1753043  56.14  0.002033833    3.260    0.693
        25  -8.6212    152.5033    213.0857   1.1930707270e+02   7.7986020844e+00    0.1823189    0.1392865 -53.31 0.0003491814    1.440    0.305
        26 -12.4404      9.5959    207.2213   1.4752670753e+02   3.0295304705e+01    0.6473708    0.4396771  35.37   0.00297127    1.863    0.463
        27 -10.3335     55.7625    205.7604   1.3855389796e+02   2.5330399368e+01    0.2568065    0.1460934  53.27  0.001402025    1.608    0.378
        28 -11.2216     36.6316    195.4094   1.4136754165e+02   2.9980005470e+01    0.7111619    0.2569651  71.56   0.00196369    7.177    0.861
        29 -11.6909     57.2796    198.8303   1.3748943078e+02   2.6658801627e+01    0.2898225    0.2207678 -81.03 0.0005357239    1.147    0.128
        30 -10.3912      8.3645    193.5114   1.4675324159e+02   3.3320796871e+01    0.2292295    0.1574342  69.70 0.0006636432    1.248    0.198
        31 -11.9556     63.9875    190.3092   1.3505806839e+02   2.7671322617e+01    0.2701472    0.2292898 -74.54  0.000421119    1.171    0.146
        32 -11.2418    139.7586    250.1697   1.2728387631e+02   3.3118474001e+00    0.3927112    0.1409648  43.47  0.001686031    2.290    0.563
        33  -9.1549     94.8504    172.0808   1.2534696568e+02   2.7219887023e+01    0.2158664    0.1734815  80.48 0.0002956863    1.232    0.188
        34 -11.9201     82.7397    168.0193   1.2757566097e+02   3.0130527909e+01    0.7196776    0.5856891 -52.39  0.004023701    1.304    0.233
        35 -10.7994     74.8648    177.2956   1.3086337525e+02   2.9131063442e+01    0.2455804    0.2135974  87.58 0.0002853885    1.017    0.017
        36 -10.5471     95.8934    152.5772   1.2158596602e+02   3.1684996473e+01    0.3167726    0.2982175  -2.84 0.0008162804    1.298    0.230
        37 -11.9144     84.3202    151.4799   1.2432591588e+02   3.3840226670e+01    0.3161418    0.2463455 -48.94 0.0006034002    1.314    0.239
        38 -13.1142     61.2681    175.4474   1.3373470664e+02   3.1478384664e+01    0.5223894    0.2829264 -47.20  0.001936228    2.220    0.549
        39  -9.1666     98.9984    148.2762   1.1995156010e+02   3.2181068562e+01    0.1975184    0.1857937  73.28 0.0002970862    1.071    0.067
        40 -12.1210     67.2828    143.5043   1.2728798336e+02   3.8268720312e+01     0.676451     0.435056  64.69  0.002950496    1.870    0.465
        41  -9.8358    108.0625    137.8916   1.1542288655e+02   3.3027541364e+01     0.439848    0.2777858 -25.75  0.001331077    2.523    0.604
        42 -10.4638     95.3097    134.7055   1.1810614352e+02   3.6052623334e+01    0.2488617    0.2267175 -40.43 0.0003547728    1.160    0.138
        43 -10.8585     25.8784    128.6532   1.3579815346e+02   4.6435183003e+01    0.2583298    0.1963208  61.41 0.0007238858    1.487    0.327
        44  -8.9646    105.8506    123.9869   1.1283683316e+02   3.6693284151e+01    0.1932078    0.1832592 -64.95            0    1.009    0.009
        45  -9.1021     74.1330    128.0596   1.2247959425e+02   4.0984803391e+01    0.2228625    0.1629224  80.03 0.0007778752    1.703    0.413
        46  -9.4707     78.7253    122.5860   1.2003167723e+02   4.1592237011e+01    0.2620825    0.1940366  72.81 0.0007716099    1.700    0.412
        47  -9.7136     65.7875    121.3884   1.2344166741e+02   4.3724502522e+01    0.2360024    0.1917971  89.54 0.0005296736    1.368    0.269
        48  -9.4127     47.1369     99.8488   1.2434239545e+02   5.0921360971e+01    0.1880128    0.1666687 -88.41 0.0006773807    1.291    0.225
        49 -10.7266    242.4899     92.0182   7.5868368069e+01   1.2447559205e+01    0.2255224    0.1267439 -40.78  0.001040384    1.613    0.380
        50  -8.7025     64.5047     80.5516   1.1391489712e+02   5.2905611321e+01    0.1319945    0.1190883 -35.66 0.0002334462    1.053    0.050
        51 -10.0773    158.9793     77.2989   8.6845334152e+01   3.4846883633e+01    0.2186512    0.1953859  58.54 0.0005471453    1.091    0.083
        52 -11.7872     12.0957    121.5679   1.3844273398e+02   4.9153481831e+01    0.2993062    0.2321712  77.24  0.001031089    1.386    0.279
        53 -12.1332      3.1974     49.9655   1.2750173161e+02   6.4627401935e+01    0.3466306     0.292267 -67.24  0.001480748    1.440    0.305
        54 -11.7545    198.4561    246.5833   1.1558915166e+02  -6.0821157846e+00    0.3587787    0.3012608 -57.67  0.002317312    1.610    0.379
        55 -11.0622    173.0030    248.6364   1.2072948656e+02  -2.1084017290e+00    0.4058979    0.1924854  58.91  0.001570102    3.558    0.719
        56 -11.4420      4.0731     21.3272   1.1818995063e+02   6.9409029464e+01    0.2976345    0.1396972 -23.13  0.001766723    2.010    0.502
        57  -9.3921     66.2022    250.2144   1.4082425921e+02   1.4852562829e+01    0.1706448    0.1055872  66.99  0.000586137    1.332    0.249
