#   1 NUMBER                 Running object number                                     
#   2 MAG_AUTO               Kron-like elliptical aperture magnitude                    [mag]
#   3 X_IMAGE                Object position along x                                    [pixel]
#   4 Y_IMAGE                Object position along y                                    [pixel]
#   5 X_WORLD                Barycenter position along world x axis                     [deg]
#   6 Y_WORLD                Barycenter position along world y axis                     [deg]
#   7 A_WORLD                Profile RMS along major axis (world units)                 [deg]
#   8 B_WORLD                Profile RMS along minor axis (world units)                 [deg]
#   9 THETA_WORLD            Position angle (CCW/world-x)                               [deg]
#  10 FWHM_WORLD             FWHM assuming a gaussian core                              [deg]
#  11 ELONGATION             A_IMAGE/B_IMAGE                                           
#  12 ELLIPTICITY            1 - B_IMAGE/A_IMAGE                                       
         1 -14.9862      9.6183    146.9773   1.4198297559e+02   4.3579530444e+01      11.7078     4.977833  80.84   0.04721295    3.616    0.723
         2 -13.2371    197.4117     30.4092   6.7122637261e+01   3.2301867997e+01     1.334619     1.134237  60.39  0.006376747    1.206    0.171
         3 -13.3225    213.0558     10.6376   6.0638696759e+01   3.0861657021e+01     1.158916    0.8601792  44.07  0.006886609    1.717    0.418
         4 -12.5922      3.4943      9.0688   1.1273971802e+02   7.1213429126e+01     1.101771    0.2845336 -40.57  0.005421207    2.960    0.662
         5 -11.2702    199.5186    246.5465   1.1533555267e+02  -6.2582463330e+00    0.3480037    0.1368816  41.28  0.001566531    2.187    0.543
         6 -11.6728    245.6629    246.1939   1.0686766819e+02  -1.3365347454e+01    0.5567725     0.316246  12.53  0.003047733    1.949    0.487
         7 -10.0792    185.8587    249.8401   1.1842132791e+02  -4.4738843144e+00    0.1715148    0.1394625  54.09 0.0009333105    1.338    0.253
         8 -11.2762    139.1913    249.8452   1.2729382193e+02   3.4437166785e+00    0.4071051    0.1715278  46.01  0.001887202    1.974    0.493
         9 -10.8005    125.4238    250.1333   1.2993588171e+02   5.7014344071e+00    0.4338759    0.1489318  35.74  0.001603267    3.492    0.714
        10  -8.9742     66.0313    249.8101   1.4074697896e+02   1.4919199053e+01    0.1975705    0.0944734  61.28 0.0008460333    1.872    0.466
        11 -10.4246     46.4535    249.0576   1.4404946748e+02   1.7680589339e+01    0.2672347    0.1676147  78.11  0.001141551    1.306    0.234
        12 -12.1510     29.0761    248.7782   1.4690547931e+02   1.9866786019e+01    0.7045109    0.2745156  43.46   0.00392306    2.271    0.560
        13 -12.1951     36.3113    243.9594   1.4538039877e+02   1.9916825180e+01    0.5808765    0.3636999  64.61  0.003915038    1.240    0.193
        14 -10.8362     13.3356    249.7753   1.4946734548e+02   2.1457440628e+01    0.2149103    0.1388262 -80.52  0.001577296    1.395    0.283
        15 -11.8105      3.8230    248.5246   1.5086396770e+02   2.2692179610e+01    0.7939467    0.3467239  87.16  0.004837704    1.892    0.471
        16 -11.4808     19.5032    242.4352   1.4805231182e+02   2.2163453544e+01    0.3984956    0.1418042  60.62  0.002049997    2.450    0.592
        17 -11.9918     10.6792    239.1250   1.4927492228e+02   2.3750650109e+01    0.3977793    0.1875871  57.42  0.001844376    1.693    0.409
        18  -9.9203    120.4782    239.9476   1.2961189643e+02   8.3577069898e+00    0.1760997    0.1045236  89.00 0.0008093082    2.552    0.608
        19 -10.0999    234.7812    238.9912   1.0756913969e+02  -1.0816370725e+01    0.1727029    0.1457638 -65.22  0.001074411    2.031    0.508
        20 -10.1325    185.4569    239.2798   1.1685325480e+02  -2.7838787531e+00    0.2251117     0.145522  55.19 0.0006707134    1.764    0.433
        21 -10.8382     50.8633    235.2713   1.4217676041e+02   1.9780522864e+01    0.3124801    0.1472714 -77.04  0.001672038    2.020    0.505
        22 -10.2962     81.7504    249.0668   1.3788844242e+02   1.2796123222e+01    0.2959256    0.1284575  54.65  0.001473711    1.991    0.498
        23 -11.5208    238.2027    247.7245   1.0844454059e+02  -1.2475695049e+01    0.3610312    0.2391268  -4.03  0.002203511    1.560    0.359
        24 -11.9943      9.1176    225.6898   1.4871566837e+02   2.6540922511e+01    0.5524859    0.1410105 -75.37  0.002465259    3.220    0.689
        25 -10.4152    230.6889    231.3661   1.0697972104e+02  -9.1240633140e+00    0.2223492    0.1857775 -50.80  0.001255549    1.661    0.398
        26 -12.6283     32.1686    231.1697   1.4514942625e+02   2.2919419195e+01      0.31381    0.2360557 -71.92 0.0007873512    1.431    0.301
        27  -9.0320    126.6682    225.3161   1.2642198332e+02   1.0076320139e+01    0.1405966   0.09434252  70.37 0.0003191441    1.685    0.407
        28  -9.9292    228.5016    228.0294   1.0678824962e+02  -8.2954104780e+00    0.2498398    0.1958325 -56.42  0.001065393    1.897    0.473
        29 -12.4423      9.6103    207.2356   1.4739311936e+02   3.0267909222e+01    0.6478867    0.5457276  23.07  0.003426597    1.859    0.462
        30  -9.2453     34.6132    202.6308   1.4231318832e+02   2.8604537026e+01    0.1912364     0.157694  73.65 0.0005531281    1.146    0.127
        31  -9.2754    191.9926    193.1361   1.0733377389e+02   4.0297152715e+00    0.3811341    0.1978299 -65.36  0.001101223    5.372    0.814
        32 -11.3822     59.3373    197.7241   1.3679061905e+02   2.6608199536e+01    0.2792004    0.2243059 -63.54 0.0005064706    1.331    0.249
        33 -11.7009     65.7774    189.4577   1.3440327985e+02   2.7597154462e+01    0.2846763    0.2367823 -61.30 0.0004392132    1.299    0.230
        34 -13.6974     37.5705    224.1075   1.4363386242e+02   2.3707717845e+01    0.7410105    0.5678119  75.68  0.002474091    1.051    0.048
        35  -8.4757    152.5290    212.9829   1.1917996626e+02   7.7967439942e+00     0.183516    0.1389889 -51.98 0.0003464398    1.446    0.308
        36 -10.6522     76.2172    176.8129   1.3029781477e+02   2.9026484160e+01    0.2491997    0.2183048 -83.18 0.0003902481    1.044    0.042
        37 -13.0158     62.8297    174.7757   1.3309784544e+02   3.1410208557e+01    0.5255883    0.2818998 -45.94  0.001589391    2.295    0.564
        38  -9.5931     96.0870    172.6588   1.2496177667e+02   2.6858234082e+01    0.2919682    0.2025141  55.24 0.0007790095    1.447    0.309
        39 -11.5181     83.8396    167.8769   1.2708802004e+02   2.9976617600e+01    0.5797362    0.5491507 -39.81  0.003467191    1.273    0.214
        40 -10.5750    134.6355    231.6581   1.2571442638e+02   7.4710493177e+00    0.2782317    0.1501717  44.94  0.001363742    1.609    0.378
        41  -9.7734     96.8875    152.0410   1.2099645200e+02   3.1627001110e+01    0.3030974    0.2609417 -43.21 0.0007685351    1.252    0.201
        42 -11.8363     85.3178    151.0201   1.2374826802e+02   3.3779033204e+01    0.3043762    0.2425667 -46.22 0.0007696231    1.313    0.239
        43  -8.7820    100.0055    147.7220   1.1933830667e+02   3.2120415385e+01    0.1958761    0.1873121  70.56 0.0003117709    1.081    0.075
        44 -12.0182     67.5958    143.6299   1.2697031901e+02   3.8187852021e+01    0.6660417    0.4474417  71.03  0.002373943    1.817    0.450
        45  -8.1754    192.2071    143.9873   9.6698915132e+01   1.3756447358e+01    0.1935934    0.1207736 -42.40 0.0003832447    1.566    0.361
        46  -9.4694    108.8846    137.3247   1.1481641646e+02   3.2987904402e+01    0.3571701    0.2557145  -8.54  0.001504208    2.300    0.565
        47 -10.2806     96.0482    134.3695   1.1755758503e+02   3.5988044373e+01    0.2632575     0.212798 -47.17 0.0004880663    1.207    0.171
        48  -9.8161     77.5979    130.2309   1.2167724507e+02   3.9948189581e+01    0.3308273    0.2100305  57.75  0.001461658    1.924    0.480
        49 -10.5087     29.4852    130.5858   1.3484329510e+02   4.5674683860e+01    0.2624515    0.2007298  59.34 0.0008045911    1.484    0.326
        50 -11.7669     21.2552    126.1938   1.3636453453e+02   4.7412046802e+01    0.4134558    0.2622999  50.29  0.001435026    1.871    0.466
        51 -10.2250    167.8508    112.9214   9.4266478836e+01   2.5780111749e+01    0.3413951    0.2783914 -79.24 0.0005503934    1.431    0.301
        52  -8.8361    106.2520    123.7924   1.1237948895e+02   3.6640021016e+01    0.1884729    0.1688311 -19.82  0.000308664    1.247    0.198
        53  -9.1599    203.3782    111.7929   8.6731620245e+01   1.7646709879e+01    0.2149224    0.1428181 -30.26   0.00053822    1.641    0.391
        54 -10.9724      5.1157    228.3398   1.4954217021e+02   2.6417550629e+01     0.236731    0.1813385  36.46  0.001323527    1.808    0.447
        55 -10.2530    242.5923     95.1996   7.6334636702e+01   1.1861128096e+01     0.205326     0.128638 -29.90 0.0009595564    1.738    0.425
        56  -8.4224     66.1442     82.1231   1.1336513209e+02   5.2341628431e+01     0.165985    0.1566957  81.28 0.0004412904    1.324    0.245
        57  -9.3674    158.4716     77.4608   8.6652171860e+01   3.4868345620e+01    0.1497125     0.145889  70.01 0.0001728859    1.006    0.006
        58  -8.9845     47.0865     69.7346   1.1620373087e+02   5.7218618633e+01    0.2285307    0.1364979  51.78  0.001109411    2.702    0.630
        59 -11.8673      2.3340     38.6152   1.2396722700e+02   6.6728564769e+01    0.5560668     0.116324 -54.42  0.002252132    3.799    0.737
        60 -12.3099      9.3707     53.0683   1.2532573682e+02   6.3719417769e+01    0.4347944    0.3426579  15.96  0.003220358    1.515    0.340
        61 -11.0105     97.0098    245.6712   1.3474572532e+02   1.1103774703e+01     0.383557    0.2347031 -83.41  0.001780506    1.858    0.462
        62 -11.0265    100.5041    245.4751   1.3407269393e+02   1.0590532158e+01    0.2910394    0.1911923  80.18  0.001668661    1.626    0.385
