#   1 NUMBER                 Running object number                                     
#   2 MAG_AUTO               Kron-like elliptical aperture magnitude                    [mag]
#   3 X_IMAGE                Object position along x                                    [pixel]
#   4 Y_IMAGE                Object position along y                                    [pixel]
#   5 X_WORLD                Barycenter position along world x axis                     [deg]
#   6 Y_WORLD                Barycenter position along world y axis                     [deg]
#   7 A_WORLD                Profile RMS along major axis (world units)                 [deg]
#   8 B_WORLD                Profile RMS along minor axis (world units)                 [deg]
#   9 THETA_WORLD            Position angle (CCW/world-x)                               [deg]
#  10 FWHM_WORLD             FWHM assuming a gaussian core                              [deg]
#  11 ELONGATION             A_IMAGE/B_IMAGE                                           
#  12 ELLIPTICITY            1 - B_IMAGE/A_IMAGE                                       
         1  -8.4465    111.8583     34.4493   2.9995417259e+01   5.2991739838e+01    0.3024941      0.17828 -46.21 0.0007355329    1.923    0.480
         2  -8.7310    119.2912     32.5325   2.7314658975e+01   5.1384060074e+01    0.3821872    0.1077508 -34.46  0.001186676    3.293    0.696
         3  -8.5592     55.7930      9.8937   3.6800289699e+01   6.8779476492e+01    0.2266119    0.1706278 -41.08 0.0005427107    1.569    0.362
         4  -7.8290     47.6060      9.8033   4.0596327229e+01   7.0278823084e+01    0.1771715    0.1129366 -37.85 0.0006946839    1.652    0.395
         5  -8.1089     91.1166      8.8788   2.3806290589e+01   6.1221564758e+01    0.2045662    0.1918767 -58.28 0.0005715271    1.260    0.206
         6  -8.2283     70.4561      6.0369   2.8683506713e+01   6.6249003183e+01    0.1995204    0.1264008 -21.40 0.0005362443    1.562    0.360
         7  -8.4539     33.1170      4.4283   4.4997983900e+01   7.3380089969e+01     0.244163    0.1536212 -46.08  0.001300912    2.030    0.507
         8  -8.4364     79.2959      3.7111   2.4475909272e+01   6.4507542893e+01    0.2463037    0.1487721 -32.74 0.0009106714    1.769    0.435
         9  -7.6931     44.6999      3.3100   3.7876836735e+01   7.1642214138e+01    0.1147908    0.1017997 -50.57 0.0003980534    1.602    0.376
        10  -8.1528    217.3292      1.9676   3.8229357754e+00   2.9209767932e+01    0.1780707    0.1455546 -44.47 0.0001992255    1.118    0.105
        11  -8.0699     62.8576      1.4309   2.8707309972e+01   6.8344090518e+01    0.1872608    0.1227505  52.33  0.000993569    1.515    0.340
        12  -7.5653     39.3088      1.6353   3.9557308122e+01   7.2777042890e+01    0.1173672   0.09936833 -51.75 0.0007038553    1.750    0.429
        13 -10.0728    147.2745    245.3154   7.0934706638e+01   6.1718370258e+00    0.2768545    0.2648189  11.20  0.001508275    1.293    0.227
        14  -8.7914    248.8362    249.3572   5.3932941256e+01  -7.7656279729e+00    0.2787324    0.1398171  -2.68  0.001729217    2.061    0.515
        15  -9.5383    248.6523    241.8156   5.2844829383e+01  -7.0564330074e+00    0.3048924    0.1825023 -28.44  0.001496914    1.903    0.474
        16  -8.6702    248.1852    234.4712   5.1797564384e+01  -6.3043603241e+00    0.2665661    0.1472611 -28.72  0.001340272    1.945    0.486
        17  -9.3486    246.6523    228.5714   5.1116428088e+01  -5.5354479203e+00    0.3459496    0.1576064 -24.98  0.001847755    2.141    0.533
        18  -9.1085    233.0938    246.9666   5.6085686408e+01  -5.6543840398e+00    0.3164769    0.1924047 -29.56  0.001808679    1.929    0.482
        19  -7.8816    125.3010    250.3290   7.5566505150e+01   8.5571473444e+00      0.10627   0.07857979  12.32 0.0007031836    1.644    0.392
        20  -8.4429     94.1707    249.2735   8.1262882761e+01   1.2902718910e+01    0.2381985    0.1082186  58.32  0.001215977    2.471    0.595
        21  -7.6197     26.3051    250.3161   9.3572351631e+01   2.0688290796e+01   0.08005742   0.07909344  22.63 0.0003308489    1.625    0.385
        22  -9.0881    119.8785    245.0626   7.6051654435e+01   1.0061855975e+01    0.3016858    0.1941766  81.84  0.001757569    2.563    0.610
        23  -8.9113     67.9362    245.4348   8.5848792768e+01   1.6823372334e+01     0.259875    0.1222312  62.82  0.001463878    2.177    0.541
        24  -8.9187    169.2962    243.3051   6.6622859457e+01   3.3055944494e+00    0.2220865    0.1612063  50.53  0.000699967    1.631    0.387
        25  -9.1501     77.9654    243.1277   8.3809850287e+01   1.5951216981e+01    0.2814713    0.1313295  60.07  0.001481925    2.213    0.548
        26  -9.0548    194.1936    240.3979   6.1748622930e+01   1.5761741398e-01    0.3049795    0.1713191 -44.63  0.001347916    2.558    0.609
        27  -8.1284    214.4779    241.4719   5.8380243008e+01  -2.7148348194e+00    0.1559096    0.1026449 -40.62 0.0007953023    2.219    0.549
        28  -9.1518    183.0855    239.9465   6.3673731247e+01   1.7678283278e+00    0.3468846     0.215922  56.33  0.001888496    2.753    0.637
        29  -8.8419    132.2517    247.7482   7.4005965061e+01   7.9540631851e+00    0.2399767    0.1582956  65.26 0.0009670122    2.077    0.519
        30  -7.9890     88.2879    242.0064   8.1767465617e+01   1.4803387812e+01    0.1497788    0.1224223  61.65 0.0006123644    1.164    0.141
        31  -9.2703    159.8986    239.8849   6.7925611508e+01   5.0924290381e+00    0.2419583    0.1987103  79.46  0.001108681    1.962    0.490
        32  -9.0127    242.9751    236.0142   5.2862855385e+01  -5.8137610066e+00    0.2853028    0.1325082   7.21  0.001453402    2.747    0.636
        33  -9.0114     38.9183    239.7530   9.0859231604e+01   2.1114873701e+01    0.1963255    0.1271275  29.72 0.0009847217    1.688    0.408
        34  -8.3650    145.9313    239.4483   7.0498136068e+01   7.1685542118e+00    0.1805096   0.08967983  38.55 0.0004608019    1.546    0.353
        35  -8.7015    135.6150    238.6550   7.2369500072e+01   8.7691533365e+00    0.2218048    0.1387347  59.84 0.0008013224    2.037    0.509
        36  -9.1837    231.1629    236.8975   5.4913237224e+01  -4.4134094371e+00    0.3550199    0.2326116 -17.35   0.00193155    1.501    0.334
        37  -8.8026    236.1352    230.7944   5.3162097362e+01  -4.4263837657e+00    0.2243148    0.1636806  -0.23  0.001007887    1.148    0.129
        38  -8.0522    209.3486    238.2347   5.8790328869e+01  -1.6762701452e+00    0.1304723    0.1007515 -33.29 0.0004176765    1.721    0.419
        39  -8.0217    129.0304    238.5000   7.3614459614e+01   9.7369597391e+00    0.1654577   0.07567898  51.54 0.0006135511    2.349    0.574
        40  -7.8616    104.4689    238.4647   7.8348292344e+01   1.3194162924e+01    0.1164888   0.09041378  42.64 0.0001871748    1.034    0.033
        41  -7.7637    225.6570    236.7185   5.5798404778e+01  -3.6828216659e+00    0.1164314   0.06542926  12.36 0.0004274714    1.634    0.388
        42  -8.4891    217.3139    235.6850   5.7049872086e+01  -2.4699219934e+00    0.1710981     0.130931  25.06 0.0007283537    1.235    0.190
        43  -9.3435    213.6669    231.6332   5.7067823033e+01  -1.5283926348e+00     0.264533    0.2174734  57.03  0.001244084    2.202    0.546
        44  -8.9664    203.0507    234.2742   5.9310966805e+01  -3.6302360471e-01    0.2317983    0.1645979 -42.15   0.00100162    2.009    0.502
        45  -9.6513    175.6757    233.1856   6.4106761469e+01   3.6818234101e+00    0.3796062     0.230503 -54.08  0.002171743    2.669    0.625
        46  -9.3070    109.0283    234.3258   7.7054356038e+01   1.3215710623e+01    0.3657611    0.1711495  53.99     0.001375    2.238    0.553
        47  -8.0606    122.9604    233.9886   7.4292646992e+01   1.1288084817e+01    0.1890956    0.1204628  59.23  0.001118778    1.773    0.436
        48  -8.1385     99.7278    234.1512   7.8859556237e+01   1.4534556612e+01    0.1947127    0.0957748  62.73 0.0009383616    2.725    0.633
        49  -8.4952     78.1791    233.5381   8.3020239246e+01   1.7506863616e+01    0.1949755    0.1289901  65.92   0.00118936    1.451    0.311
        50  -9.0940     68.4792    231.8770   8.4780763914e+01   1.9019517498e+01    0.4577234    0.2179226  75.62  0.002292357    2.867    0.651
        51  -8.0771      8.2947    234.6777   9.6159075928e+01   2.5066378806e+01     0.111502   0.04966765  59.27 0.0003176492    1.616    0.381
        52  -8.3527    194.4503    232.3930   6.0566132939e+01   1.0711090806e+00    0.1745913    0.1699103 -78.17 0.0008600461    1.709    0.415
        53  -8.9707    140.2020    230.1192   7.0471003855e+01   9.3532137572e+00    0.3323965    0.1373485  50.81  0.001289131    2.908    0.656
        54  -8.1972    132.7593    232.5266   7.2213159405e+01   1.0088648859e+01    0.2094689    0.1331048  64.13 0.0009186307    2.181    0.542
        55  -9.4858    186.4478    230.4880   6.1742130514e+01   2.4579504178e+00    0.2772077     0.230049 -74.58  0.001563146    2.328    0.570
        56  -8.1495    158.1289    232.1283   6.7265150773e+01   6.4047841036e+00    0.1575964     0.123542  47.24 0.0005880946    1.341    0.254
        57  -8.1821     92.1441    231.1998   8.0076225736e+01   1.6055011955e+01    0.1695636    0.1099849  57.28 0.0005483459    1.400    0.286
        58 -10.0468    149.8089    226.1872   6.8093271277e+01   8.4989849477e+00    0.5238492    0.3441922 -89.35  0.002432403    3.901    0.744
        59  -8.2304      1.4188    230.2313   9.7241181802e+01   2.6463192823e+01    0.1467796   0.06860898  74.31 0.0009468218    1.732    0.423
        60  -8.4617    229.8781    228.5666   5.3846807035e+01  -3.3762151380e+00     0.185997    0.1412311 -36.56  0.001299501    1.922    0.480
        61  -8.5879    162.2653    227.7185   6.5886513714e+01   6.4040143936e+00     0.272901    0.1757545  54.13  0.001555669    1.948    0.487
        62  -8.7383    127.7376    227.0281   7.2556512430e+01   1.1673542625e+01    0.2816478    0.1639211  55.36  0.001343173    1.893    0.472
        63  -9.1375      8.3045    227.8584   9.5935941396e+01   2.6263784871e+01    0.1940361   0.07280845  84.89 0.0009894037    2.528    0.604
        64  -8.3554    223.4563    226.5536   5.4611135642e+01  -2.2969727017e+00    0.2877755    0.1391259 -16.68  0.001452185    2.445    0.591
        65  -9.2759    225.2086    221.4299   5.3501652032e+01  -1.9639705637e+00     0.235225    0.1906283  39.52   0.00127132    1.659    0.397
        66  -7.9050    120.2189    227.2923   7.4086320133e+01   1.2736645351e+01    0.1531427   0.09781865 -75.54 0.0004916768    2.319    0.569
        67  -7.9268     49.6502    226.8316   8.8099452187e+01   2.2168282460e+01    0.2409639   0.09958879  70.72  0.001147803    2.930    0.659
        68  -8.7049    206.0628    225.6298   5.7484133341e+01   2.2929397392e-01    0.1838901     0.159532 -34.34 0.0007246489    1.625    0.385
        69  -8.0064    200.1855    226.1812   5.8615893677e+01   1.0042278004e+00    0.1444196    0.1261315  26.18 0.0005299888    1.331    0.249
        70  -8.5907    180.5000    224.2353   6.1936311363e+01   4.1450618930e+00    0.2647633    0.1629055  47.52 0.0009042127    1.813    0.448
        71  -8.8642     94.0794    223.8605   7.8991669585e+01   1.7037299088e+01    0.3458336    0.1612431  60.06   0.00161632    2.647    0.622
        72  -9.0697    216.4317    223.3409   5.5310995589e+01  -9.6547366814e-01    0.2020147    0.1877726  35.54  0.001302399    1.651    0.394
        73  -8.7191    104.6938    223.4870   7.6797689136e+01   1.5608420823e+01    0.2851183    0.1827094  72.10  0.001623377    1.985    0.496
        74  -7.9353     60.1913    223.8209   8.5817932984e+01   2.1461709135e+01    0.2082206   0.08081533  61.00 0.0009424258    2.862    0.651
        75  -9.5034    192.4162    221.2560   5.9277463622e+01   2.7578739407e+00     0.267124    0.2423342 -84.32  0.001262069    1.938    0.484
        76  -8.3886    173.0786    223.0170   6.3160702095e+01   5.4272316432e+00     0.172256    0.1388595  57.70 0.0006963821    1.681    0.405
        77  -7.9987    140.5696    222.7474   6.9469982569e+01   1.0417276970e+01    0.1400893    0.1187208 -82.92 0.0008131447    1.617    0.382
        78  -7.7553    113.5688    223.5263   7.5000524339e+01   1.4321331387e+01     0.122154   0.09757407  45.25 0.0001087152    1.033    0.032
        79  -9.7535    239.2922    220.6056   5.1023109119e+01  -3.7679996985e+00    0.3620463    0.2009485 -17.01  0.001710989    1.719    0.418
        80  -8.4846    162.6553    222.3150   6.5063948856e+01   7.1116713093e+00    0.2372164    0.1206998  43.82  0.001161163    1.779    0.438
        81  -8.3210    159.0279    220.5101   6.5517459038e+01   7.9298574858e+00    0.2350864    0.1579808  50.39 0.0008256311    1.615    0.381
        82  -9.2229    120.6214    219.2865   7.3072569545e+01   1.3985014698e+01    0.4403478    0.2148257  57.93   0.00196129    2.807    0.644
        83  -8.0232     73.1249    220.4487   8.2944807147e+01   2.0450080220e+01    0.2065096    0.1135114  76.93 0.0009522609    2.217    0.549
        84  -8.0706     27.4742    220.3191   9.2036618386e+01   2.5774336692e+01    0.1797183   0.09324484 -75.95  0.001112409    1.962    0.490
        85  -8.0033    202.6936    220.0181   5.7215379656e+01   1.3991878267e+00    0.1595582    0.1295834   5.72 0.0005093982    1.120    0.107
        86  -8.3034    210.2093    219.0874   5.5726748034e+01   4.2179894135e-01    0.1873189    0.1419661  49.42 0.0007590511    1.891    0.471
        87  -9.0610    248.3277    217.6022   4.9072768299e+01  -4.6268308543e+00    0.2791548    0.1739459  50.93  0.001519819    3.250    0.692
        88  -7.9969    135.6457    218.3345   6.9889408000e+01   1.1863452658e+01    0.2257532    0.1222689  49.27 0.0008321769    1.798    0.444
        89  -8.9227    132.0089    214.9548   7.0192569538e+01   1.2972258403e+01    0.2739713    0.2016988  74.45  0.001081139    1.873    0.466
        90  -8.3953     62.3995    217.4361   8.4890023086e+01   2.2359446543e+01    0.2837858    0.1212368  60.49  0.001366668    2.446    0.591
        91  -8.4987    179.4594    217.0394   6.1059384298e+01   5.2795153003e+00    0.1610527    0.1188516 -32.89 0.0005366161    1.564    0.361
        92  -8.7184    169.2719    215.8163   6.2836981532e+01   7.0286014286e+00    0.2357915    0.1973923 -83.06  0.001074017    1.980    0.495
        93  -8.8392    142.9612    216.3373   6.8141489154e+01   1.1052676519e+01    0.2580532     0.195428  83.30  0.001503304    2.052    0.513
        94  -8.7100     51.6111    216.7464   8.7037487509e+01   2.3788672501e+01    0.2223776    0.1281975  88.80 0.0009466808    1.807    0.447
        95  -8.4427     82.6214    220.2102   8.0981895200e+01   1.9242249921e+01      0.24868    0.1321612  64.40  0.001142601    2.115    0.527
        96  -8.2967     18.0000    215.4449   9.3642900559e+01   2.7627115048e+01    0.2122584   0.05402051 -79.64 0.0009201062    3.818    0.738
        97  -8.7817    232.3074    214.4592   5.1165601713e+01  -2.1529020355e+00    0.2184072    0.1856214 -33.29   0.00119711    1.735    0.424
        98  -8.0112    154.2001    214.5293   6.5625857051e+01   9.5790886075e+00    0.1939388    0.1477101 -84.82 0.0009734192    2.245    0.555
        99  -7.9555     41.7336    215.2411   8.8935832765e+01   2.5201599818e+01    0.2394281   0.07927869  60.20  0.001027427    3.149    0.682
       100  -9.4317    214.0677    211.9693   5.3888116228e+01   7.3081897685e-01    0.3262396    0.2718498  46.82  0.001611744    1.710    0.415
       101  -8.5279    185.6037    213.9425   5.9415566991e+01   4.7607893028e+00    0.1939125    0.1554051 -50.02 0.0008528114    1.775    0.437
       102  -8.7051     93.0266    213.8304   7.8193570371e+01   1.8960935711e+01    0.3229883    0.1374595  53.44  0.001470405    2.406    0.584
       103  -9.3268     73.4133    211.9330   8.2139419307e+01   2.1985295958e+01    0.5883091    0.1710205  53.99  0.002056759    4.272    0.766
       104  -9.0953    243.0417    211.7219   4.8937855844e+01  -3.3041680909e+00    0.1613938    0.1165284  11.12 0.0003973685    1.048    0.046
       105  -7.9871    225.1046    212.1394   5.1997411969e+01  -8.7981880893e-01    0.1453768    0.1274735   2.57 0.0004924379    1.334    0.250
       106  -8.9478    204.2770    210.7920   5.5446959975e+01   2.3326816666e+00    0.2213552    0.2040595 -35.10 0.0008198754    1.553    0.356
       107  -9.4871    175.4660    209.8278   6.0715830299e+01   6.9251864567e+00    0.3766479    0.2725644  69.57   0.00181656    2.614    0.617
       108  -8.5422    161.5165    211.9304   6.3785074381e+01   8.8223717532e+00      0.22049    0.1773939  54.71  0.001013883    1.477    0.323
       109  -7.8392    106.7478    212.5979   7.5167789671e+01   1.7200540372e+01    0.1820984   0.09312042  45.99 0.0007731021    1.649    0.394
       110  -8.3512    192.3130    210.4132   5.7591223185e+01   4.2072661700e+00    0.1738671    0.1504055 -55.54 0.0006057313    1.775    0.437
       111  -8.7986    147.9559    210.3610   6.6291258503e+01   1.1219802451e+01    0.2534801    0.1971747  87.00  0.001177848    2.007    0.502
       112  -8.8243    116.2418    210.2783   7.2885148537e+01   1.6187567305e+01    0.2945505    0.1791153  65.08  0.001075432    2.155    0.536
       113  -9.2881    236.5355    207.6682   4.9313924244e+01  -1.9640756480e+00    0.3816453    0.2153775 -35.86  0.001762289    2.067    0.516
       114  -8.0936     32.3320    210.0188   9.0524342456e+01   2.7219392691e+01    0.1872656   0.06312829  75.56 0.0007044832    4.278    0.766
       115  -8.5870      6.5626    208.9509   9.5600119140e+01   2.9919415198e+01    0.3165641   0.08085847  72.96  0.001181743    4.744    0.789
       116  -8.3651     85.3804    208.9670   7.9312564142e+01   2.0929358963e+01    0.2454111    0.1473373  74.23  0.001179075    2.018    0.505
       117  -8.2457     46.3741    209.2212   8.7587583449e+01   2.5831080738e+01    0.1621047   0.09275816  83.09 0.0007858287    1.750    0.428
       118  -9.3409    246.5027    206.9495   4.7564177210e+01  -3.2428597359e+00    0.2784152     0.166866 -14.61  0.001048606    1.485    0.326
       119  -9.3848    250.2329    201.8000   4.6071988169e+01  -3.1735476153e+00    0.4003246    0.1576134 -32.11  0.002044643    2.472    0.595
       120  -8.0726    156.5181    207.9748   6.4197900995e+01   1.0230578011e+01    0.1644748    0.1281593 -46.47  0.001010986    1.559    0.359
       121  -8.3545    138.9364    207.6290   6.7763591021e+01   1.3102108928e+01    0.2236542    0.1702542 -86.60 0.0009770546    1.963    0.491
       122  -8.1872    126.6305    208.3374   7.0441439400e+01   1.4923781156e+01    0.1929154    0.1345932  62.46 0.0008656097    1.680    0.405
       123  -9.1310     99.4482    205.9667   7.5958791564e+01   1.9482190898e+01    0.3354005    0.1927469  70.42   0.00144899    2.410    0.585
       124  -8.4455     56.7942    205.5554   8.5117410172e+01   2.5316123651e+01    0.3086604    0.1131282  55.19  0.001267495    2.637    0.621
       125  -9.0633    183.6867    203.7281   5.8140164306e+01   6.5010125834e+00    0.2836744    0.2230625  63.86  0.001234157    1.987    0.497
       126  -8.0448    109.0088    204.9815   7.3774166113e+01   1.8237260380e+01    0.2027183    0.1336006  62.54 0.0006246524    1.676    0.403
       127  -7.9339     75.6467    205.3294   8.1044156307e+01   2.2949943946e+01    0.1355907   0.07566675  60.73 0.0007046565    1.775    0.437
       128  -9.2788    194.8445    203.6189   5.5995766295e+01   4.7436529551e+00    0.2849832    0.2258456  50.58  0.001273182    1.648    0.393
       129  -9.3917    192.5250    197.2578   5.5349345329e+01   6.0106894407e+00    0.3530895    0.2732991 -55.08  0.001457815    1.965    0.491
       130  -9.5772    163.7585    202.8469   6.1940692874e+01   9.8633004713e+00    0.3977064      0.21988  50.90   0.00114342    2.108    0.526
       131  -8.6621    131.1749    203.6864   6.8844070507e+01   1.5012683737e+01    0.2570702    0.1840144  68.69  0.001340093    1.827    0.453
       132  -9.0692    243.1242    200.6044   4.7002314818e+01  -2.0675496450e+00    0.2535767    0.1502692 -28.82 0.0008606547    1.674    0.402
       133  -8.5503    210.8869    201.5965   5.2698600706e+01   2.5233502027e+00    0.2085301    0.1598667 -47.03 0.0008521127    1.931    0.482
       134  -8.5876     80.1601    201.0495   7.9628969894e+01   2.3171103249e+01     0.305119    0.1480561  63.61  0.001216368    2.555    0.609
       135  -8.0088     48.3149    201.9662   8.6651743305e+01   2.7035992829e+01    0.1947995   0.07482643  79.41   0.00070472    4.339    0.770
       136  -7.7891    222.2236    201.2580   5.0633260264e+01   8.5719669507e-01    0.1654984   0.08939128 -41.25 0.0005323084    2.382    0.580
       137  -7.8407      9.9917    202.0000   9.4648077103e+01   3.0967351883e+01    0.1663617    0.0549196  29.66 0.0006694549    2.939    0.660
       138  -9.3824    149.5100    198.3174   6.4168001038e+01   1.2946333756e+01    0.4006054    0.2807161  80.49  0.001514503    2.659    0.624
       139  -8.7699    124.1340    198.9639   6.9698277658e+01   1.6977844631e+01    0.3083764    0.2035157  80.02  0.001231173    2.446    0.591
       140  -9.2378    112.9972    198.3625   7.2055593786e+01   1.8849547820e+01    0.4348566    0.2308388  63.10   0.00186622    2.784    0.641
       141  -9.0910    237.0040    198.0221   4.7548894353e+01  -9.0345858786e-01     0.281478    0.1496837 -33.19  0.001115132    1.951    0.487
       142  -8.8607    176.9974    198.5908   5.8595616566e+01   8.3490106514e+00    0.2097273    0.1831014 -57.27 0.0006267093    1.588    0.370
       143  -8.9605     88.7093    198.3705   7.7444038141e+01   2.2494612120e+01     0.328501    0.1978649  72.30  0.001367584    2.042    0.510
       144  -8.4620    202.4191    197.7513   5.3575610985e+01   4.3573469439e+00    0.2095471    0.1780455 -54.45  0.001074865    1.822    0.451
       145  -9.0562     61.2949    196.8499   8.3393439881e+01   2.6497907295e+01     0.420442    0.1843036  65.13    0.0018267    2.812    0.644
       146  -8.0316     29.2626    197.9738   9.0452125031e+01   2.9925178189e+01    0.1465021   0.08778369 -85.60 0.0008524042    1.556    0.357
       147  -7.9040     13.6244    198.3171   9.3745486564e+01   3.1371963273e+01    0.1281711   0.05680606  58.70 0.0007029794    1.803    0.445
       148  -8.7141    215.9133    195.3843   5.0704645632e+01   2.5646874466e+00    0.2368259     0.167198 -43.66  0.001043777    1.931    0.482
       149  -8.9964    185.2722    194.7952   5.6321516528e+01   7.5570395118e+00    0.2262949    0.2107376 -79.20 0.0006366847    1.606    0.377
       150  -8.3049    133.0064    195.7189   6.7299889637e+01   1.6124735879e+01    0.2083568    0.1687986 -80.12 0.0007340025    1.603    0.376
       151  -8.8344    224.3816    193.6664   4.8907254289e+01   1.4921594787e+00    0.2792048    0.1612713 -42.80  0.001273674    2.320    0.569
       152  -8.7668    140.8390    201.1604   6.6428734060e+01   1.3889182570e+01    0.3312789    0.2047999  60.24  0.001326764    2.180    0.541
       153  -9.1423    160.8568    194.1079   6.1122306839e+01   1.1749874602e+01    0.3082892    0.2196733  64.61  0.001224812    2.075    0.518
       154  -9.1926    245.4231    193.1163   4.5288547734e+01  -1.5193906897e+00     0.215475    0.1890421 -19.02 0.0007926758    1.484    0.326
       155  -8.0774    231.1398    194.1925   4.7844242512e+01   4.1453699547e-01    0.1510143    0.1355764   0.27 0.0006028182    1.349    0.259
       156  -8.7447     76.9220    193.7132   7.9577291223e+01   2.5080450975e+01    0.2214475    0.1672696  81.58  0.000494053    1.336    0.251
       157  -8.8346     44.0523    193.3329   8.6923893224e+01   2.9282106179e+01    0.3785369    0.1737569  71.15  0.001804874    2.409    0.585
       158  -8.3441    199.0533    191.6134   5.3116633106e+01   5.7593707263e+00     0.198535    0.1677296 -30.46 0.0005782202    1.368    0.269
       159  -8.4402    172.4482    191.7043   5.8338371131e+01   1.0179619509e+01    0.2245427    0.1873914 -71.52  0.001034295    1.821    0.451
       160  -8.0033    127.4977    192.4180   6.8016214872e+01   1.7631363112e+01    0.1862045    0.1327436 -50.20 0.0004472805    1.606    0.377
       161  -8.8580    129.1370    188.3829   6.7041698517e+01   1.8110346411e+01    0.2703964    0.1994807  70.98 0.0008640196    1.743    0.426
       162  -8.4049    179.3827    191.2677   5.6868404728e+01   9.0768306202e+00    0.1627056    0.1246326 -47.38 0.0005050815    1.637    0.389
       163  -9.1691    139.3751    190.2018   6.5064886135e+01   1.6056250131e+01    0.3239542     0.233735  74.70  0.001197038    2.057    0.514
       164 -10.3181     92.7328    188.9298   7.5404976165e+01   2.3788843717e+01    0.9329333    0.2116531  45.86  0.002960407    4.109    0.757
       165  -8.9069     21.2295    191.1263   9.1773066121e+01   3.2126910745e+01    0.2404629    0.0945725  53.49  0.001229204    2.068    0.517
       166  -8.3719      6.5262    191.5038   9.4916992538e+01   3.3380256538e+01    0.1158798   0.08294898  67.32  1.31032e-05    1.050    0.048
       167  -8.1725    148.6300    189.1035   6.2880470034e+01   1.4678765065e+01    0.1892325    0.1656642 -84.52 0.0009712126    1.499    0.333
       168  -8.9047     34.3101    188.0492   8.8702873542e+01   3.1453473697e+01    0.3189006    0.1378008  68.77  0.001337526    2.431    0.589
       169  -8.2019    237.2952    188.1060   4.5697465739e+01   2.5773245006e-01    0.1706976    0.1285959 -13.99 0.0006769702    1.187    0.157
       170  -8.8831    216.4058    187.5710   4.9194348860e+01   3.5289004791e+00    0.2267831    0.2063787 -36.55 0.0009188557    1.522    0.343
       171  -8.6127    191.5100    187.3524   5.3786582695e+01   7.6327820147e+00    0.2408871    0.2092237 -83.75  0.001331988    1.939    0.484
       172  -9.1906    155.8344    187.2970   6.1036160473e+01   1.3754960681e+01    0.2797959    0.1938237 -53.04 0.0008862648    1.771    0.435
       173  -9.4624    120.6626    186.0166   6.8590995513e+01   1.9968455925e+01     0.436709    0.2679713 -78.89  0.001969359    2.633    0.620
       174  -9.0431     54.7125    186.6374   8.3950824144e+01   2.9433936864e+01    0.4067735    0.1841225  68.53   0.00154332    2.730    0.634
       175  -8.1946    230.6519    187.3275   4.6667717764e+01   1.3503728210e+00    0.1548934    0.1510067 -40.32 0.0006811153    1.659    0.397
       176  -8.7408    164.9091    186.3916   5.8967389132e+01   1.2338672368e+01     0.255818    0.1940775 -62.98 0.0008797569    1.882    0.469
       177  -9.0709    109.6654    186.0311   7.1111161532e+01   2.1753637545e+01    0.3589387    0.2193678  66.52  0.001164481    2.153    0.535
       178  -8.9684    249.2221    185.2209   4.3226941509e+01  -1.1247113061e+00    0.2407177    0.1621371 -28.97 0.0008435604    1.501    0.334
       179  -8.7834    210.1091    184.1710   4.9697869547e+01   5.0105272928e+00    0.2372012    0.1700665 -31.49   0.00045526    1.463    0.317
       180  -8.7914    202.7158    184.3744   5.1103648170e+01   6.1990797155e+00    0.2098225    0.1993904 -45.20 0.0007620496    1.478    0.324
       181  -8.6339    183.0580    184.7872   5.4978589092e+01   9.4629634080e+00    0.2312696     0.219654 -65.98 0.0008930365    1.450    0.310
       182  -9.0050     66.7741    184.6176   8.0947521214e+01   2.8335925905e+01    0.3505627    0.1702052  59.30  0.000991388    2.176    0.540
       183  -8.5425    224.1651    183.4342   4.7052804997e+01   2.8586809253e+00    0.2152994    0.1510656 -41.04  0.000513127    1.800    0.445
       184  -8.9103    174.3017    183.4911   5.6510236509e+01   1.1185860622e+01    0.2421952     0.221484  74.82 0.0008620643    1.491    0.329
       185  -8.6674    242.6632    183.3097   4.3920117561e+01   5.7524713263e-02     0.162809    0.1013421 -46.61 0.0008440262    2.614    0.618
       186  -8.0733    196.9998    183.2391   5.1972879389e+01   7.3232611439e+00    0.1670251    0.1440802 -51.93 0.0005602311    1.618    0.382
       187  -9.1888     44.5165    182.1933   8.5919814036e+01   3.1585803545e+01    0.3738075    0.1873215  65.26  0.001110357    1.999    0.500
       188  -8.0791      1.7860    183.5655   9.5590007440e+01   3.5413221231e+01    0.1580678   0.07752782  46.44 0.0009398518    1.668    0.401
       189  -8.1000    235.3960    181.1955   4.4715165622e+01   1.4117990542e+00    0.1630243    0.1051967 -34.84 0.0005019606    1.677    0.404
       190  -9.2615    147.4273    180.2968   6.1654994609e+01   1.6463872239e+01    0.3186014    0.2505029  83.62   0.00111912    1.857    0.462
       191  -7.8196     90.3499    181.3068   7.4984819874e+01   2.5716800798e+01    0.1272231    0.1045748  -9.27 0.0003655942    1.707    0.414
       192  -9.5277     25.4885    178.5835   9.0052435163e+01   3.4377252748e+01     0.621062    0.2098547  73.38   0.00226487    4.119    0.757
       193  -8.6283    137.6771    179.2871   6.3655540392e+01   1.8362680146e+01    0.3151138    0.2042143  65.83  0.001203732    2.251    0.556
       194  -9.3986    191.4270    177.9902   5.2059240669e+01   9.0774601787e+00    0.2619579    0.2507879  72.51 0.0006129575    1.457    0.313
       195  -8.3568    169.1726    178.4730   5.6653987697e+01   1.2924707091e+01    0.2012604     0.191021  89.01 0.0006674844    1.374    0.272
       196  -9.1595     36.0324    176.8630   8.7469248010e+01   3.3679689787e+01    0.5235397    0.1972413  76.49  0.001930016    3.896    0.743
       197  -8.6582    250.5317    172.8465   4.0661972632e+01   1.8721914200e-01    0.2583076    0.1409506 -19.56 0.0006810261    1.647    0.393
       198  -9.1733    249.0185    177.0818   4.1717963239e+01  -1.1140582275e-01    0.2770222    0.2627147 -61.57  0.001297114    1.867    0.464
       199  -7.8069    247.3341    173.7001   4.1330858521e+01   5.5651394847e-01     0.130386   0.09910895  -0.32 0.0004155946    1.045    0.043
       200  -8.5899    205.0733    177.5032   4.9359488216e+01   6.8068942685e+00    0.2291182    0.1762744 -43.97 0.0007067611    1.636    0.389
       201  -8.6893    129.4017    177.3832   6.5221973173e+01   2.0168226910e+01    0.2924399    0.1947962  72.44 0.0008626762    2.280    0.561
       202  -8.6794    231.0816    176.4848   4.4534740808e+01   2.6925604038e+00    0.2584379     0.153849 -36.02 0.0008737367    1.777    0.437
       203  -8.4221    217.6407    177.1266   4.6994639450e+01   4.7653652996e+00    0.1838602    0.1529849 -34.08 0.0006649068    1.431    0.301
       204  -9.4651    183.1754    175.2249   5.3167152615e+01   1.0969096893e+01    0.4229474    0.2368898 -28.53   0.00114139    1.980    0.495
       205  -8.6018     88.9482    176.5628   7.4690443464e+01   2.6931856695e+01    0.2497141    0.1751128  85.14 0.0008143341    1.643    0.391
       206  -9.2160     58.7796    175.3830   8.1880749695e+01   3.1366947346e+01    0.4635602    0.1951279  60.72  0.001873165    2.878    0.653
       207  -9.3920     55.8235    170.6600   8.2105200338e+01   3.2787570305e+01    0.4516732    0.2270969  80.81    0.0019816    2.529    0.605
       208  -7.6533    211.6492    176.2926   4.7912537335e+01   5.8758225391e+00    0.1150166    0.1068351  72.70 0.0007029873    1.675    0.403
       209  -9.2170    158.8428    174.7860   5.8172204039e+01   1.5421128661e+01     0.374469    0.2786027  78.57  0.001486399    2.241    0.554
       210 -10.6281    101.7378    175.5796   7.1463365668e+01   2.5156607529e+01    0.4213748    0.2972076  25.59            0    1.571    0.363
       211  -8.4427     12.9937    176.2820   9.2769554174e+01   3.6028357852e+01    0.2403415    0.1168035  55.22   0.00134131    1.716    0.417
       212  -9.5637    176.0234    172.4797   5.4097938752e+01   1.2707939197e+01    0.3673426    0.2829744 -54.69  0.001408254    1.688    0.407
       213 -10.6260     75.7448    169.6753   7.7028295270e+01   3.0365377639e+01     1.199003    0.4690051 -78.22  0.003889256    4.508    0.778
       214  -9.5419     81.2717    155.1634   7.3566085746e+01   3.2855166589e+01    0.5018569    0.4617937 -54.39  0.002113206    1.201    0.167
       215  -8.3386    224.3822    174.1526   4.5228531101e+01   4.0771819042e+00    0.1725464    0.1103449 -38.19 0.0006476784    1.741    0.426
       216  -7.4618    241.3250    173.6982   4.2293898220e+01   1.4653740004e+00    0.1061702   0.09922966 -41.35 0.0005028131    1.637    0.389
       217  -8.0349    143.0343    172.5060   6.1260351290e+01   1.8698706685e+01    0.2108245    0.1266184  41.63 0.0004794458    1.520    0.342
       218  -8.5876    134.9458    171.5268   6.2938089090e+01   2.0338833099e+01    0.2408913    0.1979253 -80.39 0.0006239182    1.537    0.350
       219  -9.2036     45.2375    170.9236   8.4740056458e+01   3.3986137652e+01    0.3706779    0.1954263  80.26  0.001455896    2.063    0.515
       220  -8.4452    205.9929    170.2987   4.7775314293e+01   7.7196011498e+00    0.2216445     0.184194 -54.50 0.0007533134    1.729    0.422
       221  -9.5548    121.3681    170.1503   6.5891039070e+01   2.3007855548e+01    0.3854843    0.2799244  88.52  0.001243996    1.909    0.476
       222  -8.7294    230.4322    169.7580   4.3322651295e+01   3.6970014332e+00    0.2211516    0.1113323 -34.11 0.0005698968    1.925    0.481
       223  -8.6385    198.2983    169.8331   4.9137443892e+01   9.1390600773e+00    0.2232852    0.2085524 -67.25 0.0009339693    1.531    0.347
       224  -8.7161    149.9487    169.4388   5.9138400361e+01   1.8021453871e+01    0.2386711    0.2024582 -79.71 0.0007311472    1.550    0.355
       225  -8.0697    244.4050    169.1516   4.0904677674e+01   1.5757087890e+00    0.1662093    0.1027543 -35.70 0.0007439745    1.703    0.413
       226  -8.4838    236.9473    169.1785   4.2119481752e+01   2.7339031620e+00     0.180349    0.1618633 -13.40  0.001207316    1.302    0.232
       227  -9.1440    166.9363    168.3999   5.5217391442e+01   1.5077210066e+01    0.2915513    0.2270446  67.37 0.0009634829    1.792    0.442
       228  -8.3437     88.8368    168.7126   7.3626137263e+01   2.8651076665e+01    0.2487388    0.1613651  78.53 0.0007963409    1.927    0.481
       229  -8.4228    218.8135    168.1377   4.5011158915e+01   5.8411957723e+00    0.1848116     0.166628 -14.86 0.0005122633    1.238    0.192
       230  -8.0475    211.4841    167.9942   4.6300705036e+01   7.1125761317e+00    0.1705741    0.1128075 -54.19 0.0007979104    2.472    0.595
       231  -8.6867    111.6840    167.5412   6.7793002640e+01   2.5213694986e+01     0.356982    0.2010744  64.70  0.001189206    2.643    0.622
       232  -9.2338    191.9876    166.4412   4.9682741151e+01   1.0805903701e+01    0.2751305    0.1916905 -33.76 0.0005833215    1.466    0.318
       233  -8.6997    185.0297    166.2853   5.1037191240e+01   1.2101015654e+01     0.224641    0.1947767 -62.55 0.0006242842    1.587    0.370
       234  -7.9089     13.3123    167.6720   9.2201381525e+01   3.7890986951e+01    0.1300815   0.06762923  63.11 0.0007042471    1.668    0.400
       235  -9.6895    137.4974    164.5752   6.1081844423e+01   2.1249036057e+01    0.7140753    0.3125816  55.37  0.002363963    3.587    0.721
       236 -10.0516     94.9588    162.6095   7.1167727317e+01   2.9042782481e+01     0.826353    0.4085602  69.69  0.002545157    4.711    0.788
       237  -9.2393     20.4828    166.0002   9.0376704644e+01   3.7633567658e+01    0.3265159    0.1184712  50.22  0.001516437    2.385    0.581
       238  -8.2857    234.1110    164.9045   4.1731825012e+01   3.7596691404e+00     0.182629    0.1563839 -23.84 0.0005339491    1.291    0.225
       239  -8.6505    159.5063    164.0341   5.5974135172e+01   1.7252288507e+01    0.2817603    0.2253665 -84.05   0.00101704    1.881    0.468
       240  -9.8254     33.6212    163.1436   8.6914637319e+01   3.7011474832e+01    0.5893944    0.1839275  54.08   0.00225282    3.331    0.700
       241  -8.7782    246.0659    162.8030   3.9373202108e+01   2.1376978400e+00    0.2129131    0.1512434 -18.91 0.0004305042    1.201    0.167
       242  -8.3801    205.0513    162.6749   4.6405812984e+01   9.0447597636e+00    0.2127972    0.1774396 -34.81 0.0004529866    1.329    0.247
       243  -9.4330      3.2737    162.2011   9.4279631058e+01   3.9915523372e+01    0.3786524    0.1478817  54.74  0.001668582    2.185    0.542
       244  -9.3932    177.4507    160.3708   5.1386064899e+01   1.4518335297e+01    0.2793933    0.2470337 -60.60 0.0008592194    1.452    0.311
       245  -8.7107    151.7716    160.8625   5.7075702052e+01   1.9308682245e+01    0.2464947    0.2010126 -74.39 0.0008647389    1.638    0.389
       246  -8.8677    242.4788    159.5864   3.9288261307e+01   3.1260407680e+00    0.2020673    0.1306536   7.76   0.00050631    1.585    0.369
       247  -9.7052    250.2425    157.4654   3.7640965093e+01   2.1783905353e+00    0.3116547    0.1657882 -30.74  0.000879664    1.669    0.401
       248  -8.9190    246.5871    155.5020   3.7802854686e+01   3.0111668045e+00    0.2157486    0.1319467  -6.70 0.0005249152    1.664    0.399
       249  -8.7666    227.2996    158.8310   4.1632964801e+01   5.7306505739e+00    0.2785383    0.1848765 -46.87   0.00110758    2.008    0.502
       250  -8.8693     60.3300    159.8354   7.9721964803e+01   3.4690662927e+01    0.2645486    0.1720892  71.33  0.001119809    1.588    0.370
       251  -8.3532    237.0238    158.9727   4.0041754622e+01   4.0906736556e+00    0.1805209    0.1533613 -47.97 0.0005934411    1.665    0.399
       252  -8.3818    128.0620    158.6500   6.2219830843e+01   2.4187175453e+01    0.2399256    0.2004445 -75.03 0.0007309173    1.401    0.286
       253  -9.6443    105.8286    157.7458   6.7596847871e+01   2.8324916144e+01    0.5351841    0.3166511  64.60   0.00131942    2.290    0.563
       254  -8.6136    196.4469    157.7425   4.7016845726e+01   1.1392158032e+01    0.2388479     0.223062  86.04 0.0009919681    1.504    0.335
       255  -8.3026    188.2653    157.5770   4.8594124885e+01   1.2950898376e+01    0.2376381      0.16141 -45.06 0.0006092869    1.670    0.401
       256  -9.3944    167.6397    157.1688   5.2806332021e+01   1.6963126457e+01    0.3399924    0.2720966  81.68  0.001368333    1.899    0.473
       257  -8.5694    218.0489    156.5435   4.2759989261e+01   7.6620902177e+00    0.2436444    0.1712946 -41.92 0.0007340548    1.633    0.388
       258  -9.1239    157.7707    155.5404   5.4643695372e+01   1.9174415130e+01    0.3281026    0.1967106 -47.64  0.001354717    1.826    0.452
       259  -9.1160    119.6731    155.0349   6.3607748167e+01   2.6481434262e+01    0.3796907    0.2689228  82.52  0.001512329    2.025    0.506
       260  -9.3832     49.8104    154.9829   8.1911580534e+01   3.7124804905e+01    0.4583965    0.2014285  61.35  0.001759797    2.758    0.637
       261  -9.0657    242.5629    154.5499   3.8237021146e+01   3.7856116908e+00    0.1829858    0.1567333  25.18 7.352163e-05    1.276    0.216
       262  -8.9783    240.0000    152.9943   3.8320051206e+01   4.4160061025e+00    0.1891676     0.163211 -20.25 0.0004866573    1.217    0.179
       263  -8.3233    204.8387    155.1922   4.4877875238e+01   1.0248086095e+01    0.1958778    0.1807573 -19.49 0.0004907169    1.194    0.163
       264  -8.9527    144.3832    154.4194   5.7487045175e+01   2.1979930165e+01    0.2474615    0.2213492  60.19 0.0006104106    1.213    0.176
       265  -8.7654    212.9344    163.5527   4.5133882277e+01   7.5188896982e+00    0.2359186    0.1801943 -32.78 0.0006026145    1.361    0.265
       266  -9.6821    132.7820    152.7261   5.9920760154e+01   2.4540642891e+01    0.4353682    0.3147146  72.01  0.001040218    1.892    0.471
       267  -9.3849    133.4822    148.0121   5.8791927632e+01   2.5392593475e+01    0.3470306    0.2482117 -34.84  0.001671158    1.555    0.357
       268  -9.1280     68.0635    153.3999   7.6832009597e+01   3.5165974948e+01    0.4080097      0.21703  66.29  0.001221276    2.391    0.582
       269  -7.9602    232.5518    153.5166   3.9640179767e+01   5.5898079471e+00    0.1313975    0.1104706  -6.91 4.047108e-05    1.049    0.047
       270 -10.7073    148.8474    144.9765   5.4450808918e+01   2.2996178391e+01    0.6190422    0.4308672 -86.01  0.001669525    2.657    0.624
       271  -9.6196     29.1984    150.1600   8.6893030835e+01   4.0477926101e+01    0.5195715    0.1997152  67.37  0.001955642    3.426    0.708
       272  -8.6331      9.1553    152.7166   9.2296580519e+01   4.1618378903e+01    0.2210012   0.08000682  34.65  0.001058928    2.520    0.603
       273  -8.7374      3.0022    150.3857   9.3710132736e+01   4.2612318562e+01    0.3385859    0.1293718  84.52  0.001542759    2.434    0.589
       274  -8.9717    189.5515    150.0914   4.6732492301e+01   1.3967214704e+01    0.2863151    0.2279802 -59.83 0.0008778795    1.722    0.419
       275  -8.2096    182.4023    151.1001   4.8399782714e+01   1.5181836070e+01    0.1980003    0.1314325 -49.62 0.0009317551    1.804    0.446
       276  -8.6952    162.5134    150.4911   5.2520514761e+01   1.9202715241e+01    0.2427129    0.2031393  88.38 0.0006733254    1.672    0.402
       277  -8.7006     98.3389    150.6033   6.8291998145e+01   3.1192085884e+01    0.3077187    0.2155269  73.54 0.0008408087    1.749    0.428
       278  -9.5000    248.8638    149.1079   3.6123710908e+01   3.4927351105e+00    0.2919688    0.1674366 -27.42  0.000764976    1.504    0.335
       279  -9.1203    243.1463    149.4547   3.7079068961e+01   4.3785207418e+00    0.2598731    0.1586806 -32.52  0.001302597    1.513    0.339
       280  -8.3343    212.9937    149.5426   4.2165395084e+01   9.6284975165e+00    0.2049092    0.1659874 -19.10 0.0003368392    1.134    0.118
       281  -8.4713    198.7605    148.8477   4.4658799923e+01   1.2404350929e+01    0.2329854    0.1840585 -47.48 0.0006231472    1.511    0.338
       282 -10.4478    139.3062    144.8013   5.6693088521e+01   2.4927356391e+01    0.7367797     0.410285 -66.81  0.002139193    3.207    0.688
       283  -9.8588     89.3679    146.1653   6.9921526351e+01   3.3689975835e+01    0.6607178    0.3674895  87.29  0.002340009    3.405    0.706
       284  -9.6827     40.2563    147.8049   8.3674426957e+01   3.9910722299e+01    0.4882558    0.2105464  59.76  0.002024985    2.659    0.624
       285  -9.3667    233.7935    147.2555   3.8105088788e+01   6.2609049264e+00    0.2805484    0.1631705 -24.52  0.001121518    1.561    0.359
       286  -9.1377     78.2253    147.0233   7.3114474217e+01   3.5215977759e+01    0.3682726    0.2155034  79.47  0.001125308    2.454    0.593
       287 -10.3092     54.9657    144.5884   7.9214232342e+01   3.8981372157e+01    0.7541094    0.3338286  66.63  0.002646099    3.604    0.723
       288  -8.4009    223.2258    146.5333   3.9714399969e+01   8.2252071453e+00    0.2412515    0.1651926 -26.82 0.0006052736    1.333    0.250
       289 -10.1871    106.6089    143.4346   6.4763005682e+01   3.1397980796e+01    0.7946193    0.5523652 -75.69  0.002383478    1.761    0.432
       290  -9.4203     13.1785    145.8210   9.0784413575e+01   4.2909900833e+01    0.3244899    0.1689799  74.20  0.001187189    1.789    0.441
       291  -7.7690    206.4785    146.4478   4.2677110554e+01   1.1325747709e+01    0.1400963    0.1231956   0.20 0.0001243081    1.008    0.008
       292  -8.3267    175.6843    146.0845   4.8700430562e+01   1.7397961873e+01    0.2215173    0.1827305 -60.59 0.0008010916    1.546    0.353
       293  -9.5761    247.0046    143.7489   3.5274330119e+01   4.5143465006e+00    0.2727413    0.2166762 -27.11 0.0009971119    1.219    0.179
       294  -9.8559    240.4570    145.0524   3.6565393878e+01   5.4313291088e+00    0.3340517    0.1804642 -12.28  0.001432668    2.138    0.532
       295  -8.9084    165.5074    143.7456   5.0380010435e+01   1.9878484589e+01    0.2640298    0.2428551 -72.38 0.0006650905    1.324    0.245
       296  -9.7353    125.0253    142.4553   5.9752499729e+01   2.8206719734e+01    0.5067317    0.3508808  86.00  0.001426538    2.309    0.567
       297 -10.7313     69.6146    140.7354   7.4515367071e+01   3.7971703132e+01    0.6265801    0.3777576  88.40  0.002355188    2.089    0.521
       298 -10.0028     69.4856    133.8815   7.3427002918e+01   3.9657122508e+01    0.4048545    0.2491766  12.62  0.001733004    2.504    0.601
       299  -8.4165    182.0317    141.3259   4.6304769061e+01   1.6975958705e+01    0.2507537    0.2029753 -61.76 0.0007742106    1.629    0.386
       300  -9.2118      2.6127    141.5010   9.3285430302e+01   4.4701473791e+01    0.3669937     0.150157  66.91  0.001721431    2.364    0.577
       301  -8.0090    250.4955    140.5468   3.4066533861e+01   4.3696091217e+00    0.1295537    0.1051476 -10.82 5.965331e-05    1.013    0.012
       302  -7.9860    194.5292    143.8044   4.4358752452e+01   1.4059113405e+01    0.1927101    0.1309537 -45.95 0.0008691291    1.666    0.400
       303  -9.9750     23.4478    138.0709   8.7329975422e+01   4.3903385232e+01    0.4862692    0.2140169  62.97   0.00199048    2.490    0.598
       304  -8.6760    172.2923    138.1263   4.7622836260e+01   1.9544879877e+01     0.262145    0.2208462 -77.35 0.0006079829    1.627    0.385
       305  -7.6368    218.5308    138.4562   3.8735915139e+01   1.0304408961e+01    0.1375672    0.1216492  -9.45 0.0008047623    1.053    0.051
       306  -8.4966    207.5567    137.7592   4.0529655775e+01   1.2508404375e+01    0.2526381    0.2022454 -56.46 0.0009604798    1.659    0.397
       307  -8.5382    197.5702    137.3382   4.2300879593e+01   1.4543023499e+01    0.2576683    0.2009553 -54.17 0.0009828812    1.620    0.383
       308  -9.0373    149.9035    136.2759   5.2254537041e+01   2.4536115138e+01    0.4341196    0.2705893   0.36  0.001520926    3.211    0.689
       309  -8.9086    248.3918    134.7499   3.3127456307e+01   5.5052503169e+00    0.2765373    0.1828368 -28.43  0.001038119    1.304    0.233
       310  -8.6901    250.8859    129.8431   3.1691284789e+01   5.7510461359e+00    0.4747052    0.1064311 -29.08  0.001448247    4.466    0.776
       311  -7.7378    192.5179    136.5054   4.3087593289e+01   1.5697985546e+01    0.1446066    0.1332896  -2.57  0.000163843    1.033    0.032
       312  -8.2154    162.6519    136.1072   4.9274617808e+01   2.1924802856e+01    0.2279953    0.1851162 -59.68 0.0006067112    1.476    0.323
       313  -8.2920     20.0278    152.7112   8.9515539590e+01   4.0721992075e+01    0.1707941    0.1389737  68.63 0.0006767981    1.081    0.075
       314  -9.9418     56.0568    135.2964   7.7589963931e+01   4.1110342271e+01    0.3730657    0.2402745  -3.74  0.001635783    2.740    0.635
       315  -9.2507     39.1029    135.8463   8.2612214581e+01   4.2934463053e+01    0.2773073    0.1848699  74.81 0.0008947487    1.490    0.329
       316 -10.4047     83.4661    132.8425   6.9163583466e+01   3.7801415895e+01     0.566576    0.3412383 -76.92  0.001442238    2.029    0.507
       317  -7.6807    231.4052    134.1740   3.5622374546e+01   8.5679335271e+00    0.1829862    0.1134912 -37.71  0.000363247    1.572    0.364
       318  -9.0908    112.9543    132.9196   6.0890783336e+01   3.2630571585e+01    0.3838391    0.2935898  87.21  0.001094056    1.677    0.404
       319  -8.6425    179.3768    133.7072   4.5089716436e+01   1.8887931597e+01    0.2853514    0.2382985 -75.50 0.0007937425    1.662    0.398
       320 -10.2080    132.1278    130.5270   5.5298305410e+01   2.9392190939e+01    0.6785862    0.3854722 -60.19   0.00190351    2.261    0.558
       321 -10.5938     60.1442    125.0329   7.4724478258e+01   4.3124784455e+01    0.7444121    0.4042986  74.68    0.0027459    2.796    0.642
       322  -9.3126    143.1493    131.4965   5.2768601815e+01   2.6917207940e+01    0.3262338    0.2505782 -78.00 0.0008675285    1.799    0.444
       323 -10.2845     12.7597    127.7651   8.9444881236e+01   4.7270402031e+01    0.7515686    0.2808755 -87.34  0.002802957    2.625    0.619
       324  -8.2995    246.8842    130.0551   3.2320579021e+01   6.4078837433e+00       0.1972    0.1539959 -34.15  0.000645737    1.277    0.217
       325  -8.0961    204.6788    130.3230   3.9334301005e+01   1.4283272295e+01    0.2039524    0.1673779 -67.18 0.0006726237    1.723    0.420
       326  -8.4361    192.8726    130.1196   4.1518050915e+01   1.6721974378e+01    0.2153089    0.1985276 -61.55 0.0005814458    1.326    0.246
       327  -9.4172    168.3597    129.3441   4.6403199186e+01   2.2019068803e+01    0.2983186    0.2470445 -82.64 0.0007186498    1.667    0.400
       328  -9.6522    152.8912    128.6870   4.9760785935e+01   2.5443998088e+01    0.5241682    0.2777137 -49.02  0.001705904    2.053    0.513
       329  -9.3629     97.9667    127.8376   6.3973361784e+01   3.6558824063e+01    0.5910872    0.2123638 -55.68  0.002001887    2.835    0.647
       330  -9.8618     73.1638    128.8992   7.1460682217e+01   4.0344427010e+01    0.4043988    0.2449628 -81.18 0.0009845867    1.991    0.498
       331  -8.7714     25.2703    129.9972   8.5988593108e+01   4.5712469606e+01    0.3037558    0.1641628  -4.53  0.001288409    3.505    0.715
       332  -7.9765      1.9688    129.9851   9.2713427544e+01   4.7469783224e+01    0.2094985    0.1122164  63.34  0.001133791    1.742    0.426
       333  -7.6622    220.4845    129.5728   3.6376375434e+01   1.1297479212e+01    0.1387359    0.1223397  -9.43 0.0001036418    1.024    0.023
       334  -8.3841    211.5633    128.7856   3.7733825129e+01   1.3159439349e+01     0.195703    0.1241442 -41.68 0.0006069329    1.623    0.384
       335 -10.6744     45.5118    124.0627   7.9093398691e+01   4.5158162611e+01     1.093222    0.4844671  69.77   0.00357661    4.174    0.760
       336  -9.8679    118.0888    124.7782   5.7657478990e+01   3.3485710563e+01    0.5926139    0.4264773 -82.13  0.001729628    1.950    0.487
       337  -7.5318    228.6673    125.3216   3.4048394163e+01   1.0382947466e+01    0.1323768     0.105404 -58.25 0.0007049779    1.701    0.412
       338  -8.9969    179.1604    124.5602   4.2928943496e+01   2.0597940789e+01     0.298249    0.2485138 -88.03 0.0008018763    1.673    0.402
       339 -10.6131     28.2363    120.2041   8.3954313123e+01   4.7875424360e+01     1.064684    0.4817768 -87.48  0.003724287    2.416    0.586
       340  -7.9746    188.5369    123.5266   4.0774605739e+01   1.8777368022e+01    0.1472837    0.1387437 -11.64 7.320942e-05    1.046    0.044
       341  -8.3439     84.2887    122.4694   6.6859860617e+01   4.0183476528e+01    0.2417968    0.2237237  15.23 0.0009371484    1.219    0.180
       342  -7.9468    194.8561    121.7797   3.9118484579e+01   1.7739990863e+01    0.1943343     0.168801 -54.22 0.0004096942    1.344    0.256
       343  -8.7128    171.9402    121.3108   4.3646295617e+01   2.2764578447e+01    0.2471424    0.2040403 -46.59 0.0004532098    1.279    0.218
       344  -9.4521    158.4279    121.2390   4.6634049076e+01   2.5737245883e+01    0.3235959    0.2630074 -59.95 0.0006425466    1.433    0.302
       345 -10.0579    131.1454    118.3594   5.2606932004e+01   3.2235851712e+01    0.6260783    0.4423277 -87.70  0.002108553    2.299    0.565
       346 -10.4454    133.3126    108.9422   4.9587866470e+01   3.3802910051e+01    0.7924212    0.3667197 -51.01   0.00280697    2.394    0.582
       347  -9.6663     71.2797    119.8950   7.0326456101e+01   4.2844648432e+01    0.3563578    0.2261323  87.08  0.001065474    2.117    0.528
       348 -10.2038    141.5618    117.9921   4.9852197552e+01   3.0082027912e+01    0.6212605    0.3137572 -51.28  0.001612246    2.209    0.547
       349  -9.9464      2.8483    116.6622   9.1461745689e+01   5.0634274893e+01    0.6112839    0.2358086  78.24   0.00253859    2.846    0.649
       350  -7.6330    231.4915    117.4910   3.1782134478e+01   1.1009694312e+01    0.1381577    0.1197613 -19.73 0.0008102136    1.042    0.040
       351  -7.9490     18.6441    117.7136   8.6669274286e+01   4.9299731669e+01     0.128999   0.08667704 -44.62 0.0007022611    1.673    0.402
       352  -8.4590    185.9018    115.9271   3.9398503606e+01   2.0688667235e+01    0.2294118    0.1809499 -66.02 0.0005939544    1.676    0.403
       353  -9.9282    109.3679    114.0788   5.7511032101e+01   3.7653076173e+01    0.5098456    0.3323362 -71.99  0.001307746    2.102    0.524
       354  -8.2600    193.0212    115.0151   3.7783420224e+01   1.9295763616e+01    0.2259605    0.1785114 -63.48 0.0005368527    1.643    0.391
       355  -7.6808    202.9912    121.7292   3.7588266817e+01   1.6044460110e+01    0.1705608    0.1259643  43.54 0.0003440492    1.408    0.290
       356 -10.1430     92.7944    112.4424   6.2032358066e+01   4.1152664489e+01    0.5455127    0.3567408 -74.18  0.001360668    1.944    0.486
       357  -9.9214     79.2393    112.6285   6.6298535653e+01   4.3410585080e+01     0.576066    0.3666023  79.49   0.00162443    2.402    0.584
       358  -8.9871     59.9216    114.6935   7.2928971177e+01   4.5739370094e+01    0.3538008    0.1896475  19.28  0.001454497    2.568    0.611
       359  -8.3374    167.1172    114.2949   4.2899893885e+01   2.5160944920e+01    0.2132899    0.2028972  38.84 0.0006572915    1.080    0.074
       360 -10.1276    121.6990    112.2434   5.3574515739e+01   3.5568789461e+01    0.4351329     0.320216  86.79 0.0007457767    1.987    0.497
       361  -8.7816    174.7320    111.3102   4.0485581728e+01   2.4009091046e+01    0.4157338    0.1949263 -42.58  0.001413669    2.135    0.532
       362  -9.1016    159.2788    111.6463   4.3958782292e+01   2.7438429303e+01    0.3042637    0.2461504 -73.18 0.0006811604    1.594    0.373
       363 -10.2937     66.5810    109.3167   6.9670525321e+01   4.6161946767e+01    0.6701652    0.3455224 -61.48  0.002066409    1.831    0.454
       364 -10.0283     14.3442    111.1983   8.7322435712e+01   5.1238035691e+01    0.3693291    0.2018967  63.26   0.00132683    1.947    0.486
       365 -10.7663    248.2076    108.0158   2.7155328276e+01   9.2343221216e+00    0.4882269    0.2573324 -29.05   0.00239872    1.610    0.379
       366  -7.7885    182.7769    109.0386   3.8243187975e+01   2.2609597499e+01    0.2037874    0.1203536 -35.89 0.0006162574    1.629    0.386
       367  -7.7717    149.5488    109.5388   4.5676381314e+01   3.0058411752e+01    0.1544092    0.1518565 -10.14 6.213479e-05    1.019    0.019
       368  -8.9999     43.1843    109.0442   7.7439949863e+01   4.9197172473e+01    0.3365582    0.1795598   2.18  0.001286717    3.524    0.716
       369  -8.1448    189.1500    107.6182   3.6624453716e+01   2.1430358394e+01    0.2616006     0.189195 -42.47 0.0007528426    1.384    0.277
       370  -9.3206    109.5866    107.1317   5.5668747414e+01   3.9209671196e+01    0.4208672    0.2587068   6.38  0.001331195    3.798    0.737
       371 -10.5603     45.7486    102.1442   7.5306941241e+01   5.0654644648e+01    0.8084306    0.4046054  66.39  0.002961793    3.327    0.699
       372 -10.8442     22.7796    102.4701   8.3397021136e+01   5.2790119114e+01    0.7006046    0.3505785  69.32  0.002362972    2.555    0.609
       373  -8.7124    166.6555    104.0115   4.0256907391e+01   2.7219443778e+01    0.3120142    0.2191695 -54.33 0.0006780366    1.638    0.390
       374  -9.5209    150.6224    102.8841   4.3597452894e+01   3.1153138873e+01    0.4916207    0.2914049 -60.10  0.001274039    2.404    0.584
       375  -9.5242    139.7345    104.3475   4.6680342265e+01   3.3343807952e+01    0.3794288    0.2988613 -80.59  0.000770391    1.695    0.410
       376  -8.8986     94.0327    104.1189   5.9583653716e+01   4.2915187864e+01      0.43925    0.2617022  12.90  0.001519172    3.222    0.690
       377  -8.6201     78.3358    104.8319   6.4790777565e+01   4.5469691803e+01    0.2764842    0.1987786  -6.63   0.00119868    2.070    0.517
       378 -10.2415    128.6442    101.5140   4.8782317920e+01   3.6425856041e+01    0.5257624    0.3554028 -45.94  0.001605468    1.476    0.323
       379  -9.4124      6.8123    102.7269   8.8899156526e+01   5.3829422756e+01     0.315912    0.1735534  70.57  0.001290412    1.899    0.473
       380  -8.0849    175.5176    101.9842   3.7829211172e+01   2.5540593930e+01    0.2325583    0.1469257 -37.69 0.0004970939    1.531    0.347
       381  -8.4365    159.7783    100.8521   4.0906948326e+01   2.9422797308e+01    0.2828214    0.2064901 -54.71 0.0005635014    1.546    0.353
       382 -10.3258    108.7278     98.5675   5.3592379655e+01   4.1338416848e+01    0.5855928    0.4001665  74.29  0.001160137    2.227    0.551
       383  -9.0376    108.5502     91.8987   5.1722512877e+01   4.2874957412e+01    0.5833735    0.2795581  31.24  0.001956586    2.873    0.652
       384  -9.4291     82.1693     99.8301   6.2292163543e+01   4.6049554383e+01    0.4230652    0.2924742  84.26  0.001191285    2.121    0.529
       385  -9.5042     95.1131     96.2020   5.7123020288e+01   4.4578613332e+01    0.5728462    0.2399922 -50.22  0.000845792    2.316    0.568
       386 -10.1896     63.9009     95.6282   6.7491852084e+01   4.9952757475e+01    0.6126423    0.3729582  82.71  0.001534893    2.790    0.642
       387  -8.5332     64.0494     87.9691   6.5513583796e+01   5.1814853845e+01    0.3675871    0.2141782 -25.31  0.001186586    2.672    0.626
       388  -8.3244    151.0142     95.4675   4.1398005555e+01   3.2530571669e+01    0.3254845    0.1999543   1.27  0.001038678    3.436    0.709
       389  -8.4223    164.8566     94.0741   3.7868453940e+01   2.9505456869e+01    0.2353938    0.2094125 -62.09 0.0003724402    1.237    0.192
       390  -7.9123    188.5383     93.5013   3.2963403304e+01   2.4003522454e+01    0.1515849    0.1428883 -28.64 0.0003213388    1.028    0.027
       391  -8.3237    176.2046     92.9144   3.5177344623e+01   2.7011335020e+01    0.2361149    0.2058146 -61.08 0.0005666056    1.273    0.214
       392  -9.5206    138.9543     91.6891   4.3236061284e+01   3.6124818378e+01    0.5095034    0.2935502 -51.31  0.001375229    1.932    0.482
       393  -8.7296    120.4256     92.7797   4.8520971138e+01   4.0125277598e+01     0.261717    0.2189846 -16.29  0.001250725    1.343    0.255
       394 -10.1586    124.3549     90.4241   4.6718122061e+01   3.9751074587e+01    0.5803927    0.4189385 -79.17  0.001764228    2.071    0.517
       395  -9.4964     46.3963     92.1900   7.3045561985e+01   5.3086323957e+01    0.4641002    0.2658639  11.11  0.002028789    2.486    0.598
       396  -8.5862    195.1353     91.8916   3.1331231652e+01   2.2743021340e+01    0.2259508    0.1949126 -52.35 0.0004967024    1.228    0.185
       397  -8.1000    157.8624     91.5714   3.8686236228e+01   3.1649423553e+01    0.2555474    0.1824506 -43.14 0.0004837376    1.395    0.283
       398  -9.6954     34.9496     89.7483   7.6832159341e+01   5.4921652579e+01     0.498366    0.2644212  89.04  0.001940705    2.627    0.619
       399  -9.1135     22.5237     90.3061   8.1630706426e+01   5.5870008984e+01    0.3539991    0.2255304 -37.71  0.001577736    1.728    0.421
       400  -9.5504      5.1415     91.5895   8.8246338614e+01   5.6684332306e+01    0.3401241    0.1701772  51.92  0.001359408    2.254    0.556
       401  -8.3170    150.9677     88.9630   3.9496263916e+01   3.3805023006e+01    0.2511615    0.1921619 -68.65  0.000662797    1.659    0.397
       402 -10.0453     86.3191     85.7787   5.7019103430e+01   4.8652451517e+01    0.6250993    0.3978884 -69.34  0.001264075    2.106    0.525
       403  -7.9135    164.1432     87.1259   3.6004805378e+01   3.0956824781e+01    0.2201994    0.1842553 -63.63 0.0005844596    1.358    0.264
       404  -9.8251     48.7521     84.3636   7.0354043223e+01   5.4755883928e+01    0.5803437    0.3323237  67.91  0.002123902    2.925    0.658
       405  -7.3967    179.3045     85.6409   3.2502281846e+01   2.7540633435e+01    0.1615851    0.1173973 -63.71 0.0007039274    1.724    0.420
       406  -8.5124    158.0125     83.8339   3.6353567547e+01   3.3057284795e+01    0.2733134    0.2202202 -34.69  0.000434915    1.217    0.178
       407  -9.0460    141.1478     82.7671   3.9963609230e+01   3.7371831557e+01    0.3499338    0.2357701 -58.71 0.0007638399    1.821    0.451
       408  -8.4246    127.7377     83.3041   4.3595057380e+01   4.0452523492e+01    0.3795259    0.2212966  18.33  0.001192007    3.466    0.712
       409  -9.8897    104.7678     82.8391   5.0109566343e+01   4.5669998261e+01    0.4564862    0.3060463 -66.47 0.0009459376    2.002    0.500
       410  -9.5328    105.8559     71.3398   4.5975717353e+01   4.7877622679e+01    0.4219179    0.2555048 -58.81  0.001240969    2.148    0.534
       411  -7.7346    185.4587     82.4577   3.0442930472e+01   2.6594468234e+01    0.1521654    0.1438985 -39.75  9.03978e-05    1.042    0.041
       412  -9.5781     24.7609     80.3548   7.8972181521e+01   5.8181959078e+01    0.5074351    0.2784564  84.16  0.001397908    2.448    0.592
       413  -9.4622     10.0228     80.9470   8.4976898847e+01   5.9054132132e+01    0.3826163    0.1866262  57.39  0.001530915    2.605    0.616
       414  -8.6535     74.7225     80.0666   5.9383426221e+01   5.2026326646e+01    0.3119828    0.1951709 -64.10  0.001121285    1.832    0.454
       415  -8.2837    149.9741     80.1956   3.7052701091e+01   3.5706737427e+01    0.2463854    0.2130684 -71.23  0.000875507    1.322    0.243
       416  -8.5078    119.3497     80.0205   4.4868858285e+01   4.3061840929e+01    0.2761205    0.2252605  88.03 0.0008362902    1.574    0.365
       417  -8.2468    166.9199     79.3219   3.3098236937e+01   3.1669711190e+01    0.2077839    0.2038405  11.54 0.0005740888    1.029    0.029
       418  -7.7734    174.7000     78.2983   3.1247356575e+01   2.9920454363e+01    0.1555453    0.1191658 -66.59 0.0002501101    1.578    0.366
       419  -8.6340     50.2924     77.3020   6.7938055924e+01   5.6295771868e+01    0.4236859     0.145735  21.02  0.001233746    5.161    0.806
       420  -8.0738    157.1509     76.1963   3.4198028730e+01   3.4654382694e+01    0.2221322    0.1831821 -63.34 0.0004814339    1.369    0.269
       421  -8.6896    140.5474     75.2716   3.7726939565e+01   3.8949025022e+01    0.2822769    0.2127569 -52.87 0.0006654781    1.434    0.303
       422  -9.2119    128.2000     75.2343   4.0864789906e+01   4.1953815495e+01    0.3754247     0.255522 -57.42 0.0006570132    1.753    0.429
       423  -9.9123     63.2091     73.3888   6.1689851826e+01   5.5433828308e+01    0.4951945    0.2971526 -65.19  0.001351314    1.921    0.480
       424  -9.7410     82.6932     71.5438   5.3782526943e+01   5.2554861351e+01    0.8499804    0.3389169 -45.57  0.002715844    2.376    0.579
       425  -8.3722    249.6853     81.3245   2.0711432356e+01   1.2624741503e+01     0.136429   0.08967157 -52.98 0.0002336679    1.665    0.399
       426  -8.2537    163.4090     73.2240   3.1952788061e+01   3.3605115237e+01    0.2282899    0.1393827 -44.16 0.0009440987    1.649    0.394
       427  -7.6586    151.6592     73.3055   3.4495948054e+01   3.6545573255e+01    0.1628596     0.124347 -73.65 0.0007041357    1.682    0.405
       428  -8.8763    115.8185     72.5554   4.3406615760e+01   4.5389663190e+01     0.367218    0.2029182 -44.62   0.00086756    1.813    0.448
       429  -7.5526    175.6990     72.3475   2.9280659494e+01   3.0667331415e+01    0.1622861    0.1160335 -62.63 0.0004405823    1.687    0.407
       430  -9.2763     95.2970     71.1212   4.9289295877e+01   5.0171714621e+01    0.3627554    0.2626029 -62.55 0.0009055556    1.670    0.401
       431  -8.2211     42.6685     72.3381   6.9720692094e+01   5.8416728776e+01    0.2120707    0.1582358  77.10 0.0009759928    1.740    0.425
       432  -9.5729     51.5346     69.4547   6.5199500646e+01   5.8016355061e+01    0.4602123    0.2713549 -74.82  0.001395089    2.367    0.578
       433  -8.9920     28.9206     70.3050   7.5062334823e+01   6.0308647194e+01    0.3460235    0.1575495 -34.12  0.001336741    2.758    0.637
       434  -9.2817     16.9267     69.4701   8.0092418697e+01   6.1454255420e+01    0.4646799    0.2255417 -80.80  0.001645089    2.232    0.552
       435  -7.4492    170.3580     70.7076   2.9794873802e+01   3.2279391212e+01    0.1609812     0.119705 -71.26 0.0004251209    1.692    0.409
       436  -7.6975    157.2536     69.6395   3.2107256181e+01   3.5777088067e+01    0.1616806    0.1174382 -59.89 0.0003535114    1.616    0.381
       437  -8.8529    147.0291     67.8817   3.3780182848e+01   3.8673892294e+01    0.2753337     0.223323 -38.71 0.0004953447    1.219    0.180
       438  -8.7044    138.7222     65.7711   3.5017340584e+01   4.1141311498e+01    0.3176123    0.2003347 -45.41 0.0006827465    1.636    0.389
       439  -8.8031    121.7644     65.6639   3.9343018459e+01   4.5332711036e+01    0.3038607     0.244257 -54.01 0.0007353823    1.350    0.259
       440  -8.9226     37.2164     63.8406   6.9717150411e+01   6.1056083895e+01    0.3084492    0.2065615 -84.91  0.001130971    1.980    0.495
       441  -8.9598    110.2814     63.3793   4.1813333510e+01   4.8468791029e+01    0.3369927    0.2507447 -56.11 0.0005968956    1.536    0.349
       442  -8.5331     65.1761     62.8174   5.7441276143e+01   5.7541055734e+01    0.5334927    0.2939956  -1.28  0.001432545    6.095    0.836
       443  -7.8193    158.1885     61.4355   2.9263728759e+01   3.6911823647e+01    0.2006552    0.1526079  76.04 0.0004398484    1.496    0.332
       444  -9.7074     73.3620     59.2323   5.2907800809e+01   5.6927922929e+01    0.4953689    0.2592489 -53.71  0.001219319    2.099    0.524
       445  -9.2795     97.5776     60.3332   4.4662156262e+01   5.1900752620e+01    0.3191426    0.2542961  63.19 0.0007231617    1.480    0.324
       446  -7.7095    147.3650     59.1193   3.0768923612e+01   4.0083734110e+01    0.2259388    0.1366557 -43.54 0.0005067159    1.682    0.405
       447  -8.0446     89.1746     59.2434   4.7090139711e+01   5.3888204646e+01    0.2017503    0.1792705 -72.04 0.0005153343    1.342    0.255
       448  -9.8757     23.5257     56.2382   7.3929608820e+01   6.4149613052e+01    0.4549233    0.2725661  83.84  0.001816434    2.673    0.626
       449  -9.5308      7.8212     57.1679   8.1716610035e+01   6.4980726493e+01    0.3006647    0.2044805  74.77 0.0009774831    1.791    0.442
       450  -8.1155    130.7327     57.1873   3.3974543353e+01   4.4651825371e+01    0.2475849    0.1846129 -50.79 0.0006369522    1.451    0.311
       451  -7.9166    140.1370     56.0826   3.1335929278e+01   4.2445348091e+01     0.217672    0.1819464 -61.99 0.0004776273    1.331    0.248
       452  -8.9702    119.1262     55.3820   3.6337633502e+01   4.7843079454e+01    0.3953466    0.2269246 -47.78  0.001359192    1.923    0.480
       453  -8.5816     44.3137     55.5890   6.3911844701e+01   6.2151650325e+01    0.2291924    0.2022519 -71.95 0.0007123382    1.281    0.220
       454  -9.0186     62.8733     54.4487   5.5336645296e+01   5.9733760291e+01    0.3070008    0.1986074 -55.34 0.0007564152    1.647    0.393
       455  -8.7963     54.1764     53.7959   5.8832007210e+01   6.1215559008e+01    0.3779106    0.2179689 -63.79  0.001325181    2.261    0.558
       456  -8.5974    105.7388     52.9168   3.9248547251e+01   5.1468779521e+01    0.2813447    0.2004735 -51.88 0.0006921835    1.585    0.369
       457  -9.6320     92.3622     50.2213   4.2461585237e+01   5.4957954217e+01    0.4732008     0.264876 -52.08   0.00128542    2.203    0.546
       458  -8.3219    129.8011     48.8231   3.1139797817e+01   4.6273478842e+01    0.2114189    0.1800728 -62.59 0.0003903498    1.317    0.241
       459  -8.1675    120.9234     47.3259   3.2798150429e+01   4.8758343149e+01    0.2117701    0.1984773  46.63 0.0004800326    1.061    0.057
       460  -8.4026    112.4496     46.7415   3.4858033786e+01   5.0942685184e+01    0.2741164    0.1419928 -38.90 0.0006400744    1.928    0.481
       461  -9.0864     82.2543     46.3297   4.4411581975e+01   5.7797619962e+01    0.3113134    0.2399583 -54.61 0.0006233782    1.515    0.340
       462  -8.5356     45.0575     44.4984   5.9461016767e+01   6.4484085058e+01    0.2409702    0.1807172 -60.33 0.0006006128    1.488    0.328
       463  -9.2004     16.6992     43.8084   7.3791752105e+01   6.7559292375e+01     0.368835     0.169349 -71.74  0.001599275    2.501    0.600
       464  -8.7798    132.8349     43.1189   2.8290248793e+01   4.6373114000e+01    0.2359331    0.2056957 -58.65 0.0003691445    1.244    0.196
       465  -8.0164    144.9856     48.9312   2.7745507702e+01   4.2324268678e+01    0.1931414    0.1678024 -29.35 0.0004864446    1.158    0.136
       466  -9.2838     69.6825     41.2675   4.7083666303e+01   6.1182990073e+01    0.4039993      0.26067 -58.31   0.00125258    2.149    0.535
       467  -8.9747     58.2888     42.2741   5.2384155369e+01   6.2976443303e+01    0.3344931    0.2327699 -59.80    0.0012003    1.830    0.454
       468  -9.7313      5.3292     42.0538   7.9468290516e+01   6.8654826833e+01    0.3257647    0.2037881 -87.80  0.001178683    1.903    0.475
       469  -8.5096    106.0508     41.4120   3.4522784519e+01   5.3352603541e+01    0.2869041    0.1995874 -47.92 0.0006873137    1.602    0.376
       470  -7.9125    140.4688     41.4696   2.6008411245e+01   4.4617474216e+01    0.1534228    0.1462173 -71.18 5.035947e-05    1.091    0.084
       471  -8.6601     36.8744     40.6805   6.2006213006e+01   6.6323783051e+01    0.2511969    0.1804097 -53.96 0.0007057201    1.353    0.261
       472  -7.9685    160.6043     39.7380   2.1567790713e+01   3.9516442723e+01    0.2225415     0.129866 -40.64 0.0003609926    1.694    0.410
       473  -8.9115     95.5925     37.8280   3.6177500237e+01   5.6375271777e+01    0.2742562    0.2102136 -55.66 0.0007260285    1.593    0.372
       474  -8.1481     80.7168     36.5747   4.0698187268e+01   5.9838070037e+01    0.2422547     0.169005 -51.52 0.0006876184    1.731    0.422
       475  -8.2027    133.4090     36.1978   2.5536258674e+01   4.7216891142e+01    0.2149845     0.136209 -40.18 0.0006247297    1.617    0.382
       476  -9.3569     26.1863     35.1621   6.5521306144e+01   6.8655571719e+01    0.3118981    0.2090234 -67.25  0.000959023    1.776    0.437
       477  -8.0844    126.0353     35.3148   2.6839823657e+01   4.9263350921e+01    0.2084882    0.1929007  55.81 0.0004169087    1.065    0.061
       478  -8.9856    201.9174    242.9595   6.0750566142e+01  -1.1933775858e+00    0.2516491     0.152282 -42.49  0.001106794    2.359    0.576
       479  -8.5192     72.3309     31.0403   4.1283525573e+01   6.2462675457e+01    0.2285819    0.2036542 -87.20 0.0006974653    1.555    0.357
       480  -8.8263     13.0426     30.5430   7.1395224793e+01   7.0762014260e+01    0.2266987    0.1631057 -71.93 0.0008549612    1.575    0.365
       481  -8.8487    101.7976     29.1249   3.0453787917e+01   5.6212722746e+01    0.2240654    0.1980665 -56.80 0.0007341398    1.310    0.237
       482  -8.2572    191.7161    249.3987   6.3403866150e+01  -5.3060798717e-01    0.1571295    0.1150769  46.97 0.0008824252    1.728    0.421
       483  -8.8488     81.6028     27.2141   3.5967097866e+01   6.1128894529e+01    0.3056014    0.2251674 -55.67 0.0008867203    1.796    0.443
       484  -9.0554      3.8091     27.7198   7.6117972649e+01   7.1941405580e+01    0.2338744    0.1547483 -74.15 0.0009611591    1.615    0.381
       485  -8.7370     91.8182     26.0967   3.2040971284e+01   5.8995335109e+01    0.2809696    0.1877743 -40.71 0.0007257035    1.613    0.380
       486  -8.8178     48.6283     33.1430   5.2782040520e+01   6.6255884685e+01    0.2316675    0.2086466  74.73 0.0007077699    1.587    0.370
       487  -7.9328     34.5682     22.8195   5.5094951807e+01   7.0154086460e+01    0.1728238     0.116349 -51.45 0.0006814317    1.641    0.391
       488  -8.2071    104.3417     22.7071   2.6866378066e+01   5.6434383272e+01    0.1457772    0.1139976 -69.08 0.0007028272    1.655    0.396
       489  -8.8886     48.3089     21.2606   4.6912552734e+01   6.8416616511e+01    0.2674657    0.1969063 -43.55 0.0008392303    1.476    0.322
       490  -8.8955     63.6681     20.5445   3.9457017862e+01   6.5794781805e+01    0.3205996    0.1884277 -44.34 0.0009902769    1.976    0.494
       491  -7.8376     19.5635     21.4910   6.3482599765e+01   7.2094264501e+01    0.1273228    0.1025962 -31.88 0.0001363885    1.014    0.014
       492  -8.9569     74.1669     19.1388   3.4565708343e+01   6.3866634606e+01     0.305298    0.2056876 -40.34 0.0006783765    1.635    0.388
       493  -8.0059     11.6815     20.3182   6.8083869239e+01   7.3001799586e+01    0.1094939    0.0960559  78.40 0.0003587243    1.659    0.397
       494  -8.3801     38.6781     18.1503   5.0261330222e+01   7.0414874714e+01    0.1947116    0.1510686 -43.57 0.0005618531    1.407    0.289
       495  -8.1309     87.5811     17.0710   2.8967734259e+01   6.1149476889e+01    0.2110806    0.1341676 -25.02 0.0006124119    1.580    0.367
       496  -8.7807     60.8182     32.2673   4.6682933496e+01   6.4418015235e+01    0.2875094    0.1831097 -49.92 0.0007858379    1.830    0.454
       497  -8.1150     30.2222     15.9172   5.3899129711e+01   7.1949187214e+01     0.168782   0.09295449 -42.14 0.0007669309    1.646    0.392
       498  -8.0160     97.2245     14.9709   2.5155971832e+01   5.9095800378e+01    0.1833136    0.1159772 -22.24 0.0003677761    1.618    0.382
       499  -7.9862      7.5585     15.4707   6.8701056023e+01   7.4277626808e+01    0.1214696   0.09714144 -37.43 0.0001541122    1.047    0.045
       500  -7.7012     17.0316     13.9776   6.1322774710e+01   7.3778515983e+01    0.1482359    0.1206969 -19.11 0.0005043943    1.068    0.063
       501  -7.7387     83.6314     11.2870   2.7223248001e+01   6.2732421624e+01    0.1359536     0.109576 -69.80 0.0003444199    1.705    0.413
       502  -9.2364    175.5717    247.5408   6.6024599811e+01   1.9020488877e+00    0.2469687    0.1997377  63.48  0.001379421    1.956    0.489
       503  -9.2055    156.3790    247.9599   6.9561829636e+01   4.5373817404e+00      0.21861    0.1999772  89.66  0.001123216    1.614    0.380
       504  -8.2192    113.1524    248.6449   7.7665769942e+01   1.0462246708e+01    0.1833444    0.1244532  89.98  0.001178438    2.158    0.537
       505  -9.2331    242.8581    246.2719   5.4420297352e+01  -6.7776020484e+00    0.2938276    0.1211427 -24.44  0.001723983    2.514    0.602
       506  -8.7309    218.8098    247.7836   5.8551002679e+01  -3.9359540829e+00    0.2024168    0.1440152 -28.45  0.001345384    1.731    0.422
       507  -9.1857    103.6492    246.3659   7.9238016801e+01   1.2086966214e+01     0.355102    0.1969101 -87.02  0.001908002    3.139    0.681
       508  -7.8481     63.6736    248.2876   8.6820505028e+01   1.6878509131e+01    0.1150117   0.05841842  55.98 0.0006798449    1.610    0.379
       509  -9.9928    223.9047    243.9244   5.7151710951e+01  -4.1977410356e+00    0.3699832    0.2146089 -39.91  0.002350488    2.532    0.605
       510  -9.4611    210.9021    246.1511   5.9652999382e+01  -2.7395128475e+00    0.2022652    0.1480546 -37.07 0.0008471214    1.928    0.481
