#   1 NUMBER                 Running object number                                     
#   2 MAG_AUTO               Kron-like elliptical aperture magnitude                    [mag]
#   3 X_IMAGE                Object position along x                                    [pixel]
#   4 Y_IMAGE                Object position along y                                    [pixel]
#   5 X_WORLD                Barycenter position along world x axis                     [deg]
#   6 Y_WORLD                Barycenter position along world y axis                     [deg]
#   7 A_WORLD                Profile RMS along major axis (world units)                 [deg]
#   8 B_WORLD                Profile RMS along minor axis (world units)                 [deg]
#   9 THETA_WORLD            Position angle (CCW/world-x)                               [deg]
#  10 FWHM_WORLD             FWHM assuming a gaussian core                              [deg]
#  11 ELONGATION             A_IMAGE/B_IMAGE                                           
#  12 ELLIPTICITY            1 - B_IMAGE/A_IMAGE                                       
         1 -14.4853    196.6577     31.8124   5.4712539873e+01   3.2166661334e+01     2.116165     1.324243  29.03  0.007652217    2.054    0.513
         2 -14.4466    207.9041     18.1819   4.9124854388e+01   3.0853322951e+01     1.503102     1.025902  21.54  0.007053808    1.912    0.477
         3 -10.2867     62.9844      8.4924   7.7522177503e+01   6.5110321466e+01    0.1390895    0.1133899  75.85  0.000630712    2.349    0.574
         4 -11.0907     30.4917      2.3437   8.7757887257e+01   7.0124840142e+01    0.1780732   0.09919082  28.19  0.001101259    1.994    0.499
         5 -15.3916     57.0458    199.9137   1.2138933733e+02   2.7566642639e+01     2.730343     1.500587  76.14   0.01293088    1.679    0.404
         6 -16.0170    114.1318    247.1147   1.1607939874e+02   1.1868121167e+01     9.432475     1.737278  44.40   0.03618278    4.124    0.757
         7 -14.9938     10.5892    206.4557   1.2950502788e+02   3.1386247380e+01    0.6829519    0.5956621 -87.13  0.002686261    1.534    0.348
         8 -10.2412     80.3540    194.5816   1.1670682140e+02   2.5508253467e+01    0.2709844    0.1588339  57.60  0.001350358    1.465    0.317
         9  -9.5348    146.9568    185.4762   1.0280484408e+02   1.6385134995e+01    0.1807356    0.1003571  64.41 0.0004720048    2.274    0.560
        10 -10.8631    207.6483    183.5478   9.0993697593e+01   5.1598820236e+00    0.2428694      0.22966  44.09  0.001131167    1.172    0.147
        11 -10.9456    210.9334    180.1552   8.9764071435e+01   5.0242529313e+00    0.3469766    0.2479785   6.66  0.001859306    1.680    0.405
        12 -12.0150     71.4539    181.6953   1.1701213609e+02   2.9198093386e+01    0.3373879     0.241883 -45.62  0.001699292    2.033    0.508
        13 -11.9640     75.7354    176.1306   1.1555959879e+02   2.9721935164e+01    0.2639137    0.2180354 -57.55 0.0008874641    1.474    0.321
        14  -9.5908     99.5017    180.4865   1.1140748058e+02   2.5388406032e+01    0.1242027     0.106282  74.41 8.216753e-05    1.044    0.043
        15 -10.0654    198.2523    176.5804   9.1424722896e+01   8.0347148311e+00    0.2645114    0.1825401  62.42 0.0009106426    1.760    0.432
        16 -11.9424    122.8202    173.6569   1.0576383056e+02   2.2882870458e+01    0.6209716    0.2516803  37.46  0.002478121    2.869    0.651
        17 -13.7275     58.1027    130.5329   1.1341107644e+02   4.1621912568e+01     1.687403    0.5701581 -75.66  0.005174019    5.276    0.810
        18 -14.8813     67.6869    143.9407   1.1314078386e+02   3.7508181047e+01     3.752213     1.581345  64.87   0.01356978    4.221    0.763
        19 -13.6552     72.3804    161.7853   1.1450653855e+02   3.3102731170e+01    0.6011372    0.5094038 -42.39  0.002623969    1.628    0.386
        20 -13.4829     22.8233    194.0453   1.2681870113e+02   3.2452447679e+01    0.6164486    0.3771391  63.62 0.0005170967    1.301    0.231
        21 -11.0067    196.1302    170.9466   9.0748677410e+01   9.3442969668e+00    0.3272089    0.3011332  24.03  0.001047643    1.049    0.047
        22 -10.7241    137.2314    170.7695   1.0236712044e+02   2.0862512053e+01    0.1770688     0.160719  19.12 0.0007680227    1.360    0.264
        23 -10.2247    193.5020    165.0736   9.0099825888e+01   1.0828064338e+01     0.225232    0.1961294  69.89  0.001285001    1.324    0.245
        24 -12.4894    194.9254    194.3101   9.5221724920e+01   5.9948305412e+00    0.7243835     0.577503  76.91  0.004235105    1.707    0.414
        25 -10.1352    139.9703    156.5592   9.9309618827e+01   2.3099026275e+01    0.2370292    0.1853617 -78.61 0.0005986596    1.433    0.302
        26 -11.4920     36.1930    150.3154   1.2074312958e+02   3.9771388478e+01    0.1915131    0.1636209 -54.86  0.001401782    1.488    0.328
        27 -10.1584    174.7287    148.7056   9.0479843649e+01   1.7577520355e+01    0.2841121    0.2084114  89.62 0.0008473993    2.007    0.502
        28 -10.8723    133.9644    145.0913   9.8437009556e+01   2.6547662136e+01    0.8861462    0.1910245 -54.46  0.002093895    6.968    0.856
        29 -11.9670     53.8019    147.8588   1.1671881838e+02   3.8374951857e+01    0.3267842    0.2406145 -76.79  0.002138082    1.141    0.124
        30 -12.3970     44.4970    147.7085   1.1870570784e+02   3.9452161530e+01    0.3600133    0.2884103  -9.38  0.001769927    2.191    0.544
        31 -11.0640    103.7764    142.5207   1.0473813471e+02   3.2488561027e+01    0.5232484    0.3148589 -35.12  0.002335385    2.561    0.610
        32 -12.3137     91.2490    142.9767   1.0766718371e+02   3.4386761433e+01    0.2506739    0.2357031 -60.80 0.0004888625    1.227    0.185
        33 -12.9534     44.4352    127.9584   1.1626896636e+02   4.3715474538e+01    0.4915547    0.3013893  85.99   0.00193886    1.668    0.401
        34 -10.3143    112.5312    131.8467   1.0071496161e+02   3.3281971827e+01    0.2672459    0.2251452  -7.23  0.000799011    1.678    0.404
        35 -10.2469    105.9230    130.6573   1.0204192847e+02   3.4683880735e+01    0.2765098    0.1943463 -68.48  0.001435736    1.430    0.301
        36 -10.9648     99.8137    128.5104   1.0308416791e+02   3.6171419692e+01    0.2742311    0.2353437 -26.42  0.001131484    1.499    0.333
        37 -10.2849    160.3335    127.8270   8.8928873302e+01   2.4637617264e+01    0.3030487    0.1313526 -50.70  0.001087879    2.594    0.614
        38 -11.0110    117.8484    126.6540   9.8398282537e+01   3.3440739609e+01    0.3317347     0.177257 -44.62  0.001444939    1.961    0.490
        39  -9.6272    125.6573    127.3079   9.6692797217e+01   3.1841484740e+01    0.1489555    0.1095733  83.34 0.0007043556    1.692    0.409
        40  -9.7547    108.5083    120.1938   9.9287122429e+01   3.6510900089e+01    0.1907091    0.1789906  78.07 0.0005276582    1.063    0.059
        41 -12.0565     84.0828    165.8563   1.1260337615e+02   3.0629551263e+01    0.3487932    0.2615265  88.03 0.0004226729    1.213    0.175
        42 -17.4141      5.9105    239.5671   1.3165888399e+02   2.6301701875e+01      10.2326     1.605418 -76.83   0.01929878    5.161    0.806
        43 -11.7409     45.7253    116.1665   1.1426273868e+02   4.6169658734e+01    0.2434208    0.1620766  87.52  0.001153747    1.532    0.347
        44  -9.2412    109.1320    115.0789   9.8021311580e+01   3.7513242306e+01    0.1892012    0.1575272  89.75 0.0003590212    1.287    0.223
        45  -9.7732    167.5181    112.4629   8.3642246105e+01   2.6045679938e+01    0.3433151    0.2340139 -80.05   0.00136825    2.391    0.582
        46 -12.9105     90.2282    158.9912   1.1036317600e+02   3.1144102333e+01     1.295926     0.809076 -74.41   0.00164461    1.592    0.372
        47 -10.9758     19.9377    110.9463   1.1994943261e+02   4.9652039307e+01    0.2021682    0.1525111  48.10 0.0006211622    1.541    0.351
        48  -9.6420    205.5474    110.0561   7.5280156010e+01   1.7608597042e+01    0.2255959    0.2039596  45.28 0.0006282044    1.107    0.097
        49 -11.1357     40.8789    108.1289   1.1424819790e+02   4.8432464599e+01    0.1906779    0.1438943 -85.57  0.001232298    1.213    0.176
        50  -9.2615     24.9679     82.4936   1.1432672479e+02   5.5420685664e+01    0.1352095    0.1184221  27.96 0.0003672376    1.471    0.320
        51 -10.2087     61.4897     68.6687   1.0000911385e+02   5.4751425399e+01    0.2458871    0.2042874  82.41 0.0007482207    1.546    0.353
        52 -10.0678    161.1535     62.3872   7.0813681589e+01   3.6824876986e+01    0.3317293    0.2535049  83.35  0.001268491    1.663    0.399
        53 -11.1681    155.7110     58.2251   7.0680093913e+01   3.8860357856e+01     0.519978       0.3427 -81.06  0.001680703    2.617    0.618
        54 -11.0615     13.6017     59.7197   1.1349741385e+02   6.1016428559e+01    0.2005392    0.1561344 -68.04 0.0003904791    1.141    0.124
        55 -10.4611    159.5325     53.3572   6.8275813752e+01   3.8708688543e+01    0.3015879    0.2440779 -75.63 0.0007837335    1.525    0.344
        56 -12.4591    187.4065     38.5257   5.8239792676e+01   3.3717345319e+01    0.5827661    0.4742761  17.66  0.001178904    1.396    0.284
        57 -14.7850     48.0576    210.0111   1.2370813493e+02   2.6811842087e+01     1.215257     1.134103  -5.18  0.005499444    2.039    0.510
        58 -11.3032    182.7917    233.9440   1.0335403996e+02   2.7273305077e+00    0.2188653    0.1383108  44.06 0.0008414839    1.226    0.184
        59  -9.5928     95.3863     41.7302   8.0595354959e+01   5.4719574332e+01    0.2782545    0.1192466 -41.48  0.001140005    2.227    0.551
        60 -10.5921    189.6731     14.9942   5.0589798592e+01   3.6006591441e+01    0.2016719    0.1902408 -26.60  0.000652681    1.117    0.105
        61 -10.8957     70.7582    229.9165   1.2151379562e+02   2.0586173071e+01     0.325785    0.1921724  32.72  0.001978605    2.517    0.603
