#   1 NUMBER                 Running object number                                     
#   2 MAG_AUTO               Kron-like elliptical aperture magnitude                    [mag]
#   3 X_IMAGE                Object position along x                                    [pixel]
#   4 Y_IMAGE                Object position along y                                    [pixel]
#   5 X_WORLD                Barycenter position along world x axis                     [deg]
#   6 Y_WORLD                Barycenter position along world y axis                     [deg]
#   7 A_WORLD                Profile RMS along major axis (world units)                 [deg]
#   8 B_WORLD                Profile RMS along minor axis (world units)                 [deg]
#   9 THETA_WORLD            Position angle (CCW/world-x)                               [deg]
#  10 FWHM_WORLD             FWHM assuming a gaussian core                              [deg]
#  11 ELONGATION             A_IMAGE/B_IMAGE                                           
#  12 ELLIPTICITY            1 - B_IMAGE/A_IMAGE                                       
         1 -13.0791    244.3387    111.3554   8.8684741797e+01   1.0387879653e+01     2.852729      1.32479  -3.23  0.009622718    4.166    0.760
         2 -12.7449    248.7274     84.5164   8.1647525086e+01   1.2717380630e+01     2.369979    0.5142475 -26.39  0.007163434    4.190    0.761
         3 -14.8406    225.1720     82.8984   8.4574901490e+01   1.8106598349e+01     8.300316     3.620343 -10.13   0.02544498    4.252    0.765
         4 -11.7365    220.8246     16.5672   6.6501096332e+01   2.7160226767e+01    0.9637181    0.4595557  25.94   0.00336862    3.384    0.705
         5  -9.7359    155.5960     15.6724   7.4882069964e+01   4.4415424116e+01    0.3850796    0.2453586  -7.19  0.001186778    1.745    0.427
         6 -10.0754    203.7042     11.4169   6.6776261391e+01   3.2107056641e+01    0.6409665   0.09968741 -23.02   0.00164349    5.120    0.805
         7 -10.0471     29.6033     13.1775   1.1172024421e+02   6.9623830710e+01    0.2096728    0.1698914 -33.74 0.0002566964    1.062    0.059
         8 -11.5440     15.2693     11.3889   1.1792250171e+02   7.1295117199e+01    0.5198092    0.2865788 -21.24 9.157792e-05    2.373    0.579
         9  -9.6689     12.2557      5.5888   1.1702478475e+02   7.2623743033e+01    0.2243409    0.1553148 -29.47 0.0002838281    1.350    0.259
        10 -10.2413     20.7142      7.3264   1.1341092674e+02   7.1572284744e+01    0.2657436    0.1640861 -54.47 0.0008363175    1.477    0.323
        11 -10.2783     16.4782      5.5614   1.1478187549e+02   7.2276033368e+01    0.2919993    0.1948553  -3.63  0.001880127    1.861    0.463
        12  -9.6583    142.9210      9.9547   7.4897167041e+01   4.8329069549e+01    0.2523244    0.2030361  -3.62 0.0003709735    1.264    0.209
        13  -8.3336     96.4238     10.1888   8.5419965386e+01   5.9305249538e+01    0.1950893    0.1170617 -36.99 0.0009389265    1.631    0.387
        14  -8.8374    167.1593      8.6345   7.0479463070e+01   4.2112722269e+01    0.2880018   0.09846693 -23.43 0.0009821068    2.774    0.639
        15 -10.3984    132.9477      8.2859   7.6086576144e+01   5.1035701994e+01    0.3364598     0.175341 -37.98  0.001074942    1.948    0.487
        16  -8.9478    117.3232      9.0681   7.9692217172e+01   5.4750497984e+01    0.2009868    0.1771247 -14.78 0.0005203267    1.086    0.079
        17 -11.6371    223.2698     21.3102   6.7634243236e+01   2.6052475530e+01     1.217568    0.4984655   0.94   0.00318557    5.894    0.830
        18  -9.8487      5.8470      3.7079   1.1969166132e+02   7.3451092716e+01    0.3530579    0.1488592 -46.95  0.001671913    1.725    0.420
        19  -9.5082      2.4935      6.5078   1.2267676116e+02   7.3141059065e+01    0.1890643    0.1521436 -62.93  0.001194557    1.231    0.187
        20  -9.4296      2.5069      3.4706   1.2145562820e+02   7.3717638312e+01     0.238191    0.1378777 -38.13   0.00093084    1.464    0.317
        21 -10.5421    110.6188      4.6571   7.9253925901e+01   5.6818559268e+01    0.3944653    0.2277928 -43.38            0    1.932    0.482
        22  -9.0746     64.6657      5.0450   9.2955400435e+01   6.6093801552e+01    0.1856854     0.140669 -25.53 0.0004541729    1.146    0.127
        23  -8.3033    153.3770      3.8180   7.0748153897e+01   4.6237512976e+01    0.2037367     0.135622  -0.74 0.0009373389    1.649    0.393
        24  -9.5721    127.6464      4.1319   7.5375153578e+01   5.2794141956e+01    0.2053584    0.1293317  -3.79 0.0005143207    1.728    0.421
        25  -9.6927     50.9271      3.7914   9.7626006758e+01   6.8476938122e+01    0.1997795    0.1486559 -26.16 0.0002989332    1.127    0.112
        26  -8.8965    179.5449      2.9979   6.6833949254e+01   3.9340896927e+01    0.2161793    0.1414106 -19.15 0.0005235788    1.537    0.349
        27  -8.7687    158.7753      1.9875   6.9242392014e+01   4.4983992268e+01    0.2287249    0.1415038  44.13  0.001038789    1.606    0.377
        28  -8.7649    143.7079      2.0155   7.1591562924e+01   4.8933629647e+01    0.2019392    0.1774366  -6.48 0.0003236469    1.129    0.114
        29  -8.8320    121.5315      1.9854   7.5669977705e+01   5.4512911130e+01    0.2072198    0.1346128 -18.18 0.0003804896    1.505    0.336
        30 -10.0745    226.5308    177.6303   1.0485175174e+02   5.9893350945e+00    0.4872991    0.2497532 -11.25  0.002378473    2.812    0.644
        31  -9.3749    224.5133    249.4385   1.1557014652e+02  -4.1816533506e-01    0.1964549    0.1579043  42.36     0.001609    1.377    0.274
        32  -9.5985    228.9322    249.1748   1.1492169741e+02  -1.0052354052e+00     0.199552    0.1389597  57.50  0.001344637    2.073    0.518
        33 -10.1528    218.2603    247.7734   1.1624998708e+02   5.8262532832e-01    0.2761725    0.2169887 -30.42    0.0017463    1.782    0.439
        34 -10.3681    198.0695    227.2692   1.1668382127e+02   5.3673772621e+00    0.6076562     0.345282  -1.99  0.003273868    3.555    0.719
        35  -9.0805    202.3401    249.8199   1.1875320514e+02   2.6400397075e+00    0.2153812    0.1242136  19.28  0.001466438    2.098    0.523
        36 -10.3238    206.3947    226.1179   1.1528194963e+02   4.2278692485e+00    0.4028883    0.2212294 -43.45  0.002622262    2.628    0.619
        37 -11.1895    209.4653    247.4261   1.1745887730e+02   1.8445723489e+00    0.4335718    0.3718801  22.69  0.003184807    1.274    0.215
        38 -10.1087    201.9089    242.0501   1.1791768538e+02   3.3942625837e+00    0.3163658    0.2152315 -43.46   0.00216815    2.161    0.537
        39 -10.2282    215.6507    234.3654   1.1497270978e+02   2.0963236087e+00    0.2948476    0.2549652 -31.65  0.002545741    1.630    0.386
        40  -9.4053    211.8920    228.1364   1.1472416918e+02   3.2147379563e+00    0.2069142     0.197358   0.55  0.001158591    1.419    0.295
        41 -10.4032    206.2032    236.9494   1.1667682919e+02   3.2385671043e+00    0.3204247    0.2563548  56.81  0.001812492    1.552    0.356
        42  -9.8021    202.4557    232.2346   1.1664830878e+02   4.2288486596e+00    0.2161674    0.1842078 -31.63  0.001118037    1.591    0.372
        43  -9.9032    193.4547    217.5252   1.1613462932e+02   7.0776201501e+00    0.4425382    0.2127296 -30.39  0.002569651    2.881    0.653
        44 -10.9955    193.6319    247.0051   1.1969116234e+02   4.1241324421e+00    0.5209275    0.2457908 -36.66  0.003482478    2.954    0.662
        45 -11.0259    190.3636    233.9566   1.1866620705e+02   5.8502586899e+00     0.414057     0.311603 -35.00  0.003324888    1.789    0.441
        46  -9.4046    190.5985    225.9999   1.1766104134e+02   6.6244750013e+00    0.2362009    0.1556206 -37.50  0.001712802    2.008    0.502
        47 -10.1905    186.1494    248.0856   1.2089851744e+02   5.0866827504e+00    0.3278278    0.2162526   7.66   0.00234702    2.240    0.554
        48 -10.4219    168.5956    249.5034   1.2361473862e+02   7.4331611558e+00     0.314654    0.1717843  28.43 0.0007309353    2.109    0.526
        49 -11.1456    169.8261    241.5047   1.2260099423e+02   8.0807810170e+00    0.2890951    0.2151237  -5.14  0.002215463    2.052    0.513
        50  -9.5778    151.0230    249.9719   1.2624725022e+02   9.8450936146e+00    0.1565761    0.1099947  45.19 0.0008157391    1.037    0.036
        51  -8.9427    209.9634    199.6086   1.1101891355e+02   6.3717328901e+00    0.2057175    0.1869899  45.71  0.001581072    1.309    0.236
        52  -9.3411    202.1856    197.2305   1.1189480059e+02   7.9066595064e+00    0.2526195    0.1664149 -37.04  0.001424204    1.870    0.465
        53  -9.0653    176.4483    197.0046   1.1607192909e+02   1.2188327247e+01    0.2418493    0.1152975 -41.14  0.001323627    2.606    0.616
        54  -8.6814    226.5116    197.4511   1.0812079307e+02   3.9202191860e+00    0.1624103    0.1071714 -25.89  0.000924879    1.739    0.425
        55  -9.4263    224.2721    192.2416   1.0763900733e+02   4.8136915747e+00    0.3357066     0.185102 -31.08  0.001868207    2.097    0.523
        56  -9.3373    184.8888    194.5753   1.1431816886e+02   1.1089887504e+01    0.2676293    0.1516599 -14.69  0.001306387    3.356    0.702
        57  -9.1558    210.1981    188.3560   1.0923180809e+02   7.5719989499e+00    0.2491781    0.1462231 -32.06  0.001153918    1.991    0.498
        58  -8.7656    186.7086    202.6163   1.1517605458e+02   9.8219601377e+00    0.1732908    0.1030885 -39.79  0.001079453    2.107    0.525
        59  -8.7639    215.3910    197.6620   1.0987171169e+02   5.6961920879e+00    0.1825854    0.1056728 -37.29  0.001116132    2.147    0.534
        60  -9.2483    209.2328    194.0492   1.1028381582e+02   7.0974978839e+00    0.2108363    0.1593657  -9.15   0.00145124    1.498    0.332
        61 -12.5628    245.2623    158.7489   9.8526427329e+01   4.7900050039e+00      1.92167     0.612446 -36.95  0.007915922    3.657    0.727
        62  -8.7322    215.3396    187.1783   1.0822138334e+02   6.8381021721e+00    0.1446499    0.1050741 -39.69 0.0009404243    1.754    0.430
        63  -8.6843    220.4552    187.5493   1.0747402430e+02   5.9403164714e+00     0.196222    0.1113942 -28.91  0.000879321    2.012    0.503
        64  -9.1388    203.4984    183.2030   1.0948482966e+02   9.3100264113e+00    0.2467809    0.1174192 -31.60  0.001284637    2.504    0.601
        65  -8.7098    217.8099    183.3171   1.0719376769e+02   6.8486773233e+00    0.1526968    0.1354928   6.20 0.0007803496    1.177    0.151
        66  -9.1161    218.9830    178.2524   1.0615234053e+02   7.2150299405e+00    0.2697268    0.1682029 -24.48  0.001621171    1.792    0.442
        67  -9.7849    211.0297    181.6505   1.0800314878e+02   8.1961313764e+00    0.3407209    0.1745611 -24.74  0.001809543    2.404    0.584
        68  -9.3882    210.5542    175.2978   1.0700635541e+02   9.0233653183e+00    0.2919747    0.1161955 -34.74  0.001380601    2.851    0.649
        69  -8.7946    183.4785    182.5426   1.1272749773e+02   1.2854176922e+01    0.2120819    0.1196118 -38.43  0.001195322    2.115    0.527
        70  -8.7962    190.6129    178.7654   1.1090940297e+02   1.2099178536e+01    0.2020138    0.1167629 -32.44  0.001129926    2.063    0.515
        71  -8.9495    205.1090    177.0953   1.0820666818e+02   9.7632264721e+00    0.2238287    0.1511445 -26.36  0.001371098    1.691    0.409
        72  -8.6899    215.5193    173.0164   1.0580298013e+02   8.4198587642e+00    0.2006479    0.1140802 -36.67   0.00111759    2.038    0.509
        73  -8.7872    197.6758    176.5953   1.0935938219e+02   1.1132256432e+01    0.1877525     0.111851 -35.73  0.001069519    1.947    0.486
        74  -8.4772    197.4752    181.9718   1.1027887562e+02   1.0499469460e+01    0.1595035    0.1176088 -30.56 0.0006011776    1.580    0.367
        75  -8.4801    192.6282    173.1547   1.0963480171e+02   1.2467825771e+01    0.1610639    0.1127997 -18.31 0.0009513822    1.740    0.425
        76 -11.9526    229.3612    110.9188   9.0845756973e+01   1.3512823772e+01      2.47741    0.6299061 -31.40   0.00827913    3.643    0.725
        77  -9.1936    205.2324    169.2845   1.0683850279e+02   1.0701312633e+01    0.2786659    0.1593098 -43.06  0.001504853    2.162    0.538
        78  -9.7776    218.6750    167.9046   1.0438429128e+02   8.4611828283e+00    0.3274413    0.2200116 -23.76  0.001980474    1.617    0.381
        79  -8.9234    212.0442    169.3370   1.0572055421e+02   9.4736557341e+00    0.2179473    0.1522774 -49.04  0.001021821    1.978    0.494
        80  -8.9948    191.5305    165.2436   1.0845674195e+02   1.3714164048e+01    0.2710655    0.1243911 -33.81  0.001277932    2.550    0.608
        81  -9.8460    212.9335    162.9502   1.0441968285e+02   1.0092069721e+01    0.3569165    0.1952114 -26.78  0.001883717    2.052    0.513
        82  -8.8850    199.4979    164.6188   1.0697586768e+02   1.2337102995e+01    0.2273154     0.122819 -34.39  0.001019067    2.083    0.520
        83 -12.0100    243.5867    138.2061   9.4682144674e+01   7.3667039510e+00      1.69446    0.4924603 -41.59   0.00531482    5.640    0.823
        84  -9.8599    205.7227    160.7353   1.0521400053e+02   1.1694063484e+01    0.4040385    0.2602804 -11.60  0.002191627    1.946    0.486
        85  -8.4316    176.4520    159.0060   1.1002549751e+02   1.7378950933e+01    0.1781397    0.1263276 -37.52  0.001029757    1.597    0.374
        86  -9.2464    197.0333    156.7776   1.0596457163e+02   1.3836472740e+01       0.3161    0.1874953 -21.60  0.001617927    2.102    0.524
        87 -10.7790    176.5629    245.5324   1.2202896591e+02   6.7013064367e+00     0.347715    0.2479402 -10.66  0.002655588    2.167    0.538
        88  -9.2403    216.1670    156.0915   1.0260141298e+02   1.0345399450e+01    0.2701499    0.1734078 -29.22  0.001148368    1.672    0.402
        89  -9.1070    221.3091    161.6030   1.0280326408e+02   8.7331050980e+00    0.2105594    0.1592488 -23.18 0.0009311524    1.407    0.289
        90  -9.8554    156.8169    246.8229   1.2508677354e+02   9.3725754549e+00    0.1989791    0.1341113 -30.23  0.001500737    2.378    0.580
        91  -9.0287    205.6962    154.2007   1.0399087246e+02   1.2547423755e+01    0.2014851    0.1500817 -30.97 0.0007553881    1.465    0.317
        92  -8.3912    153.2888    233.3028   1.2425070709e+02   1.1384701238e+01    0.0960206   0.06911337  27.31 0.0002601838    1.565    0.361
        93  -9.3116    215.4107    148.9342   1.0133527915e+02   1.1387971709e+01    0.2953079    0.1973282 -47.32  0.001396287    1.952    0.488
        94  -9.0881    145.9463    230.3342   1.2508362999e+02   1.2804930538e+01    0.1504086   0.09897289  44.82 0.0003854868    1.142    0.125
        95  -9.1329    235.7896    228.2072   1.1124904598e+02  -2.9590202417e-01    0.2496731    0.1110715 -23.88  0.001526497    2.799    0.643
        96  -9.2876    207.9940    144.7677   1.0174999741e+02   1.3357230957e+01    0.2718647    0.1839788 -21.02  0.001494056    1.609    0.378
        97  -8.5090    174.0411    227.9092   1.2044038822e+02   8.9202108827e+00     0.167431    0.1093045  23.41  0.001132381    1.784    0.439
        98  -8.8570    200.1352    145.1797   1.0318573541e+02   1.4831006887e+01    0.1948689    0.1664475  13.79 0.0006274596    1.145    0.127
        99  -9.0468    194.5037    143.3667   1.0381329565e+02   1.6188612809e+01    0.2384211    0.1292997 -35.21   0.00116029    1.992    0.498
       100  -9.3732    155.4742    143.4648   1.1114219117e+02   2.3769841262e+01    0.2578958    0.1304023 -45.36  0.001207261    2.164    0.538
       101  -8.9953    138.5866    143.2268   1.1447938404e+02   2.6958119033e+01    0.1763832    0.1237403 -37.02 0.0009567622    1.714    0.416
       102  -8.3132    222.7759    227.0167   1.1297200768e+02   1.7042277006e+00    0.1115758   0.08269426 -18.89 0.0005806626    1.627    0.385
       103  -9.8604    208.1021    137.3532   1.0021157384e+02   1.4336688727e+01    0.3253586    0.2523746 -29.14  0.001103658    1.354    0.262
       104  -8.6761    192.5237    136.9460   1.0285771290e+02   1.7510025180e+01    0.1937084    0.1312061 -32.89  0.001027385    1.577    0.366
       105  -9.0576    184.5608    226.7587   1.1868041869e+02   7.4584993373e+00    0.1552184    0.1044139 -30.17  0.001118071    1.998    0.499
       106  -8.6408    138.9723    227.5076   1.2589052830e+02   1.4165273182e+01    0.1376908   0.07739086  29.25 0.0008064495    2.329    0.571
       107  -9.1812    199.1405    135.5368   1.0138612898e+02   1.6383385743e+01    0.2616372    0.1949204 -14.97  0.001449919    1.478    0.324
       108 -10.5955    201.5292    130.9921   1.0000028621e+02   1.6547268413e+01    0.3250186    0.1978036 -22.70  0.001318072    1.850    0.459
       109  -8.7135    187.6685    135.4888   1.0343481349e+02   1.8702932463e+01    0.2238597    0.1247302 -35.81  0.001070749    1.922    0.480
       110  -8.8265    214.0884    142.3320   1.0022829148e+02   1.2494696383e+01    0.2387862    0.1789519 -34.69 0.0008997312    1.457    0.314
       111  -8.9598    142.4959    131.5278   1.1146648345e+02   2.8307351765e+01    0.1333514    0.1233085  64.30 9.646006e-05    1.025    0.025
       112  -9.5820    216.9597    223.8024   1.1339785653e+02   2.8605659101e+00    0.2425481    0.2009894 -74.86  0.001655275    2.312    0.567
       113  -9.3308    180.7686    221.6160   1.1863572302e+02   8.5925062334e+00    0.2464065    0.1454593 -30.46  0.001610849    2.365    0.577
       114  -8.0304    186.2798    128.3663   1.0217818626e+02   2.0066289553e+01    0.1395424    0.1024387  10.19 0.0003797872    1.683    0.406
       115  -8.8677    179.6902    216.4325   1.1815376143e+02   9.3401169173e+00    0.1916102    0.1341982 -27.18  0.001348105    1.913    0.477
       116  -9.5701    179.8175    124.0957   1.0245445325e+02   2.2072314757e+01     0.412421    0.2410541 -40.72  0.001973511    1.808    0.447
       117 -12.4837    248.6223    127.9728   9.1761391584e+01   7.5943567331e+00     2.581103     0.232587 -30.21  0.006421514    7.651    0.869
       118  -9.0230    185.8800    220.6025   1.1771121219e+02   7.9178091771e+00    0.2566241    0.1149618 -33.03  0.001436498    3.178    0.685
       119  -9.3348    211.1213    218.4026   1.1354068271e+02   4.2600743298e+00    0.2789808    0.1472028 -30.66  0.001776245    2.383    0.580
       120  -9.3864    219.5186    216.6381   1.1203035225e+02   3.1450256508e+00    0.2199293    0.1410598 -28.27  0.001547297    1.908    0.476
       121  -9.5076    216.8936    211.6527   1.1171902782e+02   4.0309152298e+00    0.2984427    0.1825205 -35.27  0.001818882    2.072    0.517
       122 -10.1200    224.6300    116.6837   9.2928983561e+01   1.3745640536e+01    0.4780715    0.2063924 -21.73  0.001894291    2.697    0.629
       123  -8.1542    173.3300    119.6390   1.0270683008e+02   2.4149404621e+01    0.1422977    0.1101487 -81.56   0.00070407    1.799    0.444
       124  -8.7866    205.3386    217.3512   1.1427780285e+02   5.2544992895e+00    0.1710014    0.1323639 -29.53  0.001303566    1.635    0.388
       125  -8.8141    185.7262    114.5652   9.9177276799e+01   2.2324544563e+01    0.2482463    0.1227062 -35.37  0.001056805    2.089    0.521
       126  -8.5827    181.0000    115.0495   1.0018053780e+02   2.3263628283e+01    0.2261491   0.07973037 -36.56 0.0008023873    2.942    0.660
       127  -9.0117    194.6021    113.2200   9.7231919187e+01   2.0615869954e+01    0.2653154    0.1284925 -38.35  0.001125784    2.117    0.528
       128  -8.8907    227.6415    216.7889   1.1084180257e+02   1.8971097770e+00    0.1769984    0.1503659  -8.75 0.0008131395    1.379    0.275
       129  -8.1608    176.6938    110.3688   9.9904921064e+01   2.4949242059e+01    0.1442771    0.1116246 -74.44 0.0007035008    1.754    0.430
       130  -8.7890    189.6196    108.7804   9.7083010148e+01   2.2380492589e+01    0.1995128    0.1287216 -43.01 0.0006092523    1.652    0.395
       131  -8.5306    183.0000    108.9301   9.8353884252e+01   2.3807234799e+01    0.2296366   0.08038422 -35.65 0.0008010092    2.933    0.659
       132  -8.3764    160.5000    108.0210   1.0257919322e+02   2.8836213912e+01    0.2149011    0.1391481 -41.51  0.001028195    1.584    0.369
       133  -9.2817    214.2177    241.0773   1.1601748039e+02   1.7159889750e+00    0.1921408    0.1541099  36.36 0.0009472234    1.200    0.167
       134  -8.2462    226.0000    213.0983   1.1055569148e+02   2.4868714956e+00    0.1435329    0.1197831  13.45  0.000801702    1.192    0.161
       135  -9.0906    200.7532    215.0757   1.1467437527e+02   6.2000678828e+00    0.1894356    0.1265397 -39.06  0.001320781    1.958    0.489
       136  -9.3763    184.7188    102.1906   9.6379093706e+01   2.4498881589e+01    0.3156124    0.2479896 -55.18  0.001416848    1.476    0.323
       137 -12.0757    223.8365    143.9050   9.8945736035e+01   1.0415741095e+01     1.821158    0.6782067 -31.56   0.00774779    2.777    0.640
       138  -9.5006    192.7795    209.2165   1.1512150678e+02   8.0888642989e+00    0.2625301    0.2113259 -49.09  0.001667513    1.705    0.413
       139  -8.3266    238.4126    101.7237   8.7294946446e+01   1.2788123086e+01    0.1861606    0.1224142 -11.85 0.0009363462    1.539    0.350
       140  -9.4044    176.1187    101.3560   9.7813962696e+01   2.6552964954e+01    0.2767184    0.1991546 -33.36  0.000939582    1.418    0.295
       141  -9.4780    176.8407    209.1278   1.1766343417e+02   1.0638920117e+01     0.274825    0.1461125 -34.43  0.001630767    2.540    0.606
       142  -8.8076    202.5279     97.9471   9.2101459561e+01   2.1144418762e+01     0.216683    0.1378164 -29.53 0.0008639096    1.565    0.361
       143  -9.7492    195.1485     96.6240   9.3062997090e+01   2.3011730327e+01    0.3405168    0.2698757 -11.81   0.00105054    1.334    0.250
       144  -9.6158    196.5604     91.6945   9.1541017984e+01   2.3433432797e+01    0.3189057    0.2093668 -27.54  0.001106418    1.532    0.347
       145  -8.5408    183.5629     95.2493   9.4834084552e+01   2.5862795547e+01    0.2037644    0.1398258 -18.97 0.0009514068    1.642    0.391
       146  -8.6907    186.4878    210.0282   1.1623297310e+02   8.9989878047e+00    0.1431494   0.09086703  -2.75 0.0008102957    2.656    0.624
       147  -8.9992    183.6412     77.5131   9.0031887937e+01   2.8639835008e+01    0.2951627    0.1740251 -35.15 0.0009834671    1.661    0.398
       148  -9.7158    192.6616     88.5178   9.1398960405e+01   2.4816279045e+01     0.296295    0.2269177  15.65 0.0009964064    1.487    0.328
       149  -9.4018    185.3398     82.6080   9.1134390735e+01   2.7443381731e+01    0.3691482     0.212875 -40.17  0.001124369    1.744    0.427
       150  -9.4942    188.6044     92.2270   9.3111593701e+01   2.5183592296e+01    0.3726699    0.2351317 -18.37  0.001664929    1.839    0.456
       151  -9.6671    188.1120     86.8532   9.1777792853e+01   2.6132387255e+01    0.3733784    0.2690288 -52.90  0.001301937    1.605    0.377
       152  -9.1752    160.1639    100.5484   1.0081964032e+02   3.0212335136e+01    0.2804923    0.1011257 -41.46  0.000988393    2.791    0.642
       153  -9.8227    170.5418    234.2280   1.2169980796e+02   8.7511452434e+00    0.1908739    0.1042829 -40.11  0.001283619    2.533    0.605
       154  -9.2974    224.4584    207.8012   1.1001103582e+02   3.2277354379e+00      0.22691    0.1477506 -42.84    0.0014964    2.230    0.551
       155  -9.4154    206.2331    206.1118   1.1256438104e+02   6.2785103636e+00    0.3502177    0.1702275 -27.51  0.001979591    2.683    0.627
       156  -8.6672    192.6948     83.1240   8.9945142579e+01   2.5627902930e+01    0.2949683    0.1160899 -38.25  0.001070344    2.479    0.597
       157  -8.8206    200.4568     82.5178   8.8430541071e+01   2.3888832846e+01    0.2332071     0.215826 -21.06 0.0008613607    1.060    0.057
       158 -10.6275    200.8001     77.3358   8.6960976381e+01   2.4562470991e+01    0.5023223    0.2638014 -31.68  0.001514506    1.836    0.455
       159  -8.3822    170.5257     83.5014   9.4213679650e+01   3.0778781320e+01    0.1454717     0.143036   3.24 0.0003738375    1.007    0.007
       160  -9.1889      2.3391     80.8988   1.3851204832e+02   5.7572421776e+01    0.1604974    0.1081517 -77.97 0.0005066853    1.112    0.101
       161  -8.9169    188.6427     78.0250   8.9265364704e+01   2.7364843852e+01    0.3271433    0.1386614 -30.55  0.001209466    2.355    0.575
       162 -11.1397    218.7459    138.9883   9.8766190252e+01   1.2021171926e+01     1.155421    0.3062905 -31.60  0.004017694    3.970    0.748
       163  -8.4164    183.4824    205.9902   1.1616719803e+02   9.9470892625e+00    0.1448955   0.09272027  -3.94 0.0008097262    2.660    0.624
       164 -10.4161    206.1215     73.8511   8.5122673214e+01   2.3789140421e+01     0.302702    0.2195236 -28.16  0.001113422    1.333    0.250
       165  -9.0763    174.5080     77.5221   9.1758046327e+01   3.0817473321e+01    0.3051325    0.1441457 -33.67  0.001115271    2.091    0.522
       166  -8.8724    166.7448     77.1339   9.3177667856e+01   3.2719284547e+01    0.2902752    0.1856405 -28.17 0.0009910153    1.628    0.386
       167 -10.1343    177.7224    232.2819   1.2038323086e+02   7.8973422431e+00    0.2970568    0.1826348   7.36   0.00170863    3.151    0.683
       168  -9.2553    197.2259    203.9482   1.1367423084e+02   7.9625820507e+00    0.2777211    0.1593632 -24.53  0.001667721    2.323    0.569
       169  -8.8584    192.7812    202.2350   1.1414035799e+02   8.8779195882e+00    0.1694917    0.1347167 -35.95  0.001033068    1.574    0.365
       170  -8.3569     28.9946     75.2538   1.2960131131e+02   5.6823332115e+01    0.1237404    0.1029688  37.11 0.0002209004    1.467    0.318
       171 -10.5165    195.0894     66.9017   8.4983455377e+01   2.7454119016e+01    0.4970812    0.3298002 -12.82  0.002244048    1.694    0.410
       172  -9.0460    115.3940     71.1953   1.0318425224e+02   4.5150307528e+01    0.2140999    0.1271831 -53.04 0.0009530538    1.751    0.429
       173  -8.2816     70.9628     71.5007   1.1577184787e+02   5.2778126040e+01    0.1703232    0.1311302  42.15 0.0003440747    1.461    0.315
       174  -9.1996    212.4529     65.9995   8.1946476110e+01   2.3348026732e+01    0.3657872     0.166388 -34.63   0.00108563    2.056    0.514
       175 -12.3825    214.3883     47.7028   7.6440632636e+01   2.5251532532e+01    0.6969883    0.5576743  60.40  0.003650902    1.302    0.232
       176  -9.5467    213.2401     61.0366   8.0432488931e+01   2.3819141652e+01    0.4256328    0.1668754 -30.41  0.001579173    2.337    0.572
       177 -12.2967    210.9848     52.1964   7.8226954603e+01   2.5528715279e+01    0.8120173    0.4905902 -22.83  0.003655996    1.620    0.383
       178  -8.9246    223.6155    201.0586   1.0912258767e+02   4.0225651071e+00    0.2059506     0.104866 -28.09  0.001214522    2.310    0.567
       179  -8.4090    182.3554     68.1785   8.7585405901e+01   3.0387000837e+01    0.2259612    0.1284208 -40.32  0.000949947    1.756    0.431
       180  -8.8783    203.1889     65.8907   8.3362044392e+01   2.5614130461e+01    0.3378999     0.213879 -28.68  0.001548381    1.522    0.343
       181  -8.8871    208.3860     63.3248   8.1814984925e+01   2.4697120361e+01    0.3064004    0.1405204 -27.17  0.001146817    2.104    0.525
       182  -9.9954    206.9204     58.1465   8.0554710716e+01   2.5755107695e+01    0.4171335    0.2212397 -19.59  0.001419357    2.002    0.500
       183  -8.2066     13.3336     66.2727   1.3308544065e+02   6.0019581024e+01    0.1116452   0.07160974 -46.94 0.0002572782    1.596    0.373
       184  -8.2124    157.4986     61.4774   9.0373841344e+01   3.7500939236e+01    0.1483983    0.1454947 -27.48 7.794311e-05    1.018    0.017
       185 -10.3454    161.6014     70.2875   9.2221444408e+01   3.5071776129e+01    0.4180328    0.3697365  58.04  0.001327318    1.161    0.139
       186  -9.5536    229.1284    166.0094   1.0237214583e+02   6.8259363822e+00    0.2859094    0.1738907 -17.85   0.00111776    1.791    0.442
       187  -8.8002    182.4835     57.9619   8.4504229748e+01   3.1880305101e+01    0.2324074    0.1447752 -29.98 0.0007082567    1.563    0.360
       188 -10.0058    201.3462     54.8371   8.0442725199e+01   2.7586692674e+01     0.588012   0.07825321 -36.42  0.001434723    5.256    0.810
       189  -8.6751    100.0163     54.2521   1.0202715421e+02   5.1406327097e+01    0.1853396    0.1778567 -41.45 0.0002321264    1.036    0.035
       190  -8.5818     32.7983     57.9814   1.2483985923e+02   6.0231619033e+01    0.1659274    0.1270432 -63.47 -0.0006383859    1.054    0.052
       191  -8.5969     95.5534     52.2477   1.0263828320e+02   5.2626501434e+01    0.2011964    0.1256301 -32.70 0.0009470579    1.654    0.396
       192  -8.5686    192.4862     54.9896   8.1900689911e+01   2.9791168546e+01    0.2354713    0.1436055 -28.31 0.0008719974    1.589    0.371
       193 -11.0869    148.8634     44.2519   8.6502992979e+01   4.2321380531e+01    0.5620047     0.358997 -56.43  0.002413097    1.941    0.485
       194  -8.0796     72.7200     47.7121   1.0818110744e+02   5.7410346684e+01     0.128068   0.09785113 -20.91 0.0001718609    1.521    0.343
       195  -8.5057    192.7744     46.0071   7.9109263783e+01   3.0939115301e+01    0.2047203    0.1205855 -26.32 0.0008742261    1.651    0.394
       196  -8.5282     41.7839     44.4377   1.1800524144e+02   6.2187068713e+01    0.1476037    0.1193075   0.98 0.0008857119    1.575    0.365
       197  -8.1718    183.2935     43.6510   7.9894611450e+01   3.3688494670e+01    0.1590788    0.1108845 -57.05 0.0005899657    1.673    0.402
       198  -8.4845    173.4903     39.5032   8.0200909392e+01   3.6776672927e+01     0.272752    0.1487535 -11.19  0.001031919    2.323    0.570
       199  -8.6164    185.5551     39.2456   7.8118258371e+01   3.3687743029e+01    0.2124113     0.144495  -7.78 0.0009454782    1.655    0.396
       200  -8.5992    179.5036     37.9881   7.8687947199e+01   3.5421924441e+01    0.2407465    0.1434541 -28.65  0.001038076    1.621    0.383
       201  -8.0133    168.6642     37.3286   8.0316144227e+01   3.8315910315e+01    0.1604068    0.1128921 -61.48 0.0007051946    1.726    0.421
       202  -9.2315     61.7949     36.0552   1.0781502144e+02   6.1316661556e+01     0.189047    0.1797654 -21.31 0.0002921679    1.124    0.110
       203  -8.8225    149.3043     34.5160   8.2979768271e+01   4.3636581030e+01    0.2733015    0.1331834 -28.08 0.0009020736    2.009    0.502
       204  -9.0866    133.0000     34.9883   8.6627779479e+01   4.7560562555e+01    0.2484421   0.08168593 -30.61 0.0008026944    2.944    0.660
       205  -8.6778    127.9937     34.2669   8.7509164191e+01   4.8851428026e+01    0.1975573    0.1898927  33.04 0.0002789264    1.065    0.061
       206  -8.4237    186.0000     32.9445   7.6012999413e+01   3.4372320797e+01    0.2462119   0.08369163 -24.81 0.0007941556    2.885    0.653
       207 -10.8073    221.2027     29.7959   7.0343437938e+01   2.5657773010e+01    0.4306815    0.1787511 -30.20  0.001689572    2.137    0.532
       208  -8.8837    230.0778    180.7229   1.0483122591e+02   5.0565065105e+00     0.341001    0.2024859  -4.69  0.001927757    2.070    0.517
       209  -8.4236    139.4982     29.4966   8.3148091808e+01   4.6775024916e+01    0.1502168    0.1387949  12.81 -0.0001080353    1.077    0.071
       210  -8.6407     42.2740     28.0235   1.1226292745e+02   6.5423284861e+01    0.1699559    0.1329327 -47.14 0.0002583041    1.072    0.067
       211 -10.0176      9.3283     27.2434   1.2618408033e+02   6.8586415616e+01    0.2010726     0.167973  87.09  0.001480417    1.403    0.287
       212  -9.8075      4.6586     27.6044   1.2836981382e+02   6.8801459118e+01    0.1820309    0.1556889  71.80 0.0005817126    1.444    0.307
       213  -9.3976    155.5607     21.7140   7.7128914114e+01   4.3716876881e+01    0.3378117    0.1419256 -24.33 0.0007749167    2.352    0.575
       214  -7.9012    136.3257     26.3366   8.2616837843e+01   4.7988027982e+01    0.1583013     0.108799  22.28  0.000705149    1.721    0.419
       215  -7.9695     58.0022     26.0201   1.0528221888e+02   6.3734862278e+01    0.1509515    0.1272388 -34.99            0    1.006    0.006
       216  -9.9167    163.5346    245.7061   1.2397691428e+02   8.5406892323e+00    0.2243157    0.1014081 -44.26  0.001445098    3.133    0.681
       217  -8.6056    144.4773     24.4591   8.0229705708e+01   4.6208484736e+01    0.1462883    0.1422464 -28.99 7.583413e-05    1.053    0.050
       218  -7.9390     68.3242     23.3261   1.0034811254e+02   6.2621588737e+01    0.1343317   0.09593432  -7.50 0.0007048849    1.691    0.409
       219  -9.0762      7.8449     23.1412   1.2565787554e+02   6.9519435423e+01    0.1638275    0.1294459 -70.14 0.0004352075    1.211    0.174
       220  -9.7068    178.6160     22.2002   7.3552272017e+01   3.7601844398e+01    0.2110549     0.141472  -6.59 0.0006385343    1.655    0.396
       221  -9.4254     83.8470     21.2682   9.4217635170e+01   6.0234937627e+01    0.3347767    0.2478077  76.62  0.001719011    2.073    0.518
       222  -8.5026     59.7760     21.1604   1.0253870429e+02   6.4334139562e+01    0.1725882     0.134796 -14.77 0.0003405227    1.316    0.240
       223 -10.2223    127.3344     19.2439   8.1756577059e+01   5.1113437356e+01    0.3158434    0.1966092 -18.74  0.001187816    1.637    0.389
       224  -8.7999     41.2893    244.8519   1.4203349831e+02   2.4166560030e+01    0.2123496    0.1192997 -46.76  0.001242509    5.314    0.812
       225  -9.2183      2.6939     15.9828   1.2590984628e+02   7.1274835682e+01    0.1576676    0.1111983 -57.06 0.0004082762    1.064    0.060
       226  -8.8216    250.5988    245.2574   1.1144733101e+02  -3.6540605440e+00    0.1215596   0.07651041   2.98 0.0009490611    1.632    0.387
       227  -9.2477    223.7919    183.6702   1.0630905402e+02   5.7990460173e+00    0.2693053    0.1671705 -30.97  0.001195152    1.839    0.456
       228  -8.6415    237.8234    245.0747   1.1317832540e+02  -1.9117325556e+00    0.1175402    0.1111435 -87.74  0.001041011    1.993    0.498
       229  -9.2968    227.5314    171.5203   1.0362082146e+02   6.4892841836e+00    0.2369192    0.1650804 -37.38  0.001114354    1.745    0.427
       230  -9.6534    225.0833    242.7665   1.1467405135e+02   3.5541443102e-02    0.2506798    0.1421644 -24.08  0.001833664    2.255    0.557
       231  -9.7717    183.5792    239.5406   1.2032968034e+02   6.2879837818e+00    0.2640384    0.2017567 -46.55  0.002160086    1.863    0.463
       232  -9.5964    248.1497    240.1958   1.1112220358e+02  -2.9607269915e+00    0.1692364    0.1420848  -8.67  0.001092395    1.512    0.339
       233  -9.1330    223.3779    173.4161   1.0461328555e+02   6.9992929897e+00    0.2916447    0.1807519 -40.11  0.001301836    2.014    0.503
       234  -8.6904     69.9820     12.4910   9.4791167217e+01   6.4090443253e+01    0.1698727    0.1282506  40.92 0.0003514927    1.457    0.314
       235  -9.1749    239.9722    240.5434   1.1229990545e+02  -1.8645768388e+00     0.145643    0.1377331 -23.15   0.00119692    1.710    0.415
       236  -9.0797    219.5564    239.8638   1.1510021447e+02   1.0578877878e+00    0.1819082   0.09701346 -33.99  0.001036085    2.500    0.600
       237  -8.0992     34.3010     10.3178   1.0823238534e+02   6.9617096361e+01    0.1226081   0.07901403 -23.18 0.0003364937    1.620    0.383
       238  -8.9032    242.6117    248.1665   1.1290806331e+02  -2.7896393643e+00    0.1657982     0.100623  40.56 0.0009530374    1.318    0.241
       239  -9.4288     23.2287     15.9239   1.1587784248e+02   6.9742121170e+01    0.1785531    0.1559233 -20.23  0.000534793    1.217    0.178
       240 -10.6371    159.2680    235.8950   1.2360390451e+02   1.0218694079e+01    0.2427522    0.1567989 -30.42   0.00171344    2.437    0.590
       241  -8.5749    148.8118    238.1522   1.2543459226e+02   1.1471406948e+01    0.1370923    0.0994042  34.52 0.0007548904    1.345    0.257
       242  -9.3066    243.3192    236.5189   1.1130498420e+02  -2.0216606629e+00    0.1757898    0.1511864 -41.64  0.001265103    1.984    0.496
       243  -9.1977    240.3969    232.1766   1.1113325155e+02  -1.2746850631e+00    0.1764551    0.1467265 -22.26 0.0009626413    1.626    0.385
       244  -8.7141    237.1238    235.9270   1.1209551850e+02  -1.1096135001e+00    0.1245366    0.1153534 -81.77  0.001046784    2.050    0.512
       245  -8.2971    229.7275    236.3894   1.1320416024e+02  -1.0095499169e-01   0.08540908   0.07455064  58.14 0.0006992111    1.721    0.419
       246 -11.8924    240.2412    220.0842   1.0947419229e+02  -2.6582854966e-01     1.456411     1.047641 -67.44  0.007750346    4.871    0.795
       247 -10.3800    240.5882    208.6931   1.0774800325e+02   6.6555036821e-01    0.3514291    0.2351562 -46.51  0.002094106    2.588    0.614
       248 -11.7102    246.3351    210.3827   1.0716925972e+02  -3.4415314414e-01     1.306221    0.3925079 -38.21  0.005733301    5.206    0.808
       249 -11.2632    236.4403    191.2351   1.0561756472e+02   2.9401455915e+00     2.103834    0.2624339 -32.82  0.006566063    7.957    0.874
       250 -12.8443    245.5490    186.4061   1.0345328143e+02   1.9448011045e+00     3.648861     1.009153 -40.35   0.01235836    7.154    0.860
       251  -9.4624    230.0833    187.2066   1.0592185245e+02   4.3793530915e+00    0.3033788     0.203065 -26.06  0.001244733    1.672    0.402
       252  -9.3935    230.6961    198.5144   1.0765136825e+02   3.1469138905e+00    0.2675504    0.1745522 -22.10   0.00164794    1.723    0.420
       253  -9.6264    230.8171    193.6154   1.0685532875e+02   3.6107210932e+00    0.2837188    0.1645783 -15.60  0.001722717    2.007    0.502
