#   1 NUMBER                 Running object number                                     
#   2 MAG_AUTO               Kron-like elliptical aperture magnitude                    [mag]
#   3 X_IMAGE                Object position along x                                    [pixel]
#   4 Y_IMAGE                Object position along y                                    [pixel]
#   5 X_WORLD                Barycenter position along world x axis                     [deg]
#   6 Y_WORLD                Barycenter position along world y axis                     [deg]
#   7 A_WORLD                Profile RMS along major axis (world units)                 [deg]
#   8 B_WORLD                Profile RMS along minor axis (world units)                 [deg]
#   9 THETA_WORLD            Position angle (CCW/world-x)                               [deg]
#  10 FWHM_WORLD             FWHM assuming a gaussian core                              [deg]
#  11 ELONGATION             A_IMAGE/B_IMAGE                                           
#  12 ELLIPTICITY            1 - B_IMAGE/A_IMAGE                                       
         1 -16.9621    206.0480    127.8162   9.9668864773e+01   1.6724390342e+01     3.484751     2.082235  -3.64   0.01372379    2.042    0.510
         2 -15.4742    215.7710     21.7854   6.9672844480e+01   2.8659555485e+01     1.783245      1.19349 -45.00  0.008606379    1.440    0.305
         3 -16.2714    200.6727     48.1573   7.9238891775e+01   2.9241129911e+01     2.053168     1.668523 -57.56  0.007835281    1.392    0.281
         4 -13.6310    247.9357     17.8952   6.5881078138e+01   2.1959732202e+01    0.7995876    0.3590271 -30.50  0.003904303    1.781    0.439
         5 -14.7762    244.2073      5.7057   6.3057794038e+01   2.3838496328e+01     1.051394    0.7593739 -70.29  0.005520266    1.472    0.321
         6 -15.1057    200.6137     27.6954   7.3062811720e+01   3.1646129025e+01     1.477649    0.7355221 -37.74  0.006219699    1.858    0.462
         7 -13.9587    200.2514      2.9480   6.5569386583e+01   3.4105083247e+01     1.283613     0.409514  79.17  0.004383138    3.750    0.733
         8 -14.2370    173.8952      4.5426   6.8700401921e+01   4.0606378530e+01     1.535206    0.5526128  65.28  0.005820708    2.561    0.609
         9 -12.5979    165.4989      2.8065   6.9071359869e+01   4.2929952121e+01    0.3984112    0.3335525  66.48  0.001803939    1.184    0.155
        10 -11.3349    110.1208    222.8912   1.3466393440e+02   1.7129101932e+01    0.1664502    0.1238049  50.55 0.0005212381    1.234    0.190
        11 -13.9630    245.3786    246.6801   1.1429154403e+02  -2.6700791843e+00    0.6158932    0.4238456  20.95  0.004052288    1.239    0.193
        12 -16.2031    239.2781    187.9341   1.0608596053e+02   3.6547081876e+00     2.389362      1.22646 -29.60   0.01258901    1.958    0.489
        13 -16.1579    221.4715    238.8622   1.1692992262e+02   8.2681193043e-01     1.408366     1.026166  -3.52    0.0107737    1.288    0.223
        14 -14.2519    151.4816    245.8492   1.2951795846e+02   8.8565038214e+00    0.5568582    0.3584264  28.89  0.002395566    1.179    0.152
        15  99.0000     20.2074    147.7680   1.4760315177e+02   4.0977067438e+01     8.799683     5.703272 -89.30   0.05603459    1.344    0.256
        16  -7.2851     18.0037    216.3261   1.5148773117e+02   2.7983259276e+01    0.3367281   0.07746317  54.39  0.001640003    3.216    0.689
        17  99.0000     20.7882    214.9569   1.5093145535e+02   2.7976633550e+01    0.4594644    0.1509718 -76.37  0.002572653    3.027    0.670
        18 -12.9617    210.3367    211.1865   1.1476060618e+02   5.0946048223e+00    0.5253737     0.480578 -61.32  0.003452541    2.126    0.530
        19 -11.7277    210.1352    202.1345   1.1337126561e+02   6.1515260813e+00    0.3056243    0.1815019  25.71  0.001329417    1.364    0.267
        20 -12.3206     99.8149    213.7407   1.3575535912e+02   1.9822812838e+01    0.2668319    0.1834572  71.20 0.0004790515    1.756    0.431
        21 -14.1687     98.5605    206.4881   1.3528478963e+02   2.1152154669e+01    0.6127729    0.4025374 -34.96  0.002905291    2.178    0.541
        22 -14.0942     95.4576    201.5144   1.3540589595e+02   2.2374597673e+01    0.5016978     0.411191 -13.65  0.002460832    1.639    0.390
        23 -14.4790     94.0218    176.3866   1.3288327096e+02   2.7070212469e+01     1.329852    0.7667966   7.30  0.005677037    3.507    0.715
        24 -14.9634    109.7269    194.7885   1.3171272244e+02   2.1650542080e+01    0.8587732    0.6297321  83.30  0.003710232    1.804    0.446
        25 -13.7801     86.9690    187.7582   1.3574547063e+02   2.5867285654e+01    0.5438715    0.3329837  54.89  0.001864168    1.597    0.374
        26 -14.9087    116.7005    208.7282   1.3190592897e+02   1.8442199331e+01    0.6371187    0.5387107  32.66  0.002858932    1.061    0.057
        27 -16.1040    126.3933    198.5964   1.2874939685e+02   1.8727711437e+01     1.665845     1.189543 -87.12  0.008587403    2.203    0.546
        28  99.0000     23.6402    205.7066   1.5001982240e+02   2.9318129617e+01     0.374312    0.2528742 -54.32  0.002720145    1.981    0.495
        29 -10.9667    152.3909    207.2535   1.2474217895e+02   1.3747771504e+01    0.1862735    0.1101478 -39.08  0.001104045    2.006    0.501
        30 -11.9047    156.5952    203.9460   1.2347912786e+02   1.3618122671e+01    0.2796021    0.2088011  10.43  0.001392636    1.342    0.255
        31 -11.4815     86.7326    201.8568   1.3722295606e+02   2.3399668457e+01    0.2499414    0.1814447 -46.31  0.001527545    1.728    0.421
        32 -11.2493    151.7394    198.0022   1.2358727029e+02   1.5186110036e+01    0.2146581    0.1487012  32.28 0.0006878871    1.200    0.167
        33 -12.1085    158.8978    195.2748   1.2178112519e+02   1.4534396923e+01    0.3364322    0.2215007  20.05  0.001174096    1.468    0.319
        34 -13.2590    150.7194    170.0272   1.1942837510e+02   1.9761023934e+01     0.690365    0.3482094 -47.42  0.003330531    2.260    0.558
        35 -14.3702    143.7942    171.7037   1.2118869997e+02   2.0585948742e+01     1.031621    0.5630097 -58.49  0.004857094    2.620    0.618
        36 -13.2958    146.9924    190.6968   1.2347942713e+02   1.6998611017e+01    0.4213572     0.343206  60.30  0.001654546    1.539    0.350
        37 -14.4014    151.6279    185.8433   1.2180659460e+02   1.7058159017e+01     0.846449    0.5377818 -50.99   0.00366429    1.951    0.487
        38 -11.1306     11.7427    189.7612   1.5166758198e+02   3.3179514420e+01    0.2570043    0.1734287 -52.52  0.001511197    1.978    0.494
        39 -11.2638      6.7164    188.7942   1.5262789671e+02   3.3745189695e+01    0.2457579    0.1401056  82.75  0.001175163    1.505    0.336
        40 -16.7534    167.1253    163.5238   1.1482823025e+02   1.8127410245e+01     2.287856     1.423924 -50.31   0.01073673    2.057    0.514
        41 -13.6016    177.4689    141.8409   1.0835554673e+02   1.9837004757e+01    0.5629687    0.4082096  24.95  0.002434891    1.308    0.235
        42 -16.7323     85.5756    248.0467   1.4118851350e+02   1.6417181112e+01     4.339045     0.925249  32.08   0.01762643    4.340    0.770
        43  99.0000     13.0933    206.3166   1.5202722061e+02   3.0095046486e+01     0.625863    0.3296937  64.44  0.004365441    1.526    0.345
        44 -13.9772     94.5098    187.9602   1.3414348629e+02   2.4866007029e+01    0.6211265    0.3695314  55.54  0.003524399    1.734    0.423
        45 -12.5641     11.4604    176.3280   1.5116714746e+02   3.5761170469e+01      0.34457    0.2472409  80.71  0.001599801    1.166    0.142
        46 -11.7288    105.9219    160.9653   1.2802741625e+02   2.8384165230e+01    0.1905332    0.1792529  35.22 0.0003975046    1.039    0.038
        47 -15.1992    230.6542    152.7174   1.0079675485e+02   9.0640100355e+00     1.134467    0.9882326  62.27   0.00534627    1.943    0.485
        48 -13.4770     95.4593    155.4684   1.2971661351e+02   3.0994086196e+01    0.3267589    0.2847865   8.31 0.0009817566    1.310    0.237
        49 -12.1764    208.5242    153.6555   1.0483193415e+02   1.2590511849e+01    0.4440136    0.2642062   0.40  0.002172785    1.990    0.498
        50 -11.9687    145.3380    151.9513   1.1734756114e+02   2.3798237736e+01    0.2778671    0.1911705  30.49  0.001425039    1.379    0.275
        51 -13.6997    244.4871    144.8091   9.6936040413e+01   7.8264338735e+00    0.6288328    0.4147264 -31.40  0.002601581    1.557    0.358
        52 -15.5391    227.5935     80.8245   8.4488829429e+01   1.9080277039e+01     1.716901     1.285449 -40.57  0.007007759    1.393    0.282
        53 -14.7553    227.2993    101.7808   8.9837100570e+01   1.6357849372e+01     1.259879    0.8218783 -45.51  0.005745154    1.858    0.462
        54 -11.0231    175.8222    234.8887   1.2403299411e+02   7.0248038237e+00    0.1686899    0.1183275  14.79 0.0009965197    1.253    0.202
        55 -15.8417    194.7323     86.8384   9.1382881648e+01   2.5191198007e+01     2.218229     1.706253  75.77   0.01061887    1.854    0.461
        56 -12.7609    108.4670    155.5168   1.2657548878e+02   2.9082795552e+01    0.2164641    0.1999963 -38.81 0.0006700246    1.164    0.141
        57 -12.2673    106.2673    139.2760   1.2436025611e+02   3.2739612981e+01     0.240622    0.2180951  58.49 0.0004371018    1.126    0.112
        58 -12.1453    105.9307    130.8252   1.2286616851e+02   3.4581636951e+01      0.30079    0.2051839 -59.99  0.001519113    1.560    0.359
        59 -11.2415    109.1700    125.8476   1.2101706776e+02   3.5117030029e+01    0.1923403    0.1649077 -14.18 0.0005313333    1.308    0.235
        60 -19.1920     60.8672    102.1538   1.3043152434e+02   4.7605061388e+01     18.28485    0.9754217 -61.93   0.02556669   19.270    0.948
        61 -13.2456    249.1424    118.3077   9.0465988774e+01   1.0282740293e+01    0.7765523     0.282353 -28.00  0.002988526    2.321    0.569
        62 -12.2431    123.4387    112.1301   1.1417078700e+02   3.5508076621e+01     0.299138    0.1917482  55.71  0.001327152    1.912    0.477
        63 -12.0846     85.8986    220.0219   1.3901109911e+02   2.0509933293e+01     0.293951    0.2289228 -89.82   0.00222328    1.475    0.322
        64 -13.3790    144.7361     61.8443   9.4022905036e+01   4.0716131170e+01    0.7054103    0.5001269  36.15  0.002330438    1.465    0.317
        65 -12.6034    186.8419    230.1350   1.2151549312e+02   6.1235779642e+00    0.3179689    0.2974423  25.03  0.001584432    1.489    0.329
        66 -11.3969    186.2866    224.4174   1.2084710204e+02   6.8489517035e+00    0.2969981    0.1231338  29.59   0.00157303    2.030    0.507
        67 -12.6205    223.2789     55.7293   7.8368098216e+01   2.3167940260e+01    0.2884473    0.2630732  32.97  0.001460679    1.183    0.155
        68 -14.5289    138.4843     46.1933   8.9959521079e+01   4.4754055572e+01     1.416492     0.911818  31.65  0.006152609    1.733    0.423
        69 -12.5398    154.4954     50.5064   8.7975228200e+01   4.0170787843e+01    0.2862456    0.2320138  66.03  0.001061276    1.394    0.283
        70 -13.8933    167.1524     34.5123   8.0037099503e+01   3.9198014333e+01    0.6985062    0.4968162  40.51  0.003365217    1.443    0.307
        71 -12.5669    170.4088     27.1130   7.6954512795e+01   3.9253287500e+01    0.4371201    0.2639582   2.23  0.001228239    2.040    0.510
        72 -12.3381    171.5643    230.9256   1.2428455033e+02   8.0437413210e+00    0.3416752    0.1928039  29.43   0.00150374    1.370    0.270
        73 -12.0835     78.7553    231.9313   1.4126676280e+02   1.9491567767e+01    0.1897034    0.1307283  37.81  0.000349544    1.180    0.153
        74 -10.4853     84.5112    228.0682   1.3991982089e+02   1.9425121745e+01    0.1264852    0.1018205 -78.61 0.0004101801    1.478    0.323
        75 -11.0590    101.0230    224.4782   1.3653119820e+02   1.8016128436e+01    0.1659981   0.08549773  36.40 0.0007588695    1.530    0.347
        76 -15.3065    227.2280    211.7218   1.1201709884e+02   2.7685942534e+00     1.241588    0.7028052 -29.88  0.007677045    1.936    0.484
