#   1 NUMBER                 Running object number                                     
#   2 MAG_AUTO               Kron-like elliptical aperture magnitude                    [mag]
#   3 X_IMAGE                Object position along x                                    [pixel]
#   4 Y_IMAGE                Object position along y                                    [pixel]
#   5 X_WORLD                Barycenter position along world x axis                     [deg]
#   6 Y_WORLD                Barycenter position along world y axis                     [deg]
#   7 A_WORLD                Profile RMS along major axis (world units)                 [deg]
#   8 B_WORLD                Profile RMS along minor axis (world units)                 [deg]
#   9 THETA_WORLD            Position angle (CCW/world-x)                               [deg]
#  10 FWHM_WORLD             FWHM assuming a gaussian core                              [deg]
#  11 ELONGATION             A_IMAGE/B_IMAGE                                           
#  12 ELLIPTICITY            1 - B_IMAGE/A_IMAGE                                       
         1 -13.2317    188.3512     48.6052   1.5348228550e+01   3.2140931467e+01     1.178494    0.9631943  41.06  0.003758256    1.484    0.326
         2 -13.4691    212.9337     17.7502   5.3472095574e+00   3.0473845506e+01     1.220139    0.8458312 -38.06  0.005371577    1.539    0.350
         3 -11.0486    119.2065      9.8249   1.5716486904e+01   5.2898488191e+01    0.6373402    0.3298143  43.01  0.003142963    1.857    0.462
         4  -9.4847     96.1207      6.1388   1.9315560647e+01   5.8319415787e+01    0.1930063    0.1404194  38.40 0.0004504928    1.217    0.178
         5 -11.8225      5.7585      6.1235   5.4625069425e+01   7.2822334320e+01    0.6000358    0.4145334 -38.29  0.004316362    1.555    0.357
         6  -9.6870    112.8233      4.1884   1.5068542660e+01   5.4817959506e+01    0.1814033    0.1580011  79.37  0.000596629    1.197    0.165
         7  -9.4840    189.8064     15.7998   7.2189487704e+00   3.5863418263e+01    0.1817117    0.1267093 -75.40    0.0010693    1.340    0.254
         8 -13.3762    245.2381    236.1082   4.5480445487e+01  -1.0184150749e+01      2.29338    0.8011454 -34.73   0.01075328    2.667    0.625
         9 -14.5877     11.1995    207.5908   9.1166420595e+01   2.8814497809e+01    0.8241998    0.4132991  25.55  0.004377039    2.437    0.590
        10  -9.0484     81.8839    196.0528   7.3826529233e+01   2.2924134426e+01    0.2057272    0.1807078  64.52 0.0004554497    1.054    0.051
        11  -9.4060     66.8540    195.2167   7.7362764015e+01   2.5273205475e+01    0.2983165    0.2288134  74.63  0.001009471    1.270    0.213
        12  -9.6596     64.6444    191.3694   7.7414674986e+01   2.6488772699e+01    0.2516575    0.1698629  80.62 0.0006116995    1.591    0.372
        13 -11.6335     60.8759    188.3790   7.7962334487e+01   2.7709972128e+01    0.3778101    0.3447022 -39.92  0.000657758    1.316    0.240
        14  -9.8255     57.2896    185.6024   7.8501235994e+01   2.8848051724e+01    0.2634324     0.186969 -82.44 0.0004644492    1.356    0.262
        15  -9.4186    191.5328    192.8480   4.7872873434e+01   4.7827081471e+00    0.4552937    0.2561868 -65.16   0.00160219    3.955    0.747
        16  -9.9848     58.9131    217.8061   8.1751818969e+01   2.1159568245e+01    0.1878302    0.1533686 -84.34 0.0003848559    1.170    0.145
        17  -9.7108     57.6450    211.7560   8.1411149118e+01   2.2676493309e+01    0.4122635    0.2262565 -67.67  0.002010868    1.775    0.437
        18 -10.0084     71.1784    187.4657   7.5286008776e+01   2.6520442124e+01    0.4671388    0.4321039   5.91  0.001750005    1.323    0.244
        19 -10.5831     54.3458    206.3698   8.1593422448e+01   2.4325897266e+01    0.2525045    0.1757271  60.76 0.0005961722    1.328    0.247
        20  -9.8401     91.5955    187.5153   7.0185802232e+01   2.3451834607e+01    0.3164207    0.2614385 -86.86  0.001075043    1.239    0.193
        21  -9.4865     48.5415    209.2926   8.3206296516e+01   2.4383912799e+01    0.4208522    0.1874046  43.99  0.001983672    2.013    0.503
        22  -9.1745     86.7776    187.5734   7.1400512876e+01   2.4189202591e+01    0.2408671    0.1920455 -68.42 0.0006343035    1.243    0.196
        23 -10.0575     23.5258    185.7819   8.6704452630e+01   3.2642283588e+01    0.2040824    0.1076828 -86.01  0.001012184    1.781    0.439
        24  -9.1847    181.6906    181.2497   4.7673006450e+01   8.7844535459e+00    0.3038041    0.1944914 -47.55 0.0009896497    1.603    0.376
        25  -9.6186    180.2421    175.2764   4.6781710902e+01   1.0254816467e+01    0.3394832    0.2256202 -56.88  0.001278409    1.774    0.436
        26 -10.4015     52.7088    181.6039   7.9146327713e+01   3.0399282606e+01    0.2414562    0.2044292  61.66 0.0009060976    1.131    0.116
        27  -9.8025    221.5218    176.0159   3.8714500715e+01   2.7812755441e+00    0.2170548    0.1223321 -38.74  0.001042084    1.621    0.383
        28 -11.4262    231.5080    170.4942   3.5827955112e+01   2.1132978742e+00    0.5272081    0.1987828 -42.79  0.002134303    2.423    0.587
        29 -11.0743    144.4338    168.5435   5.3579273617e+01   1.8532296987e+01    0.5420767    0.3680542 -75.39  0.002273094    2.140    0.533
        30 -10.5706     75.3400    249.9964   8.1425630670e+01   1.2264975371e+01    0.1994395    0.1304659 -56.72  0.001128972    1.801    0.445
        31  -9.3668    179.1690    170.4846   4.6030169664e+01   1.1434290698e+01    0.3281155    0.2441875   4.33 0.0008164468    1.686    0.407
        32 -18.3083     24.3434    230.7563   9.0072371195e+01   2.2471932593e+01     9.442337     6.969866 -68.66   0.05136226    1.452    0.311
        33 -11.2192    125.3521    160.8667   5.6763164611e+01   2.3948426934e+01    0.4768567    0.3133317 -42.04 0.0009543299    1.596    0.374
        34  -9.9249     73.3201    205.9126   7.7149391824e+01   2.1881157638e+01    0.2400202    0.1693257  88.07  0.001138285    1.485    0.326
        35 -10.6596    136.5116    155.6315   5.2834587986e+01   2.3020480490e+01    0.5816001    0.3640091 -75.86   0.00161511    2.622    0.619
        36 -11.4926    133.8805    146.0280   5.1400031965e+01   2.5766215256e+01     1.183337    0.4133511 -57.14  0.003269056    4.088    0.755
        37 -10.7982    140.0114    146.4958   4.9954894940e+01   2.4425924554e+01    0.6393572     0.397083 -84.32  0.002093605    3.530    0.717
        38 -10.6007    144.5052    147.0079   4.8954889030e+01   2.3398195987e+01    0.4907732    0.3279476 -79.74  0.001902553    2.436    0.590
        39 -11.0211    125.0669    140.7476   5.2501236776e+01   2.8750902648e+01    0.4327013    0.3550045 -89.90  0.001352364    1.472    0.321
        40 -10.0066    135.9309    128.8056   4.6863978165e+01   2.9296991619e+01    0.5720883    0.1497916 -46.25  0.001578172    3.767    0.735
        41  99.0000     53.4509    198.3109   8.0928490947e+01   2.6309013424e+01    0.3066016    0.2325198 -25.35  0.001656719    1.958    0.489
        42 -11.5135     36.9949    203.2231   8.5218849931e+01   2.7135063300e+01    0.2186978     0.173711 -79.35 0.0004107998    1.167    0.143
        43 -10.5975    115.3615    127.7629   5.2100880016e+01   3.3709310140e+01    0.3313335    0.2832068  23.69 0.0007197032    1.268    0.211
        44 -10.1606    104.5678    117.6637   5.2700183662e+01   3.8144125530e+01    0.4592368    0.3186407  71.18  0.001879116    2.087    0.521
        45  -8.7685    110.6787    117.8859   5.0994753511e+01   3.6917959855e+01    0.2125808    0.1909143 -52.59 0.0003870919    1.104    0.094
        46  -9.5313     94.2907    115.7615   5.5279043162e+01   4.0477794177e+01    0.3572925     0.220652  65.59  0.001368186    2.580    0.612
        47 -11.0601    118.1267    110.6602   4.7044590840e+01   3.7060638482e+01    0.5826108    0.4143433  66.80  0.002347399    1.820    0.450
        48  -8.9787    184.6063    218.7091   5.4009524644e+01   1.2015373558e+00    0.3452813    0.1279729 -53.14  0.001181457    4.142    0.759
        49  -8.7649    108.8750    100.1831   4.6863784989e+01   4.1225079392e+01    0.2195845     0.206607  86.22 0.0002976241    1.171    0.146
        50  -9.3408     50.3622     90.6985   6.3510778709e+01   5.2922033332e+01    0.2652225    0.1704662  21.60  0.001339132    1.710    0.415
        51 -10.4847     58.9691     88.7137   5.9899533501e+01   5.2245638754e+01    0.2233486    0.1995216 -33.16 0.0005704273    1.018    0.017
        52  -8.9543     41.1705     89.0223   6.6448032960e+01   5.4361120924e+01    0.2180392    0.1904733  14.89 0.0007401867    1.235    0.190
        53  -8.4829     81.9775     84.2415   5.0682661661e+01   4.9633613251e+01    0.1928981    0.1779936  26.58 0.0003580718    1.103    0.093
        54  -8.3768     32.9929     83.7597   6.8224596173e+01   5.6371953107e+01    0.1722349    0.1523361 -20.91 0.0003865013    1.102    0.093
        55 -12.2715    171.4384     61.9824   2.1460767069e+01   3.4143905984e+01    0.9337633    0.7722639  23.70  0.001581989    1.551    0.355
        56  -8.0253    132.6834     66.7591   3.0781753021e+01   4.2495195463e+01    0.1425882       0.1083  28.03 0.0002236676    1.512    0.338
        57 -10.1282     79.0890    246.0851   8.0288422418e+01   1.2509267147e+01    0.1702215    0.1403469 -74.56 0.0004412129    1.320    0.242
        58 -12.1981    193.8698     42.1850   1.3027582988e+01   3.1743024373e+01    0.5580062    0.5255334  43.90  0.001747075    1.308    0.236
        59  -9.4853    171.2216     50.2911   1.8403787615e+01   3.5933302222e+01    0.2204732    0.1894624 -21.64 0.0006435829    1.386    0.279
        60  -9.6898    145.9509     47.9287   2.2302248553e+01   4.2283165673e+01    0.2268339    0.1637604 -74.53 0.0007437124    1.704    0.413
        61  -9.5451    141.5974     42.2564   2.1490139096e+01   4.4089069910e+01    0.2419685    0.1484037  42.50 0.0007138275    1.703    0.413
        62 -10.5209     51.7637    245.6288   8.5754275452e+01   1.6217916800e+01    0.1256128   0.09760058  79.53 0.0004848621    1.154    0.133
        63 -10.6764     68.5218    243.8890   8.2239512211e+01   1.4389568793e+01    0.1630757    0.1468375  56.60 0.0005534027    1.156    0.135
        64  -9.8606     72.8064    229.9589   7.9975819776e+01   1.6662018022e+01    0.2465607    0.1720113 -50.94  0.001347193    1.725    0.420
        65 -10.0201     90.1951    228.4879   7.6035686507e+01   1.4479042968e+01    0.3219206    0.2245683  65.60  0.001588427    1.460    0.315
        66 -10.9530     62.0854    200.5624   7.9149419654e+01   2.4662277664e+01    0.2879123    0.1835207 -58.73 0.0004309074    1.595    0.373
