#   1 NUMBER                 Running object number                                     
#   2 MAG_AUTO               Kron-like elliptical aperture magnitude                    [mag]
#   3 X_IMAGE                Object position along x                                    [pixel]
#   4 Y_IMAGE                Object position along y                                    [pixel]
#   5 X_WORLD                Barycenter position along world x axis                     [deg]
#   6 Y_WORLD                Barycenter position along world y axis                     [deg]
#   7 A_WORLD                Profile RMS along major axis (world units)                 [deg]
#   8 B_WORLD                Profile RMS along minor axis (world units)                 [deg]
#   9 THETA_WORLD            Position angle (CCW/world-x)                               [deg]
#  10 FWHM_WORLD             FWHM assuming a gaussian core                              [deg]
#  11 ELONGATION             A_IMAGE/B_IMAGE                                           
#  12 ELLIPTICITY            1 - B_IMAGE/A_IMAGE                                       
         1 -13.9821     68.4475    144.7573   9.5886835982e+01   3.7189557121e+01     3.810151     1.831966  65.72  0.002657669    5.883    0.830
         2 -13.9675    207.5832     44.4218   3.7370447300e+01   2.8537665183e+01     1.386109     1.271419  28.89  0.005398138    1.498    0.332
         3 -13.4668    215.4169     39.8410   3.5505736489e+01   2.7473470259e+01    0.9814554    0.6442469 -68.44  0.003647109    1.415    0.293
         4 -13.9288    235.3721     22.0338   3.0069047498e+01   2.5620833700e+01      1.23544     0.950918  46.87   0.00628551    1.922    0.480
         5 -10.4853      2.8837      3.4592   8.1198241318e+01   7.4309820085e+01    0.2427633    0.1101661 -25.22  0.001359143    2.005    0.501
         6  -9.6121    250.5147      2.4715   2.5471701489e+01   2.4929010115e+01     0.203283   0.08955636 -38.23  0.001191826    2.100    0.524
         7 -15.9598     32.8598    186.2505   1.1191217480e+02   3.0673785335e+01     9.172433     3.770043  81.16   0.03008404    4.087    0.755
         8 -12.1223     82.6533    215.4431   1.0292829402e+02   1.7347848205e+01    0.6009321    0.4953585  86.37 0.0002795348    1.256    0.204
         9 -16.2063     26.6787    243.7242   1.1794887821e+02   1.8097812572e+01     9.252992     2.772645  23.50   0.03013846    6.049    0.835
        10 -10.6082    192.7346    194.4712   7.3582730643e+01   4.0608494827e+00    0.8124435    0.4126126 -62.99  0.002197398    6.691    0.851
        11 -12.0190     55.2602    175.1927   1.0467620687e+02   3.0944569408e+01    0.4554033    0.3080795 -30.04  0.001585931    1.956    0.489
        12 -12.0534     61.0895    169.9510   1.0230926361e+02   3.1562910733e+01    0.3726057    0.3080307 -26.84 0.0004744393    1.433    0.302
        13 -13.2143     25.2799    201.1172   1.1513932247e+02   2.7797610224e+01    0.5024608    0.4074154 -39.60  0.001009759    1.573    0.364
        14 -13.5211     58.5458    156.2757   1.0091445283e+02   3.5479837724e+01    0.7265086    0.3521526 -51.62  0.001672319    1.938    0.484
        15 -13.1516     66.3164    127.5021   9.3085250079e+01   4.1995761487e+01     3.504722     2.043006  74.67  0.006426987    3.494    0.714
        16 -11.7532     71.8409    160.8896   9.7780320928e+01   3.2467005771e+01    0.3465664    0.3244372 -77.21 0.0004309488    1.021    0.021
        17 -12.9247     78.9124    154.8341   9.4619345730e+01   3.3015238943e+01     1.113762    0.8765019 -61.11  0.001510202    1.216    0.178
        18 -14.8422      9.0297    207.7872   1.1931879733e+02   2.7761424739e+01     1.957542     1.078361 -73.25  0.008161517    1.607    0.378
        19  -9.1957    110.7641    167.7190   8.8027622396e+01   2.4473931855e+01    0.2107235    0.1799422  80.12 0.0007332072    1.351    0.260
        20 -12.4245     34.1936    157.5341   1.0823414672e+02   3.7918900817e+01    0.9532477    0.5024742  89.85  0.003210926    2.255    0.557
        21 -10.2776     33.5733    144.6451   1.0664719538e+02   4.1362756676e+01    0.6045132    0.1088706 -63.56  0.001780141    3.868    0.741
        22 -10.6873     53.8993    147.9796   1.0094324957e+02   3.8253185449e+01      0.51412    0.2067514 -70.94  0.001770074    2.801    0.643
        23  -8.9369    174.8035    149.0321   6.7894772229e+01   1.6631561553e+01     0.212196    0.1748767  73.87 0.0005776876    1.586    0.370
        24 -10.1957    133.8107    145.4570   7.7021820824e+01   2.5629692175e+01    0.8476837    0.1876914 -54.31  0.001522159    8.804    0.886
        25 -11.3768     22.7105    147.3627   1.1028514679e+02   4.1636256976e+01    0.3567136    0.2862018  43.09  0.001223512    1.373    0.272
        26 -10.4791     95.1116    141.1785   8.6998596208e+01   3.3936969688e+01    0.3769392    0.3156121 -23.97 0.0009117515    1.304    0.233
        27  -9.7412     98.4740    138.0140   8.5283792056e+01   3.4155767505e+01    0.3374552    0.2442405 -25.36  0.001241653    1.649    0.394
        28 -12.4470     82.7938    139.4966   9.0387977122e+01   3.6412726323e+01    0.3389723    0.2964318 -49.34 0.0004184651    1.089    0.081
        29 -10.8530    106.7212    130.6638   8.1102785583e+01   3.4492249545e+01    0.4307076    0.3499086  16.44  0.001178958    1.374    0.272
        30 -10.5548     15.0435    128.3572   1.1015293548e+02   4.7160378348e+01    0.2506421    0.1738451 -74.94 0.0004685312    1.268    0.211
        31  -9.1828    160.6519    127.3018   6.5964746716e+01   2.4247574725e+01    0.1582687    0.1253094 -88.18 0.0004888757    1.690    0.408
        32  -9.2825     94.0895    126.1858   8.3856484743e+01   3.7908185259e+01    0.2369992    0.2071751 -19.57 0.0005332752    1.206    0.171
        33  -9.1774    114.9517    124.5385   7.7178159358e+01   3.4396643101e+01    0.2283617    0.1427234  12.69 0.0008092872    2.577    0.612
        34 -11.7302    244.3617    119.0767   4.8809273151e+01   9.4285409595e+00    0.3606097    0.1838548 -25.89  0.001517528    2.694    0.629
        35  -9.2368    162.4227    120.2087   6.3796317730e+01   2.5394029263e+01     0.233402    0.1414833 -54.02 0.0009514556    1.776    0.437
        36  -9.7571    105.0670    119.0268   7.8696788963e+01   3.7642248057e+01    0.2277687    0.2180353 -21.33 0.0003234075    1.024    0.023
        37  -9.4178    158.9150    114.9924   6.3277420122e+01   2.7261066891e+01     0.249036    0.1880895 -75.63 0.0007612205    1.729    0.422
        38  -9.0111    168.3804    113.6807   6.0834713474e+01   2.5465458281e+01    0.1612359    0.1209208 -83.44 0.0001219448    1.824    0.452
        39 -10.1819    205.1232    110.4733   5.2977768522e+01   1.8308417994e+01     0.320639    0.2648736  36.43  0.001150649    1.419    0.295
        40  -9.4770    187.4192    175.8679   7.0973065884e+01   8.6418336319e+00    0.2561758    0.2124611 -42.72  0.001370251    1.205    0.170
        41  -9.1166     70.9540    107.0171   8.6697237475e+01   4.6466412053e+01    0.2256281     0.182275  74.36 0.0004911142    1.645    0.392
        42 -10.8265    242.0042    101.8313   4.5569209197e+01   1.2772812535e+01     0.194031    0.1504035  17.15   0.00108727    1.985    0.496
        43  -8.9291     64.1511    101.1586   8.7590939639e+01   4.8889063084e+01    0.1897342      0.17576  73.92 0.0003550958    1.294    0.227
        44 -10.9655     53.1361     91.0112   8.8987874266e+01   5.2790683260e+01    0.3482084     0.198177 -52.72  0.001092111    1.634    0.388
        45 -10.2161     43.7584     89.7905   9.2302243643e+01   5.4216396646e+01    0.2684097    0.1886191  36.20 0.0008337995    1.608    0.378
        46 -10.0520    162.3213     83.9795   5.4364260862e+01   3.2603062822e+01    0.2128915    0.1911189 -44.46 0.0006377863    1.105    0.095
        47 -10.7940     57.1215     76.5451   8.3242670393e+01   5.5474541543e+01     0.562279    0.3243181  55.50  0.002218479    3.098    0.677
        48  -8.6474    149.9878     77.0099   5.5043932447e+01   3.6716362465e+01    0.1718065      0.16735 -70.75 0.0009580794    1.022    0.022
        49  -8.9134    184.3922     77.2851   4.8505487311e+01   2.8717658778e+01    0.1422269     0.110509  25.52 0.0007002926    1.760    0.432
        50 -11.2711     13.3271     59.9515   9.7312396417e+01   6.3632925327e+01    0.2585702    0.2355081 -67.60 0.0004410763    1.375    0.273
        51  -8.7473    146.3408    186.6468   8.2551813697e+01   1.3642603815e+01    0.1542896    0.1208708  75.82 0.0007041802    1.808    0.447
        52  -9.9903    172.5866    239.9583   8.5909398475e+01  -1.1903549326e+00    0.3797005    0.1904409 -54.40  0.001698287    2.792    0.642
        53 -12.7398    223.1253     32.6814   3.3232830860e+01   2.6786279801e+01    0.5955552    0.4267457  52.83  0.001389703    1.763    0.433
        54  -9.3310     27.4232     52.0075   8.8125043639e+01   6.4049274497e+01    0.1821315     0.148717  -3.46 0.0002738163    1.128    0.114
        55 -10.8190     32.4413    233.3594   1.1606596214e+02   1.9667094274e+01    0.4725555    0.2340153  51.88  0.001878719    1.749    0.428
        56 -11.0519      1.8525     50.0805   1.0012113621e+02   6.6368700973e+01    0.3002785    0.1187275 -51.54  0.001493954    1.889    0.471
        57  -9.2570    127.1469     34.8444   4.7239291709e+01   4.8432147290e+01    0.2036152     0.172714 -83.11 0.0005654715    1.315    0.239
        58  -9.4569    129.7344     29.1719   4.4912819978e+01   4.8491469398e+01    0.1833521    0.1674534  89.53 0.0005159515    1.134    0.118
        59 -11.4737      8.7002     26.0747   8.8196639891e+01   7.0397074031e+01    0.3182136    0.1661573  28.27  0.001812996    2.092    0.522
        60  -9.7672    189.3513     15.0676   3.2607116689e+01   3.6109576202e+01    0.1705102    0.1408304 -65.32 0.0006144452    1.128    0.114
        61  -9.1460     99.4994    180.9907   9.3523188452e+01   2.3062581762e+01    0.2189827    0.1476954 -58.67 0.0004218507    1.487    0.327
