#   1 NUMBER                 Running object number                                     
#   2 MAG_AUTO               Kron-like elliptical aperture magnitude                    [mag]
#   3 X_IMAGE                Object position along x                                    [pixel]
#   4 Y_IMAGE                Object position along y                                    [pixel]
#   5 X_WORLD                Barycenter position along world x axis                     [deg]
#   6 Y_WORLD                Barycenter position along world y axis                     [deg]
#   7 A_WORLD                Profile RMS along major axis (world units)                 [deg]
#   8 B_WORLD                Profile RMS along minor axis (world units)                 [deg]
#   9 THETA_WORLD            Position angle (CCW/world-x)                               [deg]
#  10 FWHM_WORLD             FWHM assuming a gaussian core                              [deg]
#  11 ELONGATION             A_IMAGE/B_IMAGE                                           
#  12 ELLIPTICITY            1 - B_IMAGE/A_IMAGE                                       
         1 -15.4164     67.9903    144.0658   1.1243600627e+02   3.7435336925e+01     4.556407     2.113787  68.19  0.007573986    3.459    0.711
         2 -17.4013    220.3368     49.1078   5.4418322088e+01   2.3699829883e+01     4.018378     2.528667 -41.67   0.01200636    1.482    0.325
         3 -14.1295    193.0918     35.8476   5.4261355544e+01   3.2351541426e+01     1.906189     1.071769  30.18  0.007428346    2.522    0.603
         4 -11.3248     33.5019      4.5272   8.5391010371e+01   7.1754325496e+01     0.159993    0.1126918  39.33 0.0009883497    1.789    0.441
         5 -10.1006     61.4992      1.4763   7.0769337356e+01   6.7907890222e+01    0.1302789     0.106609   3.41 0.0008100459    1.029    0.028
         6 -10.6792     70.7488    230.0576   1.2061227152e+02   2.0114611201e+01    0.3623256    0.1181525  39.18  0.001536032    2.558    0.609
         7 -16.4430     77.0617    245.7833   1.2066076146e+02   1.6821139619e+01     7.882777     1.882765  35.92   0.03027168    4.823    0.793
         8 -10.4406    209.4472    178.5053   8.7583948089e+01   6.2420653877e+00    0.2563852    0.1720408  29.66  0.000803324    1.355    0.262
         9  -9.5756    211.2865    202.6531   9.1536283477e+01   2.6671580640e+00    0.1067194   0.09729549  72.49 0.0007021253    1.653    0.395
        10 -10.2769     99.6613    180.8090   1.1012770822e+02   2.5043222057e+01    0.2035973    0.1601159  40.65 0.0005369957    1.277    0.217
        11 -12.1461     73.0234    179.4112   1.1564635524e+02   2.9153412432e+01    0.3485395    0.2384872 -45.90  0.001277364    1.989    0.497
        12 -12.1305     77.0060    174.3473   1.1421799157e+02   2.9649967981e+01     0.293873    0.2416341 -45.01   0.00107152    1.599    0.375
        13  -9.7756    166.9585    174.2913   9.4966812857e+01   1.4675287586e+01    0.2637478    0.1757612 -76.31  0.001169671    2.802    0.643
        14 -13.6426     85.0923    164.2450   1.1114960615e+02   3.0618587619e+01     1.603888    0.4162773  50.96 0.0005247754    4.861    0.794
        15 -13.8166     73.4773    159.8958   1.1324472727e+02   3.3191898760e+01    0.6237816    0.5132741 -61.10  0.003938722    1.315    0.239
        16 -17.7704      7.1481    240.1615   1.3156887488e+02   2.5405752983e+01     11.86353      1.38072 -79.80   0.04368785    7.766    0.871
        17 -10.1200    190.5040    160.5069   8.7645904532e+01   1.2516561217e+01    0.1380261    0.1249883  21.33 0.0008106319    1.008    0.008
        18 -12.4606     91.4154    157.3441   1.0871607147e+02   3.1149036982e+01    0.5432237    0.4005647 -29.16  0.002863005    2.062    0.515
        19  -9.3899    140.8362    157.5932   9.7444581018e+01   2.2617102907e+01     0.188359    0.1227719  53.78 0.0002563477    1.545    0.353
        20 -11.1154    189.2800    154.8506   8.6729277856e+01   1.3691003771e+01    0.3475934    0.2739608 -82.71  0.001754369    1.997    0.499
        21 -11.7002     37.2864    150.8579   1.2065882006e+02   3.9514982011e+01     0.290244    0.1446078  43.36  0.001493821    1.924    0.480
        22 -11.2431    134.0000    144.9895   9.6574802238e+01   2.6435279271e+01    0.7643317    0.2013068 -54.45  0.002074208    5.209    0.808
        23 -12.5664     53.8632    147.4865   1.1634412621e+02   3.8435121058e+01    0.4095798    0.2741017 -74.23  0.002405764    1.329    0.248
        24 -10.2836    174.9929    148.9832   8.8387386996e+01   1.7558460052e+01    0.2178519    0.1791537  87.15 0.0006161074    1.657    0.397
        25 -11.0697    104.5637    141.4205   1.0293768996e+02   3.2504933456e+01    0.4996323    0.3227192 -29.69  0.002220423    2.433    0.589
        26 -12.2626     92.1266    141.9006   1.0609884906e+02   3.4427106509e+01    0.2576616     0.239208 -61.97 0.0004091285    1.161    0.139
        27 -12.3604    193.4630    193.9376   9.3273854489e+01   6.8450611068e+00    0.7090037    0.4424412 -57.14  0.003569284    2.624    0.619
        28 -13.3846     45.5354    129.3793   1.1616560652e+02   4.3515207342e+01    0.5346715    0.3433633 -85.55  0.003004381    1.435    0.303
        29 -10.5497    113.0724    131.3848   9.8887087634e+01   3.3228320504e+01    0.3029452    0.2419318   4.34  0.001092026    1.763    0.433
        30 -10.4298    105.9233    130.8353   1.0058550474e+02   3.4617870171e+01    0.2903818    0.2422756 -76.00  0.001142785    1.202    0.168
        31 -10.2274    136.0000    129.0215   9.2743649049e+01   2.9364052224e+01    0.2434327   0.08348208 -47.42 0.0008044075    2.956    0.662
        32 -11.6665    118.1913    126.4794   9.6568150890e+01   3.3364888921e+01    0.4275342    0.2399653 -46.39  0.001872259    1.813    0.449
        33 -11.0513    100.3544    127.7156   1.0139802665e+02   3.6275204045e+01    0.2597106    0.2263517 -25.24 0.0004506593    1.410    0.291
        34 -15.1649     11.2782    206.4514   1.2964035592e+02   3.0793668035e+01    0.6687632    0.5308793  37.55    0.0036849    1.598    0.374
        35 -10.8306    162.6675    213.2856   1.0199042355e+02   9.2291126945e+00    0.2778547    0.1918926  76.34  0.001506867    2.399    0.583
        36  -9.8455    135.0000    119.9885   9.0911184135e+01   3.1469323014e+01    0.2484287   0.08435695 -46.54 0.0008033249    2.949    0.661
        37  -9.9244    108.9372    119.9785   9.7533571843e+01   3.6513269465e+01    0.2069175    0.1980035  86.72 0.0003341147    1.021    0.021
        38 -11.0024    195.5185    169.1586   8.8389692043e+01   1.0179927293e+01    0.2907254    0.2724641  11.24 0.0008359489    1.096    0.087
        39  -9.3001    109.0462    114.9500   9.6376177113e+01   3.7621620942e+01    0.1689098    0.1616517 -88.91 0.0003222837    1.021    0.020
        40 -10.0842    167.7322    112.5253   8.1454664488e+01   2.5910303941e+01    0.3088112    0.2263846 -67.24  0.001382577    1.807    0.447
        41  -9.9798    135.0000    112.0204   8.8972961740e+01   3.3154946003e+01    0.2529684   0.08508608 -45.48 0.0008036435    2.951    0.661
        42 -11.6184    119.8841    109.8328   9.2290832516e+01   3.6696480253e+01    0.4751862    0.2219172 -52.10   0.00182629    2.168    0.539
        43 -10.7296    137.5220    170.5276   1.0045312230e+02   2.0733293594e+01    0.1347626    0.1220674  51.69 0.0001257757    1.001    0.001
        44 -10.2643    205.6420    110.1154   7.3239302746e+01   1.7789998284e+01    0.2799392     0.210468  37.99 0.0006628599    1.357    0.263
        45  -9.9352    145.7033    168.3416   9.8326790437e+01   1.9662208576e+01    0.1363422    0.1041219  78.48 0.0003921139    1.663    0.399
        46  -9.4063    134.5067    102.5326   8.6648879900e+01   3.5259684672e+01    0.1507886    0.1482446 -60.69 0.0001120213    1.009    0.008
        47 -11.3902    218.7354     91.3372   6.6128814227e+01   1.7869099235e+01    0.4843245    0.3606652 -35.14  0.002257609    1.260    0.207
        48 -10.6603    208.5017     91.9682   6.8012456793e+01   2.0123692216e+01    0.4500085    0.2311701 -29.51  0.001824184    1.906    0.475
        49 -11.6250    203.9924     89.0930   6.8025107586e+01   2.1647418734e+01    0.6568705    0.4379602 -43.38  0.001968213    1.501    0.334
        50 -14.3016     25.8029    195.4660   1.2645833817e+02   3.1456461134e+01     1.171435    0.2077729  46.00  0.005176703    3.428    0.708
        51 -16.3693     51.8051    204.4588   1.2216240068e+02   2.6929697676e+01      3.52621      2.43381  59.90   0.02293541    1.137    0.120
        52  -9.7282     61.9630     71.3260   9.9707608038e+01   5.5155569244e+01    0.1834952    0.1712231 -34.11  0.000572155    1.104    0.094
        53 -10.6068    157.3145     59.4059   6.8211558996e+01   3.8156955164e+01    0.3026655    0.2553599 -71.13 0.0006410604    1.367    0.268
        54 -10.2669    159.4087     53.0346   6.5660952543e+01   3.8660277629e+01    0.2737679     0.218625  87.87 0.0008169884    1.498    0.332
        55  -9.4909    164.4199    205.5260   1.0054852670e+02   1.0093409690e+01     0.123503     0.104112  37.78 4.893949e-05    1.012    0.012
        56 -11.3079    206.0643    180.6809   8.8605386561e+01   6.5329218575e+00     0.322107    0.2646669  64.56  0.001903633    1.688    0.408
