#   1 NUMBER                 Running object number                                     
#   2 MAG_AUTO               Kron-like elliptical aperture magnitude                    [mag]
#   3 X_IMAGE                Object position along x                                    [pixel]
#   4 Y_IMAGE                Object position along y                                    [pixel]
#   5 X_WORLD                Barycenter position along world x axis                     [deg]
#   6 Y_WORLD                Barycenter position along world y axis                     [deg]
#   7 A_WORLD                Profile RMS along major axis (world units)                 [deg]
#   8 B_WORLD                Profile RMS along minor axis (world units)                 [deg]
#   9 THETA_WORLD            Position angle (CCW/world-x)                               [deg]
#  10 FWHM_WORLD             FWHM assuming a gaussian core                              [deg]
#  11 ELONGATION             A_IMAGE/B_IMAGE                                           
#  12 ELLIPTICITY            1 - B_IMAGE/A_IMAGE                                       
         1 -11.2305     86.1101     21.8669   2.9537302951e+01   6.1237770686e+01    0.6890547    0.3162329 -57.27  0.002416512    3.209    0.688
         2 -12.4217     96.6552     22.1311   2.7126554087e+01   5.8466438086e+01    0.4461644     0.332684  83.29 0.0005697719    1.334    0.250
         3 -11.3944     20.6494     17.4235   5.9121175695e+01   7.6227002199e+01    0.4400566    0.3592455  20.54  0.002440354    1.178    0.151
         4 -10.8643     49.5400     13.6876   3.7472410339e+01   7.1213270689e+01    0.3249236    0.2829467  15.73  0.001120282    1.187    0.157
         5 -10.7657     45.4948     11.9848   3.8224920926e+01   7.2341182430e+01     0.283059    0.2658565  31.83 0.0006346822    1.021    0.021
         6 -10.6768     66.1023     16.1142   3.2393212220e+01   6.6984553888e+01    0.2794006    0.2354498  30.11 0.0003152587    1.246    0.198
         7 -10.9941    182.9185     15.3649   1.3894044949e+01   3.7531615256e+01    0.3440846    0.2261732  40.14  0.001827479    2.219    0.549
         8 -10.3406      6.5983     15.0109   7.1388926330e+01   7.8465785808e+01    0.2932396    0.2321444 -74.56 0.0009894392    1.581    0.368
         9  -9.6683    204.1489     13.7096   1.2175039654e+01   3.3108082736e+01    0.2054941    0.1238662 -44.77 0.0003034162    1.280    0.219
        10 -10.2429     34.8998     13.7753   4.5596227660e+01   7.4332036390e+01    0.2859243    0.2382617  22.98 0.0006361022    1.169    0.145
        11 -10.3374     32.3181     10.1186   4.4424191267e+01   7.5376082366e+01     0.379487    0.2675761  -2.68  0.001987597    1.719    0.418
        12 -10.3842     79.3508     11.8854   2.6078464507e+01   6.4104798647e+01     0.242202    0.1806753  80.70 0.0006777338    1.323    0.244
        13  -9.9285     39.8947     12.0278   4.1245103588e+01   7.3553718873e+01    0.2170706    0.1506859  22.34 0.0007238392    1.644    0.392
        14 -10.1735    162.7997     11.2306   1.4142356940e+01   4.2639959664e+01     0.211824    0.1523432 -60.30 0.0007091248    1.186    0.157
        15 -10.6599    104.6728      9.9694   2.0077384879e+01   5.7639838300e+01    0.3963891    0.2494628 -49.87  0.001372887    1.592    0.372
        16 -11.5689     98.0062      7.2018   1.9887052363e+01   5.9654454846e+01    0.6261432    0.2896121 -52.92  0.002448878    2.379    0.580
        17 -12.1281     56.5606      8.5858   3.1042383507e+01   7.0162271875e+01    0.5977735    0.3883339  45.45  0.002118248    1.453    0.312
        18 -10.9892     70.0020      8.1001   2.6393739169e+01   6.6874662058e+01    0.3964489    0.2534409   2.00  0.001892054    2.014    0.503
        19 -10.3376    213.4791      8.4371   1.0433816836e+01   3.1737951539e+01    0.1944792    0.1843875 -76.09 0.0006090356    1.321    0.243
        20 -11.8171    123.3927      6.3332   1.6075248135e+01   5.3034479024e+01    0.4175906    0.3209164  88.32   0.00101482    1.176    0.150
        21  -9.3405    115.1430      8.9024   1.8105890539e+01   5.4970929388e+01     0.217184    0.1678775 -72.09 0.0007932126    1.214    0.176
        22 -11.5067     85.5521      7.5029   2.2332506482e+01   6.2910228869e+01     0.365804    0.2840366  -4.75 0.0005246538    1.511    0.338
        23 -11.6408     88.7089      5.6774   2.0773500302e+01   6.2240665053e+01    0.4637291    0.2721821 -20.17 0.0002501769    1.883    0.469
        24 -10.3325      3.5942      8.6241   7.0481517234e+01   8.0064340736e+01    0.2330362    0.2076521  -2.73 0.0008440236    1.069    0.065
        25 -12.6526    184.8336      4.6692   1.0846543505e+01   3.8155336782e+01    0.6584296     0.358492  85.75  0.003566656    1.797    0.443
        26 -10.1570    178.9945      1.5082   1.0276735733e+01   3.9759917153e+01    0.2455368    0.1866227 -84.11  0.000670374    1.226    0.184
        27 -11.8230    178.0977      6.7861   1.1805633430e+01   3.9477876215e+01    0.3487837    0.3024594  -0.70  0.002154259    1.515    0.340
        28 -11.8320    174.1460      2.9469   1.0940828947e+01   4.0742361699e+01    0.4479049    0.2422188 -62.42  0.001387447    1.594    0.373
        29  -9.8333     27.7290     11.4700   4.8779467376e+01   7.6055848432e+01     0.232531     0.178874 -31.16  0.000769094    1.326    0.246
        30 -11.1554    132.4120      3.6444   1.4147832549e+01   5.0925515911e+01    0.4841647    0.2319487  81.46  0.001617365    1.937    0.484
        31  -9.0724    242.5065      5.5091   8.6811430249e+00   2.6586716878e+01    0.1125259   0.07955661 -48.51 0.0008105345    1.017    0.016
        32 -10.4487    203.3392      4.8582   1.0008978913e+01   3.4148719865e+01    0.2007458    0.1577956  82.75 0.0006286944    1.394    0.283
        33 -11.4363    114.3717      1.9654   1.5325138596e+01   5.5762967899e+01    0.4697559    0.2233932  79.58  0.001169845    1.924    0.480
        34 -10.6376     20.4472      3.3185   4.7425841069e+01   7.8586692474e+01    0.2840209    0.2333458 -22.50 0.0008957771    1.226    0.184
        35 -10.0131    101.7972      3.3783   1.7531013690e+01   5.8971542568e+01     0.201753    0.1103947  64.37 0.0009415355    1.646    0.392
        36 -10.4870     37.9843      1.9421   3.4184817610e+01   7.5180662568e+01    0.3495748    0.1975781  55.26   0.00137208    1.604    0.376
        37  -9.4438    229.8898      1.8580   8.3018476273e+00   2.9209641914e+01    0.1783878    0.1349183 -81.28 0.0004795576    1.354    0.262
        38 -11.3475     76.2450      8.1199   2.4766025347e+01   6.5274635907e+01    0.6316726     0.267596  52.49  0.002609584    2.141    0.533
        39  -9.8000     78.8004      1.3839   2.0404854426e+01   6.5184185010e+01    0.2197051     0.124841  72.61 0.0009699669    1.588    0.370
        40  -9.5193     63.9463     69.6247   5.8967543783e+01   5.7595005899e+01    0.2067364    0.1901115  42.27   0.00107259    1.100    0.091
        41  -9.6143     34.1673     69.7905   7.3722711732e+01   6.2357135078e+01    0.2134897    0.1689981 -32.82   0.00106531    1.339    0.253
        42 -10.2864      7.9538     68.8646   8.8709398635e+01   6.5052787192e+01     0.229925    0.1878229 -70.28  0.000313963    1.120    0.107
        43  -9.1669     83.2286     68.1558   5.0770660807e+01   5.3935389658e+01    0.2030715    0.1763317 -85.89 0.0002930122    1.259    0.206
        44  -9.3300    192.0349     65.7023   2.6551401647e+01   2.9205150008e+01    0.1708664    0.1528237 -62.26 0.0002799563    1.101    0.092
        45  -9.4071    151.9659     66.3294   3.2572979504e+01   3.7987031862e+01    0.1997985    0.1800146  84.29 0.0005185865    1.135    0.119
        46  -9.2702     75.2731     64.7669   5.2479436005e+01   5.6401185235e+01    0.1979592    0.1797577   3.09 0.0005273913    1.264    0.209
        47 -10.0141      4.2863     64.2271   9.0160642310e+01   6.6513388222e+01    0.2394122    0.1824275 -47.71 0.0005847081    1.233    0.189
        48  -9.9190     85.2376     63.3444   4.8249165758e+01   5.4505591261e+01      0.32363    0.2116448 -36.96  0.001005829    1.628    0.386
        49  -8.6910     67.3279     64.6995   5.5687235525e+01   5.8068965645e+01    0.1568409    0.1218211  81.88 0.0001718187    1.641    0.391
        50 -10.4277     99.2636     61.5305   4.3029244995e+01   5.1588346293e+01    0.4574979    0.2742085 -65.36  0.001750435    2.324    0.570
        51  -9.8041     43.3599     62.4958   6.6332808749e+01   6.2912845602e+01    0.2824252    0.2387892  60.77  0.000881375    1.308    0.236
        52  -9.2784    115.4847     61.4796   3.8599034813e+01   4.7653282635e+01    0.2790962    0.1481179  71.00  0.001018024    2.484    0.597
        53  -9.9530     34.9676     60.9612   7.0449687335e+01   6.4521102876e+01    0.2126069    0.2083075 -11.56 0.0003345409    1.036    0.035
        54 -10.5776     14.1437     60.6900   8.3137847213e+01   6.6835069825e+01    0.3598365    0.2878138 -58.57  0.001956241    1.147    0.128
        55  -9.8258     57.3999     59.8424   5.8236741959e+01   6.1114591182e+01    0.2837434    0.2150436  31.03 0.0005763826    1.395    0.283
        56 -10.1771     22.0057     58.5139   7.7508879864e+01   6.6695940947e+01    0.3223802    0.1976075 -56.75 0.0004830392    1.496    0.332
        57 -10.9275      3.4446     59.2995   8.9835075900e+01   6.7881392801e+01    0.3766111    0.2904414 -28.61  0.001131594    1.319    0.242
        58 -10.7889    232.4953     59.9790   2.1121494289e+01   2.2278605385e+01     0.304417    0.2191189  28.42  0.001757053    2.189    0.543
        59  -9.5538     78.2033     55.5831   4.7698323436e+01   5.7681629251e+01    0.2662928    0.1872202  43.05 0.0009073869    1.449    0.310
        60 -10.1049     63.3488     52.4580   5.2420242116e+01   6.1548598339e+01    0.4240498    0.2041116 -47.78  0.001196783    2.112    0.527
        61  -8.9961     53.9888     54.0359   5.7498310465e+01   6.3063211240e+01    0.1786449    0.1657035  37.97  0.000339127    1.081    0.075
        62 -10.5041     72.0542     52.4268   4.8736581035e+01   5.9688164901e+01    0.2725353       0.2198 -45.27 7.737085e-05    1.251    0.201
        63  -9.7577     23.0666     51.1495   7.4402137958e+01   6.8453049843e+01    0.3211145    0.1351811 -41.20  0.001190166    2.588    0.614
        64 -11.9229     94.0668     48.5623   3.9462682128e+01   5.5235071727e+01    0.2712684    0.2516391 -38.23 0.0001375667    1.123    0.110
        65  -8.5715    172.3478     48.2925   2.4223625075e+01   3.5972503083e+01    0.1306687    0.1059679  28.95 0.0007029418    1.668    0.401
        66  -9.1984     67.4776     48.4690   4.8861851660e+01   6.1478463092e+01    0.1490157    0.1445696  80.47 0.0003631522    1.045    0.043
        67 -10.1365     32.2536     43.9965   6.5422368105e+01   6.8979712295e+01    0.4620066    0.1755624  38.42  0.001717722    2.630    0.620
        68 -11.6011     38.3418     37.1312   5.8193888700e+01   6.9504070703e+01    0.6607471    0.3605605  27.03  0.002419848    2.151    0.535
        69  -9.8093     34.8705     47.9095   6.5481270549e+01   6.7694000583e+01     0.285679    0.2301892 -32.75  0.001105394    1.262    0.208
        70 -10.4917     37.9324     43.6942   6.1700491749e+01   6.8171099397e+01    0.3948443    0.2898191  55.36  0.001952047    1.609    0.379
        71  -9.8709      6.7427     45.7538   8.4416391969e+01   7.1245807437e+01    0.3650089    0.1804473 -34.78  0.001270449    2.094    0.522
        72 -10.9023    118.8928     42.7432   3.0937582508e+01   4.9899832641e+01      0.33177    0.2336196 -38.25 0.0004732096    1.402    0.287
        73  -8.8979     20.2038     44.5988   7.3965242016e+01   7.0377334563e+01    0.1813774    0.1324416   3.94 0.0005327419    1.492    0.330
        74  -9.1162     71.5497     42.2617   4.4332819757e+01   6.1734504319e+01    0.2075584    0.1459164 -25.14 0.0008770059    1.666    0.400
        75  -9.7637     45.0578     42.3625   5.6879481136e+01   6.7230130364e+01    0.2087642    0.1732568  35.51 0.0005797281    1.199    0.166
        76  -9.1704    237.0044     41.5388   1.6717283307e+01   2.3731074219e+01    0.1420481   0.08835209  42.03 0.0008041877    2.586    0.613
        77  -8.6241    212.2837     40.6519   1.8272048264e+01   2.8436783334e+01    0.1357155   0.07044516 -53.14 0.0007017415    1.649    0.394
        78  -9.3183    134.2448     40.0304   2.7072351838e+01   4.6370706950e+01    0.1812898    0.1196233 -33.36 0.0003355987    1.508    0.337
        79  -9.3680     90.0711     38.7736   3.6427585677e+01   5.7853444456e+01    0.1977158    0.1923507 -73.01  0.000373002    1.042    0.040
        80  -9.3009     96.2680     38.0724   3.4380835066e+01   5.6398266116e+01    0.1972561    0.1846236 -61.71  0.000333478    1.065    0.061
        81  -9.2145     55.9005     39.0000   4.9520237563e+01   6.5776582644e+01    0.2476217   0.08140219  46.69 0.0008083383    2.983    0.665
        82 -10.3704     20.5062     35.7904   6.9971427191e+01   7.2415768305e+01    0.3248309    0.2901115 -67.38  0.001670262    1.222    0.182
        83 -10.0406     17.7354     31.4307   7.0071954719e+01   7.3725963301e+01    0.2299421    0.2091336 -32.75  0.000480853    1.037    0.035
        84  -9.3434    174.1795     34.8603   2.0150273672e+01   3.7312002281e+01    0.2129509    0.1518197 -56.79  0.001181707    1.224    0.183
        85  -8.7274     82.2573     35.6929   3.7404959280e+01   6.0280135521e+01    0.1456762    0.1111454 -68.46 0.0002144229    1.518    0.341
        86 -10.0019     51.7363     32.9880   4.8383063682e+01   6.7749542111e+01    0.2537049    0.2179258  10.89 0.0007514507    1.271    0.213
        87  -9.8687     48.7025     31.7086   4.9241992672e+01   6.8602790096e+01    0.2835215    0.2169482  -5.65  0.001055111    1.624    0.384
        88  -9.6906     92.5211     33.7039   3.3451603102e+01   5.8003083272e+01    0.2445407    0.1500806 -25.79 0.0002512147    1.837    0.456
        89  -9.3862    154.1448     31.8519   2.1470181743e+01   4.2463390661e+01    0.2113761    0.1670271 -66.40 0.0005979118    1.145    0.127
        90 -10.2621     83.3965     31.4235   3.5002140718e+01   6.0642709484e+01    0.4400269    0.2016193  47.24  0.001148364    2.225    0.551
        91  -9.8405      3.8456     31.3094   8.2244825711e+01   7.5005201760e+01    0.2413013    0.1764171  17.45 0.0007466708    1.418    0.295
        92  -9.6116    104.1993     28.7568   2.8424440584e+01   5.5667870070e+01    0.3227701     0.170108 -43.45  0.001163636    1.889    0.471
        93  -9.7706     64.7929     29.9421   4.0769290113e+01   6.5377080523e+01    0.2659331    0.1934999 -55.50  0.001068693    1.579    0.367
        94  -9.3777     59.4927     29.4935   4.2758260515e+01   6.6662398285e+01    0.2011291    0.1419027 -21.45 0.0009648593    1.644    0.392
        95  -9.8754     60.8182     25.6212   3.9991153906e+01   6.6963265363e+01    0.2460076    0.2318659  45.75 0.0006582578    1.010    0.010
        96  -9.8037    153.0810     27.8898   2.0323101959e+01   4.3206753191e+01    0.2069062    0.1774258 -67.42 0.0003416199    1.020    0.020
        97  -9.6422     89.5620     27.9544   3.1582671553e+01   5.9566009344e+01     0.241677     0.186203 -25.77 0.0004762211    1.413    0.293
        98 -10.4153      9.9555    218.5037   9.8992095209e+01   2.5804406289e+01    0.3052658    0.1055416 -59.00  0.001291187    3.694    0.729
        99  -9.1551     42.0964     28.5061   5.1071669064e+01   7.0489338562e+01     0.201724     0.134051  41.55 0.0004283427    1.465    0.317
       100  -9.4367    221.9446     27.5102   1.4487629478e+01   2.8086952581e+01    0.1548272    0.1093031 -88.12 0.0003970499    1.511    0.338
       101 -10.1721    160.7653     27.1151   1.9229694134e+01   4.1419984370e+01    0.2116495    0.1559149 -56.72 0.0004632951    1.190    0.160
       102  -9.7853    119.8385     26.1913   2.4370014720e+01   5.1899084633e+01    0.3841445    0.1876065  51.01  0.001280594    2.175    0.540
       103  -9.2134     32.4797     26.4795   5.5980423693e+01   7.2619902540e+01    0.1372422    0.1286563   3.03 0.0001380031    1.002    0.002
       104  -9.2804     19.8089    214.4322   9.6433776856e+01   2.5827594153e+01     0.164317     0.110993  13.07 0.0009443412    1.615    0.381
       105  -9.6956    239.3359     24.1691   1.2797465188e+01   2.5257167190e+01    0.1593524    0.1351426 -56.68 0.0004556768    1.192    0.161
       106  -9.5287    170.1760     24.0935   1.7395092207e+01   3.9522480339e+01    0.1804304    0.1714271 -64.01 0.0003765915    1.176    0.150
       107  -9.3988    128.9943     24.2991   2.2208043948e+01   4.9739749384e+01    0.1944691    0.1712919  88.95 0.0004067587    1.064    0.060
       108 -10.0390    110.9642     24.4972   2.5258554297e+01   5.4429000761e+01    0.3076389    0.1399919  76.94   0.00117451    2.382    0.580
       109  -9.1293     49.5192     24.0299   4.4259344387e+01   6.9731928122e+01    0.1903151    0.1382856 -34.93 -2.093726e-05    1.427    0.299
       110  -9.0027    245.9375     23.0270   1.2241205452e+01   2.4231111112e+01    0.1335298   0.09794819 -51.81 0.0003641738    1.075    0.070
       111 -10.5477     38.4098     22.6389   4.9625243711e+01   7.2229127561e+01    0.2501234    0.2172334  18.50 0.0005121946    1.137    0.121
       112  -9.6601      2.7857     23.5653   8.0145045899e+01   7.6896180254e+01    0.2254497    0.1237264   5.80  0.001061445    1.925    0.481
       113 -10.5139    139.4936     22.1108   2.0006828898e+01   4.7288666488e+01    0.3391442    0.1832303  83.01 0.0008158702    1.871    0.465
       114  -9.7681     72.9764     22.3294   3.3623139773e+01   6.4504811445e+01    0.2023515    0.1747275  56.94  0.000431168    1.090    0.083
       115  -9.5470     66.5652     20.6881   3.4907326239e+01   6.6294902539e+01    0.2258061    0.1634435  84.44 0.0002224789    1.655    0.396
       116 -10.1142      2.8087    197.1881   1.0014963860e+02   3.1041333001e+01    0.1542898    0.1489847 -24.43 0.0002589631    1.326    0.246
       117  -9.3699    158.9924     20.4997   1.7345816239e+01   4.2599974944e+01    0.1935333    0.1248166  81.83  0.000384287    1.513    0.339
       118 -10.4025     30.4094     20.1951   5.3336571731e+01   7.4129157626e+01    0.3380697    0.1777713  47.02  0.001530058    1.998    0.500
       119  -9.6337    109.4863     19.0873   2.3247127450e+01   5.5440798826e+01    0.2090943    0.1404123 -27.58  0.000785183    1.576    0.365
       120  -9.5890     48.1198     18.8936   4.1680895601e+01   7.0816374754e+01    0.2896914    0.2141985 -82.20  0.001406833    2.029    0.507
       121  -9.7604     28.9958    161.0000   9.0629641410e+01   3.7733146652e+01     0.230652   0.07723351  21.94 0.0006962862    2.953    0.661
       122  -9.8982     16.5042    157.0333   9.4350745999e+01   3.9894925740e+01    0.2089728    0.1289718 -81.85 0.0007025808    1.552    0.356
       123 -10.9398     12.1218     18.1644   6.7610388889e+01   7.7221133241e+01    0.7296867    0.2740172  18.25  0.002584371    3.698    0.730
       124  -9.5758    152.6434     18.0630   1.7186239908e+01   4.4422437949e+01    0.2050966    0.1089705   8.89 0.0007030949    4.345    0.770
       125  -9.4054    147.4551     18.0739   1.7717246503e+01   4.5714907843e+01    0.1992612    0.1291857 -28.83  0.000800773    1.559    0.358
       126  -9.6511    116.0837     17.9445   2.1682128814e+01   5.3826648914e+01    0.2287449    0.1569045  42.10  0.001122436    1.697    0.411
       127  -9.5911     70.3008     18.3821   3.2303266909e+01   6.5671325537e+01    0.2619666    0.1678873  70.21 0.0007359449    1.594    0.373
       128 -10.5054    243.8383    147.8338   3.7959749662e+01   8.7196528591e+00    0.1517455    0.1165747 -38.56  0.001031212    1.339    0.253
       129  -9.2646     25.5223    146.4761   9.0510179415e+01   4.1941601367e+01    0.2369666    0.1411913   1.62 0.0006333701    2.186    0.543
       130 -10.8647     85.2466     15.8835   2.6733928426e+01   6.2155784416e+01    0.3912103    0.1926039  65.94  0.001625664    1.865    0.464
       131  -9.1135     17.9732    131.4309   9.1848309491e+01   4.6749044965e+01    0.2213828    0.1609565 -80.59  0.001119025    1.285    0.222
       132  -8.8854     39.0032    125.4655   8.3127721903e+01   4.6374332962e+01    0.2066072    0.1262151 -16.77 0.0007678072    2.430    0.588
       133 -10.0479     93.4362     14.2457   2.4092173396e+01   6.0188814294e+01    0.3166707    0.1660165  75.98  0.001367791    1.884    0.469
       134  -8.6355     30.2474    122.3426   8.6100049654e+01   4.8191965764e+01    0.1521955     0.104108 -46.84 0.0001902541    1.570    0.363
       135 -11.7871    245.2196    119.9294   3.2453281661e+01   1.2301119584e+01    0.3675905    0.2300668  11.19  0.002083178    2.494    0.599
       136 -10.3058    169.4842     12.9871   1.4167342173e+01   4.0872772215e+01      0.27419    0.1269046  58.36  0.001251515    2.418    0.586
       137 -10.5569    118.9781     13.3457   1.9397849480e+01   5.3539186154e+01    0.4555311    0.1242816  59.52  0.001561896    3.151    0.683
       138  -9.5607      6.4254    121.3171   9.5468221554e+01   5.0408453302e+01    0.1987898    0.1228388  81.35 0.0009314129    1.516    0.340
       139  -9.4251    103.2288    119.9836   5.9653265353e+01   3.7662210512e+01    0.2091204    0.1926612 -60.14   0.00107876    1.077    0.071
       140 -10.1928    128.0311     14.0234   1.8483433286e+01   5.1103760391e+01    0.2116915    0.1854243 -79.41 0.0003384656    1.014    0.014
       141 -10.1298    192.4890     11.5031   1.2255499316e+01   3.5807270451e+01    0.1294046   0.09792349 -56.03 0.0008102034    1.043    0.041
       142  -8.6629     53.5516    117.3922   7.6149020353e+01   4.6776769043e+01    0.1521419    0.1453218  73.74 0.0001386645    1.019    0.018
       143  -9.6030     21.2619    116.0148   8.8933257187e+01   5.0820380311e+01    0.3832219     0.116016 -60.14   0.00128608    2.832    0.647
       144  -9.4549     13.6312    117.4720   9.2234304747e+01   5.1010300752e+01    0.2412305    0.1356669  25.21 0.0007583612    1.807    0.447
       145  -8.7629    153.2947    113.7303   4.5402967639e+01   2.9018815773e+01     0.138587    0.1132153 -77.77 0.0002502742    1.516    0.340
       146  -9.1878     79.4419    110.7529   6.5098238753e+01   4.4405261894e+01    0.2178051    0.1433337 -44.23 0.0005682806    1.599    0.375
       147 -11.2927     18.2909    108.3129   8.9254291976e+01   5.3255569774e+01    0.2563228    0.2367376 -72.35 0.0002792956    1.063    0.059
       148 -10.1515      2.3512    104.3452   9.5880115825e+01   5.5419233236e+01    0.3092029     0.182739 -47.98  0.001140279    1.743    0.426
       149 -10.5355    246.1966    101.6083   2.8686006181e+01   1.4623177293e+01    0.1373281    0.1067056  32.27 0.0009541723    1.703    0.413
       150  -9.8933     26.3304    100.8351   8.4593271728e+01   5.4672553012e+01    0.3220701    0.2220795 -23.74  0.001222947    1.767    0.434
       151  -9.2008     49.7091    100.6682   7.4215174132e+01   5.1926385944e+01    0.1604966    0.1152315 -33.84 0.0002356837    1.629    0.386
       152  -9.2653    102.6346     96.8351   5.3696008982e+01   4.3259330168e+01    0.3120928    0.2415411 -17.70  0.001070949    1.700    0.412
       153 -10.1451     63.9449     95.9968   6.7152073888e+01   5.0965333315e+01    0.3420856     0.262793 -58.64  0.001611381    1.270    0.213
       154 -11.7836      3.8512     96.2485   9.4486133660e+01   5.7630466234e+01    0.3097447    0.2689789 -36.06 0.0004945425    1.242    0.195
       155 -10.8303     42.3274     94.9728   7.6163599087e+01   5.4501486621e+01    0.3693768    0.2300706  27.63  0.001613161    1.671    0.401
       156  -9.9736    132.6029     92.5732   4.4365698696e+01   3.7619114133e+01    0.2544778    0.2440255 -63.50 0.0001476386    1.017    0.016
       157  -8.8493     89.7679     94.5769   5.7171508356e+01   4.6469307278e+01    0.1624627    0.1198045 -26.58 0.0003934253    1.710    0.415
       158  -9.2736     20.3923     95.1647   8.6451583645e+01   5.6817383445e+01    0.2151351    0.1317938  88.34  0.000938047    1.706    0.414
       159  -8.8941      2.2752     88.3718   9.4481392710e+01   5.9925908922e+01    0.1554502   0.08942893 -50.15 0.0007004745    1.685    0.407
       160  -9.2944      6.7400     85.4760   9.1869456636e+01   6.0512911219e+01    0.1924778    0.1351369 -14.94 0.0009490151    1.630    0.386
       161 -11.6961     54.6766     78.9016   6.6225522663e+01   5.6965900701e+01    0.3334573    0.2920498 -85.33 0.0004117918    1.209    0.173
       162  -9.5088      6.0121     80.0387   9.1546659359e+01   6.2074030932e+01    0.2159345    0.1930586 -77.53 0.0004108177    1.022    0.021
       163  -8.8237    215.7580     78.2820   2.6883278836e+01   2.2803683652e+01    0.1233723   0.07841232 -51.93 0.0001932106    1.453    0.312
       164  -9.0266     77.9976     78.0157   5.6185359358e+01   5.2823250894e+01    0.1815338    0.1767228  74.19            0    1.022    0.021
       165 -10.3412      2.4315     75.3296   9.2910800751e+01   6.3558012493e+01    0.2999552    0.2094097 -39.63  0.001522231    1.445    0.308
       166  -8.4394     83.5020     74.4610   5.2932955326e+01   5.2483062597e+01     0.154554    0.1529419 -75.52 0.0001367211    1.037    0.036
