#   1 NUMBER                 Running object number                                     
#   2 MAG_AUTO               Kron-like elliptical aperture magnitude                    [mag]
#   3 X_IMAGE                Object position along x                                    [pixel]
#   4 Y_IMAGE                Object position along y                                    [pixel]
#   5 X_WORLD                Barycenter position along world x axis                     [deg]
#   6 Y_WORLD                Barycenter position along world y axis                     [deg]
#   7 A_WORLD                Profile RMS along major axis (world units)                 [deg]
#   8 B_WORLD                Profile RMS along minor axis (world units)                 [deg]
#   9 THETA_WORLD            Position angle (CCW/world-x)                               [deg]
#  10 FWHM_WORLD             FWHM assuming a gaussian core                              [deg]
#  11 ELONGATION             A_IMAGE/B_IMAGE                                           
#  12 ELLIPTICITY            1 - B_IMAGE/A_IMAGE                                       
         1 -14.1177    223.4149     12.5921   4.0928546766e+01   2.7730080388e+01     2.085184     1.331261  17.94  0.004756804    2.764    0.638
         2 -13.7429    197.8716     36.9560   5.0310300799e+01   3.1110605887e+01     1.459745     1.142302  -1.67  0.003916088    1.633    0.388
         3 -13.4168    205.5741     30.9611   4.7632851445e+01   2.9939190119e+01     1.132698     0.765565 -44.59  0.003883973    1.417    0.294
         4 -12.7009    213.5702     23.4495   4.4686585079e+01   2.8872809985e+01    0.6580809     0.490604  25.87  0.001105394    1.846    0.458
         5 -11.1994     47.9532      2.4989   7.3461049831e+01   6.9075479503e+01    0.4146806    0.2117921  55.58  0.001869555    3.640    0.725
         6  -9.9868      2.2375      2.7466   9.7327093863e+01   7.4066182018e+01    0.1838323   0.05339257 -41.10 0.0008989545    2.435    0.589
         7 -11.8114     68.4758    176.3735   1.1422093838e+02   2.9849004113e+01    0.2836652    0.2468396 -49.74 0.0008688552    1.432    0.302
         8 -15.7217     89.7083    245.4001   1.1711725045e+02   1.3205524202e+01     8.232744     2.129938  37.63   0.02162899    3.831    0.739
         9 -15.6038     46.9199    200.4339   1.2125596528e+02   2.7400460207e+01     4.055719     1.650309  65.67   0.01726379    2.774    0.639
        10  -9.3792    206.3032    180.6587   8.4833564739e+01   4.5110995629e+00    0.1291036    0.1124114 -86.85 0.0007039444    1.677    0.404
        11 -13.7585     26.5170    221.1451   1.2653758733e+02   2.5584840369e+01     1.322064    0.5175182 -69.29  0.007359486    2.399    0.583
        12  -8.5031    164.3159    206.2803   9.7850268909e+01   7.8963563099e+00    0.1303297   0.09856395  13.67  0.000238662    1.575    0.365
        13 -11.7915    118.4301    173.8172   1.0238649292e+02   2.2535526274e+01     0.872272    0.1640875  40.73    0.0023552    4.919    0.797
        14 -13.4214     65.4590    162.3307   1.1312796264e+02   3.3459434785e+01    0.5070325    0.3179494 -49.04   0.00221668    1.832    0.454
        15 -11.4332     77.9938    166.1788   1.1067410785e+02   3.0822578624e+01    0.2882206    0.2348083 -75.53 0.0003306464    1.141    0.124
        16 -13.6774     82.1588    158.7801   1.0857601480e+02   3.1918767367e+01     2.361713    0.9652242  57.13  0.001450124    3.391    0.705
        17 -10.5063    195.0577    168.5767   8.4609598410e+01   8.7517743069e+00    0.3328874     0.263537  50.71 0.0008785158    1.344    0.256
        18 -14.0320     68.2922    144.1964   1.0978506310e+02   3.7353719614e+01     3.402207     1.534249 -88.92  0.003036113    6.010    0.834
        19 -11.2754     33.1933    156.2564   1.2005933505e+02   3.8649014970e+01    0.3130244     0.206415  57.66   0.00113706    1.468    0.319
        20 -10.6066     27.9889    156.3047   1.2127910006e+02   3.9151117814e+01    0.1683109    0.1389819  80.79 0.0004768071    1.088    0.081
        21  -9.5405    174.9861    148.9933   8.4602394729e+01   1.6582980944e+01    0.2364204     0.189865  88.00 0.0007899525    1.678    0.404
        22 -10.6870    133.9069    145.1891   9.3260811097e+01   2.5940820426e+01    0.9575753    0.2147967 -53.74   0.00220539    6.136    0.837
        23 -10.3857     98.8013    144.4093   1.0192653202e+02   3.2636132534e+01    0.2768115    0.2602366  17.62 0.0008378992    1.259    0.206
        24  -9.8331    101.7662    140.8262   1.0046861244e+02   3.2972373491e+01    0.3338538    0.2362754 -30.85  0.001548578    1.886    0.470
        25 -12.3135     87.0947    143.0382   1.0470291173e+02   3.4872969887e+01    0.2897533    0.2605612 -52.46 0.0004563429    1.186    0.157
        26 -10.3021     82.6351    142.3151   1.0573698256e+02   3.5735372303e+01    0.3202184    0.2026598  78.21   0.00143522    2.052    0.513
        27  -8.9220     96.4872    201.4181   1.1121216778e+02   2.0372434945e+01    0.1300301    0.1092516  64.54  6.20732e-05    1.014    0.013
        28  -9.2009    156.2946    138.2894   8.6373951954e+01   2.2792990078e+01    0.1508909    0.1225019   2.11 0.0002300117    1.550    0.355
        29 -10.8660     29.1314    136.3402   1.1882399051e+02   4.3692672188e+01     0.211009    0.1423635 -67.59 0.0004223349    1.246    0.197
        30 -11.6719    193.0389    193.9281   8.9964469853e+01   4.7716015171e+00    0.7403024    0.4519262 -60.84   0.00327874    2.779    0.640
        31 -11.6509     67.5229    129.4339   1.0750671756e+02   4.1009937787e+01    0.4410035    0.2363598 -84.38  0.001761029    2.635    0.621
        32 -10.1131    109.9435    132.1029   9.6521292678e+01   3.3561822305e+01    0.3090595    0.2620315  -1.58  0.001018894    1.529    0.346
        33 -10.0024    106.0005    131.0193   9.7332426760e+01   3.4535575071e+01     0.340189    0.2935745  81.73  0.001286982    1.215    0.177
        34  -9.6065     75.0880    189.8092   1.1436354445e+02   2.5980466469e+01    0.2026381    0.1413417  69.48 0.0004887989    1.320    0.242
        35 -11.3909     47.4058    129.7327   1.1308305141e+02   4.3414371422e+01    0.3311186    0.1939908  75.25    0.0015758    2.107    0.525
        36 -10.0873    136.0000    130.0010   8.9334359988e+01   2.8912326973e+01    0.2615919   0.08720135 -47.56 0.0008080757    2.982    0.665
        37 -10.8441     97.1850    128.6048   9.9189359577e+01   3.6658182697e+01    0.2760319    0.2448887 -20.19 0.0005135862    1.354    0.261
        38 -10.0959    116.6488    126.1959   9.3425837769e+01   3.3673560451e+01    0.2989732    0.1899902 -67.12  0.001257711    1.870    0.465
        39  -9.2900     91.9571    124.7359   9.9802467512e+01   3.8462124488e+01    0.2342773    0.1544045  66.93 0.0006936104    1.938    0.484
        40  -9.8047    107.0104    120.3789   9.4670128127e+01   3.6852775146e+01    0.2313586    0.1952344 -44.11 0.0006265205    1.189    0.159
        41  -9.8564    135.0000    119.9999   8.7160505061e+01   3.1358672849e+01    0.2626292   0.08772092 -46.49 0.0008037947    2.952    0.661
        42 -10.0475    168.0694    113.1931   7.7456384725e+01   2.5409367950e+01    0.3847519    0.2635567 -72.04  0.001253881    2.150    0.535
        43 -15.6406      9.6438    240.9948   1.3032990257e+02   2.3691464375e+01     1.932257     1.430351  69.21  0.003886297    1.155    0.134
        44  -9.9752     39.9775    113.4896   1.1259553856e+02   4.8101113533e+01    0.1690476    0.1316206  30.80 0.0004259778    1.531    0.347
        45  -9.9001    205.3136    110.2691   6.9032226290e+01   1.7302493491e+01    0.3141171    0.2108174  44.81 0.0009894756    1.557    0.358
        46 -10.3898     32.5377    109.0006   1.1405955132e+02   4.9880144260e+01    0.1990463    0.1062374 -67.37 0.0004058896    1.538    0.350
        47  -9.8450     29.2948    107.3106   1.1475723473e+02   5.0567070469e+01    0.1289895   0.08106446 -45.63 0.0001947896    1.592    0.372
        48 -10.6224     38.9856    102.2489   1.1092191758e+02   5.0880275749e+01    0.3501757    0.1509316  51.27  0.001427024    3.258    0.693
        49 -11.6574      2.1582     81.0518   1.1920923563e+02   5.8473381824e+01    0.6054555    0.1109448 -67.33  0.002252911    3.437    0.709
        50  -9.3580     24.9189     82.6688   1.1176194418e+02   5.6678637241e+01    0.1605343    0.1449441 -57.85 0.0003635621    1.121    0.108
        51 -10.2343     13.4254     60.1873   1.1115091584e+02   6.2474820549e+01    0.2095932    0.1696411 -64.01   0.00044046    1.156    0.135
        52 -11.6442    144.5507     49.3883   6.3700954979e+01   4.2996732386e+01    0.6204393    0.3772103 -87.12  0.002192516    3.182    0.686
        53 -11.7690    139.6373     45.3247   6.3426009401e+01   4.4831432745e+01    0.6466224    0.3934641  84.43  0.002229423    2.783    0.641
        54 -15.6662      4.0375    171.9638   1.2776087341e+02   3.7775820712e+01     6.168882     1.050171 -74.24   0.02306155    4.103    0.756
        55  -8.8825     98.6693    186.2787   1.0876081059e+02   2.3184334072e+01    0.1399139   0.09191619  67.90 0.0006998557    1.602    0.376
        56 -14.7740      9.2120    207.7986   1.2884855214e+02   2.9918179020e+01     1.290811      1.01492 -59.15  0.009799587    1.753    0.429
        57 -13.2749     37.0012    210.3385   1.2393664055e+02   2.6539111030e+01    0.4796247    0.4230151 -55.03  0.001790459    1.649    0.394
        58 -11.4706    144.6629     41.7711   6.1090103479e+01   4.4106906375e+01     0.520842    0.3325479 -85.65   0.00116307    2.529    0.605
        59  -9.8035     95.1480     42.0261   7.4182864140e+01   5.5369418001e+01    0.3180548    0.1460197 -41.35  0.001304117    2.237    0.553
        60  -8.9419    102.3092     29.6952   6.7132154501e+01   5.5714737059e+01    0.1315055    0.1109416 -68.21 0.0006145053    1.610    0.379
        61 -10.6634    189.7636     15.0321   4.5147580698e+01   3.5836593043e+01    0.2490819    0.1915062  74.11 0.0007575625    1.202    0.168
        62 -11.8631     63.3379    181.9454   1.1601755641e+02   2.9298871848e+01    0.3690252    0.2607769 -42.47  0.002060724    1.990    0.498
