#   1 NUMBER                 Running object number                                     
#   2 MAG_AUTO               Kron-like elliptical aperture magnitude                    [mag]
#   3 X_IMAGE                Object position along x                                    [pixel]
#   4 Y_IMAGE                Object position along y                                    [pixel]
#   5 X_WORLD                Barycenter position along world x axis                     [deg]
#   6 Y_WORLD                Barycenter position along world y axis                     [deg]
#   7 A_WORLD                Profile RMS along major axis (world units)                 [deg]
#   8 B_WORLD                Profile RMS along minor axis (world units)                 [deg]
#   9 THETA_WORLD            Position angle (CCW/world-x)                               [deg]
#  10 FWHM_WORLD             FWHM assuming a gaussian core                              [deg]
#  11 ELONGATION             A_IMAGE/B_IMAGE                                           
#  12 ELLIPTICITY            1 - B_IMAGE/A_IMAGE                                       
         1 -11.3506     41.9895     31.9974   2.8449713948e+01   6.8386131602e+01    0.2747814    0.1936109 -48.27   0.00144483    1.563    0.360
         2 -12.9821     71.9357      9.6411   4.3497924905e+00   6.5063004750e+01    0.2887146    0.2676407 -15.57  0.000506643    1.202    0.168
         3 -10.9825     50.8608     13.4304   1.3853926912e+01   6.9426048531e+01    0.2039031    0.1796379 -20.32 0.0002318425    1.221    0.181
         4 -10.4379    116.5122     11.9779   3.5615921529e+02   5.3887031016e+01    0.1815917    0.1104677  17.49  0.000341169    2.675    0.626
         5 -11.5438     83.0924      7.1760   3.0883097083e-01   6.2610197151e+01    0.2270467    0.1947589  -3.59 0.0003734455    1.360    0.265
         6 -11.0961     72.3336      2.0959   3.5728213662e-01   6.5665424255e+01    0.1713901    0.1661169 -88.29 0.0006103064    1.116    0.104
         7 -12.0642     37.6908    247.0495   6.9255519118e+01   1.6593073147e+01    0.4050399     0.159793  39.41   0.00204862    1.880    0.468
         8 -11.6356    139.4203    248.6982   4.7035799305e+01   5.4376126721e+00    0.2916899    0.1950755 -39.49  0.001267418    1.630    0.386
         9 -13.4517     21.4296    241.4276   7.2646396471e+01   1.9183415184e+01     0.805573    0.6099885  -3.45  0.005195366    1.678    0.404
        10 -13.6182     15.2229    229.9093   7.3588889127e+01   2.2067889344e+01     0.667194      0.42765 -88.39  0.001875482    1.635    0.388
        11 -13.8695      5.3386    248.0948   7.6436728196e+01   1.9243277673e+01    0.9966368    0.4970371  33.53  0.005890665    1.524    0.344
        12 -13.8948      6.8953    234.1516   7.5667050058e+01   2.1883932827e+01    0.6498646    0.6029589  41.94  0.002573112    1.202    0.168
        13 -12.8993      9.6142    241.4671   7.5296580354e+01   2.0187273262e+01    0.3200097    0.2444471  39.40 0.0007493593    1.081    0.075
        14 -12.1769     13.2754    236.6843   7.4304220454e+01   2.0839660540e+01    0.2906985    0.2340434 -17.23  0.001313268    1.662    0.398
        15 -12.8222     36.0120    230.6990   6.8716065862e+01   2.0011836052e+01    0.5549906    0.2482237 -67.97  0.002364962    2.443    0.591
        16 -12.0881     29.1216    246.3561   7.1140829557e+01   1.7526303446e+01    0.3348689    0.1723448  42.06   0.00191347    1.497    0.332
        17 -10.8262    226.2942    246.6110   3.0953995014e+01  -2.8783609838e+00    0.1566788    0.1211088  -4.02 0.0004703267    1.232    0.188
        18 -10.0945    178.9684    247.0291   3.9109258139e+01   1.5078059416e+00    0.1337613    0.1014515   0.10            0    1.008    0.008
        19 -10.0742     59.5441    247.5462   6.4360044839e+01   1.4334607615e+01    0.1205636   0.09853851  32.63 0.0001117567    1.027    0.026
        20 -12.2332     32.7480    240.4130   7.0022073695e+01   1.8353259608e+01    0.3272681    0.2194905  60.93 0.0005827581    1.402    0.287
        21 -10.4013     99.7551    246.4228   5.5247309273e+01   1.0209883447e+01    0.1734776     0.100678  15.46 0.0008241982    1.641    0.390
        22 -10.3891    246.0438    245.2376   2.7764197743e+01  -4.3528802190e+00    0.1337827   0.09140219  -8.36 0.0001972413    1.047    0.045
        23 -10.5464    132.8936    244.8543   4.7929946118e+01   6.7671092263e+00    0.1905236    0.1349805   6.97 0.0008276288    1.267    0.210
        24 -10.4440    181.7030    244.5527   3.8274344638e+01   1.5750400254e+00    0.1369023   0.09055901  25.19 0.0003245813    1.422    0.297
        25 -10.9876    142.9019    243.3050   4.5666327822e+01   5.9006306103e+00    0.1817382    0.1644942 -48.51  0.001314102    1.460    0.315
        26 -10.6501    186.6756    242.1695   3.7043084372e+01   1.4022040593e+00    0.2323686    0.1137851 -32.83  0.001358904    1.923    0.480
        27 -11.2431    116.7600    241.3083   5.0967461476e+01   9.1799825197e+00    0.2587261     0.200668  89.09   0.00159468    2.001    0.500
        28 -10.2193    154.5284    242.4848   4.3208967851e+01   4.7467935622e+00    0.1201227   0.09201157   1.88 -5.282151e-05    1.082    0.076
        29 -10.6009     37.9311    242.0172   6.8922987979e+01   1.7545531464e+01    0.1696333     0.134434 -10.47 0.0004610725    1.596    0.374
        30 -10.4882    138.3866    236.5104   4.5752258248e+01   7.5087807172e+00    0.2337878     0.143292  47.94 0.0009099398    2.175    0.540
        31 -10.0641     64.3058    237.6897   6.2524501709e+01   1.5717466510e+01    0.1295742   0.07758418  50.79 0.0007020846    1.614    0.380
        32 -10.2556     53.5295    236.9960   6.4990867297e+01   1.6984895516e+01    0.1601308    0.1214135 -75.75 0.0006217663    1.528    0.345
        33 -10.2916    166.2111    234.3750   3.9820334998e+01   4.7027900931e+00    0.1596221   0.09340025  31.93  0.000438592    1.652    0.395
        34 -11.3314    158.5634    233.5280   4.1215683184e+01   5.6886135631e+00    0.2033329    0.1724662   4.45 0.0004180439    1.105    0.095
        35 -10.0064    250.5852    233.5210   2.5448209460e+01  -3.3715501001e+00    0.1017988   0.06854144 -14.00 4.527347e-05    1.016    0.016
        36 -11.8382    152.7687    230.9130   4.2031242807e+01   6.7673729422e+00    0.3351406    0.2546382 -47.85  0.001749275    1.576    0.366
        37 -12.0511    155.0062    224.7384   4.0716638507e+01   7.5157012277e+00    0.2610141    0.1890455 -39.92  0.000569793    1.453    0.312
        38 -12.2255    159.9784    222.3952   3.9369293812e+01   7.3128998165e+00    0.4210112     0.202672  37.71  0.002127599    2.179    0.541
        39 -11.1113     72.9642    231.0126   5.9916981556e+01   1.6086077759e+01    0.3410091    0.2016651 -49.27  0.001843878    1.969    0.492
        40 -10.3884    216.8414    231.3962   3.0306223908e+01  -1.1589835234e-01    0.1475526   0.08290134   9.97 0.0004875287    1.662    0.398
        41 -13.4163    138.1902    228.4308   4.4746248547e+01   8.8916093358e+00    0.3362937    0.2457274  11.34 0.0006141493    1.209    0.173
        42 -10.6598     61.7399    231.2898   6.2614340343e+01   1.7261093513e+01    0.2415634    0.1245464  30.89 0.0009269079    1.586    0.369
        43 -10.5516    194.5070    229.0166   3.3771281005e+01   2.4430115988e+00    0.1620494   0.09770624 -35.60 0.0005750839    1.566    0.361
        44 -10.2521    204.5419    227.9489   3.1860002945e+01   1.5584666742e+00    0.1637545   0.09230366 -33.85  0.001027275    1.587    0.370
        45 -10.3392    166.7347    227.7785   3.8794036587e+01   5.6654379347e+00    0.1510031    0.1315503  27.18  0.001053204    1.368    0.269
        46 -13.1832    114.8130    226.6800   4.9680070710e+01   1.2016071137e+01    0.6058785       0.2841 -52.19 0.0006405081    2.338    0.572
        47 -10.9288    119.9678    227.2794   4.8591045082e+01   1.1283189117e+01    0.2161041    0.1786211   5.11 0.0003456209    1.107    0.096
        48  -9.9899     57.9675    228.7420   6.3313945241e+01   1.8183338478e+01    0.1634286   0.09561294  26.44 0.0005375083    1.483    0.326
        49 -11.1004     30.4258    227.4250   6.9862989820e+01   2.1226938782e+01    0.2462588    0.1789794  53.49  0.001231041    1.195    0.163
        50 -10.6914    230.6683    227.3303   2.7507599032e+01  -8.8735333115e-01    0.0879171   0.08108162 -18.32 0.0007051961    1.720    0.419
        51 -11.4721    106.8866    225.8490   5.1396137825e+01   1.3129994476e+01    0.2619517    0.2007784 -20.32  0.001573612    1.433    0.302
        52 -12.7025    147.5144    224.8764   4.2288964898e+01   8.3836360673e+00    0.2892179    0.2204057 -32.15 0.0004964716    1.323    0.244
        53 -11.2374     92.0053    225.2172   5.4811483509e+01   1.5036861551e+01    0.1904902    0.1865561 -60.20 0.0005368899    1.190    0.159
        54 -10.2159     80.2682    225.6604   5.7661852263e+01   1.6325483325e+01    0.1287571   0.08745719  55.81 0.0003290974    1.600    0.375
        55 -10.9814     23.8833    223.8471   7.1248615669e+01   2.2590041260e+01    0.3484975    0.1609135  87.36  0.001301924    2.436    0.589
        56 -12.4133    173.9744    222.9312   3.6682787055e+01   5.5979633209e+00    0.2555853    0.1970845 -19.34 0.0003583865    1.155    0.134
        57 -12.4660    170.4086    219.7678   3.6907327675e+01   6.5101007203e+00    0.3430528    0.2320735  11.06 0.0003078198    1.341    0.254
        58 -12.4001     30.9269    214.8063   6.8998658213e+01   2.3913183530e+01    0.5597308    0.3133498 -32.46   0.00259724    2.746    0.636
        59 -13.4746      4.2186    201.3136   7.5141195307e+01   2.9293768784e+01    0.8900962    0.5360194 -76.97   0.00490276    1.680    0.405
        60 -12.9284     12.8094    216.0740   7.3584758321e+01   2.5248384918e+01    0.7031943    0.4584585 -34.00  0.003847798    2.154    0.536
        61 -11.2247     13.9819    210.2964   7.3033247915e+01   2.6444554251e+01      0.22815    0.1635339  37.11 0.0007764811    1.209    0.173
        62 -12.8998     23.9557    217.2980   7.0887349973e+01   2.4007592189e+01    0.4257826    0.3992681 -40.16  0.002904853    1.310    0.237
        63 -12.4256     19.0457    215.3753   7.2008335277e+01   2.4870312970e+01    0.4069743    0.2854694 -81.78 0.0007453229    1.491    0.329
        64 -11.8036      3.5873    221.6748   7.6027415658e+01   2.4769937252e+01     0.272928    0.1963993 -80.91  0.001435467    1.476    0.323
        65 -13.2014      3.9194    215.2023   7.5729050707e+01   2.6158117278e+01    0.6907546     0.411214 -43.17  0.003684678    2.306    0.566
        66 -12.8045    127.6297    214.6131   4.5196811236e+01   1.2672141728e+01    0.3533166    0.2737985  46.21  0.002096665    1.470    0.320
        67 -12.6447    124.9707    221.6646   4.6748720246e+01   1.1697376448e+01    0.6174451    0.2580309  26.54  0.002775703    2.162    0.538
        68 -12.3923     49.2592    221.4539   6.4873599687e+01   2.0629891799e+01    0.3562577    0.3273818  72.02  0.002206404    1.145    0.127
        69 -10.3968     48.3156    216.6654   6.4740937465e+01   2.1763884275e+01    0.1947006    0.1323084 -87.68 0.0007647341    1.637    0.389
        70 -10.1906     67.2145    220.8482   6.0379620757e+01   1.8806725041e+01    0.1638031    0.1444851  -7.75 0.0004625309    1.270    0.213
        71 -11.5959    193.6497    216.5769   3.2058544873e+01   4.3486560534e+00    0.4105843    0.1418206 -38.26  0.001920769    2.641    0.621
        72 -10.7400     76.7919    219.5686   5.7894753035e+01   1.7974553999e+01    0.2042034    0.1140929  28.64  0.000781316    1.544    0.353
        73 -11.1694     80.5080    217.9777   5.6815434342e+01   1.7867751169e+01    0.1944697    0.1567221  29.30 -0.000112858    1.086    0.079
        74 -10.6480    216.9674    216.9961   2.8125247090e+01   1.8047396759e+00    0.1654613     0.124758 -11.65  0.001213364    1.026    0.025
        75 -12.7948    143.9093    215.2385   4.1688785908e+01   1.0496320480e+01    0.5868604    0.3977596  53.89  0.002492089    2.182    0.542
        76 -11.7064    139.7906    207.7491   4.1485799032e+01   1.2383465384e+01    0.3599895    0.2571056  58.58  0.001378102    2.107    0.525
        77 -11.8294    120.3502    213.9347   4.6768908027e+01   1.3730153669e+01    0.2657624    0.1677206  32.61  0.000786293    1.433    0.302
        78 -11.0106     91.7660    217.0076   5.3951263634e+01   1.6710292549e+01    0.1719926    0.1629215  33.31 0.0003699424    1.092    0.084
        79 -11.3396     86.5095    215.5280   5.5070430762e+01   1.7655914850e+01    0.3904402    0.1938743  45.54  0.001801493    2.018    0.504
        80 -10.4354     83.4674    213.4743   5.5594676936e+01   1.8455162374e+01    0.2225981    0.1728212  87.69 0.0006867857    1.574    0.365
        81 -11.7221     33.6607    223.4145   6.8846544954e+01   2.1772351774e+01    0.2311308    0.1522858 -72.90   0.00133594    1.667    0.400
        82 -12.3079    108.9825    214.7166   4.9533699240e+01   1.5024798150e+01    0.3248104    0.2581804 -15.84 0.0009640521    1.346    0.257
        83 -11.2760    156.7365    213.6916   3.8751384291e+01   9.1647723760e+00    0.1942682    0.1650329 -30.86 0.0003785101    1.225    0.184
        84 -10.8204    172.3145    212.1309   3.5376200706e+01   7.5180327478e+00    0.2374693   0.09236728 -38.43   0.00100803    2.487    0.598
        85  -9.9868    153.2628    213.3486   3.9423227278e+01   9.6564019004e+00    0.1286743   0.08487715 -15.33 0.0002870244    1.609    0.378
        86 -11.3261     40.8277    212.2141   6.6306986165e+01   2.3520908835e+01    0.3182622    0.2430748  11.39  0.001353192    1.420    0.296
        87 -10.5837     73.1563    211.9372   5.8019889827e+01   2.0019509844e+01    0.2515589    0.2078333   6.39 0.0008808315    1.278    0.217
        88 -10.1644     72.5845    208.5716   5.7812782008e+01   2.0820308228e+01    0.1762379     0.157738  26.38 0.0001166946    1.054    0.051
        89 -10.6632     96.8896    208.2572   5.1642012275e+01   1.7878081933e+01    0.2825583    0.1685307 -58.30  0.001140694    1.848    0.459
        90 -12.2838     25.8492    208.3807   6.9902661469e+01   2.5837678325e+01    0.4233611    0.2853679 -73.11  0.001668555    1.570    0.363
        91 -12.0890    161.6124    208.3661   3.6934938694e+01   9.4694262246e+00    0.2832422    0.2567495  39.23  0.001891035    1.405    0.288
        92 -10.8926    180.3808    207.8448   3.3147594625e+01   7.2402365601e+00    0.1980565    0.1526353  26.88 0.0008697498    1.355    0.262
        93 -11.0969    103.5312    206.4009   4.9766501441e+01   1.7408236166e+01    0.3196136    0.2035952  49.13  0.001615361    1.730    0.422
        94 -12.2434     36.2393    205.8589   6.7034475893e+01   2.5424647594e+01    0.3926299    0.3516642  15.45  0.002481666    1.210    0.174
        95 -10.9815     46.6686    206.4266   6.4343453571e+01   2.4225997218e+01    0.2661102     0.105623  30.54  0.001134079    2.100    0.524
        96 -11.9524    145.9625    202.5612   3.9338129695e+01   1.2531831589e+01    0.4323352    0.2269825 -38.76  0.002121149    1.926    0.481
        97 -10.7650    150.6241    203.2954   3.8444867858e+01   1.1780937855e+01    0.2324301    0.1653192 -20.15 0.0007432742    1.416    0.294
        98 -11.6895    150.8683    197.8391   3.7525261247e+01   1.2748599282e+01    0.3258787    0.2098224 -56.42  0.001204953    1.914    0.478
        99 -10.1768     16.4611    204.3998   7.2110091695e+01   2.7587389782e+01    0.2807755   0.08177263  76.59 0.0008082269    5.587    0.821
       100 -12.4683     91.6023    198.4601   5.1722179246e+01   2.0664669674e+01    0.8039379    0.2989709 -51.55  0.002940126    2.763    0.638
       101 -13.0220     84.6757    198.9080   5.3572911437e+01   2.1463803211e+01    0.5896055     0.391954 -63.86  0.003049556    1.653    0.395
       102 -10.8914     21.1031    203.9504   7.0876681547e+01   2.7288261188e+01    0.1937127    0.1737143  60.14 0.0006021264    1.061    0.058
       103 -10.4748    172.5327    201.5097   3.3650859903e+01   9.2578800806e+00    0.1245701    0.1062631  -6.81 5.055721e-05    1.041    0.040
       104 -11.2373    136.4627    199.9734   4.1047758264e+01   1.4296377790e+01    0.3802179    0.2350739 -77.70  0.001532034    3.572    0.720
       105 -11.4153    121.1360    201.1036   4.4773969153e+01   1.6152223694e+01    0.2079443    0.1694308  -9.96 0.0005424784    1.252    0.201
       106 -12.4016    123.2503    196.5018   4.3582915204e+01   1.6794626515e+01    0.3822232    0.2828749  43.01  0.002099761    1.422    0.297
       107 -12.5446     23.0976    194.3879   6.9769140662e+01   2.9375859894e+01    0.4733386    0.2289028  65.68  0.002120296    2.147    0.534
       108 -11.2279     20.4761    197.5021   7.0669598105e+01   2.8862297178e+01     0.230461    0.2083628  64.53  0.000748747    1.064    0.060
       109 -11.7294    175.1156    197.7501   3.2527704684e+01   9.5653524779e+00    0.3764255    0.2144878  45.02  0.001907375    2.337    0.572
       110 -10.2196     53.5404    198.4183   6.1803495315e+01   2.5332540775e+01    0.1360784    0.1204023  44.64 7.103629e-05    1.013    0.013
       111 -11.3316     36.7636    196.9608   6.6227612900e+01   2.7458266213e+01    0.2877617    0.1586155  56.51  0.001231348    1.775    0.437
       112 -10.1970    138.4715    196.5475   4.0056331915e+01   1.4683801232e+01    0.1332818    0.1179345   1.53 0.0001501613    1.011    0.011
       113 -13.2362     12.3776    190.3896   7.2468629297e+01   3.1261169529e+01    0.6143264    0.3003627 -82.40 0.0006610112    2.015    0.504
       114 -11.9946      6.1148    191.7488   7.4239590245e+01   3.1422072148e+01    0.4492002    0.1791409  22.65  0.001560212    2.357    0.576
       115 -12.1967    192.6956    193.7679   2.8553034058e+01   8.0025604174e+00    0.2476535    0.2258826  12.85 0.0003011793    1.301    0.231
       116 -12.1607    132.9065    191.6666   4.0552268933e+01   1.6421578472e+01    0.3746687    0.2631842 -19.99  0.001448606    1.581    0.368
       117 -12.2113     52.1611    192.0111   6.1559166598e+01   2.7007382055e+01    0.4607245    0.2317663  53.69   0.00137488    2.079    0.519
       118 -11.2725    164.0232    191.6668   3.3733854670e+01   1.2093133279e+01    0.2221807    0.1473413  23.24 0.0006977043    1.476    0.323
       119 -10.3408     45.4799    191.0245   6.3322310721e+01   2.7980223568e+01    0.1952632    0.1332922 -76.21 0.0005170344    1.526    0.345
       120 -11.7893    110.2825    188.1921   4.5492029351e+01   2.0360408943e+01    0.2983253    0.2071253 -74.39  0.001168738    1.899    0.473
       121 -10.2511    174.6418    188.7135   3.1095161670e+01   1.1182608073e+01    0.1333471   0.08826552  -6.94 0.0003313796    1.679    0.404
       122 -11.1929    153.1859    188.3675   3.5457165798e+01   1.4199449209e+01    0.1892421     0.154682 -24.47  0.000704066    1.145    0.126
       123 -11.4181     17.1631    198.8610   7.1631987892e+01   2.8826487181e+01    0.2704496    0.2003218  83.61 0.0006390336    1.304    0.233
       124 -12.1364    128.3762    185.9066   4.0681353434e+01   1.8243590335e+01    0.2886252    0.2321731 -13.32  0.001609948    1.290    0.225
       125 -12.4283      3.2787    184.4405   7.4691640990e+01   3.3417722990e+01     0.447055    0.2955533  75.75   0.00162885    1.379    0.275
       126 -10.4143    226.3130    186.6969   2.1740121199e+01   5.0944452338e+00   0.09892072   0.08631887 -47.00 0.0002839118    1.614    0.380
       127 -10.3003    208.0252    186.6451   2.4665022150e+01   7.2443840589e+00    0.1912405   0.08800887  12.26 0.0007045506    4.531    0.779
       128 -12.0071    164.3677    184.8281   3.2488449688e+01   1.3286592249e+01    0.3623093    0.2517129 -61.08  0.001338822    2.001    0.500
       129 -10.2451     33.6737    185.3183   6.6156643579e+01   3.0601281319e+01    0.1516714   0.08734165  55.53 0.0005974927    1.678    0.404
       130 -10.6809    157.1515    184.1120   3.3874793426e+01   1.4439990537e+01    0.2068199    0.1628881 -10.19 0.0005650549    1.240    0.194
       131 -10.8288    150.5896    183.6872   3.5217895393e+01   1.5462937091e+01    0.2065856    0.1546583  48.42 0.0004691268    1.627    0.385
       132 -11.8150    105.1865    183.3565   4.6050314651e+01   2.2154168681e+01    0.2534599    0.1944687 -54.09 0.0008152219    1.368    0.269
       133 -12.8140     26.3042    182.4971   6.8048859649e+01   3.2010484882e+01    0.4040476    0.3034737 -77.02  0.001311144    1.333    0.250
       134 -11.4210     94.8292    181.1803   4.8453255551e+01   2.4127288860e+01    0.3806581    0.2301347 -56.81  0.001304988    1.720    0.419
       135 -11.2934    121.2914    180.0311   4.1427138525e+01   2.0525596515e+01    0.3019155     0.177999  -0.33    0.0011868    2.772    0.639
       136 -11.1015     12.2569    180.2483   7.1942673616e+01   3.3783185163e+01    0.1938678     0.131842  58.94 0.0006808674    1.325    0.245
       137 -12.2412    136.6799    176.2984   3.7072834433e+01   1.8998923404e+01    0.4022864    0.3125789 -72.51  0.001672378    1.729    0.421
       138 -11.9794    121.4393    167.9822   3.9292418698e+01   2.3134693170e+01    0.4694752    0.2398798  25.07  0.001912887    2.205    0.547
       139 -13.1987    127.4917    173.9919   3.8862588107e+01   2.0885717878e+01    0.5103287    0.3539143 -50.89  0.002595004    1.477    0.323
       140 -12.9849    126.1348    166.2791   3.7804685525e+01   2.2767101859e+01    0.8369983    0.3391441  49.88  0.002723912    3.742    0.733
       141 -11.9770    116.8738    177.7867   4.2155596713e+01   2.1673028875e+01    0.2958453    0.1843331  38.24  0.001411956    1.567    0.362
       142 -10.2377    191.4878    177.5604   2.5947081527e+01   1.0828199792e+01    0.1256969     0.105537 -17.33 0.0001264939    1.017    0.017
       143 -10.7274     62.3614    177.1383   5.7009308616e+01   2.9447020007e+01    0.2291138    0.1863386  14.53 0.0003882411    1.302    0.232
       144 -12.5810     31.4448    175.5828   6.5985888130e+01   3.3277477353e+01    0.4313806    0.2232404 -70.15    0.0019529    1.894    0.472
       145 -13.6969     19.6691    169.1455   6.9016938243e+01   3.6017994748e+01    0.7517108    0.3966979  34.99  0.003518309    1.725    0.420
       146 -12.0888    143.6307    172.9705   3.4867433622e+01   1.8620883654e+01    0.5344258    0.2447099  51.10  0.001920091    3.505    0.715
       147 -12.0034     90.5064    174.4985   4.8616695530e+01   2.6311237045e+01    0.3603245    0.1938662  50.91   0.00148344    2.144    0.534
       148 -12.9780     91.7488    170.4796   4.7639982371e+01   2.7091494558e+01    0.4931561    0.3522659 -67.98  0.002419524    1.537    0.350
       149 -11.5504     80.3859    173.0143   5.1242666346e+01   2.8096787939e+01    0.3851014    0.2018751  29.98  0.001642148    1.817    0.450
       150 -11.8503      2.0561    175.1329   7.4617973803e+01   3.5832968928e+01    0.3684919    0.2008197 -77.70 0.0009947997    1.741    0.426
       151 -11.6349    157.7058    170.9650   3.1388342828e+01   1.6870376080e+01    0.2508003     0.210099  87.63  0.001379622    1.803    0.445
       152 -11.7501    152.9969    170.3145   3.2285329966e+01   1.7715976229e+01    0.2294166    0.1850698 -37.33 0.0004888389    1.181    0.153
       153 -10.4265    208.5104    170.4544   2.1720512975e+01   9.7343273848e+00    0.1227615   0.09967417 -22.19 0.0001009671    1.017    0.017
       154 -10.6524    199.1350    170.1452   2.3245439531e+01   1.1033263100e+01    0.1554167    0.1455305 -39.07 0.0004382869    1.322    0.243
       155 -11.6328    174.7084    166.6864   2.7099343865e+01   1.5116119880e+01    0.2769502    0.1790051  28.33  0.001014716    1.643    0.391
       156 -10.7476      2.2975    168.2730   7.4218055717e+01   3.7571282127e+01    0.2279155    0.2041429 -60.80  0.001222223    1.232    0.189
       157 -12.0658    107.0632    175.3893   4.4285390941e+01   2.3676607323e+01    0.2783639    0.2508607  39.09 0.0007227905    1.106    0.096
       158 -12.2763    170.7994    160.3779   2.6659951146e+01   1.6878787119e+01    0.4818679    0.2778558 -57.18  0.002192167    2.277    0.561
       159 -10.3555     77.4887    166.5062   5.1110546859e+01   3.0108258015e+01    0.1451747    0.1407032  42.70 7.513066e-05    1.009    0.009
       160 -11.5024    103.1824    165.5649   4.3659825423e+01   2.6538881540e+01    0.2932555    0.1309979  37.06  0.001141242    2.132    0.531
       161 -10.3841      1.6398    163.7512   7.4189638748e+01   3.8788168662e+01    0.1973013     0.152183  84.01 0.0003731551    1.171    0.146
       162 -12.0646      5.3754    160.3387   7.2847471985e+01   3.9432157707e+01    0.3437593    0.3198388   6.91  0.001163698    1.234    0.190
       163 -11.8897     12.9076    160.1810   7.0465686520e+01   3.8925159427e+01    0.4136758    0.2320524 -55.01  0.001228462    1.861    0.463
       164 -11.2501     58.7618    160.9713   5.5985883847e+01   3.4023898748e+01    0.1957302    0.1219119 -67.17 0.0004672362    1.615    0.381
       165 -10.0674     49.2023    160.7231   5.8957224648e+01   3.5252899729e+01     0.226515   0.09260914 -57.71 0.0005535398    2.344    0.573
       166 -11.4465     37.4763    160.8951   6.2702642604e+01   3.6505750228e+01    0.2109176    0.1886172  36.39 0.0006205323    1.114    0.103
       167 -11.3143     25.2721    159.9725   6.6510760830e+01   3.7943284643e+01     0.283075    0.2291787 -25.62  0.001524017    1.471    0.320
       168 -11.2231    177.0554    169.7926   2.7226210646e+01   1.4205759114e+01     0.227424    0.1727183 -52.09 0.0005148136    1.499    0.333
       169 -11.9456    111.2391    158.4169   4.0186824720e+01   2.6935971974e+01    0.3395418    0.2300847 -30.41 0.0005472816    1.716    0.417
       170 -12.3081    104.7138    157.8834   4.1862601146e+01   2.8113228348e+01    0.5070759    0.2833026  67.19  0.001668653    3.733    0.732
       171 -11.3926    133.1635    156.6464   3.4236793835e+01   2.3722078694e+01    0.3573245    0.1618522  46.81  0.001358488    2.581    0.613
       172 -11.6275    118.3415    157.0164   3.8042327444e+01   2.6097216119e+01    0.2765013    0.2061166  -1.79  0.001317927    1.666    0.400
       173 -11.5864     76.8161    156.3175   4.9703096156e+01   3.2777402799e+01    0.2869297    0.1940199 -43.72 0.0007826051    1.587    0.370
       174 -13.0338     83.5082    150.4943   4.6664821344e+01   3.3264046276e+01    0.6447972    0.3934573 -27.41  0.001581982    2.324    0.570
       175 -13.3495     75.2507    150.8134   4.9265682271e+01   3.4417486774e+01    0.6607146    0.3062412  37.55  0.002571399    2.048    0.512
       176 -11.3268    144.3789    153.5001   3.0955234995e+01   2.2516901504e+01    0.3519334     0.255226 -88.40  0.001577458    2.380    0.580
       177 -11.3404    141.0696    155.3233   3.2089013370e+01   2.2687823312e+01    0.2891648    0.1996437 -51.03 0.0008003269    1.463    0.317
       178 -10.7976    124.2060    155.8028   3.6297246242e+01   2.5399415951e+01    0.2010146    0.1666418 -12.12 0.0003351805    1.320    0.243
       179 -10.3652     21.0690    155.2659   6.7450671296e+01   3.9575069639e+01    0.1948604    0.1696843  48.29 0.0004984244    1.106    0.096
       180 -11.1819      1.3894    153.9410   7.3746033786e+01   4.1389226481e+01    0.3887644    0.1594166  88.85  0.001389332    2.367    0.577
       181 -12.3779      4.6307    149.6993   7.2436549800e+01   4.2316919402e+01    0.3162056    0.2835934  22.69 0.0009365682    1.217    0.178
       182 -11.5991    135.0438    153.7016   3.3195004283e+01   2.4044304351e+01    0.3757619    0.1542709  48.97  0.001288151    3.234    0.691
       183 -11.1563     54.3872    153.8466   5.6385045681e+01   3.6448296045e+01    0.2120423    0.1278885 -55.27 0.0005009695    1.656    0.396
       184 -12.0475     43.3072    152.1512   5.9784018640e+01   3.8213768864e+01    0.5288551    0.1775402 -53.50  0.001808901    2.910    0.656
       185 -11.4600    172.8778    152.1300   2.4612795428e+01   1.8098389961e+01     0.198058     0.182364 -53.35 0.0004053209    1.233    0.189
       186 -11.1388     27.3086    150.3015   6.4909712234e+01   4.0359504578e+01    0.5142629    0.2468236 -22.21  0.001737511    3.735    0.732
       187 -10.3261     19.3507    150.2597   6.7576056913e+01   4.1072747727e+01    0.3549735    0.1327484 -60.28   0.00134963    2.466    0.595
       188 -11.3451    109.0393    149.0411   3.8975390853e+01   2.9500028030e+01    0.3226961    0.2200285 -54.81  0.000707396    1.479    0.324
       189 -11.3622     96.1931    149.0818   4.2624236384e+01   3.1615448588e+01    0.2237803    0.2028755 -22.60 0.0004231367    1.168    0.144
       190 -10.4957    157.1954    145.3916   2.6437668867e+01   2.2002458550e+01    0.2007582    0.1319537  50.40 0.0009654266    1.797    0.443
       191 -10.6252    146.8027    144.9953   2.8643365721e+01   2.3876292568e+01    0.1993073     0.175075 -37.02            0    1.074    0.069
       192 -12.4467    102.7663    142.3835   3.9396585906e+01   3.2157787244e+01    0.4866472    0.3447696  79.50 0.0006564957    2.040    0.510
       193 -10.7107     12.3445    145.3162   6.9525728992e+01   4.2968041264e+01    0.1484763   0.09767027 -41.71  0.000704831    1.717    0.418
       194 -10.0591    154.2978    143.2819   2.6616393000e+01   2.2925943931e+01    0.1396662    0.1067994  -9.49 0.0002305691    1.543    0.352
       195 -12.3846     49.2332    141.9840   5.6384620674e+01   4.0271638775e+01    0.6823743     0.197917  34.21  0.002225872    2.987    0.665
       196 -10.9902     41.3422    143.0706   5.9260123979e+01   4.0896929086e+01    0.2058485    0.1789069 -81.63 0.0003860026    1.113    0.102
       197 -11.9802    164.4919    141.1487   2.4017089662e+01   2.1589834253e+01    0.2320891     0.221769  -1.32 0.0002718318    1.088    0.081
       198 -10.0507    133.4400    139.5464   3.0626716813e+01   2.7404197882e+01    0.1450974    0.1396737 -37.55  0.000206738    1.028    0.027
       199 -12.2672     96.6826    138.3385   4.0341530816e+01   3.4183773435e+01     0.374942    0.2786057  14.68 0.0001447376    1.592    0.372
       200 -11.6765      1.7962    137.7067   7.2618226581e+01   4.5743332672e+01    0.3330491    0.1722594 -84.45 0.0009030071    1.774    0.436
       201 -12.7520     69.6711    137.5940   4.8721599037e+01   3.8691358028e+01     0.592738    0.2566673  38.26  0.002195885    2.214    0.548
       202 -10.7596     20.0272    137.9533   6.6161594498e+01   4.4386019458e+01    0.2171308     0.204427  81.24 0.0006262824    1.027    0.026
       203 -10.5305     40.9788    137.4776   5.8611455067e+01   4.2469491423e+01    0.2270616   0.09657364  47.34 0.0008096823    2.498    0.600
       204 -10.7473    123.4541    135.0538   3.2159710509e+01   3.0214943451e+01    0.2181195    0.1435852 -48.38 5.512378e-05    1.477    0.323
       205 -12.2926     83.8308    132.2721   4.3050043586e+01   3.7863748622e+01    0.4722636    0.2886032 -59.44  0.002020815    1.643    0.391
       206 -12.2652     13.4976    134.5243   6.8178834693e+01   4.5845422902e+01     0.354964     0.218884 -82.95 0.0009306435    1.524    0.344
       207 -11.6398      7.3944    135.0640   7.0432787759e+01   4.6120864879e+01    0.2521275    0.1887557  40.16 0.0005402667    1.333    0.250
       208 -11.5428     45.8383    132.9381   5.6191299470e+01   4.3151712541e+01    0.3231852    0.2768602  28.78  0.001691043    1.201    0.167
       209 -11.4158     50.5074    130.5207   5.4111779632e+01   4.3236359340e+01    0.3092008    0.2098026  21.78 0.0008766439    1.574    0.365
       210 -10.5988    160.1920    132.7670   2.3083492751e+01   2.3990107052e+01    0.1910416    0.1543647 -20.13   0.00048484    1.307    0.235
       211 -10.6353    115.6219    133.1742   3.3824122714e+01   3.2076698402e+01    0.2114685    0.1360137 -40.60 0.0001081314    1.596    0.373
       212 -12.6472     67.5424    129.8385   4.7971736980e+01   4.1061119593e+01     0.701314    0.3391714 -81.66  0.002117517    3.793    0.736
       213 -12.4755     19.7430    131.8235   6.5614125791e+01   4.6105931468e+01    0.3664848    0.3078486  50.11 0.0004098966    1.181    0.154
       214 -11.8491     35.7711    127.1499   5.9013469816e+01   4.5890279394e+01     0.301096    0.2205032 -58.99 0.0002499905    1.313    0.238
       215 -11.3166    121.4379    128.0141   3.1092609102e+01   3.2186658080e+01    0.2660672    0.2107427  61.27 0.0003730279    1.451    0.311
       216 -11.3647     49.5028    123.8938   5.3324530537e+01   4.5174867075e+01    0.2601249    0.2175913  27.80  0.001322989    1.235    0.190
       217 -11.5437     53.7021    122.9654   5.1594042369e+01   4.4876317828e+01    0.5464627    0.2815315  63.30   0.00187463    2.953    0.661
       218 -12.4668     57.5682    126.4662   5.0840111656e+01   4.3400494896e+01     0.415516    0.3723378   2.41 0.0009157704    1.231    0.188
       219 -11.3460     26.9635    125.4950   6.2126775190e+01   4.7231187743e+01    0.2663469    0.2243199 -24.88  0.001261606    1.331    0.248
       220 -11.4868     23.1371    124.1597   6.3425313001e+01   4.7948778490e+01    0.2814559    0.1768103  44.88 0.0007602951    1.609    0.378
       221 -12.5790      9.5877    125.6298   6.8796502904e+01   4.8582473921e+01    0.2756225    0.2361038 -16.86  0.001541372    1.326    0.246
       222 -10.8412      1.4794    126.4977   7.1937376966e+01   4.8835163010e+01    0.1404675    0.1258105  88.64 -9.606063e-05    1.003    0.003
       223 -12.1987     74.9168    125.1920   4.4503453218e+01   4.1142547573e+01    0.4117338    0.2322068 -43.84  0.001655409    1.899    0.473
       224 -10.1500     41.3380    123.6619   5.6359056102e+01   4.6235168965e+01    0.1651529    0.1067257  61.90 0.0007051089    1.757    0.431
       225 -10.8487    194.2397    122.0115   1.4456121993e+01   2.0006268344e+01    0.1909615     0.149569 -37.88 0.0004587017    1.090    0.082
       226 -10.2696    179.1473    121.8454   1.6988537440e+01   2.2664084888e+01    0.1786417    0.1492996 -17.84 0.0002964365    1.261    0.207
       227 -13.2805     15.1078    120.7772   6.6152523217e+01   4.9541531383e+01    0.6231205     0.278005  47.08  0.002469484    2.337    0.572
       228 -12.4350      9.3021    117.4343   6.8096323205e+01   5.0876287535e+01    0.3362474    0.1911124  81.96  0.001326082    1.824    0.452
       229 -11.1141    105.7033    121.1747   3.3847194035e+01   3.6740842617e+01    0.2736622    0.2054159  49.47 0.0008136366    1.390    0.281
       230 -10.7052     28.4609    120.7555   6.0889096802e+01   4.8407891108e+01     0.276664    0.1637944  36.88 0.0007208528    1.685    0.406
       231 -12.1809     96.1628    118.1731   3.5992929789e+01   3.9242032296e+01    0.5652166    0.2750162 -44.12  0.002116841    2.138    0.532
       232 -12.4353     79.7575    119.9699   4.1720754765e+01   4.1696780023e+01    0.3661251    0.2985114  65.28  0.001156626    1.357    0.263
       233 -12.6963     82.6068    117.0404   4.0088814326e+01   4.1955744285e+01    0.4555899    0.4306183  67.62 0.0009417174    1.078    0.072
       234 -11.9478     22.0067    119.3916   6.3251835902e+01   4.9374594590e+01     0.357262    0.2449684 -14.67    0.0016846    1.776    0.437
       235 -10.7943     38.0897    119.1816   5.6866679059e+01   4.7842418671e+01    0.2269517    0.1948488 -35.55 0.0007436688    1.241    0.194
       236 -11.1279     54.7713    116.9953   5.0030490779e+01   4.6346742587e+01    0.2486061    0.2180545  32.90 0.0003623099    1.166    0.142
       237 -11.7117     71.2005    118.4132   4.4322466384e+01   4.3508330721e+01    0.2876913    0.2151008 -59.28 0.0006046994    1.314    0.239
       238 -10.9284     15.2956    115.6563   6.5477161148e+01   5.0952895866e+01    0.1548356   0.09895295  61.70 0.0007032156    1.666    0.400
       239  -9.7129    201.6714    114.2889   1.1632631403e+01   2.0054654663e+01     0.126245   0.09375216 -65.08 0.0003049982    1.618    0.382
       240 -11.2209     74.0141    114.2421   4.2385076790e+01   4.4132969230e+01    0.2154046    0.2005508  40.57 0.0003474275    1.087    0.080
       241 -12.6588     62.0517    109.5838   4.5678340742e+01   4.7261987573e+01    0.5470467    0.4479809 -60.42  0.002234279    1.193    0.162
       242 -11.0928    114.9780    112.4803   2.9071457981e+01   3.6969466784e+01    0.2220931    0.1517906  43.25 0.0003721726    1.502    0.334
       243 -12.7952      7.9508    109.9539   6.7851065388e+01   5.3037599452e+01     0.422052    0.2672323  19.33  0.002056524    1.693    0.409
       244  -9.9702    123.5641    109.4565   2.6003110114e+01   3.5919270741e+01    0.1503535    0.1444002 -49.79 0.0001306839    1.013    0.013
       245 -11.9816      1.6323    108.5794   7.0365161365e+01   5.3772682507e+01    0.4562155     0.156572 -54.49  0.001004688    2.583    0.613
       246 -11.4099      1.3831    103.6899   6.9996492817e+01   5.5132355299e+01    0.2706827    0.1255034 -77.91 0.0005834828    1.940    0.485
       247 -10.3796     87.6304    108.2758   3.6270146214e+01   4.3243673206e+01    0.2183126    0.1411046 -44.95 0.0007006469    1.565    0.361
       248 -12.1083    167.0919    104.7069   1.5201161820e+01   2.8078489505e+01    0.2589575    0.2044782 -41.20  0.000324526    1.150    0.130
       249 -11.9714     66.4055    105.7176   4.3124843996e+01   4.7585703347e+01    0.3790887    0.2341675  53.25            0    1.859    0.462
       250 -11.8184      8.8030    100.5135   6.6363305049e+01   5.5593961606e+01    0.4490509    0.3110074 -14.08  0.001441044    1.652    0.395
       251 -12.9383      5.8275     95.1180   6.7030831289e+01   5.7251362920e+01    0.6116225    0.2896365 -71.96  0.001787847    1.869    0.465
       252 -10.5216    115.2030    105.4849   2.7196348831e+01   3.8497422829e+01    0.2083877    0.1517697  45.36  0.000350085    1.410    0.291
       253 -10.5274    104.8629    102.3423   2.9300663106e+01   4.1307794020e+01    0.2132769    0.1942989  40.93 0.0005324875    1.128    0.114
       254 -10.5045     78.3244    101.9071   3.7804574021e+01   4.6514301075e+01    0.2791719     0.206927  47.33  0.001070435    1.385    0.278
       255 -12.1195     11.6800    105.0609   6.5676274221e+01   5.4151667100e+01    0.6425053    0.3376194  34.79  0.002850698    1.938    0.484
       256 -11.5896     55.9634    101.1034   4.6064830315e+01   5.0411821048e+01    0.3156429    0.2253986 -41.94 0.0004075541    1.454    0.312
       257 -10.7046     57.9543     97.5327   4.4384865880e+01   5.1040249057e+01     0.239748    0.2208808  27.77 0.0007062096    1.117    0.105
       258 -11.1122     94.0511     98.2913   3.1515585996e+01   4.4408591777e+01    0.2212948    0.2031065  54.79 0.0004722846    1.105    0.095
       259 -10.5825     98.5015     96.9592   2.9741679180e+01   4.3826030020e+01    0.2297629    0.1502673 -48.09 0.0003791156    1.506    0.336
       260 -10.5721    119.0041     94.0028   2.3037884297e+01   4.0195662175e+01    0.2166084    0.1819261  -6.17 0.0003201115    1.502    0.334
       261 -10.9483     90.1982     93.6692   3.1463502598e+01   4.6248815262e+01    0.3909917    0.1436747  32.80  0.001104394    3.958    0.747
       262 -11.0395     26.6078     92.4341   5.6891887803e+01   5.6384236675e+01    0.2857832    0.2315422 -43.90 0.0007807598    1.209    0.173
       263 -10.2797     41.6856     91.9675   4.9913413527e+01   5.4799688392e+01    0.2184905    0.1423486  46.64 0.0005867012    1.654    0.395
       264 -12.2074     74.1201     90.1166   3.6081612667e+01   5.0163901079e+01    0.3764305    0.2748396  57.49  0.001368416    1.540    0.351
       265 -10.8042     10.4663     81.5922   6.2750117886e+01   6.0629722692e+01    0.3458414    0.1931296 -47.66  0.001415218    1.664    0.399
       266 -10.9698      8.9207     77.1182   6.2766130884e+01   6.1918847991e+01    0.3627626    0.1749444 -67.96 0.0009609173    1.852    0.460
       267 -12.7176      3.1992     87.3753   6.7276259274e+01   5.9497844621e+01    0.4745025    0.3093262 -89.36  0.001733962    1.534    0.348
       268 -10.5898    124.9986     87.4588   1.9647401732e+01   4.0245645446e+01    0.2457572     0.192374 -44.46 0.0004805252    1.242    0.195
       269 -11.8082     54.7187     85.3870   4.2489934269e+01   5.4635331067e+01    0.4858547    0.4430872 -57.83  0.002607723    1.081    0.075
       270 -10.3603    134.7191     84.4627   1.6499187068e+01   3.8693568780e+01    0.2713428    0.1269338 -40.94  0.001058392    2.067    0.516
       271  -9.9370    129.5950     85.4296   1.7955535159e+01   3.9637298678e+01    0.1470432    0.1389471 -61.84 0.0001458337    1.010    0.010
       272 -10.6952     11.5010     91.0123   6.3780508788e+01   5.8021019028e+01    0.2112409    0.1313548 -72.99 -0.0003744478    1.489    0.328
       273 -10.9738    189.9220     83.0313   6.2485477710e+00   2.7328379567e+01    0.1988469    0.1674828 -47.55 0.0003079773    1.020    0.020
       274  -9.6773    178.7110     83.7087   8.0663911063e+00   2.9442356861e+01    0.1252252    0.1060216  -0.65 0.0002091141    1.544    0.352
       275 -12.1199     64.2371     81.6397   3.7410611260e+01   5.3972972208e+01     0.283613    0.2651288 -52.18 0.0003301023    1.060    0.056
       276 -11.7110    152.1812     79.9036   1.1616844523e+01   3.5688637342e+01    0.3406799    0.2989167 -80.29  0.001920689    1.155    0.134
       277 -12.2243     89.1703     78.1255   2.7080530332e+01   4.9948949094e+01    0.3406412    0.2589657 -42.75   0.00036533    1.332    0.249
       278 -11.9099      4.4221     80.0571   6.5614974119e+01   6.1400159431e+01    0.3845653    0.1999344  48.68  0.001679082    2.217    0.549
       279 -10.7821     70.1967     76.1584   3.3301718939e+01   5.4170272253e+01    0.2262644    0.2042662 -19.00 0.0003839851    1.194    0.163
       280 -10.1159    105.4445     73.6561   2.0623997495e+01   4.7345717866e+01    0.3007151    0.1426032 -47.04  0.001150764    2.120    0.528
       281 -11.7321     70.3787     70.6351   3.1387599290e+01   5.5373341175e+01    0.4481675    0.2874113 -32.77  0.001650296    1.834    0.455
       282 -11.1252    132.9029     70.6056   1.2848588579e+01   4.1666064122e+01    0.2154873    0.1952861 -36.32 0.0003756993    1.160    0.138
       283 -11.4287     53.9976     70.9820   3.8412871800e+01   5.8242286537e+01    0.2356571    0.2219575 -28.26 0.0007605346    1.057    0.054
       284 -10.5628     80.0384     69.1738   2.7251200278e+01   5.3756812979e+01    0.2553472    0.1823345   9.92  0.001090318    2.096    0.523
       285 -11.8283     62.2411     68.1675   3.3856571847e+01   5.7448960642e+01    0.3316663    0.2483508  54.29   0.00100843    1.463    0.317
       286 -11.0462     49.4209     65.7377   3.8762847718e+01   6.0206862602e+01    0.3197406    0.2299779 -37.48  0.000866901    1.438    0.305
       287 -10.6790     47.0153     62.7406   3.8876220970e+01   6.1277780693e+01    0.2147011    0.1959133  61.89 0.0003243012    1.218    0.179
       288 -12.5342      7.0287     86.7141   6.5301015891e+01   5.9467757329e+01     0.408902    0.3222295 -44.46  0.000527474    1.218    0.179
       289 -10.1615     13.2352     66.0709   5.8106558081e+01   6.4487490845e+01    0.2237698    0.1492402  71.21  0.001063524    1.922    0.480
       290 -11.5117     18.1001     60.2802   5.3776936409e+01   6.5527960081e+01    0.3494914     0.255531 -41.46  0.001860513    1.283    0.221
       291 -11.8199     12.5256     59.7447   5.6969492762e+01   6.6134128056e+01    0.2546593    0.2286981  -1.25 0.0003897983    1.134    0.118
       292 -11.3911     34.1646     58.9600   4.4191951937e+01   6.4029908692e+01    0.2810009    0.2313894 -62.72 0.0006448015    1.279    0.218
       293 -10.4565     28.0378     60.0355   4.7951464298e+01   6.4544784367e+01    0.2343826    0.1580852 -23.82  0.001123579    1.668    0.401
       294 -10.7900     42.1531     59.1804   4.0039341202e+01   6.2840787339e+01    0.2260335    0.1906026 -14.71 0.0007888236    1.251    0.201
       295 -11.8521     23.3482     56.3916   4.9495558612e+01   6.5944156679e+01    0.4865439    0.3102801 -52.15  0.002424207    1.463    0.317
       296 -10.0559    153.0419     57.5141   5.1754453725e+00   3.9211901362e+01    0.1919081    0.1340388  66.28 0.0003375543    1.464    0.317
       297 -10.4824    126.0213     54.9814   9.4350367289e+00   4.5931379032e+01    0.1723669    0.1592576 -66.18 0.0003634173    1.038    0.036
       298 -11.8575    110.3901     54.4458   1.2847852441e+01   4.9731880336e+01    0.3292258    0.2239725 -44.46 0.0009220871    1.471    0.320
       299 -11.5647     37.6997     54.0485   4.0499998523e+01   6.4655432825e+01    0.2025753    0.1799377 -43.96 0.0008765847    1.115    0.103
       300 -10.3788    151.3329     52.0102   3.8558149514e+00   4.0438212823e+01    0.2436935   0.07215149 -50.83 0.0007050222    4.331    0.769
       301 -12.3406     30.7230     49.4171   4.2673568139e+01   6.6658586292e+01    0.4187271    0.2564374 -16.98  0.001839252    2.210    0.547
       302 -11.9388     16.1424     49.6802   5.1777990872e+01   6.8259832258e+01    0.2857708     0.219917 -44.24 0.0003114008    1.197    0.165
       303 -11.6685    128.9164     46.0956   5.9457810373e+00   4.6614705625e+01     0.381921    0.2220529 -28.65  0.001072183    1.939    0.484
       304 -11.9009     98.2397     47.6071   1.3559308642e+01   5.3737672985e+01     0.553239     0.280545 -61.91  0.001904579    3.379    0.704
       305 -10.2711     43.7252     47.7540   3.4783027159e+01   6.5066818219e+01    0.2790432    0.1789825 -73.31  0.001167068    2.608    0.617
       306 -10.1869    142.3184     45.7091   3.4306764517e+00   4.3469488387e+01    0.1450418   0.09749036 -69.38  0.000224235    1.600    0.375
       307 -12.2954     32.9290     40.0401   3.7472298111e+01   6.8341698441e+01    0.2965868    0.2487382  -8.29 0.0009483779    1.202    0.168
       308 -10.6812     80.2984     36.8516   1.4588402726e+01   5.9627796331e+01    0.4199255    0.1445251 -41.56  0.001494326    3.020    0.669
       309 -12.5635     19.6900     34.7869   4.3677343784e+01   7.1195242879e+01    0.5140591    0.1834979  34.78  0.002044296    2.734    0.634
       310 -10.2858    190.2335    248.8404   3.7308045611e+01   1.4480656157e-01    0.1492933   0.09549478  -8.20 0.0003693386    1.336    0.251
       311 -12.1420     30.6214     31.4045   3.4789875958e+01   7.0381836193e+01    0.3169459    0.2195251  26.46 0.0008523398    1.408    0.290
       312 -11.2706     89.6147     29.9608   8.8757464739e+00   5.8430661836e+01    0.2906265    0.1363981 -31.33  0.001215892    2.305    0.566
       313 -11.6864     77.5793     30.5994   1.2713592996e+01   6.1181143330e+01    0.2608265    0.2280645 -86.95  0.000425599    1.260    0.206
       314 -11.4706     61.0652     28.4545   1.7670499886e+01   6.5186731749e+01    0.2579882    0.2048987 -33.13 0.0007649073    1.339    0.253
       315 -12.0440      3.5063     30.6066   5.4192208062e+01   7.3638759111e+01    0.4148222    0.3179914  38.29  0.002468775    1.506    0.336
       316 -10.1667    100.7274     25.3556   4.2441852608e+00   5.6322375591e+01    0.1429111    0.0983635 -64.49  0.000700066    1.643    0.391
       317 -12.0880     85.3026     23.7317   7.3451586366e+00   6.0276131890e+01    0.2651293    0.2405804 -73.95 0.0003783708    1.155    0.134
       318 -10.2743      1.3722     25.1953   5.3843718075e+01   7.4961363437e+01    0.1590294    0.1181647 -71.50 0.0003919801    1.556    0.357
       319 -11.3672     90.5730     23.0947   5.6948566491e+00   5.9081143646e+01    0.3015803    0.2145171  13.54  0.001134442    1.934    0.483
       320 -11.1245     19.1470     23.7153   3.8620657986e+01   7.3459993890e+01    0.1891545    0.1755726 -46.82 0.0004099851    1.250    0.200
       321 -11.6941     70.1129     21.2051   1.0732467967e+01   6.4172325335e+01    0.2891974     0.203679 -25.03 0.0007033219    1.581    0.367
       322 -10.5324     81.8169     19.7917   6.5144436845e+00   6.1591625711e+01    0.1865109    0.1543514 -78.29 0.0004922302    1.330    0.248
       323 -10.2196     58.4848     20.4456   1.4596421470e+01   6.6880050343e+01     0.135289    0.1220607  39.97  0.000172954    1.016    0.016
       324 -10.9562    132.6885     17.0667   3.5566625189e+02   4.9384159197e+01    0.1754977    0.1639328 -60.09 0.0005027027    1.132    0.117
       325 -12.1544    125.2474    246.3474   4.9715097608e+01   7.3769818739e+00    0.2310117    0.1942889 -36.93 0.0002840862    1.356    0.263
       326 -11.0295    114.3040    248.8503   5.2328054579e+01   8.1796864501e+00     0.171608    0.1502291 -54.38 0.0006618318    1.435    0.303
       327  -9.7478     54.4866    249.4316   6.5627589285e+01   1.4497075189e+01    0.1215305   0.09514685  36.97   0.00010048    1.025    0.025
       328 -11.7469     67.9242    246.7598   6.2407918621e+01   1.3609286381e+01    0.3163544    0.2125792  49.56  0.001327857    1.414    0.293
