#   1 NUMBER                 Running object number                                     
#   2 MAG_AUTO               Kron-like elliptical aperture magnitude                    [mag]
#   3 X_IMAGE                Object position along x                                    [pixel]
#   4 Y_IMAGE                Object position along y                                    [pixel]
#   5 X_WORLD                Barycenter position along world x axis                     [deg]
#   6 Y_WORLD                Barycenter position along world y axis                     [deg]
#   7 A_WORLD                Profile RMS along major axis (world units)                 [deg]
#   8 B_WORLD                Profile RMS along minor axis (world units)                 [deg]
#   9 THETA_WORLD            Position angle (CCW/world-x)                               [deg]
#  10 FWHM_WORLD             FWHM assuming a gaussian core                              [deg]
#  11 ELONGATION             A_IMAGE/B_IMAGE                                           
#  12 ELLIPTICITY            1 - B_IMAGE/A_IMAGE                                       
         1 -12.6344    242.8862     93.1392   5.4934528078e+01   1.2370595025e+01     4.318702    0.2691203 -40.08  0.009252625    7.595    0.868
         2 -11.6392    227.5621     44.3097   4.5102625621e+01   2.3128502733e+01     2.364482    0.7191432 -52.29  0.007259011    4.325    0.769
         3 -12.2463    237.1737     37.3040   4.2394371971e+01   2.1900887528e+01    0.8286547    0.7395197 -67.76  0.002816538    1.059    0.056
         4 -11.8320    183.7672     77.2877   6.0376934837e+01   2.8510708334e+01     1.621782    0.6777011 -39.98  0.005922431    2.258    0.557
         5  -9.4044    204.7673     17.6308   4.0899998262e+01   3.1842689320e+01    0.5020222    0.1987312 -62.86  0.001718255    3.805    0.737
         6 -10.7669    188.6785      4.3528   3.9083912445e+01   3.7129426139e+01    0.5940644    0.2722408 -61.64  0.002495664    2.628    0.619
         7  -8.7099    123.8749      4.8203   4.8296728467e+01   5.3013924274e+01    0.2068654    0.1556305  37.63 0.0005341353    1.254    0.203
         8  -7.6646    237.5865      5.2293   3.5042656779e+01   2.5621685499e+01    0.1414845    0.1156707 -24.90 0.0003954812    1.465    0.317
         9  -7.9228    247.9874      2.7079   3.3778595872e+01   2.3647510837e+01    0.1659598    0.1338734 -77.12  0.000526793    1.080    0.074
        10  -8.3461    217.0987      1.4342   3.5742838651e+01   3.0634686784e+01    0.1773418     0.110198  82.01 0.0002688888    1.472    0.321
        11 -13.0580      7.1092    197.4283   1.2611809329e+02   3.1641580052e+01     1.186357    0.6123139 -85.22  0.002968946    1.559    0.359
        12 -10.1070    107.7561    250.2359   1.1142780183e+02   8.9693514855e+00    0.2120435    0.1379508  43.08 0.0005306672    1.266    0.210
        13 -12.9888     28.2577    182.6521   1.2077419577e+02   3.2828975515e+01     1.431346     1.034702 -23.27  0.008300029    2.455    0.593
        14 -10.3626    238.9020    204.1140   7.9617966141e+01  -4.6634847323e+00    0.2196651    0.1837071  13.24 0.0003337164    1.124    0.110
        15  -8.7407    208.6381    200.9914   8.4577950062e+01   6.7636069788e-01    0.2128422    0.1676129  26.68  0.001257089    1.156    0.135
        16  -8.3761    209.1146    196.1234   8.3571986304e+01   1.3705477686e+00    0.1971339    0.1577075   3.28 0.0002739684    1.185    0.156
        17  -9.8514    176.8428    191.6147   8.9157833501e+01   7.8786949948e+00    0.2276865    0.2170781 -19.30 0.0003649806    1.109    0.098
        18  -8.1214    128.8956    190.9400   9.9385784640e+01   1.6691049769e+01    0.1848094    0.1763537  -5.84            0    1.191    0.160
        19  -9.0435    246.5341    185.8161   7.4772045945e+01  -3.2177379479e+00     0.211746    0.1981548   9.23 0.0005609487    1.303    0.233
        20  -9.0454     61.6352    185.0465   1.1370332865e+02   2.8419801536e+01    0.1951624    0.1760583  52.21 0.0002145799    1.227    0.185
        21  -8.6686    207.3164    205.6234   8.5682523357e+01   1.7247338286e-01    0.1991039    0.1793566  33.00  0.000384367    1.234    0.190
        22  -8.5508    197.9894    176.0528   8.1789129107e+01   6.7733310220e+00    0.2037154    0.1823488   6.71  0.001170461    1.034    0.033
        23  -8.6530     62.3927    169.2306   1.1157827320e+02   3.1968234502e+01    0.1846491    0.1746164  48.25 0.0004849978    1.241    0.194
        24  -8.5080    182.2481    145.2853   7.8335933295e+01   1.5750732631e+01    0.3096651    0.2255563 -79.86    0.0013171    2.213    0.548
        25  -8.7872     69.3244    144.6741   1.0616335497e+02   3.6943752465e+01    0.2922799    0.1847181  69.91  0.001206193    1.947    0.486
        26  -9.0422     66.1957    144.1788   1.0691435864e+02   3.7490423655e+01    0.3892087    0.2684256 -84.44   0.00137621    1.508    0.337
        27  -8.4787    144.8139    123.8850   8.1720747528e+01   2.8308639424e+01    0.2193093    0.2043022  -9.92 0.0003357959    1.135    0.119
        28  -9.6259    201.0871    122.0137   6.8913408496e+01   1.6244340345e+01    0.2241745    0.2168788  26.76  0.001235315    1.087    0.080
        29  -7.8600    205.8060    118.6351   6.7184762158e+01   1.5847677412e+01    0.1903281    0.1456823  61.68 0.0003873509    1.518    0.341
        30  -9.0874    249.0960    248.6852   8.5583115650e+01  -1.1644580079e+01    0.2917915    0.1321912  14.72  0.001403472    2.820    0.645
        31  -8.4421    225.3513    245.2878   8.9105143692e+01  -8.0569990406e+00    0.1220225   0.07339937  11.20 0.0007024063    1.666    0.400
        32  -9.2552    245.2438    242.9802   8.5309880460e+01  -1.0505140620e+01    0.1376956   0.08532009 -24.89  0.000882421    1.594    0.373
        33 -11.0650    247.2468     30.7571   3.9941534650e+01   2.0544478231e+01     0.359671    0.2869954  42.26  0.000765863    1.674    0.403
        34  -8.4204    168.1925    113.8270   7.3629923384e+01   2.5247243258e+01    0.2445707    0.2135577 -73.64  0.001203181    1.304    0.233
        35  -8.6915    205.2380    110.8414   6.5343128289e+01   1.7415547018e+01    0.2933998       0.1933  23.86  0.001237611    2.101    0.524
        36 -10.1503    188.7253    102.5303   6.6331314510e+01   2.2730175338e+01    0.4368998    0.2377202 -43.13  0.001770138    1.762    0.433
        37  -9.3203    198.2697     98.0115   6.3323950617e+01   2.1353873723e+01    0.2957268    0.2368936  67.40  0.001235873    1.399    0.285
        38  -7.8820    147.9995     98.0046   7.3988372350e+01   3.3140094054e+01    0.1868241    0.1764494 -37.71 0.0009563134    1.031    0.030
        39  -7.6411     90.5742     98.0298   8.9833895487e+01   4.4927055067e+01    0.2010199    0.1374637 -50.17 0.0001184256    1.362    0.266
        40  -8.9979    153.3353     95.3447   7.1958538182e+01   3.2445081882e+01    0.3366534    0.2570713   5.04  0.001007246    1.739    0.425
        41  -7.9902    137.9713     93.5329   7.5184762652e+01   3.6346018787e+01     0.264325    0.2020018 -68.07 0.0007931668    1.619    0.382
        42  -8.7663    233.4746    240.4910   8.6921234010e+01  -8.6154861599e+00    0.1163005   0.09179749  12.84 0.0004300011    1.071    0.066
        43  -9.2336    147.7935     84.3951   7.0064926756e+01   3.5906443632e+01    0.2957425    0.2634763 -33.93 0.0007053983    1.104    0.094
        44 -10.6625    227.7831     55.7139   4.7880583190e+01   2.1466010174e+01      1.05814    0.3966818 -54.41  0.003560993    3.520    0.716
        45 -10.2949    106.8406     77.9669   7.8961152835e+01   4.6234734269e+01    0.2309753    0.2193179  14.53 0.0002434444    1.068    0.063
        46 -10.7493    165.2397     75.1853   6.3421381069e+01   3.3413869578e+01     0.388196    0.3013785 -13.47 0.0008971968    1.509    0.337
        47 -10.0476    250.0607     74.8659   4.9727244099e+01   1.3766155407e+01    0.2759007    0.1885649 -43.83 0.0005258407    1.250    0.200
        48  -9.1279    202.7753     74.3705   5.6260868600e+01   2.4413620744e+01    0.3504342    0.2475307 -30.12 0.0009383219    1.423    0.297
        49  -9.7363    193.7422     67.4452   5.5865826905e+01   2.7725522435e+01    0.2630271    0.2507265 -44.81 0.0004116364    1.043    0.041
        50 -10.4007    166.5079     86.3884   6.6428502245e+01   3.1058729124e+01    0.6300107    0.3717089  34.50  0.002477373    2.124    0.529
        51 -10.1883    206.0022     58.7539   5.1588836589e+01   2.6114974784e+01    0.3396171     0.256411  43.85 0.0008148025    1.505    0.335
        52 -10.4340    170.4611     58.5969   5.7429320785e+01   3.4901144532e+01    0.4851601    0.3088922 -82.13  0.001941599    2.382    0.580
        53 -11.6149    187.5602     55.6893   5.3591253409e+01   3.1088557817e+01    0.5257744    0.3657245   5.36  0.001774898    2.164    0.538
        54 -10.1187    213.4865     53.8885   4.9261151827e+01   2.5052594061e+01    0.3800173     0.254299  41.38  0.001217416    1.835    0.455
        55  -7.7686    152.6889     51.7170   5.8780301004e+01   4.0393486494e+01    0.1503092    0.1123562  26.19 0.0001409542    1.570    0.363
        56 -10.3487    157.3387     47.2019   5.6411586558e+01   3.9907841406e+01    0.4971642    0.2623834 -67.00  0.001606863    3.799    0.737
        57  -8.0632    133.7112     30.7227   5.5687790731e+01   4.7957260865e+01    0.1424986    0.1015921  29.57 0.0006932312    1.518    0.341
        58  -9.4326    116.8990     28.0038   5.8490081710e+01   5.2267892693e+01    0.2135148    0.1961366  24.64 0.0005038981    1.018    0.018
        59  -8.3452    243.4813     24.0311   3.8762516118e+01   2.2189874758e+01    0.1847401    0.1089284 -39.26 0.0003955105    1.508    0.337
        60  -8.0882    164.5679     22.2170   4.7310119825e+01   4.1295063840e+01    0.1674384    0.1362619  -2.22 0.0003070034    1.453    0.312
        61  -9.1822    249.9488    238.9449   8.3854289050e+01  -1.0665638047e+01    0.1461199    0.1354819  17.81 0.0004422236    1.605    0.377
        62  -9.4576    131.9230     18.6666   5.1778331773e+01   4.9772704420e+01    0.2315663    0.1942283 -30.82 0.0003340648    1.281    0.219
        63  -8.2607    225.4071     17.3190   3.8803227571e+01   2.7020223613e+01    0.1775553    0.1424692  39.66 0.0006394482    1.622    0.383
        64  -9.0930    110.9327    236.3308   1.0933915661e+02   1.0878374486e+01    0.1746591    0.1343157  46.81 0.0004846464    1.101    0.092
        65  -8.3461    220.9346    228.4760   8.7155603788e+01  -5.2819959571e+00     0.174046    0.1416898  -0.07 0.0004499962    1.100    0.091
        66  -8.0386    152.2759    212.9607   9.7908943716e+01   8.3651243706e+00    0.1741444    0.1590369  38.04 0.0003602455    1.029    0.029
        67  -8.8989    219.4748    211.1789   8.4412108685e+01  -2.6441462979e+00    0.2358089    0.1988849 -42.32  0.001360493    1.513    0.339
