#   1 NUMBER                 Running object number                                     
#   2 MAG_AUTO               Kron-like elliptical aperture magnitude                    [mag]
#   3 X_IMAGE                Object position along x                                    [pixel]
#   4 Y_IMAGE                Object position along y                                    [pixel]
#   5 X_WORLD                Barycenter position along world x axis                     [deg]
#   6 Y_WORLD                Barycenter position along world y axis                     [deg]
#   7 A_WORLD                Profile RMS along major axis (world units)                 [deg]
#   8 B_WORLD                Profile RMS along minor axis (world units)                 [deg]
#   9 THETA_WORLD            Position angle (CCW/world-x)                               [deg]
#  10 FWHM_WORLD             FWHM assuming a gaussian core                              [deg]
#  11 ELONGATION             A_IMAGE/B_IMAGE                                           
#  12 ELLIPTICITY            1 - B_IMAGE/A_IMAGE                                       
         1 -13.9959    168.7304     43.3020   7.2537298773e+01   3.7624161104e+01     1.134061     1.038448  14.59  0.003948737    1.314    0.239
         2 -14.1869    187.4317     10.1560   6.1360466891e+01   3.7060276283e+01     2.047037    0.9468937  66.12  0.007726931    1.804    0.446
         3  -9.6574    133.8468    245.6431   1.2499062516e+02   4.3137681233e+00     0.190701    0.1662037 -51.44 0.0007853932    1.359    0.264
         4 -10.3056    175.9867    250.3121   1.1729896954e+02  -3.5982487947e+00    0.1826706    0.1453761  34.15 0.0005403872    1.066    0.062
         5 -10.1715    138.8440    250.1294   1.2459615903e+02   2.6706730864e+00    0.2587614    0.2010294  38.84 0.0008710367    1.165    0.141
         6 -11.0931    138.4539    244.4310   1.2390551543e+02   3.7528603477e+00    0.6236408    0.2909591 -51.31  0.002919358    2.472    0.596
         7 -19.8718     62.1926    168.4867   1.2995917779e+02   3.2716393340e+01     19.96499     4.646061 -64.52    0.0599309    4.188    0.761
         8 -10.3891    158.9881    195.3180   1.1163371819e+02   9.6677447426e+00    0.2313225    0.2004474 -49.65 0.0005802785    1.210    0.174
         9  -9.9041    135.0519    198.2121   1.1751530400e+02   1.3624539250e+01    0.2423851    0.2085156 -57.45 0.0004352301    1.216    0.177
        10 -10.7887    152.0178    197.0448   1.1349957787e+02   1.0650426715e+01    0.3693152    0.3103286 -20.58 0.0008380549    1.431    0.301
        11 -11.2992    155.0644    187.4818   1.1102977308e+02   1.2103860726e+01     0.362085    0.3193941  37.64 0.0009470906    1.120    0.107
        12 -10.8306    151.0162    182.9523   1.1107545144e+02   1.3893200081e+01    0.3515787     0.266365 -75.70 0.0004289203    1.603    0.376
        13 -10.2521    153.2081    192.6067   1.1241618825e+02   1.1365391490e+01    0.2600237    0.1951573  38.53 0.0007313153    1.302    0.232
        14 -11.1539    150.0244    189.7099   1.1259176859e+02   1.2610634668e+01    0.3896486    0.2709791  52.13  0.001482888    1.437    0.304
        15 -10.5712    121.2622    197.6391   1.2054736961e+02   1.6295073443e+01    0.2478115    0.2385164 -26.96 0.0003301054    1.228    0.185
        16 -10.1421    180.3197    193.2740   1.0660131522e+02   5.9413308139e+00    0.2814529    0.1812739 -68.74  0.001014005    2.406    0.584
        17 -10.0368    167.9642    241.9302   1.1761754808e+02  -8.6265176356e-01    0.2245032    0.1828492 -48.32 0.0007338127    1.425    0.298
        18 -10.4534    164.6694    187.1656   1.0881877489e+02   1.0270802896e+01    0.2631524    0.2020193  54.00 0.0008556972    1.337    0.252
        19 -10.0202     10.7479    189.4104   1.4392526107e+02   3.3585330201e+01    0.1176128    0.1124925 -84.26 0.0002611738    1.385    0.278
        20  -9.7069    150.8356    242.9643   1.2121221959e+02   1.8986613483e+00    0.1887382    0.1675084  12.02 0.0006078434    1.282    0.220
        21 -12.4509     28.2660    183.8052   1.3972908046e+02   3.3132551897e+01    0.2247861    0.2151103  81.58 0.0006672902    1.304    0.233
        22  -9.7421    242.2848    184.3451   9.2610834401e+01  -3.7704510552e+00    0.1381043    0.0965833  -8.14 0.0007018053    1.645    0.392
        23 -10.7609     12.2912    242.4857   1.4738682652e+02   2.2237245988e+01    0.1029559   0.07730964 -74.31 0.0007441573    1.458    0.314
        24  -9.5473     23.0625    182.6301   1.4073564116e+02   3.3938103018e+01    0.1261618    0.1166753 -19.43 0.0003763814    1.568    0.362
        25  -9.5150    169.4900    178.9533   1.0611154836e+02   1.1048556571e+01    0.2328335    0.1485983 -47.28 0.0009509801    1.599    0.374
        26 -11.3019    204.4676    175.6671   9.8008825017e+01   4.7176509705e+00     0.403379    0.3894509  49.68  0.001004783    1.121    0.108
        27 -10.4945    196.8863    176.3924   9.9707072933e+01   6.0667241657e+00    0.3259955    0.2874657  48.07 0.0008946792    1.181    0.154
        28  -9.9940    188.2448    175.8343   1.0139797729e+02   7.9060948517e+00    0.3988253    0.1774701 -57.10  0.001290676    3.428    0.708
        29 -10.9650      8.9976    175.2278   1.4305484289e+02   3.6943981235e+01    0.1702341    0.1449568  60.97 0.0005702073    1.289    0.224
        30 -11.8541    191.9409    163.8810   9.8075735729e+01   9.6071927566e+00    0.7107397    0.4383722 -65.04  0.002392814    2.379    0.580
        31 -11.4582    189.3144    155.2589   9.6733413466e+01   1.1948219675e+01    0.5073642    0.4561721 -35.66  0.001533804    1.101    0.092
        32  -9.4572     33.8662    168.3926   1.3675293694e+02   3.6149480367e+01    0.1607501    0.1453125  78.61 0.0005042392    1.163    0.140
        33 -10.5345    229.5976    165.7923   9.1094639926e+01   1.7903948077e+00    0.2041881    0.1250061 -48.25 0.0009522244    1.660    0.398
        34  -7.7496      1.4108    165.5497   1.4381913852e+02   3.9762326760e+01     0.119049   0.08908065 -76.65 0.0004483478    1.085    0.078
        35  -8.9745     28.3570    239.5700   1.4445880667e+02   2.1021175515e+01    0.1166225   0.08178329  77.01 0.0002288572    1.070    0.065
        36 -12.9353    133.9853    146.2743   1.0748959607e+02   2.5751879881e+01     1.529651    0.4006602 -55.15  0.003543996    5.587    0.821
        37  -9.8235     16.0050    156.6270   1.3959363109e+02   4.0636080359e+01    0.2104824    0.1681798 -32.72 0.0008634151    1.640    0.390
        38 -10.4320    165.9311    154.2106   1.0163156831e+02   1.7178825334e+01    0.4195236    0.2844582  78.52  0.001656576    2.293    0.564
        39  -9.4531    152.4337    151.2017   1.0409781468e+02   2.0742967960e+01    0.2227299    0.1484414 -60.99 0.0005147911    1.677    0.404
        40  -9.8213    174.4469    148.7438   9.8480721458e+01   1.6534839253e+01    0.3250201    0.2529146 -86.54 0.0006966505    1.669    0.401
        41 -11.7825    144.1993    146.0722   1.0491974288e+02   2.3665342160e+01    0.5436552    0.3890041  87.21   0.00226764    1.993    0.498
        42 -11.7202    141.9665    139.5160   1.0395486634e+02   2.5646202368e+01    0.5060314     0.332177 -62.39  0.002125979    1.737    0.424
        43 -12.2655    135.6562    127.8000   1.0273127170e+02   2.9669229527e+01     1.600477    0.2726115 -50.66  0.003009189    8.199    0.878
        44  -8.6297    166.6684    133.3018   9.6611826326e+01   2.1616977835e+01    0.1614004    0.1249647 -89.04 0.0005644517    1.652    0.395
        45 -10.7410    160.2476    127.4721   9.6670967616e+01   2.4331506485e+01    0.4503163    0.2674315 -56.71  0.001305603    1.887    0.470
        46 -11.1319    113.9177    117.6921   1.0594931745e+02   3.6435385858e+01    0.2815595    0.2637375  84.97 0.0005309783    1.128    0.114
        47 -11.8090    175.8727    230.9947   1.1428693419e+02  -3.4318763841e-01    0.5701386    0.1846556 -45.13  0.002129223    3.433    0.709
        48  -9.8301    168.2987    113.0950   9.1249437477e+01   2.5550666451e+01    0.3600817    0.2531938 -82.05  0.001485303    2.026    0.506
        49 -11.1611    134.7020    112.3989   9.9082957084e+01   3.3303967505e+01    0.4515971    0.1467854 -45.32  0.001388871    3.045    0.672
        50 -10.0990    134.5755    105.7879   9.7371238737e+01   3.4751190937e+01    0.5118974    0.1449629 -47.83  0.001440344    3.736    0.732
        51  -9.0983    144.8246    235.1031   1.2128933661e+02   4.3673536641e+00       0.1583     0.102452 -55.80 0.0004395015    1.769    0.435
        52 -10.0140    205.2529    110.1612   8.3073204941e+01   1.7589595041e+01    0.3104326    0.2242799  53.59 0.0009255728    1.440    0.306
        53  -9.8161     25.7327    229.7514   1.4421797519e+02   2.3318965141e+01   0.09539544   0.08215385 -73.10  0.000411476    1.438    0.305
        54  -9.0651    114.2876    244.5745   1.2874567124e+02   7.7728695117e+00    0.1376923   0.08748603  73.32 0.0006951545    1.861    0.463
        55  -9.6622    146.7826     81.2164   8.7600439872e+01   3.6852802010e+01       0.2057    0.1772686  19.16 0.0004959026    1.328    0.247
        56  -9.4171    126.2275    209.1268   1.2128967380e+02   1.2883604139e+01    0.2041212    0.1884981  17.18 0.0008984264    1.278    0.218
        57 -10.2913     95.4463     79.9398   1.0091452296e+02   4.7942031365e+01    0.2658977    0.2027072  40.08 0.0006132792    1.338    0.252
        58  -8.8453    120.3272     79.3177   9.3656619248e+01   4.3120917273e+01    0.1515646    0.1149126   8.34 0.0006157417    1.678    0.404
        59 -11.6828     12.1192    205.9836   1.4497004944e+02   2.9802243742e+01    0.2776198    0.1959208  45.11   0.00121034    1.533    0.348
        60 -13.4515    156.6875     57.9677   7.8851995797e+01   3.8416766441e+01     1.329707    0.9497524  55.59  0.003147141    1.310    0.237
        61 -11.0880    193.7705    249.6043   1.1372803043e+02  -6.4035322313e+00    0.3083656    0.1051327  35.43  0.001233999    2.714    0.632
        62 -12.3284    173.0606     35.7320   6.9794229989e+01   3.7569913540e+01    0.4208086    0.3842171  45.56  0.001072744    1.210    0.174
        63  -9.8619     13.3484     59.8743   1.2359601368e+02   6.2137171628e+01    0.1631683    0.1488676 -16.49 0.0004164883    1.234    0.190
        64 -10.7576    161.5904    199.0275   1.1174754531e+02   8.3939264431e+00    0.3634189    0.2045251  40.49 0.0004560301    1.693    0.409
