#   1 NUMBER                 Running object number                                     
#   2 MAG_AUTO               Kron-like elliptical aperture magnitude                    [mag]
#   3 X_IMAGE                Object position along x                                    [pixel]
#   4 Y_IMAGE                Object position along y                                    [pixel]
#   5 X_WORLD                Barycenter position along world x axis                     [deg]
#   6 Y_WORLD                Barycenter position along world y axis                     [deg]
#   7 A_WORLD                Profile RMS along major axis (world units)                 [deg]
#   8 B_WORLD                Profile RMS along minor axis (world units)                 [deg]
#   9 THETA_WORLD            Position angle (CCW/world-x)                               [deg]
#  10 FWHM_WORLD             FWHM assuming a gaussian core                              [deg]
#  11 ELONGATION             A_IMAGE/B_IMAGE                                           
#  12 ELLIPTICITY            1 - B_IMAGE/A_IMAGE                                       
         1 -15.0623     11.0875    143.0125   1.3942023773e+02   4.2971390813e+01     9.064612     2.676511  85.80   0.03456287    4.379    0.772
         2 -13.3323    198.6957     29.5545   6.4186147954e+01   3.1542594981e+01     1.653833     1.323548  14.58  0.006994079    1.354    0.261
         3 -13.4195    214.7563     10.3424   5.6546437495e+01   2.9425996513e+01     1.175189    0.9706655  30.66  0.004211899    1.313    0.238
         4 -11.3398      2.2105      8.8276   1.2330848025e+02   7.2809932504e+01    0.3270158    0.1750579 -62.45  0.001947685    1.574    0.365
         5 -12.1668     36.5736    243.4891   1.3969906843e+02   2.2759548316e+01    0.4188935    0.3072191  40.12  0.002524288    1.387    0.279
         6 -12.2751    247.5699    247.5191   1.0446642923e+02  -5.2464978400e+00    0.7391303    0.4409509  -9.98  0.005370237    1.704    0.413
         7 -12.3297    239.1140    246.9453   1.0572996877e+02  -4.0854573782e+00    0.9716736    0.2675496  32.40  0.004572626    2.818    0.645
         8 -12.3418    178.3609    246.6864   1.1582539347e+02   4.4029385934e+00    0.6539866    0.3548385  26.23  0.004082844    1.644    0.392
         9  -9.5271     65.8895    249.5477   1.3527208383e+02   1.8797399963e+01    0.1689365    0.1136093  71.79 0.0006854808    1.384    0.277
        10 -10.7968     46.3213    248.4876   1.3837002096e+02   2.1048886453e+01    0.2549334    0.1509957  71.60  0.001430191    1.485    0.327
        11 -10.6145     28.6957    249.1387   1.4115390823e+02   2.2697652664e+01    0.1781105    0.1436602  88.28  0.001567485    1.419    0.295
        12 -10.4434     16.3264    250.1348   1.4306358851e+02   2.3692830127e+01     0.182333    0.1168793  35.06  0.001502123    1.638    0.390
        13 -11.8810     12.3149    240.4241   1.4338107903e+02   2.5465104499e+01    0.2774792    0.1862976  52.32  0.001723729    1.146    0.128
        14 -10.5608     17.3544    240.8241   1.4261697215e+02   2.4961060419e+01    0.2113139   0.07399564  47.94 0.0009350743    1.846    0.458
        15 -12.0280      4.3823    248.4313   1.4478751360e+02   2.4971350001e+01    0.7155287    0.3214553  60.05  0.005015003    1.506    0.336
        16 -10.8832      5.5485    240.9715   1.4442586716e+02   2.5961986299e+01    0.2101165    0.1474198  43.15 0.0008969182    1.381    0.276
        17 -11.1151     99.3983    245.8667   1.2941572278e+02   1.5321731428e+01    0.2830429    0.2087066 -17.49  0.001345542    2.651    0.623
        18  -9.4311     22.5452    245.5119   1.4197182554e+02   2.3798553634e+01   0.09256284   0.06315482  59.24 0.0002626459    1.017    0.017
        19 -10.9849    233.3743    236.5610   1.0518680381e+02  -2.3884894410e+00    0.4535878    0.3594112  78.68  0.002262542    5.453    0.817
        20 -11.9817    184.0300    237.4651   1.1371119474e+02   4.6088909024e+00    0.3905089    0.2900699 -42.58  0.002699769    1.911    0.477
        21 -10.8220     51.1341    236.2541   1.3697913626e+02   2.2353657199e+01    0.3544714    0.1327177  56.53  0.002109374    2.193    0.544
        22 -12.9580      4.3741     50.1692   1.3206686975e+02   6.3859315191e+01    0.8705058    0.4387638 -74.73  0.002837872    1.663    0.398
        23 -10.7152    157.2252    249.5728   1.1978677511e+02   7.0674877346e+00    0.2997536    0.1471624  54.49  0.001631422    2.605    0.616
        24  -8.7080    228.2818    227.6659   1.0472523802e+02  -8.2486674310e-01   0.09584413   0.08216318  37.06 0.0007007138    1.615    0.381
        25 -10.3227     77.8578    217.7688   1.3105836483e+02   2.2215106904e+01    0.3223301    0.1072854  51.49   0.00156565    2.651    0.623
        26  -8.4269    152.4618    212.6417   1.1629615999e+02   1.2538611258e+01    0.1211919   0.09102393  38.26 0.0001899181    1.050    0.047
        27 -12.3541      9.9789    206.9129   1.4266524018e+02   3.0991307449e+01    0.5372376    0.3316376  31.32  0.002746659    1.775    0.437
        28 -12.2027    117.4203    231.5505   1.2499530258e+02   1.4958468821e+01     1.099228     0.113328  39.96  0.003416548    5.733    0.826
        29 -11.6127     57.9579    198.0080   1.3332851357e+02   2.7907674528e+01    0.2660689    0.2063875 -85.49 0.0005348905    1.296    0.228
        30  -9.9039    192.9219    195.1799   1.0594838955e+02   8.4023527209e+00    0.6477005    0.3548134 -60.60   0.00204217    7.915    0.874
        31 -10.6675      9.1923    193.6070   1.4230561145e+02   3.3360962451e+01    0.2368733      0.12441  53.56   0.00106416    1.467    0.318
        32 -11.8382     64.5100    189.5285   1.3134004207e+02   2.8694138679e+01    0.2243348    0.2131951 -86.26 0.0005120366    1.275    0.216
        33 -10.9565      1.8788    183.4302   1.4326466121e+02   3.5753041879e+01     0.420392     0.113032 -86.23  0.002033226    3.405    0.706
        34 -10.6494     75.2343    176.7573   1.2786997782e+02   2.9797743510e+01      0.21208    0.1840369  62.83 0.0003598717    1.031    0.030
        35 -13.0870     61.7212    174.6402   1.3059485355e+02   3.1834335010e+01    0.4350911    0.2503042 -46.80   0.00181015    2.341    0.573
        36  -9.7659     95.0665    171.9197   1.2292887110e+02   2.8078368968e+01    0.2641718    0.1502269  42.93 0.0004776022    1.544    0.352
        37 -11.7283     82.9238    167.5388   1.2512797968e+02   3.0600181139e+01     0.548106    0.5264067 -76.03  0.003895841    1.185    0.156
        38 -12.7359     30.2406    231.2968   1.4020848388e+02   2.5219791397e+01    0.2395316    0.2042275  65.66 0.0007436366    1.275    0.216
        39 -10.0226     96.1471    152.0797   1.1994547345e+02   3.1860516312e+01    0.2655831    0.2591935  27.23 0.0008206421    1.140    0.123
        40 -11.9285     84.5788    150.9294   1.2259190413e+02   3.3745236456e+01    0.2555928    0.2324387 -42.40  0.000839261    1.277    0.217
        41  -8.8963     99.2512    147.9497   1.1855307122e+02   3.2245083111e+01    0.1719492    0.1659397 -80.10 0.0003175444    1.088    0.081
        42 -12.1442     67.3595    143.5236   1.2585401842e+02   3.7539276911e+01    0.6472044    0.3675333  58.40  0.002842465    1.884    0.469
        43 -13.7354     35.4122    224.7503   1.3905266446e+02   2.5750277785e+01    0.5963586    0.4055704  55.25  0.002399799    1.081    0.075
        44  -9.5954    108.4929    137.0803   1.1439627630e+02   3.3046304687e+01    0.3758168    0.2433742 -21.03  0.001654399    2.547    0.607
        45 -10.3965     95.4779    134.3121   1.1725679090e+02   3.5684874723e+01    0.2319994     0.219302  -9.83 0.0003839904    1.199    0.166
        46 -12.1123     90.7446    227.0307   1.2943842123e+02   1.9153763010e+01     1.049171   0.06518432  44.35  0.003235228    6.281    0.841
        47 -11.4118     25.9524    128.4872   1.3470692470e+02   4.4963001003e+01    0.3521968    0.1855518  54.49  0.001053367    1.891    0.471
        48  -9.4595     75.0518    128.4181   1.2169399322e+02   3.9859918880e+01    0.2861711    0.1709573  56.15 0.0009592608    1.846    0.458
        49 -11.7148     10.1546    230.6705   1.4342330055e+02   2.7131173408e+01     0.315262     0.144639  67.04  0.002302184    1.675    0.403
        50  -8.9891    106.0211    123.7008   1.1249065903e+02   3.6285324388e+01    0.1845205    0.1674257  38.32  0.000279269    1.087    0.080
        51  -9.5491     79.6595    123.0679   1.1955568976e+02   4.0428323726e+01    0.2422364    0.1658366  54.92 0.0007264969    1.548    0.354
        52  -9.6892     66.3717    121.6770   1.2300728671e+02   4.2458485890e+01    0.2674323    0.1781551  65.22  0.001056509    1.701    0.412
        53 -10.1592    167.6626    112.7273   9.4438075322e+01   2.6416482402e+01    0.2738805    0.2561719  82.67 0.0005888783    1.323    0.244
        54  -9.0027    202.7027    111.6894   8.6753430019e+01   1.8912466000e+01    0.1535294    0.1067435  12.53 0.0002547755    1.597    0.374
        55  -9.4839     45.3091     98.5843   1.2551493738e+02   5.0028419594e+01    0.4411547    0.1224083  48.31  0.001330329    5.827    0.828
        56 -11.3402    243.2493     93.3545   7.5144162886e+01   1.2853490043e+01    0.3378488    0.2495738  36.58  0.001835473    1.360    0.265
        57  -8.9176     64.9787     81.0225   1.1559224886e+02   5.1900187490e+01    0.1975447    0.1574719  74.58 0.0005002199    1.553    0.356
        58  -9.2352    158.5226     77.4763   8.6846469600e+01   3.4818440414e+01    0.1563541    0.1479525  12.64 0.0001489871    1.022    0.022
        59 -10.0066     56.6644     75.3011   1.1713376499e+02   5.4200985004e+01    0.3444674      0.20198  51.69  0.001194657    2.207    0.547
        60 -11.3297     13.2075     61.6186   1.3047503500e+02   6.0892631362e+01    0.3927308   0.08030201 -64.10  0.001530244    3.038    0.671
        61 -10.9848      7.2780    225.8522   1.4373478542e+02   2.8125096980e+01     0.256557    0.1122363  37.76  0.001820352    1.907    0.475
        62  -9.9000    124.7943    249.5929   1.2537041636e+02   1.1518485170e+01    0.1645519   0.06991394  45.23 0.0009621447    1.736    0.424
        63  -9.7102     81.7044    249.1452   1.3264010064e+02   1.7033455635e+01    0.1557945    0.1000907  65.37 0.0009892163    1.440    0.305
        64 -12.6081     45.3761    214.1026   1.3675262996e+02   2.6484819920e+01    0.6119012    0.5203966 -85.15  0.004780849    1.338    0.252
