#   1 NUMBER                 Running object number                                     
#   2 MAG_AUTO               Kron-like elliptical aperture magnitude                    [mag]
#   3 X_IMAGE                Object position along x                                    [pixel]
#   4 Y_IMAGE                Object position along y                                    [pixel]
#   5 X_WORLD                Barycenter position along world x axis                     [deg]
#   6 Y_WORLD                Barycenter position along world y axis                     [deg]
#   7 A_WORLD                Profile RMS along major axis (world units)                 [deg]
#   8 B_WORLD                Profile RMS along minor axis (world units)                 [deg]
#   9 THETA_WORLD            Position angle (CCW/world-x)                               [deg]
#  10 FWHM_WORLD             FWHM assuming a gaussian core                              [deg]
#  11 ELONGATION             A_IMAGE/B_IMAGE                                           
#  12 ELLIPTICITY            1 - B_IMAGE/A_IMAGE                                       
         1  -9.5516      6.3599     33.7967   1.3093012294e+02   6.7586896738e+01     1.020997    0.1141274 -48.58  0.003862808    3.816    0.738
         2 -11.4782     80.3424     23.4235   9.7435448492e+01   6.0633588057e+01    0.6102167    0.2916539  31.21 0.0005811024    2.479    0.597
         3  -9.0755     28.9539     21.3600   1.1652319951e+02   6.8128873326e+01    0.7335519    0.2952862 -23.37  0.002523252    5.250    0.810
         4  -9.7812    124.6888     10.7938   8.0151152966e+01   5.2768996755e+01    0.7914662    0.3350045  19.71  0.002120469    5.321    0.812
         5  -9.4298     79.4842     12.8192   9.2933714930e+01   6.2183906313e+01    0.3627521    0.2532074  48.13  0.001453816    1.550    0.355
         6  -9.5105     74.4943     13.5024   9.4888768558e+01   6.3000577610e+01    0.4310125    0.2475648  -7.21  0.002111867    1.994    0.498
         7  -9.2777     64.2052     14.4947   9.8957906835e+01   6.4607973803e+01    0.3849065    0.2024732  20.02   0.00166809    2.508    0.601
         8  -8.9865    150.0255     12.2914   7.5860445340e+01   4.6360302475e+01    0.3376131    0.2069736 -84.39 0.0009946477    2.315    0.568
         9  -9.8125    134.4541     13.2078   7.9086417211e+01   5.0165235164e+01    0.4472485    0.2462259  30.95  0.001941249    2.043    0.511
        10  -9.2575    106.2477     12.7188   8.5232946682e+01   5.6783687338e+01    0.5227497    0.2572551  12.36  0.001907828    3.365    0.703
        11  -8.9621     96.8975     12.4322   8.7578620223e+01   5.8809883779e+01     0.349696     0.215197  15.75  0.001059716    1.827    0.453
        12  -8.3173    112.3579     12.0268   8.3435556896e+01   5.5500431993e+01    0.3078462    0.1957823  10.64  0.001493131    1.772    0.436
        13  -9.2792     70.9902      8.8746   9.3869114817e+01   6.4183945335e+01    0.3691941    0.2328681  27.39  0.001244303    1.555    0.357
        14  -8.9127    159.6957      1.5656   7.0576829969e+01   4.4868008497e+01    0.3169917    0.1796789  48.88  0.001069281    1.638    0.390
        15  -9.3242    155.7127      7.0257   7.3060834481e+01   4.5410144244e+01    0.3386372    0.2722966  35.21  0.001391608    1.236    0.191
        16  -8.1350    141.9649     10.0657   7.6476603854e+01   4.8617102975e+01    0.2389665    0.1456221  36.24 0.0006916926    1.669    0.401
        17  -8.8758     56.8120      3.4107   9.6230226662e+01   6.7183747898e+01    0.5577306    0.1628311  43.45  0.002297621    3.407    0.707
        18  -8.5725     34.5239      9.5020   1.0863203391e+02   6.9422492172e+01    0.3004286    0.1747272  16.18   0.00175481    1.938    0.484
        19  -9.2316     32.2831      6.0369   1.0792468765e+02   7.0184541403e+01    0.2419901    0.1730338 -26.01 0.0002877556    1.125    0.111
        20  -9.6468     46.7747      6.4051   1.0176188817e+02   6.8294694491e+01    0.2733234    0.1943331   5.43 0.0003033477    1.312    0.238
        21  -9.3160     40.6932      6.4159   1.0435061347e+02   6.9106825752e+01    0.4347761    0.2485143  -2.70  0.002024846    2.118    0.528
        22  -9.3488     76.3240      5.8168   9.0623968943e+01   6.3577782289e+01     0.373982    0.3285272  -6.95   0.00246541    1.146    0.127
        23  -9.0585    119.2642      6.9237   7.9750816364e+01   5.4425932575e+01    0.2594084    0.2069552  14.19 0.0002593867    1.220    0.180
        24  -8.3050      2.9630      1.4878   1.2049509476e+02   7.3554480074e+01     0.165068   0.09746413  21.92 0.0006003388    2.004    0.501
        25 -10.7141      7.0233      5.4872   1.2018094007e+02   7.2627020633e+01    0.4581707     0.235406   2.24 0.0006699059    2.431    0.589
        26  -8.2176    101.0250      6.1956   8.3725744741e+01   5.8595047739e+01    0.2230768    0.1551782  26.00  0.001213032    1.365    0.267
        27  -8.4387    105.2435      1.7731   8.0741090157e+01   5.8090751813e+01    0.3333285    0.1700261  38.49  0.001566181    1.835    0.455
        28  -8.9105    111.1983      4.5827   8.0568305168e+01   5.6501787129e+01    0.2570588    0.1657593  22.53 0.0007060644    1.587    0.370
        29  -9.1757    110.2188      1.6132   7.9523149724e+01   5.6991684405e+01    0.2984146    0.1782459  57.30  0.001304985    1.590    0.371
        30  -8.6471    134.2731      3.3251   7.5335133479e+01   5.1148256651e+01    0.2337486    0.1072677  53.97 0.0002967952    1.881    0.468
        31  -8.1721     91.0259      5.0077   8.5849294640e+01   6.0808847582e+01    0.2173522    0.1329805  22.39 0.0005103177    1.670    0.401
        32  -8.4607    149.9986      4.4887   7.3071525147e+01   4.7103369827e+01    0.2161333    0.0837222  45.41 0.0004771081    2.477    0.596
        33  -8.5031    143.1610      2.2882   7.3392688049e+01   4.9025945971e+01    0.2305611    0.1930217 -18.65 0.0003138006    1.267    0.211
        34  -8.1023     85.0174      3.0139   8.6622018930e+01   6.2213393486e+01    0.2163938    0.1316231  20.94 0.0006050491    1.671    0.402
        35  -7.2957    179.7069      5.3820   6.9132267210e+01   3.9318313720e+01    0.1514025    0.0965783 -57.31 0.0003208588    1.754    0.430
        36  -7.9781    129.9803     97.4826   1.0867946233e+02   3.7479683420e+01    0.3329232    0.1440153  40.26  0.001187575    2.576    0.612
        37 -10.6086    205.2667    248.7322   1.2239687191e+02  -2.5275787563e+00     1.020008    0.1320806  39.58  0.002683734    7.956    0.874
        38  -7.2604    151.4847     95.4737   1.0290706104e+02   3.3138497314e+01    0.1534754    0.1491084  -3.69 0.0001814892    1.042    0.040
        39  -9.1757     16.1825     95.1438   1.4031349817e+02   5.4043723421e+01    0.2887877    0.2089231  73.85  0.001267702    1.501    0.334
        40  -9.4459     12.4460     93.6650   1.4116574107e+02   5.4627762943e+01    0.3526285    0.1824104 -40.16  0.001598752    2.244    0.554
        41  -8.5345     43.8913     92.3506   1.3169162551e+02   5.2269205103e+01    0.2823213    0.1681895 -23.24  0.001360265    2.693    0.629
        42  -8.0390    109.5529     90.9589   1.1223811321e+02   4.2944568382e+01    0.2803742    0.2105331  20.16  0.001359857    1.680    0.405
        43  -8.1363     96.3872     90.6914   1.1582465994e+02   4.5398016333e+01    0.4061272    0.2518441  11.38  0.001566176    3.145    0.682
        44  -8.2715     65.5578     85.2085   1.2350294646e+02   5.1314114017e+01    0.3133976    0.1885903 -17.20  0.001314357    3.068    0.674
        45  -7.3341     83.6383     93.6923   1.2025064160e+02   4.6842958369e+01    0.1410584    0.1056333 -19.60  0.000703978    1.739    0.425
        46 -10.0751     37.5701     81.0695   1.3129401479e+02   5.5397977780e+01    0.5989614    0.3254341 -22.76  0.002735688    3.122    0.680
        47  -8.9867      2.2558     83.6950   1.4271119054e+02   5.7422818475e+01    0.3216944   0.09572519 -63.36  0.001120208    2.216    0.549
        48  -8.7225     87.7389     78.9732   1.1507868230e+02   4.9357473308e+01    0.4768375    0.2988503  -1.52  0.001841159    3.277    0.695
        49  -9.7901      8.4516     77.5027   1.3985381961e+02   5.8411578822e+01    0.4062982    0.2184626 -37.62  0.001642251    2.053    0.513
        50  -8.3592    184.2021     77.9408   9.0863550702e+01   2.8423557362e+01     0.240321    0.2056648 -59.21 0.0006591366    1.265    0.210
        51  -8.6779     48.3377     77.4877   1.2702134502e+02   5.5084617716e+01    0.3116148    0.1893392 -23.30  0.001493406    2.339    0.573
        52  -7.6274    120.7595     75.9745   1.0479582009e+02   4.3749246401e+01    0.2191987    0.1666481  19.01  0.001041214    1.597    0.374
        53  -9.0198     32.5213     63.4775   1.2887535182e+02   5.9660257967e+01    0.3826772   0.09120966 -50.16  0.001482641    2.990    0.666
        54  -8.5163     23.9355     74.0377   1.3421695321e+02   5.8107243989e+01    0.2604744    0.1343076 -55.49   0.00145672    1.484    0.326
        55  -8.5709     24.0330     69.8934   1.3330711546e+02   5.8995490800e+01    0.3566284    0.2269062  53.35   0.00130633    2.114    0.527
        56  -9.3157     29.6343     68.6948   1.3113848136e+02   5.8799619064e+01    0.3083679    0.1849654 -26.98  0.001706017    2.059    0.514
        57  -7.3445    215.9523     74.2383   8.4235403821e+01   2.1109744608e+01    0.1821737    0.1276333  60.83 0.0002715715    1.501    0.334
        58  -8.4595     74.8986     74.1427   1.1762519078e+02   5.2386940922e+01    0.2300287    0.1788184 -38.17  0.000351385    1.189    0.159
        59  -7.4351    116.3677     68.3230   1.0354828302e+02   4.6136884279e+01    0.1562629    0.1147259   5.81 0.0007036733    1.798    0.444
        60  -8.0337    105.6839     67.7811   1.0635859756e+02   4.8390510101e+01    0.2737068    0.1902407  15.39  0.001249695    1.938    0.484
        61  -8.7753     83.4946     64.6988   1.1203437918e+02   5.2978857492e+01    0.5315483    0.3102439 -10.33  0.001923476    3.670    0.727
        62  -8.7685     15.4940     64.5427   1.3507836210e+02   6.0754470002e+01    0.2385836    0.1407067 -47.82 0.0009208902    1.400    0.286
        63  -8.6980     57.2161     62.3848   1.1996992303e+02   5.7250559328e+01    0.3823965     0.180201  31.98  0.001792904    2.495    0.599
        64  -9.5025     62.5331     61.2426   1.1780668584e+02   5.6795564587e+01    0.5827907    0.3282332  13.47  0.002564853    2.907    0.656
        65  -7.2114    122.3240     61.3434   9.9635405715e+01   4.6152633269e+01    0.1563132    0.1148165   6.84  0.000397274    1.734    0.423
        66  -8.2952     96.4781     59.5162   1.0631055536e+02   5.1712081740e+01     0.260221    0.1263096 -31.31  0.001029127    2.272    0.560
        67  -7.8748     98.6535     56.6808   1.0468075104e+02   5.1830026191e+01     0.214638    0.1383459 -24.02 0.0008039897    1.691    0.409
        68  -9.3524     37.6398     58.4338   1.2571226416e+02   6.0239618300e+01    0.3502977     0.163562 -34.81  0.001633991    2.405    0.584
        69  -8.2360     26.0206     60.2183   1.3036487296e+02   6.0897123895e+01     0.134216   0.09931673  17.92 0.0003852034    1.682    0.406
        70  -7.7042     49.5023     58.9841   1.2163573134e+02   5.8872174518e+01    0.1663197    0.1065682 -74.98 -7.59832e-05    2.324    0.570
        71  -7.7486    111.4596     58.1393   1.0148950151e+02   4.9030849074e+01    0.2287748    0.1912058   9.51 0.0006419881    1.290    0.225
        72  -9.8180     75.2556     50.0924   1.0976291863e+02   5.7111326213e+01    0.3027381    0.2703587  10.42 0.0002532774    1.167    0.143
        73  -8.7141    198.1202     52.9895   8.1051658878e+01   2.8785840062e+01    0.2331974    0.2114351  65.79            0    1.113    0.102
        74  -7.9575     98.9691     52.9721   1.0327770758e+02   5.2439750933e+01    0.2208349     0.176883 -71.55   0.00105108    1.734    0.423
        75  -9.5214     45.6631     48.8926   1.1987517932e+02   6.1328534518e+01    0.3781208    0.2328035 -28.95  0.001175762    1.659    0.397
        76  -7.9967    118.8205     51.1550   9.7026162849e+01   4.8678271636e+01    0.2080867    0.1966188  57.12 0.0006116073    1.170    0.145
        77  -8.3492    106.7168     48.5070   9.9400506160e+01   5.1679736280e+01    0.2945299    0.2022312  15.62 0.0008131135    1.827    0.453
        78 -10.4091    188.2124    249.3359   1.2526432360e+02   6.5642149090e-02    0.4421448    0.1680504  43.72  0.002291166    2.000    0.500
        79  -9.7740     11.8100     46.4731   1.3219358926e+02   6.4747354727e+01    0.7315601    0.3859701   7.57  0.004112433    2.562    0.610
        80  -7.3863    142.6934     44.6828   8.8888627574e+01   4.4160851995e+01    0.1559594     0.112193  20.30 0.0007029139    1.631    0.387
        81  -8.1441    113.6153     42.1203   9.5113801463e+01   5.1266600799e+01    0.3431046    0.1885075  21.27  0.001265015    2.945    0.660
        82  -9.3592     57.7833     41.4434   1.1275906253e+02   6.1249650257e+01    0.3451757     0.216265 -11.54   0.00173754    2.081    0.519
        83  -7.4417    124.4405     39.5350   9.1338333753e+01   4.9249721545e+01    0.1479136    0.1331255  10.98 0.0001311465    1.073    0.068
        84 -10.1884     90.8621     38.1626   1.0018974493e+02   5.6483600877e+01    0.5641854    0.3050908  46.56  0.002633666    1.973    0.493
        85  -9.4008     67.9002     37.8715   1.0772612171e+02   6.0433235871e+01    0.3560449    0.2478711 -20.62   0.00183573    1.401    0.286
        86  -9.3513     71.3198     35.3244   1.0550907142e+02   6.0331504226e+01    0.5439085    0.3057698  11.66  0.002273665    2.993    0.666
        87  -8.0024    105.7720     36.9309   9.5290084714e+01   5.3725921049e+01    0.2999924     0.157418  27.40  0.001174725    2.614    0.617
        88  -8.3636     18.9710     35.9907   1.2625219538e+02   6.6327183795e+01    0.1834247    0.1044365 -33.81 0.0003618006    1.579    0.367
        89  -8.6642     23.5459     36.3728   1.2446458990e+02   6.5893965312e+01    0.2688738    0.2232584  45.40   0.00189398    1.673    0.402
        90  -9.0656     21.7553     32.0465   1.2375496114e+02   6.6857973371e+01    0.2338276    0.1948391 -15.15 0.0003489702    1.233    0.189
        91  -9.0459     56.2609     35.4589   1.1104138530e+02   6.2521495330e+01    0.2927179     0.199359   2.70  0.001074129    1.748    0.428
        92  -9.1093     38.0488     35.7139   1.1827286818e+02   6.4660776085e+01    0.3127758    0.1948344   9.11  0.001252376    2.005    0.501
        93  -7.0329    133.6903     31.6349   8.6206048573e+01   4.8181707504e+01    0.1576897    0.1056624  20.83 0.0007038591    1.753    0.430
        94  -9.0828      1.8868     28.2163   1.3122212225e+02   6.8904566220e+01    0.4412369   0.09981136 -55.45  0.001987916    2.713    0.631
        95  -9.3389     61.4075     27.3732   1.0579261589e+02   6.3144657635e+01      0.35107    0.2024821 -12.91    0.0012485    2.207    0.547
        96  -9.3175    249.0049     94.9736   8.4604476824e+01   1.0320107171e+01    0.2235176    0.2039531 -25.69 0.0007317876    1.026    0.026
        97  -9.8615     70.0446     25.9708   1.0205278069e+02   6.2022541897e+01    0.3899755    0.2841565  58.37  0.001876723    2.014    0.503
        98  -8.8896     42.3857     27.7875   1.1343267498e+02   6.5590825196e+01    0.2440249    0.1696766  -3.55 0.0005654518    1.561    0.359
        99  -7.4842    193.4936     26.4820   7.3811528436e+01   3.3475102332e+01    0.1450946    0.1370543 -77.64 2.304187e-05    1.043    0.041
       100  -9.2897    151.8723    249.2728   1.3125603664e+02   5.7739285954e+00    0.2739825   0.07748555  42.06  0.001199535    2.782    0.641
       101  -8.6795     32.7788     20.5894   1.1450424562e+02   6.7870361300e+01     0.362864    0.2088435  43.93  0.002021437    2.582    0.613
       102  -7.6333    118.4342     24.4856   8.7039839021e+01   5.2680723281e+01    0.1438449    0.1264414  16.42 8.983713e-05    1.066    0.062
       103  -8.5394     41.7882     24.2058   1.1218867647e+02   6.6265496266e+01     0.264754    0.1514517  -2.88  0.001311213    2.509    0.601
       104  -9.1577     46.0501     20.8915   1.0898305799e+02   6.6282722107e+01    0.3204096    0.1792671 -21.92  0.001093289    1.823    0.451
       105  -7.9648    145.0059     23.0664   8.0674806752e+01   4.6463375882e+01      0.22274    0.1847207  30.82 0.0004437309    1.191    0.160
       106  -8.2058    146.5558     19.3026   7.9012734207e+01   4.6501466267e+01    0.2584639    0.1723742  27.33 0.0006543301    1.657    0.396
       107  -8.1771    128.9668     22.5535   8.3828639489e+01   5.0456876655e+01    0.2705285    0.1914464   3.44 0.0006876574    1.573    0.364
       108  -8.8470     92.2368     21.1006   9.2706975178e+01   5.8703625517e+01    0.4160493    0.2329168   8.83  0.001737575    2.634    0.620
       109  -7.2698    156.6801     20.3068   7.7533749841e+01   4.3807491690e+01    0.1477772    0.1088481 -64.22  0.000338853    1.637    0.389
       110  -8.3533    140.4559     19.9795   8.0440397653e+01   4.7953700488e+01    0.2610466     0.175679  43.93 0.0003333774    1.412    0.292
       111  -8.5429      9.2417     19.5083   1.2488119112e+02   7.0077255664e+01    0.2568833    0.1215259 -36.36  0.000931222    1.713    0.416
       112  -7.5913    161.4442     19.4837   7.6436102212e+01   4.2667382933e+01     0.146117    0.1334425  39.11 0.0002385007    1.067    0.063
       113  -8.3315      5.2778     18.9733   1.2657450945e+02   7.0426834885e+01    0.1601122    0.1070378 -43.74 0.0002490891    1.088    0.080
       114  -9.3434     73.2390    243.2042   1.4355662824e+02   1.8068682610e+01    0.1774775    0.1338288  64.62 0.0002902996    1.072    0.068
       115  -8.7155    127.5440     16.8247   8.1918721659e+01   5.1453392201e+01    0.2367671    0.2012773  38.63 0.0002999071    1.092    0.084
       116  -7.5747    133.2776    247.3671   1.3412831092e+02   8.8984391915e+00   0.09926899   0.08171586  18.67 0.0002796152    1.679    0.405
       117  -7.5305     97.7165    238.6245   1.3918987438e+02   1.5458200426e+01   0.09212059   0.08633067   7.00 0.0007014288    1.713    0.416
       118  -7.6455    182.6604    236.6837   1.2452518382e+02   2.4799679128e+00    0.1176657   0.07841586  21.32 0.0007048371    1.705    0.413
       119  -7.7734    189.0078     16.0000   7.1227693099e+01   3.5825386534e+01    0.2324306   0.07791521  68.22 0.0005152292    2.849    0.649
       120  -7.7031    147.4743     14.4830   7.7099033689e+01   4.6785571155e+01    0.2072275    0.1378926  -0.46 0.0001703454    1.739    0.425
       121  -9.2122    188.2810    234.2845   1.2324011358e+02   1.8628278207e+00    0.2033709    0.1768773  76.96  0.001449779    1.557    0.358
       122  -7.9137      8.0249    233.5155   1.5303772867e+02   2.7015223394e+01    0.1375562   0.09073597  78.62 0.0003974778    1.102    0.092
       123  -7.3363    139.0636    228.2204   1.3099518071e+02   1.0772020979e+01    0.1555934   0.07924563  43.74 0.0006057274    1.594    0.373
       124  -8.3342     50.7667    222.4055   1.4571572830e+02   2.4329290589e+01    0.1649174    0.1180103  89.61 0.0003180653    1.235    0.190
       125  -8.0914     11.4953    207.4709   1.5129115428e+02   3.1185273302e+01    0.1030346   0.07135434  76.20 9.250363e-05    1.009    0.009
       126  -7.5329     68.9834    198.9801   1.4055769187e+02   2.6306500427e+01    0.1385542    0.1072424  66.72 0.0003424028    1.061    0.058
       127  -7.1269     63.9900    156.9773   1.3688942960e+02   3.5488518782e+01    0.1454129    0.1208962  87.59            0    1.001    0.001
       128  -7.6039     22.9163    152.1336   1.4531380825e+02   4.1026306905e+01    0.1422428    0.1072835 -70.81            0    1.256    0.204
       129  -9.0816     67.1484    144.4526   1.3444924358e+02   3.7809305862e+01    0.3902554    0.2529165  74.70    0.0021174    1.671    0.402
       130  -8.5609    136.8055    135.3186   1.1627925312e+02   2.8174230936e+01    0.2494481    0.2025207 -46.59 0.0003839775    1.256    0.204
       131  -7.7651     67.3756    127.8250   1.3177525076e+02   4.1492149156e+01    0.1942084    0.1031986 -53.84   0.00094848    1.750    0.429
       132  -7.3888     85.3971    121.3034   1.2595367655e+02   4.0400503820e+01    0.1366476    0.1058811 -20.85 0.0007002992    1.825    0.452
       133  -6.7952    203.3162    119.3114   9.8330389346e+01   1.6682428042e+01    0.1546831    0.1144156  13.01 0.0007033314    1.639    0.390
       134  -7.6920    119.3628    119.2704   1.1685774462e+02   3.4994670166e+01    0.1428389    0.1166984   1.69 0.0002929135    1.654    0.395
       135  -7.3244     99.9968    118.6813   1.2163222175e+02   3.8627184407e+01    0.2139547    0.1205569  17.23 0.0006889882    4.231    0.764
       136 -10.3559    246.6036    114.2045   8.9634684111e+01   7.9870133812e+00    0.3155139    0.2850761  36.12 0.0004392383    1.172    0.146
       137  -7.3887    143.3461    111.3028   1.0906839724e+02   3.1782735446e+01    0.1541564    0.1210788   6.86 0.0007039795    1.688    0.408
       138  -8.5080     56.5047    109.8752   1.3145886913e+02   4.6918249008e+01    0.2097284    0.1632059  72.76 0.0006358037    1.398    0.285
       139  -7.1102     39.0000    109.9808   1.3625804987e+02   4.8794764390e+01    0.2085277   0.05885496 -65.29 0.0007968113    2.904    0.656
       140  -8.4415      2.4280    109.4176   1.4584934942e+02   5.1820906143e+01     0.275566    0.1112314 -46.32  0.001389822    2.857    0.650
       141  -7.9082    133.8913    106.8352   1.1019947031e+02   3.4719619550e+01    0.2336228    0.2064176  -8.09 0.0007833191    1.299    0.230
       142  -7.6080    123.8771    107.3621   1.1283210231e+02   3.6664608536e+01    0.2067237    0.1384301  33.24 0.0004800041    1.724    0.420
       143  -7.8528    111.9601     19.4662   8.6617219818e+01   5.4753391782e+01    0.1996351    0.1308726  52.21 0.0002974705    1.498    0.332
       144  -7.6051    109.2487    106.5708   1.1640746221e+02   3.9651418602e+01    0.1940855    0.1411731  29.07 0.0009386928    1.638    0.390
       145  -8.8067     14.7434    105.3643   1.4214141229e+02   5.1887717934e+01    0.2823556    0.1386553 -38.67  0.001449571    2.738    0.635
       146  -7.9517     94.2009    103.3102   1.1964907381e+02   4.3014899338e+01    0.2816215    0.1327385  32.70  0.001105474    2.704    0.630
       147  -7.4194     69.6887    103.7268   1.2656393965e+02   4.6633165945e+01    0.1279694   0.09866802 -30.65 0.0001838394    1.553    0.356
       148  -7.3012    167.4357     99.5277   1.0044594925e+02   2.8642526789e+01    0.1547602    0.1480287   1.74 0.0001815179    1.064    0.060
