#   1 NUMBER                 Running object number                                     
#   2 MAG_AUTO               Kron-like elliptical aperture magnitude                    [mag]
#   3 X_IMAGE                Object position along x                                    [pixel]
#   4 Y_IMAGE                Object position along y                                    [pixel]
#   5 X_WORLD                Barycenter position along world x axis                     [deg]
#   6 Y_WORLD                Barycenter position along world y axis                     [deg]
#   7 A_WORLD                Profile RMS along major axis (world units)                 [deg]
#   8 B_WORLD                Profile RMS along minor axis (world units)                 [deg]
#   9 THETA_WORLD            Position angle (CCW/world-x)                               [deg]
#  10 FWHM_WORLD             FWHM assuming a gaussian core                              [deg]
#  11 ELONGATION             A_IMAGE/B_IMAGE                                           
#  12 ELLIPTICITY            1 - B_IMAGE/A_IMAGE                                       
         1 -12.7331    226.0800     39.6267   3.5248388208e+02   2.6564649539e+01    0.7968201    0.7409276  56.04  0.006075236    1.529    0.346
         2 -12.8682    212.2171     49.9453   3.5583460048e+02   2.7797944809e+01     1.386145     1.134447  33.30  0.008450821    1.885    0.470
         3 -10.5234    249.9591     16.7898   3.4653828158e+02   2.5088351203e+01    0.5574464    0.1420774 -34.53  0.002644289    2.899    0.655
         4 -11.1031    119.1804      9.8552   3.5493238786e+02   5.3595433045e+01    0.6121234    0.4085106  51.91  0.003108124    1.607    0.378
         5 -11.0774      6.1806      6.6841   3.9455050234e+01   7.8308563679e+01    0.4158508    0.3194309  59.97  0.002493732    1.977    0.494
         6  -9.0899    171.5546      2.6699   3.4761542992e+02   4.1850874224e+01    0.2309303     0.115812 -71.02  0.001198991    1.795    0.443
         7 -10.0455    144.4828      6.2235   3.5079663966e+02   4.7774079211e+01    0.3134221    0.1648932 -24.42  0.001563639    2.178    0.541
         8 -11.9648    124.0339    230.7050   4.6979735287e+01   9.9723161901e+00     0.648397    0.5578285  38.62   0.00388089    1.235    0.190
         9  -8.6178    237.4949    249.9967   2.8769239611e+01  -4.4248377238e+00    0.1382102    0.0748159 -29.51 0.0004357295    1.511    0.338
        10  -8.6144     75.5358    248.4484   5.9658910324e+01   1.2348696885e+01     0.285143   0.08367803 -55.09  0.001195862    3.759    0.734
        11 -14.7307     29.6645    188.8970   6.6552899165e+01   3.0209054829e+01     7.958424     2.841973  74.72  0.008178237    4.366    0.771
        12 -13.6301     40.5828    180.4505   6.2700328545e+01   3.1195050977e+01     3.410124     1.641699  72.78   0.01339205    2.602    0.616
        13 -13.6211      5.8149    249.5200   7.5360059938e+01   1.8963034401e+01      1.45707    0.5321531  19.30  0.006748198    2.744    0.636
        14 -12.4182      9.8422    226.3105   7.3706312895e+01   2.3357132763e+01    0.4163415    0.2822042  71.84  0.000600164    1.367    0.269
        15 -13.7411     12.1036    243.5070   7.3783699061e+01   1.9607461456e+01    0.9599994    0.5259942  86.41  0.005580557    1.929    0.481
        16 -15.4369      7.6019    231.6188   7.4418419436e+01   2.2421199006e+01     6.962365     2.228948  13.38   0.02451619    4.610    0.783
        17 -11.1368    114.9734    230.3384   4.8943030986e+01   1.1130289256e+01    0.4535826    0.2325065  36.37  0.001896225    1.720    0.419
        18 -10.5174     89.6757    205.3921   5.1977740613e+01   1.9287358339e+01    0.4070422    0.2820565  19.48  0.002155933    1.425    0.298
        19  -8.4065     76.7946    233.6931   5.8101780910e+01   1.5007488354e+01    0.1958081    0.1417435  14.04 0.0007863836    1.378    0.274
        20 -11.3182    142.7531    231.6431   4.3097854119e+01   7.5817631295e+00     0.454612    0.2846655  12.96  0.002167298    1.527    0.345
        21  -8.6201     72.1837    203.6484   5.6277340406e+01   2.1894200741e+01    0.2139186    0.1765023  82.05 0.0003682041    1.324    0.245
        22 -14.4951      8.3513    208.5043   7.3397689029e+01   2.7442576150e+01     2.191646     1.620442  78.23   0.01241006    1.269    0.212
        23  -9.1253     70.5100    232.0791   5.9447073569e+01   1.6041437916e+01    0.3271846    0.2306833  69.50  0.001281428    1.631    0.387
        24  -9.1096     71.1861    195.3289   5.5620851403e+01   2.3926255787e+01    0.3244717    0.2331024  -0.95  0.001629898    1.742    0.426
        25  -9.0337     67.6897    192.0653   5.6200296200e+01   2.5134608511e+01    0.2278806    0.1837947  60.90 0.0004532531    1.231    0.188
        26 -10.8894     99.6483    228.3150   5.2207569068e+01   1.3361575646e+01    0.3844331    0.1984269  37.04  0.001949235    1.671    0.402
        27  -8.0842     71.3851    178.7918   5.3557871815e+01   2.7862312779e+01    0.1981341    0.1289467 -53.97 0.0005820389    1.622    0.384
        28 -10.3216    101.0062    175.9954   4.4960635015e+01   2.4315501402e+01    0.2010482    0.1924886  30.01  0.001162651    1.006    0.006
        29  -8.5493    121.8482    172.7078   3.9055751488e+01   2.1864910653e+01    0.2606085    0.1880736  87.96  0.001213397    2.086    0.521
        30  -9.2717    110.6758    167.9198   4.1076361747e+01   2.4693460649e+01    0.2882836    0.2391736 -64.11 0.0006296521    1.285    0.222
        31 -10.8117     57.6147    167.4613   5.6170745746e+01   3.2520577529e+01    0.4414853    0.3654925 -23.28  0.001499106    1.454    0.312
        32 -10.5803     63.1611    163.0926   5.3895337469e+01   3.2928830692e+01    0.3219511    0.2919534   3.60 0.0005103059    1.233    0.189
        33  -9.4907     92.9754    160.2468   4.4594720625e+01   2.9301910131e+01    0.7380085    0.2317278 -60.34  0.000463765    3.415    0.707
        34 -12.1552     66.5812    132.0158   4.7792854134e+01   4.0656168449e+01     1.252511    0.7848397  64.03  0.004099818    1.941    0.485
        35 -11.7284     73.4497    155.1853   4.9551094300e+01   3.3538146697e+01     1.014466    0.6882793  72.58 0.0004617671    1.779    0.438
        36 -12.9038     57.1384    131.0159   5.0898202393e+01   4.2298612634e+01     2.470505     1.183836  60.52  0.008274824    3.027    0.670
        37 -12.1456     60.0180    150.6656   5.3103746911e+01   3.6616119435e+01    0.5554466    0.4478227  39.66 0.0006700884    1.196    0.164
        38 -13.0893     68.4610    144.9088   4.9447547077e+01   3.6952975221e+01     2.454701     1.291221  65.59  0.007559181    2.850    0.649
        39  -9.2916     50.6353    151.9307   5.6352202895e+01   3.7498266921e+01    0.2870244    0.1985955  42.65 0.0006421707    1.372    0.271
        40  -9.4976     53.9098    160.2305   5.6395698506e+01   3.4877925032e+01    0.5222391    0.2326802  63.30  0.001708074    3.355    0.702
        41 -10.3016     79.9446    150.3873   4.6757459561e+01   3.3799873234e+01    0.4302573    0.3054401 -45.59 0.0009082532    1.508    0.337
        42 -10.5629     83.5048    147.4655   4.5153161445e+01   3.3991932142e+01    0.5442045    0.3893216 -84.27  0.002014402    1.646    0.392
        43  -9.3418    133.7103    146.5397   3.1219983727e+01   2.5656685375e+01    0.7254259    0.1937673 -55.10  0.001887918    5.170    0.807
        44  -8.9880     31.2453    148.3566   6.2425072220e+01   4.0671594830e+01    0.4400175    0.1606918  52.73  0.001469607    3.064    0.674
        45 -10.0208     20.3647    148.1516   6.6126398139e+01   4.1761186765e+01    0.5267556    0.2828139  26.08  0.001463576    1.835    0.455
        46  -8.1565     40.0133    148.4525   5.9451045518e+01   3.9703108815e+01    0.2164178     0.142739  26.84 0.0004069608    1.526    0.345
        47  -9.5717     42.5355    139.7521   5.7438445283e+01   4.1792182101e+01    0.3444149    0.3012098  75.50  0.001135974    1.099    0.090
        48 -10.1063     96.6879    137.1675   3.9199273750e+01   3.4394357362e+01    0.5510477    0.3821142   2.04  0.002294121    2.194    0.544
        49  -8.0086    143.0244    137.4502   2.7130827802e+01   2.5950832792e+01    0.1965917    0.1424221  40.76 2.662717e-05    1.445    0.308
        50 -11.1081     84.0532    135.6239   4.2748078587e+01   3.6934433916e+01    0.3145643    0.2940387 -43.14 0.0003727304    1.126    0.112
        51  -9.5121     34.4035    133.3956   5.9495770166e+01   4.4463859506e+01    0.5547644    0.2440543  56.03  0.001973338    2.692    0.629
        52 -11.1447    243.4665    123.9974   7.6488644918e+00   1.2001100086e+01    0.6768112    0.1652292 -47.00   0.00236915    4.534    0.779
        53  -8.7855    108.4927    128.3593   3.3899342259e+01   3.4409917139e+01    0.2865251    0.2263364   1.23 0.0007026857    1.682    0.406
        54 -10.4861    237.9911    162.5495   1.5265091255e+01   7.0471012177e+00    0.2457561     0.158576  -4.75  0.001376643    1.909    0.476
        55  -9.0794     95.4792    123.9887   3.6733804428e+01   3.7875133695e+01    0.2887304    0.2209641  13.87  0.001322598    1.652    0.395
        56  -8.5347    133.5596    121.7712   2.5841429521e+01   3.1106772678e+01    0.2148393    0.1380378 -58.74 0.0009514309    1.658    0.397
        57  -8.8050    105.7759    118.0036   3.2284958861e+01   3.7390974664e+01    0.2421968     0.212406  43.66 0.0003243559    1.158    0.137
        58  -8.6601    109.5933    161.0369   4.0151782218e+01   2.6460523858e+01    0.4449155    0.2587964 -84.50  0.001554096    3.422    0.708
        59  -9.5347     53.1239    111.6672   4.8711244470e+01   4.8103512259e+01    0.3077314    0.2185387 -89.70  0.001386673    1.610    0.379
        60 -10.2983     54.5041    106.5262   4.7076256981e+01   4.9280345944e+01     0.580085     0.380316  55.64  0.002010779    1.685    0.406
        61  -7.6357     12.6521    111.3016   6.5259190869e+01   5.2598510403e+01    0.1562946     0.095989  55.86 0.0005184193    1.689    0.408
        62  -9.3170     44.3514    109.0397   5.1668921722e+01   5.0009089182e+01    0.2352201    0.2070874   5.45  0.001222654    1.266    0.210
        63  -9.7641    236.3951    107.0943   5.2550204157e+00   1.5489930871e+01    0.4204878    0.1091475 -48.52  0.001461682    4.350    0.770
        64  -8.9566    246.5042    107.5116   4.2330074353e+00   1.3965868623e+01    0.1164057   0.08636478 -42.70 0.0008102699    1.038    0.037
        65  -8.6024     64.1346    106.1688   4.3272991733e+01   4.7884258561e+01    0.2146031    0.1766436  64.80 0.0004557256    1.282    0.220
        66  -9.5346     37.2503    102.5097   5.3350911884e+01   5.2668321896e+01     0.387945    0.1961621  68.39  0.001315452    3.131    0.681
        67  -8.4616     68.6605     96.1460   3.9068127771e+01   4.9689485904e+01    0.3026745    0.1903505  59.25  0.001245434    1.916    0.478
        68  -8.4703    138.9785     95.4922   1.8061417332e+01   3.5500868339e+01    0.2184748    0.1846568 -51.04 -1.864742e-05    1.120    0.107
        69 -11.2454      2.7258     81.8447   6.6155015917e+01   6.1263885761e+01    0.9502809    0.2941869 -77.21  0.003301399    3.057    0.673
        70  -7.6988    182.9436     74.4870   4.8733147753e+00   2.9978161570e+01    0.1673683    0.1296848  70.22 0.0003066148    1.402    0.286
        71  -8.5929    105.4399    248.4801   5.3027994218e+01   9.0243291958e+00     0.120473   0.09872342  19.33 0.0008070007    1.035    0.034
        72 -11.3785    202.5249     56.1179   3.5816253548e+02   2.8817578868e+01    0.4252923    0.3919258 -46.14 0.0009677123    1.246    0.198
        73  -8.8136     79.6516    245.2482   5.8461523067e+01   1.2485405024e+01    0.1906435    0.1728167  56.20 0.0004758173    1.202    0.168
        74  -7.6785     94.1896     38.0398   1.0698158031e+01   5.6267969077e+01    0.1732455    0.1109288 -36.14 0.0002995588    1.669    0.401
        75  -8.3998     78.3625     35.8803   1.4527190232e+01   6.0321417248e+01    0.1823468    0.1762798 -46.48 0.0003496498    1.110    0.099
        76  -7.5009     71.2995     46.3205   2.1410862692e+01   6.0141522176e+01    0.1422057    0.1135848  11.16 0.0002587177    1.622    0.384
        77  -8.9783     71.6692    243.3819   6.0125437999e+01   1.3714109534e+01    0.2887966    0.1308455 -60.89  0.001173815    2.540    0.606
        78  -7.9217     94.5017     21.5278   3.9374370858e+00   5.8442883634e+01    0.1381842    0.1227989  83.27 5.848103e-05    1.031    0.030
        79  -9.5787     12.6089     17.2277   4.0142569372e+01   7.5674019790e+01    0.1766206    0.1063922 -38.31  0.000603596    1.650    0.394
        80  -8.1836    162.6155     12.8199   3.5106306798e+02   4.2845840826e+01    0.1804097    0.0952075 -45.02 0.0005422957    1.640    0.390
        81 -10.3257     94.0100    241.7237   5.4890017456e+01   1.1515928171e+01    0.4134215    0.1947102 -69.42  0.001985249    2.942    0.660
        82  -8.8039     48.2812    243.7879   6.5537882231e+01   1.6120136820e+01    0.2022672    0.1278883  38.88 0.0005606259    1.248    0.199
        83  -8.6004    213.3981    242.8057   3.1537132637e+01  -1.4937642337e+00    0.1416889    0.0772239 -26.09 0.0006461418    1.572    0.364
