#   1 NUMBER                 Running object number                                     
#   2 MAG_AUTO               Kron-like elliptical aperture magnitude                    [mag]
#   3 X_IMAGE                Object position along x                                    [pixel]
#   4 Y_IMAGE                Object position along y                                    [pixel]
#   5 X_WORLD                Barycenter position along world x axis                     [deg]
#   6 Y_WORLD                Barycenter position along world y axis                     [deg]
#   7 A_WORLD                Profile RMS along major axis (world units)                 [deg]
#   8 B_WORLD                Profile RMS along minor axis (world units)                 [deg]
#   9 THETA_WORLD            Position angle (CCW/world-x)                               [deg]
#  10 FWHM_WORLD             FWHM assuming a gaussian core                              [deg]
#  11 ELONGATION             A_IMAGE/B_IMAGE                                           
#  12 ELLIPTICITY            1 - B_IMAGE/A_IMAGE                                       
         1 -11.1279    232.5451     20.4992   3.3660136934e+01   2.5892918553e+01    0.5430725    0.2436064 -65.90  0.002125507    2.311    0.567
         2  -9.5562    248.7834      2.1940   2.8989615902e+01   2.4683334168e+01    0.2314581    0.1231697 -50.74 0.0008262906    1.509    0.337
         3 -11.8631    248.7467     36.2182   3.5465878650e+01   2.0675221889e+01     1.111507    0.2712597 -41.92  0.004597042    3.025    0.669
         4 -12.1673    238.0735     15.4653   3.2227147014e+01   2.5343376773e+01    0.9380016    0.5025344 -75.04  0.005306764    1.755    0.430
         5 -12.2396    247.6724     19.6457   3.2338401934e+01   2.2935734920e+01     1.069472     0.541533 -38.13  0.003742682    1.863    0.463
         6 -11.9087    235.1737      4.6933   3.0322063955e+01   2.7128458743e+01    0.9279297    0.4226212 -65.96  0.004940512    2.030    0.507
         7 -10.8749    242.3025      2.9640   2.9528367260e+01   2.5876607965e+01    0.5826425    0.2538099 -64.71  0.003070396    2.072    0.517
         8 -10.1758    249.8431      7.7655   2.9953784595e+01   2.3870804919e+01    0.3116924    0.1542377 -54.02  0.001038682    1.604    0.377
         9 -10.2641    195.3328     16.8404   3.6247418999e+01   3.4459469363e+01     0.283495    0.1615887 -65.72  0.001115451    1.757    0.431
        10 -10.3142    133.1407     19.5299   4.5497365543e+01   4.8921921394e+01    0.3048714    0.2417952  -8.62 0.0003994119    1.546    0.353
        11 -10.8371    136.5292     17.5787   4.4291501973e+01   4.8317537437e+01    0.3474363    0.2636696 -43.47  0.002040052    1.458    0.314
        12 -11.1580     87.8521     16.0760   5.4455329578e+01   5.9498085547e+01    0.3518438    0.3141574 -40.11  0.001715272    1.345    0.257
        13  -9.3422    156.9996     17.1790   4.0970430386e+01   4.3457865252e+01    0.2713023    0.1700604 -49.54  0.001450111    1.693    0.409
        14 -10.3360    121.7794     17.3836   4.6953588149e+01   5.1816268456e+01    0.2870825    0.2058589 -33.48  0.001642783    1.570    0.363
        15 -12.4804    113.1553     12.4829   4.7037316751e+01   5.4285874508e+01    0.3328872     0.265677 -14.84 0.0002673943    1.454    0.312
        16 -10.2055    112.3019      4.6164   4.4478189531e+01   5.5175974395e+01    0.5163375    0.2674201  68.42  0.002116218    1.784    0.439
        17  -9.4857     42.1311     11.1743   6.8417822588e+01   6.8379866329e+01    0.2028011    0.1466946  10.98 0.0004453035    1.206    0.171
        18 -10.8433    141.0012     12.6408   4.2048808346e+01   4.7741105068e+01    0.3221065    0.2694109  -8.48 0.0004778982    1.478    0.323
        19 -11.0667    101.3220     13.6585   5.0079318355e+01   5.6837862047e+01    0.2445491    0.2153518  31.15 0.0002748707    1.107    0.097
        20  -9.6773    100.2804      9.7001   4.8859306945e+01   5.7438052830e+01    0.1834306     0.173542  16.90 0.0001960338    1.153    0.132
        21 -10.0736     66.9754     12.8208   5.9528389809e+01   6.3976579480e+01    0.2896514    0.1651382 -11.56  0.001389586    2.058    0.514
        22  -9.3729     60.8259     12.7413   6.1655582270e+01   6.5109123106e+01    0.3084169    0.1858387  16.42  0.001414105    1.839    0.456
        23 -11.1403    204.7566     11.9435   3.4214767699e+01   3.2860474450e+01    0.4032372    0.2349029 -77.21  0.001202813    1.643    0.391
        24 -10.9155    208.9753      9.7518   3.3357556552e+01   3.2158025216e+01    0.3238217    0.2023689 -69.82 0.0002516662    1.436    0.304
        25 -10.2996    128.7369     11.5874   4.3763715779e+01   5.0748324592e+01    0.2514705      0.23802   5.13 0.0009874058    1.228    0.186
        26  -9.6743     91.8188     12.1973   5.1878851651e+01   5.9044453604e+01    0.2557388    0.1851024  30.14 0.0008431826    1.334    0.250
        27 -10.9707     25.5897      9.7184   7.5593394199e+01   7.0839675882e+01    0.4972004    0.3241141  51.80  0.002776869    2.855    0.650
        28 -10.1231    182.9051      8.8861   3.5629308518e+01   3.8168439843e+01    0.2126805    0.1995109 -56.57 0.0004136974    1.241    0.194
        29  -9.3053    161.9828     10.2870   3.8404046238e+01   4.2960689937e+01    0.1929695    0.1466745 -84.99 0.0005409475    1.229    0.186
        30  -9.8713     80.3463     11.9164   5.4924240630e+01   6.1461346812e+01    0.2267084    0.1529237  43.23 0.0003210257    1.254    0.203
        31 -10.7378    223.4913      6.0935   3.1425241314e+01   2.9407395432e+01    0.3990012    0.2525131 -52.08  0.002086345    1.381    0.276
        32 -10.8865    218.2924      3.4845   3.1274337972e+01   3.0787813826e+01    0.3707579    0.2116933 -63.89   0.00121959    1.531    0.347
        33  -9.3537    139.0179      6.3191   4.0450818783e+01   4.8795181128e+01     0.190525    0.1697669  14.16 0.0005161674    1.359    0.264
        34 -11.3358     65.7127      5.9005   5.6905694314e+01   6.4899938404e+01    0.4657184    0.2447481  39.33   0.00148944    1.616    0.381
        35 -10.3834     32.3510      6.2880   7.0527020054e+01   7.0370495208e+01    0.2508868    0.1662376  13.45 0.0007795839    1.334    0.250
        36  -8.8977     34.0122      1.7180   6.7417196501e+01   7.0641865462e+01    0.1573253    0.1162622  22.49 0.0001871801    1.121    0.108
        37 -11.0401    185.9187      3.4344   3.4008926606e+01   3.8006081559e+01    0.3794318    0.2590245  83.86 0.0009234157    1.237    0.192
        38 -10.0079     94.5932      5.3586   4.8556096357e+01   5.9062744008e+01    0.4002423    0.2038154  66.98  0.001960215    2.013    0.503
        39  -9.5435     73.4661      4.9706   5.4050888695e+01   6.3487241654e+01    0.3061923    0.1764056 -48.04  0.001559747    2.670    0.625
        40 -10.4289      6.2413      3.9016   8.3531261822e+01   7.3689715922e+01    0.2920424    0.1437053 -36.77  0.001542478    1.800    0.444
        41  -9.4761    144.2203      5.2201   3.9362667426e+01   4.7657381401e+01    0.3122092    0.1509363 -82.96  0.001232213    3.081    0.675
        42 -10.9787    202.7011      3.1807   3.2443372070e+01   3.4227457185e+01    0.3993411    0.1928213  83.32  0.001093589    1.878    0.468
        43  -9.6514     40.0971     15.2001   7.1218080181e+01   6.8191626791e+01    0.2197775    0.1500206 -15.45 0.0004879528    1.383    0.277
        44  -9.0673     78.0451      2.9085   5.1844225892e+01   6.2747689955e+01    0.1813096    0.1499956  37.11 0.0004243474    1.011    0.011
        45  -9.7439    149.1222      2.6279   3.7943440365e+01   4.6719205139e+01      0.28437    0.1812759  37.81  0.001523821    1.873    0.466
        46 -10.1704     13.0225     10.0769   8.2571033699e+01   7.2191740827e+01     0.234288     0.185807 -52.50  0.001622244    1.958    0.489
        47 -10.4502    249.6482     97.9352   4.7836856961e+01   1.1470766701e+01    0.2288194    0.1889096  81.93  0.001443573    1.375    0.273
        48 -11.3964    246.5335    227.4090   7.3219389225e+01  -8.6248095872e+00    0.6888312     0.350091 -16.97  0.003554404    2.236    0.553
        49 -11.4606    248.1254    215.9114   7.0976812538e+01  -7.2169732603e+00    0.6061698     0.254651 -34.64  0.003044755    2.138    0.532
        50 -10.7306    243.0072    245.4958   7.6800540510e+01  -1.0595433114e+01    0.3540732    0.1976041 -16.47  0.001766714    1.761    0.432
        51 -11.4762    248.0166    237.4746   7.4644091584e+01  -1.0155140196e+01    0.8047334    0.2727599 -27.15   0.00334811    3.604    0.723
        52  -9.8888    248.8719    245.4650   7.5795923843e+01  -1.1282617452e+01    0.2685406    0.1479797 -34.04  0.001459271    1.762    0.432
        53  -9.7378    249.4975    250.0135   7.6414885516e+01  -1.1921597772e+01    0.2211762    0.1451923   3.27 0.0009431491    1.277    0.217
        54 -10.6657    233.5439    244.6886   7.8319427041e+01  -9.3360429692e+00    0.4332397    0.2065112 -22.08  0.002234719    2.334    0.572
        55  -8.3324    110.6890    250.0046   1.0329813538e+02   7.5216969006e+00    0.1829838   0.09834768  89.47 0.0007032427    4.152    0.759
        56  -9.9420      3.5360    250.2168   1.2424729613e+02   2.0928329446e+01     0.202487    0.1238919  44.75   0.00139237    1.421    0.296
        57  -9.6537     72.4529     95.2225   8.6617270074e+01   4.8976445854e+01    0.2832952    0.2230471 -10.14 0.0009503908    1.469    0.319
        58 -10.2903    242.2873     92.0425   4.7541663676e+01   1.3790834943e+01    0.1939486    0.1512854 -48.61  0.001165631    1.089    0.082
        59  -9.4023     19.4221     91.7798   1.0501356211e+02   5.5943973825e+01    0.2175205    0.1811318  11.85 0.0008054685    1.362    0.266
        60  -8.6109    210.3345     91.6458   5.1932532754e+01   2.0334250272e+01    0.1511345    0.1005837 -69.48  0.000704438    1.792    0.442
        61  -8.0978    127.6578     90.3581   6.8465591107e+01   3.9343007640e+01    0.1606941    0.1210967 -85.01 0.0007036293    1.826    0.452
        62  -8.8140     99.0563     90.4956   7.6644260304e+01   4.5306953424e+01     0.225778    0.1456782  43.17  0.001018903    1.558    0.358
        63  -9.8969     38.6191     89.7342   9.7390196924e+01   5.4681039649e+01    0.3106815    0.2132026 -23.94   0.00164378    1.595    0.373
        64  -9.4472     28.0445     89.4003   1.0129238511e+02   5.5784478780e+01    0.2388193    0.1750485 -80.72 0.0008621065    1.573    0.364
        65  -9.3516     53.9037     88.8598   9.1503451095e+01   5.3078755057e+01    0.2232407     0.177799 -26.29 0.0009396788    1.259    0.206
        66 -10.8347    248.7438     87.2217   4.5749590779e+01   1.3338316430e+01    0.3472753    0.1972902 -50.78  0.001837491    1.534    0.348
        67 -10.0468    188.9977     87.9983   5.4571484493e+01   2.5682812983e+01    0.2099749    0.1949645 -72.00            0    1.012    0.012
        68  -9.7249    229.8121     83.9691   4.7426682685e+01   1.7545142703e+01    0.2637855     0.173712  56.76  0.001028952    1.677    0.404
        69 -10.9507    195.6283     82.1485   5.2016213396e+01   2.5192960946e+01    0.2820035    0.2240834  64.65 0.0001522361    1.282    0.220
        70  -8.3790    135.4790     83.4571   6.4512526022e+01   3.8923335656e+01    0.1504765    0.1438973  83.29 0.0004791364    1.059    0.056
        71  -9.9535     87.8366     82.0064   7.7708534319e+01   4.9201428851e+01    0.3779711    0.2532717  54.92  0.001400023    1.784    0.440
        72  -9.6247     63.9603     82.5919   8.6124364436e+01   5.3057268266e+01    0.2755997    0.2275334 -68.95 0.0007529253    1.435    0.303
        73  -8.6663     69.3580     82.2969   8.4102482309e+01   5.2296548071e+01    0.1476216    0.1060758 -10.93 0.0007033912    1.703    0.413
        74 -11.5235    243.1697     71.4676   4.3141101644e+01   1.6831524389e+01    0.3808071    0.2512537 -34.36  0.002034578    1.541    0.351
        75 -10.3335    248.5959     80.1558   4.4318215713e+01   1.4463692215e+01     0.446604    0.2318375 -84.39  0.001766265    3.767    0.735
        76  -8.7511    174.8202     78.8744   5.4810056633e+01   3.0548912270e+01    0.2004133    0.1636085 -75.27 0.0003949238    1.291    0.225
        77  -8.6416    199.5377     76.7983   5.0099975478e+01   2.5205803645e+01    0.1873927    0.1211575 -52.39 0.0002811155    1.487    0.327
        78  -9.0733    189.2709     82.1045   5.3064692143e+01   2.6644637862e+01    0.2415013     0.184087  51.38 0.0005863729    1.383    0.277
        79  -9.1724    148.9040     76.8670   5.9507917941e+01   3.7011934328e+01    0.3056434    0.2018424 -78.31 0.0008950014    2.292    0.564
        80  -9.1445     32.4919     76.6867   9.6560604273e+01   5.8220596681e+01    0.2053855    0.1181966  21.04 0.0005732197    1.898    0.473
        81  -9.8525    234.5692     75.0922   4.4908237220e+01   1.7985446513e+01    0.2413478    0.1677523 -81.56 0.0009138723    1.593    0.372
        82 -10.0312     21.5169     75.1013   1.0060250646e+02   5.9545049860e+01    0.3754837    0.1393026  33.16  0.001632725    2.974    0.664
        83 -10.8832    128.8727     71.0540   6.2510578985e+01   4.2702003180e+01    0.3031946      0.27151  12.82 0.0003360627    1.240    0.193
        84  -9.2636     80.5271     71.8299   7.7013620518e+01   5.2560523771e+01    0.2293712    0.1602278  41.61 0.0002591528    1.453    0.312
        85 -10.0177     28.8502     71.4709   9.6686514058e+01   5.9695245414e+01    0.2371176    0.1985012 -64.66 0.0003000436    1.300    0.231
        86 -10.0908    113.7080     70.3445   6.6278871137e+01   4.6221197789e+01    0.3641275    0.3366795 -82.57  0.002022911    1.215    0.177
        87  -8.7911     70.9611     70.9502   8.0089346850e+01   5.4369034050e+01    0.1669849    0.1534662 -11.53 0.0004655186    1.007    0.007
        88  -8.7784     59.6743     70.8473   8.4226836710e+01   5.6138666319e+01    0.2835281    0.1072435 -42.62  0.001091657    2.543    0.607
        89  -9.3352     37.0811     71.0466   9.3196741014e+01   5.8960134478e+01     0.190982    0.1706755 -30.35 0.0003498132    1.042    0.041
        90  -8.6394    250.3303     70.3199   4.2123759807e+01   1.5622259430e+01    0.1127448   0.09886139   5.34 0.0007048337    1.691    0.409
        91  -9.4383    138.2693     69.4912   5.9786207734e+01   4.0796949164e+01    0.3471404     0.219769  43.54  0.001187848    1.607    0.378
        92  -8.6532    204.2290     68.4492   4.7405561941e+01   2.5493572271e+01     0.181641    0.1271804  81.01 0.0003334742    1.520    0.342
        93 -10.3542     94.9547     67.1060   7.0769303616e+01   5.0726583015e+01    0.3330312    0.1862963 -29.17  0.001414104    2.105    0.525
        94 -10.7415    235.4673     66.6707   4.3006070394e+01   1.9086560584e+01    0.3143552     0.204142  77.02  0.001474476    1.664    0.399
        95  -9.0819    173.2008     66.8634   5.1950284723e+01   3.2934527996e+01    0.2135555    0.1822596 -71.92 0.0004115691    1.161    0.138
        96  -9.7862    148.7390     66.8383   5.6691343569e+01   3.8771725328e+01    0.2615039    0.2166763  78.66 0.0004114835    1.258    0.205
        97 -10.0749    249.0559     64.8402   4.1147958139e+01   1.6673217169e+01    0.3594192    0.1578833 -59.07  0.001590216    2.529    0.605
        98  -9.2196    227.6427     65.8784   4.3751761460e+01   2.0815208937e+01    0.2570601    0.1212991 -29.89  0.001092352    2.583    0.613
        99  -9.7369     15.3081     66.0333   1.0099242034e+02   6.1969451574e+01    0.2096879    0.1590919 -16.52 0.0003671427    1.298    0.230
       100 -11.1379     39.7030     60.6320   8.9023792107e+01   6.0796957172e+01    0.4803272     0.364556 -78.92  0.001718232    2.034    0.508
       101 -10.5558     34.9518     59.0561   9.0553035943e+01   6.1640540423e+01    0.4271267    0.2247213 -35.13  0.002124594    1.817    0.450
       102  -8.4019     28.5348     65.5761   9.5220960717e+01   6.0967448520e+01     0.124453    0.1104434 -32.84 9.278388e-05    1.068    0.064
       103  -8.6972    208.7528     64.5934   4.5868815951e+01   2.5081885988e+01    0.1752171    0.1232998  81.62 0.0004607125    1.481    0.325
       104  -9.2519    144.1557     63.9697   5.6844031663e+01   4.0332301874e+01    0.2260574    0.1908554 -74.01 0.0005830867    1.293    0.227
       105 -10.7692    101.1567     63.2249   6.7609964125e+01   5.0155495586e+01     0.458409    0.3525177 -70.99  0.001448749    1.805    0.446
       106  -9.1889     49.4700     64.3129   8.6165964692e+01   5.8861174194e+01    0.2603463    0.1146036 -44.76  0.001140794    2.084    0.520
       107 -10.4466    135.2717     60.2461   5.7714866775e+01   4.3033008181e+01    0.5879655    0.2710595 -52.64  0.002144432    2.914    0.657
       108  -9.3353     82.4651     61.8278   7.3084696184e+01   5.4081972157e+01    0.3640915    0.2113113  26.12  0.001608425    2.044    0.511
       109  -9.6186    235.4895     61.0760   4.1817129632e+01   1.9909911372e+01    0.1897686    0.1110962 -41.94  0.001007827    1.521    0.343
       110  -9.7732    250.0401     59.5966   3.9990834486e+01   1.7241382629e+01    0.2264893    0.1367973 -51.79   0.00110655    1.373    0.272
       111 -11.2994    243.8392     58.7036   4.0434938568e+01   1.8578524228e+01    0.3499352    0.2886366 -74.78  0.001504161    1.096    0.088
       112 -12.4341    244.0718     50.8977   3.8817964293e+01   1.9633417009e+01    0.9191909    0.3676698 -34.40  0.004139368    2.549    0.608
       113 -10.9033    239.6561     30.9128   3.5176153237e+01   2.3164099769e+01    0.3178003     0.213602  81.23            0    1.418    0.295
       114 -11.6192    239.1877     36.9433   3.6435997213e+01   2.2488871007e+01    0.8169586    0.4141717 -75.39  0.004035006    2.255    0.557
       115  -9.4802     20.8313    248.9967   1.2106063699e+02   1.9395071676e+01    0.2020284   0.09117849  68.33  0.001090272    2.023    0.506
       116 -10.2425     12.6942    248.7725   1.2253997299e+02   2.0290601267e+01    0.2373122    0.1117762  48.75  0.001422545    1.634    0.388
       117  -9.6361     34.8146    246.6276   1.1828361906e+02   1.8305352988e+01    0.1762774   0.07911274  45.98 0.0009557642    1.753    0.430
       118  -9.3973    212.6006    244.8028   8.2133938439e+01  -6.6348012246e+00    0.2299442    0.0814912  31.96  0.001020949    2.574    0.612
       119 -10.5553      3.0125    242.5411   1.2400062416e+02   2.2463991016e+01    0.3183368    0.1281753  60.83  0.001747106    2.011    0.503
       120 -11.2874    226.3810    241.4049   7.9068925432e+01  -7.9834130183e+00    0.3624431    0.2240491 -26.47  0.002224565    1.541    0.351
       121 -10.3081    171.8520    233.9201   8.8398208210e+01   9.6506768227e-01    0.2936659    0.2771764 -64.05  0.001812148    1.366    0.268
       122  -9.3812    174.4352     58.8312   4.9612689042e+01   3.3898852038e+01     0.302881    0.2261026  18.33   0.00131363    2.011    0.503
       123 -10.3854     25.0579     58.9656   9.4835867437e+01   6.2641590777e+01    0.2015898    0.1628863 -30.01 0.0008130645    1.044    0.042
       124  -9.6583    235.4344     57.2029   4.1004692699e+01   2.0482668662e+01    0.1888136   0.09654905 -49.70 0.0009456414    1.692    0.409
       125 -10.1922    192.2670     56.0836   4.6130396378e+01   3.0110518615e+01    0.3601393    0.2266354 -70.31  0.001725274    1.816    0.449
       126  -9.0328    120.7539     56.6930   6.0098825677e+01   4.6960540593e+01    0.2806042    0.1843679  40.92  0.001216972    1.519    0.342
       127  -9.2547    124.8558     54.1405   5.8273282919e+01   4.6418864353e+01    0.1953747    0.1616223  25.03 0.0004340744    1.332    0.249
       128  -9.5211     62.9902     55.5778   7.7941036554e+01   5.8551780251e+01    0.4775822    0.3228244  77.08  0.001852711    4.067    0.754
       129  -9.2160     19.6214     57.1814   9.6737425492e+01   6.3469311628e+01    0.1830395   0.09001252 -45.52 0.0007131394    1.673    0.402
       130 -10.0096    112.8458     55.1390   6.1650378404e+01   4.8984162398e+01    0.3232705     0.282097  49.85  0.001132162    1.092    0.084
       131  -9.7383    208.0826     55.0599   4.3734466528e+01   2.6653575333e+01    0.2373927    0.1818673  65.19 0.0008686286    1.326    0.246
       132  -8.8123    142.0263     54.4924   5.4498956120e+01   4.2328630256e+01    0.2288174    0.1318998  55.07   0.00103424    1.615    0.381
       133  -8.2029    173.2949     53.6186   4.8420336751e+01   3.4950558225e+01    0.2401753   0.09442615 -45.08  0.000832205    2.556    0.609
       134  -8.3501    172.4336     50.4164   4.7708301046e+01   3.5621117444e+01    0.1412938     0.122125 -82.86 0.0001107301    1.098    0.090
       135  -9.5050     10.1825     52.5878   9.9755152387e+01   6.5091063420e+01    0.1986146    0.1873473  73.53  0.001420696    1.437    0.304
       136  -9.3697    204.8307     51.2408   4.3255844556e+01   2.7933764016e+01    0.2697915    0.1541581 -49.07 0.0009112287    1.630    0.386
       137  -9.8544    120.1561     50.5545   5.8274098297e+01   4.8042685788e+01    0.2282074    0.1994638 -22.91   0.00032305    1.238    0.192
       138 -10.0510     85.0246     51.0055   6.8489961205e+01   5.5445241738e+01    0.3321983    0.1907463  45.62 0.0005947033    1.688    0.408
       139  -9.3711     79.9806     49.9859   6.9810732579e+01   5.6568499053e+01    0.2846362      0.23119 -10.80  0.001624968    1.259    0.206
       140  -9.8150    192.7233     48.9520   4.4306371737e+01   3.1033502322e+01    0.2737772    0.1968413 -87.22 0.0008616665    1.406    0.289
       141  -9.4120     73.9070     48.9974   7.1564479343e+01   5.7839050232e+01    0.3529639     0.238855   7.67  0.001719269    1.828    0.453
       142  -9.2171    212.6475     47.9011   4.1525596482e+01   2.6655699842e+01     0.255421    0.1976634  26.53  0.001404817    2.011    0.503
       143  -8.7962    207.3090     48.6343   4.2336026794e+01   2.7743472009e+01    0.1452372   0.08711333 -66.03 1.417041e-05    1.753    0.430
       144  -9.7110     41.1239     46.4740   8.3648610384e+01   6.3282723878e+01    0.2934071    0.2262329  59.30  0.001663364    2.087    0.521
       145  -9.2961     20.0201     47.1741   9.3517931703e+01   6.5393383876e+01    0.1801246     0.148306 -20.61   0.00048068    1.043    0.041
       146  -9.0215    172.8154     45.7607   4.6407236105e+01   3.6184817755e+01    0.2460445    0.1551278  61.02 0.0008361373    1.485    0.327
       147  -8.7796    164.1367     46.1574   4.7923148520e+01   3.8216157528e+01    0.1919805    0.1508613 -72.56  0.000451726    1.321    0.243
       148 -10.8290     33.8241     44.0101   8.6019516673e+01   6.4593703541e+01    0.5248036    0.2658901  35.19  0.002448165    2.133    0.531
       149  -9.3241     29.6702     44.6797   8.8164200236e+01   6.4929048510e+01     0.240287    0.1404206 -40.07 0.0008916594    1.506    0.336
       150 -10.3722    233.7556     43.9244   3.8385831926e+01   2.2678602820e+01    0.3710064    0.1680046 -28.90  0.001639221    2.830    0.647
       151  -9.3987    135.3406     44.5282   5.2883021845e+01   4.5364640678e+01     0.332518    0.1839401 -54.04  0.001244668    2.279    0.561
       152  -9.6796    238.5223     44.0337   3.7947310367e+01   2.1686463400e+01    0.1896685    0.1497103 -89.76  0.001232445    1.194    0.162
       153  -8.7071    189.2393     44.2118   4.3609426236e+01   3.2503267849e+01    0.2137055     0.102261  77.70 0.0008743781    2.436    0.589
       154  -8.4195    156.0167     44.2280   4.8785597603e+01   4.0441644731e+01    0.1830403    0.1071915  62.15 0.0003271305    1.577    0.366
       155  -9.0236    139.1881     43.6562   5.1816987478e+01   4.4568235061e+01    0.1982742    0.1159434  52.04 0.0005190029    1.578    0.366
       156 -10.7971     96.6538     42.4755   6.1842025433e+01   5.4397398087e+01    0.4484798    0.2799214   2.59  0.001963714    2.499    0.600
       157  -9.1694    223.7107     40.5763   3.8682018142e+01   2.5241686266e+01    0.2531528    0.1433518 -43.69 0.0009954901    1.592    0.372
       158  -8.5842    185.4273     41.4762   4.3445482401e+01   3.3767743895e+01    0.1338179     0.119366 -85.55 0.0001226664    1.023    0.023
       159  -9.0837    128.2279     40.5988   5.3180248090e+01   4.7580398587e+01    0.3395416    0.1898843  34.46 0.0007303007    2.237    0.553
       160  -8.1456    106.6634     40.2638   5.8278210178e+01   5.2550569193e+01    0.1315052    0.1066335  89.04  0.000348046    1.586    0.369
       161  -8.9808     90.6410     40.6769   6.2987435594e+01   5.5900589425e+01    0.4034247    0.1102411  48.01   0.00137162    3.291    0.696
       162  -9.3506     19.8717     40.2560   9.1274757288e+01   6.6687339447e+01     0.195269    0.1363661  19.09 0.0007692361    1.471    0.320
       163 -10.0070      1.5448     39.5277   1.0018828512e+02   6.8159567049e+01    0.2839708   0.07213791 -53.15 0.0009194853    2.747    0.636
       164  -9.0337    119.7426     38.9215   5.4560370250e+01   4.9778936935e+01    0.1812234    0.1691814  62.12 0.0004069748    1.058    0.055
       165  -8.4959    114.4954     39.4923   5.6012390011e+01   5.0902827365e+01    0.1910552    0.1298045 -43.09 0.0009736078    1.635    0.388
       166  -9.7769    113.3360     35.9608   5.5098226968e+01   5.1630622608e+01     0.400075    0.2082514  49.31  0.001689443    1.716    0.417
       167  -9.9533     61.3024     38.1248   7.2133972625e+01   6.1719989866e+01    0.2646362    0.2253258 -45.34  0.001013102    1.436    0.304
       168  -9.9471     52.0067     38.4908   7.5997798237e+01   6.3125589478e+01    0.2332949    0.2260177  27.62 0.0008618228    1.336    0.251
       169  -8.9527    232.4569     37.4332   3.7154303943e+01   2.3808831283e+01    0.1240863     0.101216 -70.40 9.315936e-05    1.012    0.012
       170  -9.9421    212.0107     37.4961   3.9238008945e+01   2.8198575755e+01    0.3159423    0.1157034  67.44    0.0013326    2.616    0.618
       171  -8.8916    192.7519     36.7815   4.1319573745e+01   3.2669790973e+01    0.1822261    0.1343117 -72.74 0.0006157496    1.292    0.226
       172  -9.1467     55.5877     44.2590   7.6747452607e+01   6.1651888932e+01     0.178963     0.111904 -27.37 0.0005280485    1.609    0.378
       173  -8.9784    185.4555     36.5041   4.2189733397e+01   3.4412526223e+01    0.1328521    0.1177121 -88.89  0.000128997    1.032    0.031
       174 -10.1577    124.5119     34.9482   5.2172060342e+01   4.9185377155e+01    0.3815628    0.2249427 -41.59  0.001125608    1.863    0.463
       175  -8.9766    153.6002     33.7727   4.6210322667e+01   4.2387715289e+01    0.1910024    0.1177362 -46.86 0.0007069331    1.719    0.418
       176  -9.6062      4.8533     33.2633   9.6488889597e+01   6.9114711755e+01    0.2048121    0.1786165  88.26  0.001446424    1.800    0.445
       177  -9.7165    134.2171     32.2959   4.9302536376e+01   4.7223778584e+01    0.2185804    0.2087937 -70.32 0.0003797372    1.122    0.109
       178  -9.0487     39.8222     32.8702   7.9030288388e+01   6.5724922435e+01    0.1971211    0.1454345  -7.33   0.00122182    1.251    0.200
       179  -8.6457     33.4436     33.5088   8.2226536447e+01   6.6424964270e+01    0.1235691   0.09963977 -10.33 0.0001788286    1.027    0.027
       180 -10.0690    213.0111     31.4448   3.7773796197e+01   2.8750501876e+01    0.3779866    0.2127439  57.94  0.001466762    1.875    0.467
       181 -10.4247     19.5691     31.5171   8.8231183639e+01   6.8242362084e+01    0.2868704    0.2011747  35.25  0.001479132    1.758    0.431
       182 -11.1384    224.5765     27.5337   3.5803281787e+01   2.6723242593e+01    0.4216466    0.2661251 -48.75 0.0005116155    1.404    0.288
       183 -10.0795    223.9878     22.0291   3.4693245163e+01   2.7512725505e+01    0.2682589    0.1519387  81.45  0.001497729    1.652    0.395
       184 -10.0317     67.7542     28.9940   6.6070197647e+01   6.1909125320e+01    0.3824461    0.2029171 -35.58  0.001338286    1.991    0.498
       185  -8.9217     24.1896     30.8296   8.5640672540e+01   6.7897780078e+01    0.1695556    0.1125544 -20.26 0.0003918063    1.350    0.259
       186  -9.2001     12.8911     30.7971   9.1397918153e+01   6.8955945413e+01    0.1622788    0.1461813   3.08 0.0007030353    1.296    0.229
       187 -10.2663      8.7153     26.6545   9.2061212098e+01   6.9994920735e+01    0.2775328    0.2435431  25.14  0.001639831    1.487    0.328
       188  -8.8003    166.9890     28.6825   4.2701868886e+01   3.9777647312e+01    0.1899155      0.15424  74.38 0.0005714185    1.096    0.087
       189  -9.1733     85.0089     29.1160   6.0372780240e+01   5.8594577543e+01    0.2418881    0.1674438  51.05 0.0008008772    1.380    0.276
       190  -8.7046    158.0022     28.5139   4.4001661254e+01   4.1960291727e+01    0.1972606    0.0891462  46.15 0.0008095071    2.480    0.597
       191  -9.8939    136.8750     25.7083   4.6744367134e+01   4.7362352228e+01    0.2741399    0.1885503 -46.14 0.0005009368    1.600    0.375
       192  -8.3590     30.6459     27.2771   8.1020429660e+01   6.7744562206e+01    0.1043808    0.0939072  46.67 0.0007008337    1.649    0.394
       193  -9.6721    229.2455    227.1593   7.6199997714e+01  -6.3517173162e+00    0.2594664   0.09445877 -40.84  0.001162025    2.787    0.641
       194  -9.3685    218.9187     25.9398   3.5985027015e+01   2.8134914102e+01     0.185469    0.1535091 -76.29 0.0004339608    1.028    0.028
       195  -9.5722    192.8434     25.2534   3.8516015890e+01   3.4072443255e+01    0.2474737    0.1802372 -31.99 0.0007467274    1.561    0.359
       196  -8.9389    174.5417     25.2224   4.0743318528e+01   3.8376824029e+01    0.2467033    0.1151379 -38.35  0.001146072    2.153    0.536
       197  -8.8260    123.7695     26.0009   4.9399057190e+01   5.0429079838e+01    0.1710203    0.1696586  59.11 0.0003496536    1.115    0.103
       198  -9.4895     37.9574     25.8975   7.6978175544e+01   6.7029924574e+01    0.1831408    0.1490532  -1.24 0.0004350076    1.002    0.002
       199  -9.5114    142.2970     23.8124   4.5201305038e+01   4.6276707697e+01    0.3472971    0.1597158 -32.42  0.001570981    2.349    0.574
       200  -9.0220     51.3564     23.6920   7.0167533909e+01   6.5384928262e+01    0.1700446    0.1553525 -78.56  0.001107018    1.781    0.439
       201  -9.0073      1.3547     23.7959   9.5044526034e+01   7.0999846029e+01    0.1562123   0.07775556 -41.34 0.0002518589    1.581    0.368
       202 -10.1901    157.2194     22.9571   4.2558485357e+01   4.2783847879e+01    0.2700824    0.1732917  73.12 0.0003618678    1.415    0.293
       203  -9.5555    161.8664     21.7956   4.1558607943e+01   4.1795627994e+01    0.2654491     0.174071  65.52 0.0007620358    1.342    0.255
       204  -9.7612    199.0295     21.2314   3.6891986390e+01   3.3120078135e+01    0.2109102    0.1779197 -45.86 0.0006504634    1.273    0.215
       205 -11.2289    238.5929    218.5583   7.3070981799e+01  -6.3520086449e+00    0.4681416    0.2209454 -33.12  0.002430122    1.955    0.489
       206  -9.6455     78.2100     21.9493   5.9664242573e+01   6.0814565387e+01    0.2116369    0.1658015  41.95 0.0004170259    1.146    0.127
       207 -10.0075     16.1136     18.1689   8.4560680086e+01   7.0709024386e+01    0.1897642    0.1555015 -44.73 0.0009010724    1.560    0.359
       208  -9.4170    103.8344     20.8935   5.2119689084e+01   5.5544132579e+01    0.2192921    0.1835734 -36.13  0.001344879    1.361    0.265
       209  -9.9659     70.8564     19.8788   6.1221157466e+01   6.2470324438e+01    0.2317144    0.2068828 -20.21 0.0004933529    1.252    0.201
       210  -8.9145    210.4878     20.5081   3.5590007055e+01   3.0627723549e+01    0.1249534    0.1033983 -79.73 0.0008103947    1.024    0.024
       211  -9.5512    128.0055     18.7024   4.6181928423e+01   5.0222361799e+01    0.2556511    0.2286591  12.94   0.00118281    1.283    0.220
       212  -9.5181    212.3384    219.5665   7.8019279247e+01  -2.8310373077e+00    0.2192518    0.1130075  37.72  0.001002898    1.907    0.476
       213  -8.5129     56.2088    216.9271   1.1149631611e+02   2.1887141335e+01    0.1541709   0.09622476 -76.94            0    1.589    0.371
       214  -9.8900    233.4376    211.5585   7.2748549207e+01  -4.6106308822e+00    0.3094599    0.1746259 -17.27  0.001584909    1.982    0.495
       215  -9.3296     62.7458     18.6441   6.3546708249e+01   6.4101201815e+01    0.2520622    0.1567345  24.34   0.00139518    1.591    0.372
       216  -9.7538     51.2152     18.5741   6.7976125124e+01   6.6066760470e+01    0.3200831    0.1347969  45.50  0.001101695    2.383    0.580
       217  -9.5494    169.8213     17.8661   3.9428167776e+01   4.0319935969e+01    0.3596817    0.1345523  56.71  0.001530904    2.392    0.582
       218 -10.6011    240.9401    238.7263   7.6061622447e+01  -9.4609957916e+00    0.4290906    0.2409698  -2.82   0.00236954    2.029    0.507
       219  -8.0658    124.2664    205.7695   9.4412742292e+01   1.4105415421e+01    0.1319543     0.100377  60.73 0.0006715496    1.414    0.293
       220 -10.7492     23.5929     17.9189   8.0483466068e+01   6.9957555865e+01    0.4317333    0.1563755  31.22  0.001727735    2.672    0.626
       221  -9.8775    250.1457    200.7628   6.7951885929e+01  -5.2687448075e+00    0.3547849    0.1483571 -35.74   0.00172234    2.103    0.525
       222 -10.5159    243.0398    199.5403   6.8920951208e+01  -4.1129263107e+00    0.4518946    0.1724614 -29.90  0.001889657    2.812    0.644
       223 -10.5617    246.8843    192.1024   6.6911045168e+01  -3.5040079730e+00    0.3889254    0.1393905 -47.32  0.001484059    3.652    0.726
       224  -8.9780    220.0466    193.4995   7.1874364971e+01   2.5079432310e-01    0.1845744    0.1236936  34.33  0.000662858    1.522    0.343
       225  -8.2124    133.2409    199.2714   9.1278720872e+01   1.3953066848e+01    0.1303545    0.1087714 -10.09 -0.000275831    1.434    0.303
       226  -9.1946    210.4901    187.5174   7.2532041334e+01   2.8116160889e+00    0.1359269    0.1191793  -8.08 0.0002139244    1.025    0.024
       227  -9.3361    249.5076    184.5284   6.5071817189e+01  -2.6949245981e+00    0.2286323    0.1032228 -46.46  0.001041922    2.431    0.589
       228  -9.9828    242.4067    182.2167   6.5806804416e+01  -1.2969853779e+00    0.1785014    0.1075109 -44.51 0.0006529819    1.676    0.403
       229  -8.6227    157.4711    179.5634   8.2105082773e+01   1.3769241520e+01    0.1450346    0.1391737  23.28 0.0001268473    1.013    0.013
       230  -9.9183    243.7976    168.6604   6.2973316203e+01   7.0332848070e-01    0.2759786    0.1499134  29.26  0.001351886    2.254    0.556
       231  -9.9793    246.5544    158.2791   6.0500339126e+01   1.9915341038e+00    0.2601311    0.1076238 -43.14  0.001143364    2.164    0.538
       232  -8.3991    146.7046    157.3557   8.0135166445e+01   2.0668299874e+01    0.1556092    0.1218871  87.87 0.0007032916    1.693    0.409
       233 -10.6255    249.9918    150.9379   5.8520403023e+01   2.6647715381e+00     0.446173     0.159215 -41.96   0.00186113    2.406    0.584
       234 -10.5003    244.2810    148.8290   5.8976987536e+01   3.9379455507e+00    0.2434279     0.141412 -40.86  0.001261361    1.489    0.328
       235  -9.3962    224.4222    145.2374   6.1469489120e+01   7.9776536590e+00    0.2703009    0.1217648 -37.58   0.00113877    2.041    0.510
       236 -12.0066    242.2271    136.0594   5.6704341589e+01   6.4480557228e+00    0.6777497    0.2458891 -41.25  0.002770663    2.356    0.575
       237 -10.3072    248.8699    130.3474   5.4561443989e+01   6.2774737542e+00    0.3198415    0.1612909 -43.02  0.001373361    1.687    0.407
       238  -8.3142    209.6740    137.6891   6.2440747379e+01   1.2116845035e+01    0.1426191    0.1097564  -1.70 0.0007040164    1.660    0.397
       239  -7.9725     13.6755    133.3046   1.1333296807e+02   4.6379274963e+01    0.1311671    0.0867956  67.72 0.0007032903    1.642    0.391
       240  -8.9673     65.3748    132.0288   9.7333580834e+01   4.1193573311e+01    0.2038141    0.1713431 -62.52 0.0003562122    1.114    0.102
       241  -8.5720     25.6878    128.6774   1.0908478043e+02   4.6542846570e+01    0.1384731    0.0875656 -42.21 0.0006405196    1.655    0.396
       242 -10.2535    248.6622    135.2928   5.5591661142e+01   5.4861866247e+00       0.2936    0.2035305 -53.37  0.001142087    1.481    0.325
       243 -11.2356     69.2536    122.7798   9.4245755166e+01   4.2931998421e+01     0.253767    0.2348258 -65.81 0.0002776266    1.039    0.038
       244  -9.4131    235.8273    117.1768   5.3729923864e+01   1.0823905348e+01    0.1797644    0.1513491 -17.51 0.0004983284    1.329    0.248
       245 -10.9973    248.1689    112.8407   5.1087125015e+01   9.3094329481e+00    0.2694274    0.2141641 -40.93 0.0007941491    1.081    0.075
       246 -11.5898    248.8716    107.5151   4.9900956418e+01   1.0058878855e+01      0.44927    0.2500498 -50.03  0.001962851    1.627    0.385
       247 -11.2406    247.4911    102.9590   4.9143906467e+01   1.1052229347e+01    0.3040781    0.2438788 -29.23  0.001494645    1.298    0.230
       248  -9.0900    104.9802    111.6727   8.0607565136e+01   3.9487908104e+01    0.2162638    0.1944696  41.93 0.0005157766    1.126    0.112
       249  -8.6587     26.1521    111.8665   1.0629379571e+02   5.0627485394e+01    0.1807267    0.1344928 -43.07  0.001031539    1.291    0.226
       250  -9.1027     15.4854    112.0937   1.0989311533e+02   5.1417203309e+01    0.1784511     0.165691 -63.75 0.0005542701    1.096    0.088
       251  -9.2990    119.4342    102.8527   7.4146955279e+01   3.8525119258e+01     0.373538     0.202096  58.37 0.0008693673    2.390    0.582
