#   1 NUMBER                 Running object number                                     
#   2 MAG_AUTO               Kron-like elliptical aperture magnitude                    [mag]
#   3 X_IMAGE                Object position along x                                    [pixel]
#   4 Y_IMAGE                Object position along y                                    [pixel]
#   5 X_WORLD                Barycenter position along world x axis                     [deg]
#   6 Y_WORLD                Barycenter position along world y axis                     [deg]
#   7 A_WORLD                Profile RMS along major axis (world units)                 [deg]
#   8 B_WORLD                Profile RMS along minor axis (world units)                 [deg]
#   9 THETA_WORLD            Position angle (CCW/world-x)                               [deg]
#  10 FWHM_WORLD             FWHM assuming a gaussian core                              [deg]
#  11 ELONGATION             A_IMAGE/B_IMAGE                                           
#  12 ELLIPTICITY            1 - B_IMAGE/A_IMAGE                                       
         1 -13.0465    237.2263     39.5340   2.6184067519e+01   2.4093200135e+01    0.9170908    0.8380246  40.87  0.007084769    1.707    0.414
         2 -12.7314    217.4914     53.1678   3.0532542853e+01   2.5956547033e+01     1.072575    0.8697968 -47.94  0.007402618    1.203    0.169
         3 -10.8935      2.1277     22.5339   8.2492573958e+01   7.3030654592e+01    0.4541659   0.09854335 -48.11  0.001783392    3.659    0.727
         4 -10.1083      4.1077      2.2610   7.0568793488e+01   7.5940399467e+01    0.3729205    0.1134526  30.86  0.001691473    2.881    0.653
         5 -10.5416    124.9041    231.8812   8.4173207216e+01   8.3593790110e+00     0.332519    0.1873415 -45.17  0.001627439    1.893    0.472
         6 -10.6654    140.0772    249.2856   8.3116637009e+01   3.0942188436e+00    0.3254845    0.1884381  29.45  0.001740355    1.490    0.329
         7 -10.2806    134.4866    248.9937   8.4317471320e+01   3.8595064411e+00    0.2979413    0.2171909  85.12  0.001540062    2.579    0.612
         8  -9.9749     81.4297    250.0468   9.6600561022e+01   1.0416332445e+01    0.2714488    0.1706542  29.51  0.001087721    1.360    0.264
         9 -14.9232      9.9607    239.7600   1.1221781425e+02   2.0375717323e+01      7.78126      3.01076  13.10   0.03007058    4.118    0.757
        10 -15.2203     23.8077    182.6525   1.0481741712e+02   3.2690152989e+01     10.24059     3.295658 -89.47   0.02724375    5.739    0.826
        11 -10.4355    128.6593    229.6375   8.2973086399e+01   8.2888370165e+00    0.2780999    0.2255633  72.30  0.001541845    1.752    0.429
        12  -8.4310    198.7766    222.8496   6.6826066550e+01   2.5281121679e-01    0.1513229    0.1385254 -15.41  0.000382248    1.306    0.234
        13 -13.9921     11.3899    192.2387   1.0903330964e+02   3.1340283415e+01     1.624352    0.9137846  72.09  0.004841581    1.792    0.442
        14 -13.7200      8.8029    207.5570   1.1071687293e+02   2.7801386885e+01     2.052572     1.403002  -7.56  0.008315057    2.022    0.506
        15 -11.5092     41.9576    212.0714   1.0260719563e+02   2.3486320648e+01     0.593993    0.2905913  37.41  0.001402971    1.801    0.445
        16  -9.5261     70.9078    212.6274   9.5110627700e+01   1.9883398919e+01    0.2466876    0.2015058 -86.29 0.0004258394    1.336    0.252
        17  -9.8345     79.9548    209.0762   9.2294331641e+01   1.9525006475e+01    0.2983084    0.2072857 -81.03 0.0008013394    1.718    0.418
        18 -11.6049     39.1171    173.4960   9.9356837343e+01   3.3551784655e+01    0.5134434    0.3528851 -40.80 0.0006176681    1.619    0.382
        19 -11.4518     47.2275    167.6501   9.6134928411e+01   3.4191127668e+01    0.3562902    0.3038993  -7.99 0.0004741836    1.333    0.250
        20  -8.3494    110.9039    167.4670   7.7147004994e+01   2.4910618342e+01    0.2226164    0.1477766  35.42 0.0006095099    1.482    0.325
        21 -11.6245     74.6313    138.0458   8.2232847203e+01   3.8334713324e+01     0.458965     0.352304 -63.25 0.0004450972    1.332    0.249
        22 -11.9461     69.6020    152.6575   8.6694297662e+01   3.5259022260e+01    0.7196915     0.557233  46.55  0.001195359    1.333    0.250
        23 -12.9975     68.2441    143.8458   8.5498103881e+01   3.7779198290e+01     3.175696     1.681843  84.05  0.002932689    5.122    0.805
        24 -10.5439     60.6240    158.5577   9.0572403843e+01   3.4940659145e+01    0.2740682    0.2646647 -51.90  0.000293038    1.036    0.035
        25 -12.9547     45.5424    154.2985   9.4768911366e+01   3.7957113341e+01    0.6706106    0.5074211 -35.01  0.001406483    1.440    0.305
        26  -9.2998    239.3282    145.6866   4.6114156796e+01   7.9139153185e+00    0.1175369   0.08682895 -62.52 0.0007043362    1.670    0.401
        27 -10.4641     87.3637    140.7626   7.8689609130e+01   3.5577280285e+01    0.3354688     0.301821 -42.60 0.0007913799    1.104    0.094
        28  -9.3398     91.2176    137.7626   7.6830905050e+01   3.5681618245e+01    0.2780184    0.2137681   6.01 0.0004658997    1.549    0.354
        29  -9.9816    243.4028    131.7725   4.2974106523e+01   9.5966190886e+00    0.1806745   0.09418478 -34.02 0.0009544718    1.728    0.421
        30 -10.1918    104.7611    130.4143   7.1015135502e+01   3.5053335529e+01     0.566245    0.3795621  39.15  0.002248243    1.493    0.330
        31  -9.8883     89.0169    125.5896   7.4759251167e+01   3.9104713197e+01    0.3408852    0.2775957  13.93 0.0005465343    1.346    0.257
        32  -9.2290     85.5803    152.5232   8.1642781953e+01   3.2855725411e+01    0.2546544    0.2453081 -66.16 0.0002549368    1.055    0.052
        33 -10.8726     68.3202    129.9476   8.2664127709e+01   4.1402623444e+01    0.5063488    0.2445657 -43.27  0.001889565    2.188    0.543
        34 -12.5146      3.6683    197.8005   1.1142314131e+02   3.0583600804e+01    0.3747528     0.338363 -49.74  0.000802927    1.284    0.221
        35  -9.1484    102.0550    118.3769   6.8904101836e+01   3.8433309992e+01    0.2410624    0.2071472 -35.05 0.0003397001    1.186    0.157
        36  -8.9979    204.4430    110.9023   4.4297724989e+01   1.9459468711e+01    0.2582674    0.1729643  32.99  0.001334386    2.059    0.514
        37 -10.2365    241.8008    102.3889   3.7639245857e+01   1.4487955191e+01    0.2137756    0.1045489  47.50  0.001123408    2.687    0.628
        38  -9.2556     55.4670     94.2039   7.8889028155e+01   5.2232927428e+01    0.3283689    0.2009393  36.11  0.000824098    1.649    0.393
        39  -9.9134     53.1290     90.3420   7.8784553928e+01   5.3479765223e+01    0.3596192    0.1972057 -48.00  0.001427292    1.752    0.429
        40  -9.2155     41.4292     92.1421   8.4146570041e+01   5.4622257435e+01    0.2350253    0.1898044  -2.40 0.0005761309    1.268    0.211
        41  -9.6422    167.5989     86.8034   4.4882232346e+01   3.1016678623e+01    0.2023614    0.1214007 -50.52 0.0006515672    1.621    0.383
        42  -8.7141     38.5261     77.7847   8.1538307049e+01   5.8324662784e+01    0.3382848    0.1900097  56.69  0.001297893    3.168    0.684
        43  -9.5363    184.0721     77.2995   3.9899395069e+01   2.9106165869e+01    0.1877891    0.1658159  88.89  0.000817174    1.109    0.098
        44  -9.9722      1.8352     61.9286   9.5560280299e+01   6.5191640840e+01    0.2767895    0.1434441 -72.14  0.001317334    2.185    0.542
        45 -10.4466     13.4161     60.2275   8.8871094157e+01   6.4784662743e+01    0.2408971    0.2089561 -18.26  0.000427794    1.046    0.044
        46  -9.5447    101.7582    238.3920   9.0515216491e+01   1.0166122649e+01    0.1919716    0.1170904  18.79 0.0009475152    1.623    0.384
        47  -8.9869    193.0021    249.6673   7.2161532327e+01  -3.3385567954e+00    0.1821811   0.07770931  43.69 0.0007052213    4.395    0.772
        48  -9.8002     11.7850     53.3885   8.7731950951e+01   6.6369710276e+01    0.1779519    0.1106462  -0.44 0.0009451536    1.599    0.375
        49 -11.1122      2.3371     49.1423   9.1888455270e+01   6.7927975275e+01    0.6385714    0.1827812 -66.69  0.002119143    4.771    0.790
        50  -8.7013     84.3090     49.6706   5.3705096586e+01   5.5787257345e+01    0.1355038    0.1103505 -86.96 0.0002660949    1.663    0.399
        51  -8.0518     94.6900     46.3554   4.9394380447e+01   5.4025292599e+01     0.138765    0.1074051 -79.86 0.0007043384    1.729    0.422
        52 -10.1719      2.0792     37.4396   8.8328814639e+01   7.0303250689e+01    0.3122024    0.1529928 -63.18  0.001528699    2.424    0.587
        53  -9.8686    245.7555    246.9895   6.2373199109e+01  -8.2683631130e+00    0.1427591   0.07226117 -33.75 0.0007417928    1.621    0.383
