#   1 NUMBER                 Running object number                                     
#   2 MAG_AUTO               Kron-like elliptical aperture magnitude                    [mag]
#   3 X_IMAGE                Object position along x                                    [pixel]
#   4 Y_IMAGE                Object position along y                                    [pixel]
#   5 X_WORLD                Barycenter position along world x axis                     [deg]
#   6 Y_WORLD                Barycenter position along world y axis                     [deg]
#   7 A_WORLD                Profile RMS along major axis (world units)                 [deg]
#   8 B_WORLD                Profile RMS along minor axis (world units)                 [deg]
#   9 THETA_WORLD            Position angle (CCW/world-x)                               [deg]
#  10 FWHM_WORLD             FWHM assuming a gaussian core                              [deg]
#  11 ELONGATION             A_IMAGE/B_IMAGE                                           
#  12 ELLIPTICITY            1 - B_IMAGE/A_IMAGE                                       
         1 -13.8942    218.4343      8.4848   3.6460213729e+01   2.9351587039e+01     2.175333     1.240698  44.16   0.01081643    2.341    0.573
         2 -13.1475    177.5494     53.2132   5.3571526213e+01   3.3848974999e+01     1.852679      1.13687  28.80  0.005148435    2.336    0.572
         3 -13.4106    192.3570     40.0707   4.7502155996e+01   3.1961321508e+01    0.9990386    0.9748934 -34.96  0.003863728    1.127    0.113
         4 -13.0050    197.5822     34.1048   4.5168929888e+01   3.1433156514e+01    0.7522592    0.6927841  69.33  0.001099132    1.107    0.097
         5 -10.3866    189.5022     14.6017   4.0907841124e+01   3.5689790878e+01    0.2352877    0.2152959 -85.49 0.0007312981    1.043    0.041
         6 -10.1982     70.4927      2.4933   5.9973433307e+01   6.4869970388e+01    0.2418939   0.08358027  42.69  0.001040894    2.415    0.586
         7  -9.4283     58.5021    228.7335   1.1837085924e+02   1.9847928788e+01    0.1416454    0.1020477 -89.98 0.0005441713    1.298    0.230
         8 -12.2990    248.5927    245.8319   8.4066712354e+01  -1.1315519726e+01    0.9356731    0.3333929 -30.78  0.004666881    2.864    0.651
         9 -19.5357     17.4036    145.3258   1.1972101440e+02   4.2654261141e+01     19.32298     4.726154 -75.71   0.06621806    3.880    0.742
        10  -8.5973     93.4817    205.5409   1.0878382144e+02   1.9646462078e+01    0.1870833    0.1618639   2.81 0.0007154863    1.586    0.370
        11 -10.0171     96.4303    202.2755   1.0771769067e+02   1.9876157592e+01    0.2997834    0.2042421 -58.04  0.001435675    1.571    0.364
        12 -11.6715     63.3233    250.1657   1.1915863530e+02   1.5266937325e+01    0.2507634    0.1251047  51.96  0.001483358    1.564    0.361
        13 -10.9520    193.2031    195.4043   8.5533375869e+01   4.2970872179e+00    0.8972193    0.4636152 -59.93  0.002994018    4.751    0.790
        14 -12.3272     56.2342    196.9921   1.1593234548e+02   2.6679335371e+01    0.6692635    0.2587692 -52.22  0.002819582    3.143    0.682
        15  -9.7522     34.6518    197.1660   1.2053631479e+02   2.9168347206e+01     0.151649    0.1173789  72.70 0.0006010778    1.056    0.053
        16  -9.1037     81.9439    194.5250   1.0995882748e+02   2.3723395060e+01    0.2146719    0.1632462  69.97  0.001132718    1.248    0.199
        17 -11.3980    149.5400    188.2780   9.3572008417e+01   1.3647888782e+01    0.4685332    0.3569795 -78.14  0.002221043    1.784    0.439
        18  -8.7760     96.8118    190.6183   1.0604312767e+02   2.2316870817e+01    0.1975639    0.1120935  49.07 0.0007458395    1.660    0.397
        19 -12.1469     67.4925    183.0975   1.1184648477e+02   2.8311001870e+01    0.7205236    0.6066683 -66.34  0.003055357    1.222    0.182
        20  -9.7805     60.9607    187.9879   1.1392286503e+02   2.8069121725e+01    0.1866747    0.1627227  83.24    0.0011938    1.049    0.047
        21  -9.6291     94.1243    186.9492   1.0614294764e+02   2.3548472916e+01    0.2243268    0.1880952  49.89 0.0006057095    1.126    0.112
        22 -11.1786     98.6757    181.4330   1.0425197395e+02   2.4055875685e+01    0.5544713    0.3616116 -39.02  0.001795954    1.971    0.493
        23  -9.8324    128.5077    185.4978   9.7886633700e+01   1.8061515702e+01    0.1423203    0.1328678  49.28 9.053598e-06    1.007    0.007
        24 -11.1012    143.6387    178.4403   9.3109952529e+01   1.6762993037e+01    0.3909359    0.2451678 -41.99  0.001242649    1.725    0.420
        25  -9.9926    188.2664    176.5157   8.2836604258e+01   8.5657675411e+00    0.3442495    0.3297763  62.76  0.001673357    1.252    0.201
        26  -9.3113    149.4765    177.0223   9.1493170064e+01   1.5949241455e+01    0.2124989     0.190747  41.07 0.0003775702    1.060    0.056
        27  -9.8211     58.0527    175.9437   1.1319146763e+02   3.1189398028e+01    0.2258711    0.1664537  55.48 0.0004671202    1.289    0.224
        28  -9.7584     50.4741    224.5515   1.1957721472e+02   2.1665915868e+01    0.1732027   0.09478705  86.69  0.000665668    1.849    0.459
        29  -9.2030     84.0179    173.7244   1.0662717636e+02   2.8108401454e+01    0.1879587    0.1687292  69.44 0.0003206201    1.039    0.037
        30 -10.6926    235.8696    173.2930   7.2905307817e+01   4.1854327624e-01    0.2018983    0.1810941  51.40  0.001221841    1.476    0.322
        31  -8.9554    194.1811    171.8287   8.0633510944e+01   8.2912939656e+00    0.2065261    0.2027468  24.17  0.000633812    1.171    0.146
        32 -10.7482     43.6185    172.3834   1.1619568283e+02   3.3739812094e+01    0.5695375    0.2197783  48.65  0.001760396    2.558    0.609
        33 -10.5776    139.1747    170.5998   9.2662166675e+01   1.9275675743e+01    0.3580519    0.2666498  46.27  0.001026458    1.300    0.231
        34  -9.0288    185.9316    169.9720   8.1972402486e+01   1.0240107055e+01    0.2199968    0.1855122  83.58 0.0006829698    1.676    0.403
        35 -10.3769     54.6208    222.0315   1.1856757925e+02   2.1653733791e+01    0.2239471    0.1304288  50.89 0.0003388528    1.436    0.304
        36  -9.2087    187.7235    162.4159   7.9977473974e+01   1.1321699413e+01    0.2669908    0.1750698 -49.89 0.0007630973    1.717    0.417
        37 -11.5117     95.2350    151.1280   9.9985753595e+01   3.1682288699e+01    0.6567174    0.5521774 -33.12   0.00348628    1.369    0.269
        38 -10.7629    133.6025    143.4077   8.8352635329e+01   2.6411802794e+01    0.8915002    0.2797824 -56.08  0.002264214    4.916    0.797
        39  -9.3566    113.0932    151.1689   9.5298828867e+01   2.8561544957e+01    0.3020358    0.2009116 -85.57  0.001243658    2.213    0.548
        40  -9.3209    174.8129    149.1384   7.9822125892e+01   1.6593021662e+01    0.2278619      0.21433 -80.93 0.0006031489    1.231    0.188
        41  -9.5433    109.1354    147.3993   9.5571662553e+01   3.0166946224e+01    0.2648257    0.2108239 -68.43 0.0003516215    1.306    0.234
        42  -9.8895    187.1476    151.6465   7.7709155603e+01   1.3517908424e+01    0.2570852    0.2046522 -46.73 0.0006470015    1.325    0.245
        43  -9.6905     87.2841    143.9442   1.0077282901e+02   3.4704049326e+01    0.3142509    0.1665159  60.93  0.001176942    2.731    0.634
        44 -10.8666    106.9837    137.4596   9.4058165684e+01   3.2916785813e+01    0.5264773    0.3525408 -31.17  0.001770052    1.868    0.465
        45 -10.5876    105.8270    130.6895   9.2876237730e+01   3.4740152052e+01    0.3953923    0.3321933 -64.18  0.001226977    1.200    0.167
        46 -11.7108     94.9881    137.2814   9.7325733822e+01   3.5059581732e+01    0.3009039    0.2654473 -45.63  0.000375188    1.146    0.127
        47 -10.2414    114.3415    128.9480   9.0117765766e+01   3.3557751345e+01    0.3498009    0.2654805 -34.85  0.000613541    1.416    0.294
        48  -9.3223    136.0000    128.9808   8.4349383000e+01   2.9184061328e+01    0.2668536   0.08891754 -46.50 0.0008078418    2.980    0.664
        49  -9.1747    160.9696    127.9699   7.7929431301e+01   2.3990364584e+01    0.2538632    0.2016374 -85.01  0.001138957    1.704    0.413
        50 -10.3848    102.0428    124.6339   9.2550779577e+01   3.6869267829e+01    0.3053716     0.246729 -14.31 0.0006284072    1.525    0.344
        51 -10.4372    120.1601    123.4930   8.7208252263e+01   3.3689110976e+01    0.3896136    0.3401559  17.23  0.001465607    1.263    0.208
        52  -9.2614    109.8729    118.1570   8.8752787250e+01   3.6942587676e+01    0.2192169    0.2030803 -89.32 0.0002796857    1.167    0.143
        53  -9.9789    231.1992    113.7441   6.0428570142e+01   1.1263304987e+01    0.2667485    0.2639259  69.68 0.0007368443    1.139    0.122
        54  -9.1600    167.7094    112.6839   7.2428959238e+01   2.5635037606e+01    0.3214191    0.2324938 -80.46  0.001314553    2.104    0.525
        55 -11.2094    118.4792    110.3859   8.4311866666e+01   3.7028184680e+01    0.6815428    0.4549147  65.97   0.00278538    2.098    0.523
        56  -9.4107    205.4951    110.1706   6.4013292051e+01   1.7437825610e+01    0.2595067    0.2158162  49.18 0.0006114851    1.269    0.212
        57 -10.0687    134.5881    105.5440   7.8602562188e+01   3.4675212628e+01     0.447883    0.1521996 -43.48  0.001384602    2.903    0.656
        58  99.0000     57.2126    219.0829   1.1780462730e+02   2.1918741548e+01    0.4548546    0.2046623  60.93  0.002212248    2.238    0.553
        59  -9.1404     48.6532    217.5107   1.1936696880e+02   2.3294714129e+01    0.1934722     0.112571  30.89 0.0007770547    1.994    0.498
        60  -8.4926    155.1710     82.3765   6.6782586094e+01   3.4559382132e+01    0.2131421     0.149707  63.45   0.00045501    1.586    0.370
        61  -8.8039    184.1970     77.2032   5.9234845512e+01   2.8351846536e+01    0.2112438    0.1784706 -74.95 0.0006439798    1.307    0.235
        62 -10.0591    184.1249    212.3265   9.0437751907e+01   3.0564343664e+00    0.2286029    0.1775036 -19.24  0.001013873    1.384    0.277
        63  -8.1020     56.9440    209.1576   1.1696428840e+02   2.3990559972e+01    0.1935252    0.1333741 -64.47 0.0007110659    1.525    0.344
        64 -12.8668     32.5323    206.7113   1.2171683144e+02   2.7368930189e+01    0.3446836     0.162341  55.31  0.001317931    1.857    0.461
        65 -10.4374     71.8572    245.1922   1.1721401359e+02   1.5035887545e+01    0.2664427    0.1486082 -71.16  0.001598575    1.946    0.486
        66  -8.6496     75.5890    247.5337   1.1672025829e+02   1.4119537519e+01    0.1148341   0.09090738  60.06 0.0002096004    1.034    0.033
        67 -11.0312     65.6801    204.6833   1.1469076150e+02   2.3800867954e+01    0.3510207    0.1919063 -66.84  0.001496082    1.807    0.447
        68  -8.9560    167.8742    231.1393   9.6742749263e+01   2.7537664587e+00    0.1794609     0.155385  40.26 0.0004293321    1.138    0.122
        69  -8.7191     44.4224    230.1833   1.2114732279e+02   2.1294500046e+01    0.1465484    0.0871852  80.12 0.0008931049    1.536    0.349
        70  -8.8547     69.9544    199.5305   1.1321500005e+02   2.4329022598e+01    0.1795467    0.1182672  38.93 0.0009959009    1.500    0.333
