#   1 NUMBER                 Running object number                                     
#   2 MAG_AUTO               Kron-like elliptical aperture magnitude                    [mag]
#   3 X_IMAGE                Object position along x                                    [pixel]
#   4 Y_IMAGE                Object position along y                                    [pixel]
#   5 X_WORLD                Barycenter position along world x axis                     [deg]
#   6 Y_WORLD                Barycenter position along world y axis                     [deg]
#   7 A_WORLD                Profile RMS along major axis (world units)                 [deg]
#   8 B_WORLD                Profile RMS along minor axis (world units)                 [deg]
#   9 THETA_WORLD            Position angle (CCW/world-x)                               [deg]
#  10 FWHM_WORLD             FWHM assuming a gaussian core                              [deg]
#  11 ELONGATION             A_IMAGE/B_IMAGE                                           
#  12 ELLIPTICITY            1 - B_IMAGE/A_IMAGE                                       
         1 -12.5439    232.1517     35.1811   3.5806176835e+02   2.3349661136e+01     1.062088    0.3590958 -60.80  0.003764103    4.051    0.753
         2 -13.1316    225.3337     23.7856   3.5595323662e+02   2.6019820837e+01     1.140599    0.4244126  55.17  0.004060035    3.454    0.710
         3 -11.3733    210.5762     21.7307   3.5649481948e+02   2.9368108842e+01    0.5362092    0.4277512  13.89  0.003233988    1.852    0.460
         4 -13.1452    221.4669     38.6635   3.5969398240e+02   2.5085795461e+01    0.8488947    0.7427995  76.46  0.003651264    1.294    0.227
         5  99.0000     35.5831     20.9960   3.8211656750e+01   7.2031050875e+01     1.988326    0.6822484  38.56  0.007573024    2.804    0.643
         6 -12.9815     50.0005     30.8174   3.5022743676e+01   6.7743774558e+01     2.007572    0.8165052  46.45  0.007709151    2.523    0.604
         7 -13.0827     65.4326     15.5384   1.9306837110e+01   6.6842211240e+01     1.413848     0.909766  52.81   0.00705864    1.410    0.291
         8 -11.6765     75.4767      7.3378   1.1181149599e+01   6.5345294965e+01    0.7505775    0.5820106  55.25  0.002907932    1.134    0.118
         9 -14.8837     34.5063     58.7473   5.5464971180e+01   6.4106898806e+01      3.64601     2.101945 -52.25   0.01686313    1.623    0.384
        10 -13.6254     62.0339     42.5408   3.4655426798e+01   6.3222035589e+01     1.192104    0.8386286 -14.75  0.002146448    1.844    0.458
        11 -12.2046     52.8034     20.9838   2.8157471876e+01   6.8845459822e+01    0.9267017     0.622827  84.33  0.003734878    3.248    0.692
        12 -13.6921     54.9900     58.4215   4.4586600682e+01   6.1190380330e+01     1.616775     1.095507 -70.15  0.006294374    1.937    0.484
        13 -13.5018      6.1357     36.7012   6.7023573693e+01   7.1897867084e+01     1.151313     0.563974 -84.33    0.0029656    2.674    0.626
        14 -13.5417     13.6542     35.2948   6.0955485314e+01   7.1732989975e+01     1.233397    0.5386695 -69.70  0.004833037    2.611    0.617
        15 -10.9599     20.7290     24.6944   5.1017352298e+01   7.3379515099e+01    0.9406281     0.217499 -52.87  0.003001822    3.831    0.739
        16 -13.2824     25.6048     40.2299   5.4377199381e+01   6.9479358656e+01     1.981875    0.8251081 -37.07  0.007600634    2.757    0.637
        17 -12.3937     65.0459      4.4635   1.2947344631e+01   6.8193436659e+01    0.6021438    0.4304827   5.09  0.001053383    1.623    0.384
        18 -11.8901    100.4383     54.1152   2.4858200969e+01   5.2381506006e+01     1.150633    0.6075014  53.03  0.002745488    1.811    0.448
        19 -12.5292     78.9312     22.9470   1.8274445667e+01   6.2648354916e+01     1.932337    0.7867514  43.28   0.00610916    2.526    0.604
        20 -12.8703    178.8351     38.4050   3.8936723292e+00   3.4719454030e+01      0.86372    0.6556594  16.80  0.003891991    1.912    0.477
        21 -13.6162      3.7829     55.0999   7.2835310201e+01   6.7504466290e+01     1.635765    0.7121131 -67.28  0.007351028    1.952    0.488
        22 -11.2028    158.8839     27.0487   3.0021048520e+00   4.1147756624e+01    0.5437138    0.2547291 -17.86  0.001597831    2.923    0.658
        23 -10.6384    151.1640     24.0603   3.0625101730e+00   4.3510279893e+01    0.6964104    0.4332952 -83.48  0.002862689    1.688    0.407
        24 -11.7232    163.1368     29.6595   3.2661223400e+00   3.9739786303e+01     1.210292    0.3114714 -44.58    0.0039101    3.542    0.718
        25 -11.1302    101.7867     20.7901   1.0695203261e+01   5.7080915643e+01    0.4113422    0.2616893 -20.49  0.001917048    1.832    0.454
        26 -12.3223    136.0824     22.8039   4.8293524304e+00   4.7657948472e+01    0.6685032    0.4887587  -9.15  0.002693004    1.740    0.425
        27 -12.3277    244.4901     22.4225   3.5448319066e+02   2.2416962930e+01    0.5507625    0.3135772 -85.00  0.002939621    1.863    0.463
        28 -11.9851    123.7318     23.6602   7.2534324007e+00   5.0874183965e+01    0.4379041    0.3166426 -10.84  0.001076474    1.730    0.422
        29 -11.1066    202.9559     18.2264   3.5618641768e+02   3.1442357076e+01    0.4432244    0.3769762   6.77   0.00240867    1.626    0.385
        30  99.0000    228.7542     15.5487   3.5387305610e+02   2.6216464826e+01    0.7487499    0.4406144  69.84  0.004454098    1.868    0.465
        31 -11.7571    228.0296      9.7146   3.5260448665e+02   2.6968087878e+01    0.6137744    0.3678857 -75.35  0.003229456    1.540    0.351
        32 -11.4469    220.2955     12.2744   3.5361124050e+02   2.8301132581e+01    0.3714069    0.2711613  68.35  0.001089697    1.556    0.357
        33 -12.3112    220.9195      7.4046   3.5245175810e+02   2.8666759523e+01    0.2379975    0.1820811 -64.55 0.0004632997    1.068    0.064
        34 -12.4955    249.8914     11.3448   3.5189820870e+02   2.2579247496e+01    0.5262098    0.1982279 -31.97  0.002745739    2.132    0.531
        35 -13.5000    243.5679      7.8574   3.5145702635e+02   2.4110181152e+01    0.8328549    0.4009289 -77.68  0.004073184    2.080    0.519
        36  -9.7912    108.8460     10.7329   4.8213983376e+00   5.6287649293e+01    0.7952878    0.3161115 -37.10  0.003144827    2.546    0.607
        37 -12.4760    116.4460      8.4461   2.5318470412e+00   5.4457885333e+01    0.8704938    0.3791567 -42.32   0.00350368    2.371    0.578
        38 -10.8900    160.1040     14.1371   3.5882572980e+02   4.2272625945e+01     0.231707    0.1932393  86.27 0.0002670605    1.093    0.085
        39  -9.7833    155.8357     12.3241   3.5870964308e+02   4.3563476379e+01    0.2833078    0.1940228 -29.95  0.001328197    1.540    0.351
        40 -10.8533    156.7156      7.8419   3.5719737537e+02   4.3775646593e+01    0.2241135    0.2044479  72.33 0.0006162208    1.175    0.149
        41  -9.2628    187.0968     14.2977   3.5638427124e+02   3.5542086135e+01    0.2575099    0.1663772  -1.24  0.001261536    2.389    0.581
        42 -11.0372    150.1447     13.3638   3.5968255727e+02   4.4946438841e+01    0.2886722    0.2085582 -76.89 0.0006346845    1.298    0.230
        43  -9.7517    147.0000     11.9422   3.5957932708e+02   4.5919239157e+01    0.2720865    0.1489891 -37.92  0.001144486    1.779    0.438
        44  -9.7841    143.7446     10.3245   3.5941866111e+02   4.6941451243e+01    0.2116656    0.1568044  83.87 0.0002484632    1.208    0.172
        45 -10.2270     38.0402     12.4656   3.1253250123e+01   7.3010697696e+01    0.1990506    0.1646009  -0.57 0.0003284496    1.181    0.153
        46 -10.7921    125.4428     11.7409   2.4055063473e+00   5.1710688999e+01    0.5173791    0.1823297  65.35  0.001942674    2.373    0.579
        47 -10.2227     92.9919     11.7243   8.6678472459e+00   6.0404699562e+01    0.2464194    0.1979421 -38.04 0.0006641581    1.363    0.266
        48 -10.2398     88.6714     12.0213   9.8990061986e+00   6.1500077778e+01    0.1864704    0.1738325   0.12 0.0004924781    1.193    0.162
        49 -13.9855    172.7763      6.2809   3.5529575342e+02   3.9841616828e+01    0.4533707    0.3434744 -20.35  0.002139105    1.540    0.351
        50  -9.7522    124.3522      8.6599   1.3876502687e+00   5.2302271549e+01    0.2208127    0.1396855 -34.41  0.001053005    1.655    0.396
        51 -10.3340    101.0029      7.7974   5.0633688092e+00   5.8669994790e+01     0.508595    0.1963111 -41.74  0.001940702    2.796    0.642
        52 -10.5647     25.7572     10.0104   3.8261756791e+01   7.5459281857e+01    0.1980512    0.1654543 -29.05 0.0005636013    1.210    0.174
        53 -10.5589     28.5619      8.5550   3.5078798429e+01   7.5251649311e+01    0.2256629    0.1645886  31.99 6.890229e-05    1.275    0.215
        54 -11.8326    194.0156      7.8271   3.5415705393e+02   3.4572052210e+01    0.2771253    0.2461452 -49.83  0.001076936    1.170    0.146
        55 -11.7755     46.0745      2.6446   1.9810649846e+01   7.2710563407e+01     0.237898    0.1972241   7.43 0.0001274657    1.206    0.171
        56  -9.4752     44.5947      8.1930   2.4475057494e+01   7.2345771977e+01    0.2992605     0.196847 -10.86  0.001531448    1.774    0.436
        57 -10.6540     48.2311      6.3986   2.1334095525e+01   7.1812936413e+01     0.359118    0.2259685 -30.00  0.001867833    1.702    0.412
        58 -11.5009     87.2261      2.0949   5.2914599371e+00   6.2816533664e+01      0.59145    0.3074557  39.67 0.0008179285    2.039    0.509
        59 -10.7382      3.7189      5.8996   5.6297263931e+01   7.8764734426e+01    0.4243679    0.2072951 -21.33  0.001969387    2.295    0.564
        60 -10.0508    210.2999      6.1250   3.5272863294e+02   3.1066045286e+01    0.2238788    0.1806253  47.12  0.001036515    1.663    0.399
        61  -9.8916    217.5623      2.5100   3.5149180697e+02   2.9855826794e+01    0.2319959    0.1783392  81.28  0.001083281    1.366    0.268
        62 -10.4780    214.2609      1.5522   3.5143117551e+02   3.0652591110e+01     0.245459    0.1660879  57.36 0.0009507596    1.840    0.456
        63  -9.2664     91.2987      6.6298   6.6115641048e+00   6.1348702951e+01    0.1472056    0.1000447 -62.94 0.0007030387    1.738    0.425
        64  -9.5097    188.8939      4.8803   3.5372550537e+02   3.6061811580e+01    0.2595508    0.1186771 -59.45 0.0004009557    1.991    0.498
        65  -9.6115    184.3143      3.1187   3.5355951017e+02   3.7320461827e+01    0.3076072    0.1629388  59.50  0.001531973    2.040    0.510
        66  -9.6779    133.6262      5.0607   3.5879242352e+02   5.0134056906e+01    0.1802869    0.1310272 -31.80 7.884056e-05    1.477    0.323
        67  -9.6353    122.8105      3.7299   3.5969948193e+02   5.3161331271e+01    0.1903889    0.1653828  65.75 0.0003640661    1.115    0.103
        68  -9.6214    126.5908      1.8095   3.5846347881e+02   5.2304569129e+01    0.2318839    0.1718486 -88.83 0.0007331654    1.220    0.180
        69 -10.1493     54.9730      3.7903   1.6445570003e+01   7.0621660098e+01    0.2676206    0.1901589  66.61 0.0004550795    1.501    0.334
        70 -10.8883     57.7111      2.3419   1.4366631469e+01   7.0140476481e+01    0.2757039    0.2697569  13.17  0.001076475    1.142    0.124
        71 -11.3151    114.2429     12.4692   4.5538724116e+00   5.4661830320e+01    0.4264636    0.3214584 -54.59   0.00224238    1.391    0.281
        72  -8.3040    231.4908      1.5161   3.5062762726e+02   2.7084022470e+01    0.4004759    0.1225348  81.13  0.001778789    3.351    0.702
        73 -10.4661    154.5660      1.9416   3.5552839168e+02   4.4874387204e+01    0.1983017     0.164042  76.45 0.0004442201    1.156    0.135
        74 -10.9219    250.3349     97.4676   9.8261290406e+00   1.2114673103e+01    0.2542214    0.1386911 -43.07 0.0007293055    1.560    0.359
        75 -10.5211    250.5173     93.5374   8.9994546768e+00   1.2608961440e+01     0.236406     0.135883 -38.36 0.0007331045    1.375    0.273
        76 -10.1945    205.3891     98.2863   1.5728315926e+01   1.9992215415e+01    0.1958182     0.110878 -43.35  0.000941988    1.613    0.380
        77 -10.3466     16.9209     96.9045   7.2459344509e+01   5.5796150434e+01    0.2087392    0.1735317 -47.88 0.0003587186    1.212    0.175
        78  -9.7250    165.4598     96.4663   2.2161624158e+01   2.8744873136e+01    0.1462851     0.141414 -20.96 0.0003865559    1.057    0.054
        79  -9.7909    236.7406    146.0085   2.1297915093e+01   7.5070329531e+00    0.1671504    0.1292589 -21.13  0.000390244    1.049    0.046
        80 -15.0539     63.0699     84.4131   4.9348908913e+01   5.3604412083e+01     2.516067     1.476445  47.58  0.006959238    1.808    0.447
        81 -10.3974    221.8399    122.8018   1.8757456797e+01   1.3209175612e+01    0.3513896    0.1996896 -43.38  0.001323899    1.674    0.402
        82  -9.2320    113.2805    122.2889   4.1674401024e+01   3.4775555117e+01    0.1519739    0.1242582  -6.13 0.0002214911    1.524    0.344
        83  -9.9585    228.6622    118.8528   1.6951009546e+01   1.2652749053e+01    0.2672445    0.1301903  45.03 0.0009902848    2.365    0.577
        84 -13.9472     10.6142     66.9544   7.0980629059e+01   6.4139086098e+01     1.798074    0.8818498 -21.08  0.007643603    2.470    0.595
        85  -9.3019     73.0490    118.9772   5.3926006385e+01   4.3077388762e+01     0.179526    0.1721372  64.27            0    1.004    0.004
        86 -10.4029    203.6144    116.3674   2.0158917157e+01   1.7450645452e+01    0.3362014    0.2361524  83.79  0.001617776    2.439    0.590
        87 -10.9535    171.9697    116.5061   2.5897285992e+01   2.3667239281e+01    0.2600415    0.2014171 -39.11  0.001344575    1.242    0.195
        88 -10.1705    173.4822    112.2063   2.4556757066e+01   2.4138428386e+01    0.3174549     0.203368  24.94  0.001322139    2.117    0.528
        89 -12.9462     51.5151     44.7082   4.0827235448e+01   6.4768000267e+01    0.8169764    0.4863138   9.22  0.001626503    2.858    0.650
        90 -11.5526    126.4725    115.9095   3.6403186714e+01   3.3473531926e+01    0.3828838    0.2450761  43.08 0.0006305182    1.530    0.346
        91  -9.8805    182.5275    115.4275   2.3601225469e+01   2.1705742895e+01    0.1398034    0.1314389 -21.15 2.210645e-06    1.013    0.013
        92 -12.8351     81.3908     40.9916   2.5903045909e+01   5.9280740988e+01    0.6985773    0.4888764  48.57  0.002389992    1.345    0.257
        93 -12.7446     75.2937     41.9864   2.8679114992e+01   6.0503530823e+01    0.4764524    0.3427694  62.97 0.0008347562    1.563    0.360
        94 -10.1647    158.8066     95.5601   2.3278499435e+01   3.0416401239e+01    0.3692617    0.1503572  55.26  0.001294515    2.673    0.626
        95 -11.3344    111.9313     94.8672   3.4882905477e+01   4.1323752168e+01    0.2456807    0.2220542  12.71   0.00060416    1.241    0.194
        96 -10.3711    163.0262    115.2497   2.7437555509e+01   2.5771790388e+01    0.2026826    0.1973357  40.81  0.000462272    1.060    0.056
        97 -11.9797     45.1697     93.0325   5.9266379795e+01   5.4027038924e+01    0.4624887     0.261404  16.97  0.001909451    2.078    0.519
        98 -12.4242    223.1451     87.7521   1.0886552736e+01   1.8169275227e+01    0.5341625    0.2436763 -41.78  0.002526057    1.866    0.464
        99 -11.9170    213.2025     89.9361   1.2671679563e+01   1.9745348455e+01    0.3582722     0.227186 -47.59  0.001218196    1.479    0.324
       100 -10.9266    172.9565     90.9078   1.9265587265e+01   2.8051697995e+01    0.3561357    0.2886124 -70.80  0.001829048    1.393    0.282
       101 -11.8144    183.4833     76.0495   1.3557137774e+01   2.8153511202e+01    0.4374009    0.2960665 -45.46 0.0009818487    1.374    0.272
       102 -12.3764    174.3201     86.4418   1.7841434893e+01   2.8514225081e+01    0.9779869    0.3590758  42.21  0.003137628    3.740    0.733
       103 -11.2091    180.4682     78.4872   1.4683664618e+01   2.8444685515e+01    0.3661693    0.2936539  65.30  0.001973746    1.319    0.242
       104 -11.2189    177.1378     81.1602   1.5948220253e+01   2.8763194768e+01    0.4825186    0.2323488  61.55  0.001954576    2.313    0.568
       105 -11.7892    236.0808     86.1012   8.9989853105e+00   1.6050307412e+01    0.6326807    0.3887083 -88.22  0.002961238    2.728    0.633
       106 -10.3172    237.0546     80.0408   7.5753626837e+00   1.6706084281e+01    0.2831822    0.1732707  89.05 0.0006652315    2.521    0.603
       107 -11.7101    231.1489     79.3176   8.0582019267e+00   1.7874456431e+01    0.3360343     0.201516  62.62  0.001590055    1.990    0.497
       108 -11.6257    148.0667     84.5149   2.2516136748e+01   3.4984912935e+01     0.458417    0.3292696  62.82  0.001106909    1.464    0.317
       109 -11.8171    147.2393     79.0912   2.1119353438e+01   3.6185065836e+01     0.472723    0.3180757 -49.07 0.0009767489    1.502    0.334
       110  -9.4090    211.0045    112.0000   1.8022150097e+01   1.6775397485e+01     0.199635   0.07635976  51.39 0.0008051848    2.962    0.662
       111 -12.6254    217.2806     83.6781   1.0687725300e+01   1.9878106828e+01    0.4258481    0.3454107  64.21  0.002422201    1.418    0.295
       112  -9.9908     95.1582    109.7483   4.4205533997e+01   4.1392166384e+01     0.273962     0.172292  77.32  0.000769601    2.806    0.644
       113 -12.0390    249.0094     83.0722   6.9859886162e+00   1.4239748200e+01    0.2556379    0.2029753 -58.20  0.001745213    1.300    0.231
       114 -10.3180    243.4149     80.5671   7.0241836667e+00   1.5519774636e+01    0.2567627    0.1621986  48.23  0.001520675    1.977    0.494
       115 -13.5412     97.9215     74.9438   3.3126767532e+01   4.8842086190e+01     1.627059    0.9605842 -63.26  0.002811932    2.349    0.574
       116 -12.7953    104.8010     65.8855   2.7820505438e+01   4.9091811088e+01     0.742374    0.4630216  36.56  0.003066201    1.808    0.447
       117 -12.6679     87.3696     61.7413   3.2133548200e+01   5.3992115350e+01    0.9593442    0.6024692 -15.60 0.0006659593    2.756    0.637
       118 -10.6236     72.0020    109.9425   5.2325237474e+01   4.5588794720e+01    0.2295075    0.2210404  64.97            0    1.009    0.009
       119 -13.6798    117.3408     61.8554   2.2809396129e+01   4.6768825431e+01     1.004335    0.7817231 -31.79   0.00213847    1.393    0.282
       120 -11.0316    196.0193    108.1355   1.9511254871e+01   2.0253365798e+01    0.3825573    0.2117469 -44.30  0.001785227    1.723    0.420
       121 -10.6799     82.9704     79.3781   3.9865853929e+01   5.1094859239e+01    0.5137329    0.2333328  40.55  0.001856363    2.171    0.539
       122 -10.9830     86.7713     76.0018   3.7361704546e+01   5.1067732532e+01    0.5743809    0.3107199 -53.45  0.001004578    2.005    0.501
       123 -11.9178     82.3436     72.6016   3.7868215904e+01   5.2762919721e+01    0.3972124    0.3468885  42.53  0.002008112    1.119    0.106
       124 -12.1278     73.9954     74.9449   4.1920703106e+01   5.3914886751e+01    0.8315677    0.4933083  46.99  0.002662665    1.713    0.416
       125 -11.3400     65.4067     70.5125   4.4050613669e+01   5.6566957248e+01    0.5606556    0.2431367  36.97  0.001881428    2.293    0.564
       126 -10.0176    155.2930     76.8521   1.8785965145e+01   3.4634967565e+01    0.2532634    0.1992888  71.62 0.0005810322    1.342    0.255
       127 -12.7628    245.9290     51.8994   6.6969250718e-01   1.8745949261e+01    0.6746584    0.1870663 -43.21  0.001543007    2.628    0.619
       128 -11.8358    249.8303     74.0718   5.0248253419e+00   1.5273475035e+01    0.3065759    0.2297003 -35.27  0.002055876    1.093    0.085
       129 -10.1724     89.4155     51.5241   2.7460297800e+01   5.5511232646e+01    0.2195686     0.208252  71.83 0.0001320377    1.073    0.068
       130 -10.9860    126.8781     59.1287   1.9453204467e+01   4.4835935695e+01    0.5996959    0.3193727  34.91  0.002127226    2.745    0.636
       131 -12.0335    173.6076     56.8164   9.8184443409e+00   3.3432685469e+01     0.335598    0.2783403  79.89 0.0004510826    1.211    0.174
       132 -12.8548    190.0882     44.1562   4.1487060610e+00   3.1286507322e+01     1.085024    0.6460099  62.88  0.002705816    1.737    0.424
       133 -10.8647    168.4542     51.3612   9.0233746236e+00   3.5493253551e+01     0.440768    0.3550796  -4.05  0.002218336    1.611    0.379
       134 -10.8645    198.0535     25.9786   3.5855793721e+02   3.1689370505e+01    0.2400562    0.2017456 -62.05  0.001109719    1.006    0.006
       135 -12.6127    197.3088     33.5509   5.8893184329e-01   3.0962922999e+01    0.9089333    0.5891706  74.29  0.004948813    1.569    0.363
       136 -11.8560    208.7635     46.9121   2.8442441758e+00   2.6732480453e+01    0.4921761     0.321235  84.10  0.002363277    1.671    0.402
       137 -12.0609    203.5838     40.0149   1.6364028122e+00   2.8747557331e+01    0.5957208     0.351787 -38.04  0.001043192    1.482    0.325
       138 -11.9999    189.4995     34.5396   1.6319755934e+00   3.2654676125e+01    0.4847462    0.3634612 -68.30  0.001480656    1.232    0.188
       139 -11.1938    162.8615     56.7644   1.1498007128e+01   3.6075668715e+01    0.4033133    0.3669038  80.45  0.001371254    1.081    0.075
       140 -10.4229    156.0056     54.5330   1.1989671775e+01   3.8135217825e+01    0.2855603    0.1850278  61.48 0.0004619394    1.518    0.341
       141 -11.9671    172.3527     44.3677   6.4299221486e+00   3.5515373462e+01    0.3535716    0.3345583 -50.89 0.0003837717    1.117    0.105
       142 -11.2727     63.7698    108.1412   5.5006861264e+01   4.7388919859e+01    0.2366162    0.2034075  68.48 0.0006274825    1.208    0.172
       143 -11.6196    123.3833     53.6141   1.8385093667e+01   4.6669732173e+01    0.3996254    0.2574562  65.93 0.0005917356    1.574    0.365
       144 -10.5051    207.5400     52.6835   4.3986321935e+00   2.6236743214e+01    0.2596768    0.2205313 -63.19 0.0009169448    1.075    0.070
       145 -10.8237    130.9139     51.5346   1.5925386339e+01   4.5059855763e+01    0.3223369    0.1861261 -52.90  0.001324609    1.921    0.479
       146  -9.5098    116.2260     50.5715   1.9070360665e+01   4.9020494323e+01    0.1599251    0.1101879 -61.87 0.0002735832    1.711    0.415
       147 -10.7418    198.4034     47.6157   4.1171477540e+00   2.8923998683e+01    0.3204474     0.256027  15.28   0.00133848    1.761    0.432
       148 -12.2459    160.7988    104.7575   2.5274460383e+01   2.8243694497e+01    0.4733959    0.2600748 -42.31 0.0002746283    1.773    0.436
       149 -11.7868    162.1260     21.0251   7.3618245906e-01   4.1009868145e+01    0.4920487    0.2728748  60.77  0.001159065    1.764    0.433
       150 -10.3995     15.5839    106.8436   7.4235279614e+01   5.3210828236e+01    0.2221588    0.1916648 -14.15 0.0005175257    1.320    0.243
       151 -10.8625    210.0393    104.8049   1.6543350475e+01   1.8077512003e+01    0.4119567     0.299003 -73.39  0.002166403    1.949    0.487
       152 -10.2898    143.0146     46.0713   1.1630989217e+01   4.2746808095e+01    0.5019605    0.2458534  41.90  0.001622821    2.641    0.621
       153  -9.9689    199.7304    106.0456   1.8417779861e+01   1.9864938302e+01    0.1959946    0.1594579 -31.35 0.0003827716    1.122    0.109
       154 -11.6724    154.4519     43.4925   8.8179719656e+00   4.0153705828e+01    0.8387236    0.4981804  24.51  0.003164813    3.117    0.679
       155 -12.0934    150.4869     41.4687   8.8197151018e+00   4.1461852031e+01    0.9817538    0.4840667  37.52  0.003476673    3.224    0.690
       156 -12.1009    161.2991     40.2058   6.7471282010e+00   3.8852926531e+01    0.5967216    0.3872052  47.66  0.001697231    1.739    0.425
       157 -11.9615    161.2096     35.7917   5.4048164898e+00   3.9459924771e+01    0.3153975    0.2485544  70.77 0.0006055765    1.229    0.186
       158 -10.5902    133.1310     46.6817   1.3777580584e+01   4.5239346165e+01    0.3826243    0.2352264 -66.74  0.001306733    2.070    0.517
       159 -11.7226    133.6299     40.4589   1.1510549823e+01   4.6026644093e+01    0.5516658    0.4316151 -49.96  0.002806765    1.289    0.224
       160 -11.8021    124.1667     69.4205   2.3569171527e+01   4.3663531608e+01    0.4903813     0.350489 -70.82  0.001040131    1.760    0.432
       161 -11.7050     96.3692     42.0380   2.1309499668e+01   5.5475410280e+01    0.6411127    0.2896792  55.34  0.001059738    2.080    0.519
       162 -11.3575    126.0271     45.4621   1.4873056706e+01   4.7288026509e+01    0.3232178    0.2807248  47.21 0.0006364195    1.192    0.161
       163  -9.3593    103.6618     46.7510   2.1038293459e+01   5.2864246210e+01    0.1543579    0.1133815  32.49 0.0002098973    1.564    0.361
       164 -10.2326    120.6092     43.3406   1.5331587268e+01   4.9033548650e+01    0.3934303    0.2515213 -51.95   0.00113141    1.696    0.410
       165 -11.8754    106.1832     86.9941   3.4307239416e+01   4.4354564324e+01    0.8826198    0.4856228  50.57  0.003454748    1.826    0.452
       166  -9.8390    167.6037     43.2033   6.7466860573e+00   3.6854211116e+01    0.1973648    0.1384903 -17.04 0.0009511768    1.756    0.430
       167 -10.0914    112.6869     38.7483   1.5481740305e+01   5.1801461879e+01     0.357693     0.126201  61.57 -4.055516e-07    2.747    0.636
       168 -11.6277     91.1089     34.2395   1.9601902819e+01   5.8017430963e+01    0.6205822    0.3069077  47.40  0.002503036    1.919    0.479
       169 -11.1117    161.0491     50.5329   9.9285024505e+00   3.7461740655e+01    0.8156232    0.5687976  19.67  0.003653111    2.216    0.549
       170 -10.8395    146.4601     39.5645   8.8713392827e+00   4.2775282952e+01     0.268202    0.2408555  65.32 0.0005921187    1.121    0.108
       171 -10.8474    131.9372     33.4807   9.3604576066e+00   4.7438695904e+01    0.3164125    0.2068609 -37.76 0.0004886184    1.561    0.359
       172 -10.4797    121.6605     33.1529   1.1278602933e+01   5.0222156872e+01    0.2274787    0.1887737  79.84 0.0005200696    1.151    0.131
       173 -10.2667    111.6649     32.7602   1.3359850873e+01   5.2928413214e+01    0.3036112    0.1905281  60.45  0.001378074    1.463    0.317
       174 -10.0764    241.6385     29.6392   3.5619628855e+02   2.2156837412e+01    0.2580861    0.1290873 -39.33  0.001457427    1.531    0.347
       175 -12.4906    209.8606     59.0091   5.6993846666e+00   2.4885509417e+01    0.5123137    0.3380122 -54.24  0.001367761    1.406    0.289
       176 -11.2100    103.8074     29.2106   1.3828170511e+01   5.5479939979e+01    0.3790021    0.3285921 -71.82  0.001511458    1.227    0.185
       177 -11.9549     97.5803     22.2230   1.2377791731e+01   5.8012016891e+01    0.3119695     0.279521  56.13 0.0005764282    1.043    0.041
       178 -11.2857    144.6232    102.8625   2.8395387710e+01   3.2225748121e+01    0.4417092    0.3371027   0.23  0.001898148    1.800    0.444
       179 -10.2395     80.4520     30.5137   2.1438938557e+01   6.1196762221e+01     0.221779    0.1980599  73.68 0.0001004861    1.183    0.155
       180 -10.9261     85.0010     29.0322   1.9189045746e+01   6.0305804210e+01    0.5350266    0.2374383  56.46  0.001892005    2.080    0.519
       181  -9.8085    114.5084     28.3970   1.0965331543e+01   5.2757698885e+01    0.1500065    0.1324544  58.05 8.746707e-05    1.090    0.083
       182 -12.2883    141.7267     96.1041   2.7246708615e+01   3.4239067095e+01     1.072709    0.3970003  47.82  0.001210973    2.687    0.628
       183 -10.1704    130.6315     19.4281   4.4745694652e+00   4.9504120025e+01    0.2625661    0.1325867  71.88  0.001106793    1.832    0.454
       184 -13.4730    120.8503    100.2441   3.3818299351e+01   3.8143672922e+01     1.142745    0.4891984 -39.19  0.003870201    2.616    0.618
       185 -10.7287    235.0481     23.7599   3.5532658600e+02   2.4078687605e+01    0.3180692    0.2873845  62.03  0.002026718    1.432    0.302
       186 -11.3779    176.1646     24.2340   1.5808651542e-01   3.7107073071e+01    0.3434463    0.2024421 -35.23 0.0006978523    1.612    0.380
       187  -9.9446    180.2421     20.6139   3.5872560468e+02   3.6514948081e+01    0.3182352    0.1794011  83.54 0.0009304819    1.741    0.425
       188 -12.7529    121.6823     87.7009   2.9971487072e+01   4.0633028742e+01    0.7087433    0.5640253   6.35   0.00322311    1.680    0.405
       189 -10.0951    128.7399     23.9569   6.4651919478e+00   4.9492732503e+01    0.2383025    0.1840516  72.83 0.0005698273    1.184    0.156
       190 -10.7569    112.6667     22.5586   9.0022505685e+00   5.3975706641e+01    0.4073318    0.3137184  40.54  0.002089551    1.392    0.281
       191 -10.6835    188.1123     23.5154   3.5879178464e+02   3.4292202773e+01    0.6503782    0.2074067  79.03  0.002295179    3.590    0.721
       192 -11.2600    132.4622     87.0662   2.6938626641e+01   3.8216568892e+01    0.6914596    0.2822222  57.49  0.002227681    2.904    0.656
       193 -14.1991     76.2545     58.7845   3.5257175545e+01   5.7030674635e+01    0.8839576    0.4935042  47.71  0.002210997    1.772    0.436
       194  -9.5722     14.4677     19.0569   5.3266467246e+01   7.5194700947e+01    0.1831474    0.1216321 -55.18  0.001003826    1.541    0.351
       195 -11.9371    125.4605     81.9965   2.7222269915e+01   4.0903729636e+01    0.7430027    0.4238095  29.14  0.002624073    2.717    0.632
       196 -11.0468    128.1324     76.1358   2.4709334382e+01   4.1408059928e+01    0.3478941    0.3084863  42.45  0.001006943    1.162    0.139
       197 -13.5529    128.5769     95.8526   3.0481520801e+01   3.7327353704e+01    0.8745994    0.6349227  51.47  0.002747613    1.368    0.269
       198 -12.6936    127.2729     90.2773   2.9222840797e+01   3.8788976038e+01    0.6990659    0.4333359  33.66  0.001922795    1.940    0.485
       199  -9.8956    109.6669    104.6887   3.8298687729e+01   3.9599612979e+01    0.1616141    0.1281594  -0.31 0.0007043835    1.677    0.404
       200 -10.1378     90.8124    104.1745   4.4228943656e+01   4.3605625313e+01    0.2144947    0.1908638  -3.88 0.0004453923    1.298    0.230
       201  -9.7109    194.2005     17.9151   3.5677881029e+02   3.3481299558e+01     0.209836    0.1414835 -58.06 0.0009783183    1.280    0.219
       202 -11.3257    215.9063     99.9060   1.4588114186e+01   1.7726963503e+01    0.3719638    0.1936615 -26.80  0.001105775    1.963    0.491
       203 -11.5603    168.9916     98.5932   2.2019636765e+01   2.7572656626e+01    0.6786518    0.4618503  -0.67  0.002853901    2.371    0.578
       204 -10.2071     87.7980     97.5956   4.3510744500e+01   4.5800720159e+01    0.2927895    0.2492948  56.93 0.0008397744    1.195    0.163
       205  -9.3531    154.4532     16.0104   4.2603820389e-02   4.3542542028e+01    0.2545725    0.1975747  15.36   0.00118665    1.756    0.430
       206 -11.2621     82.9917    101.9344   4.6375387051e+01   4.5663423654e+01    0.2958557    0.2590538  45.53            0    1.117    0.105
       207 -11.5539     82.9800     98.1007   4.5365262326e+01   4.6613997568e+01    0.5761449    0.3444175  31.77  0.001514532    1.775    0.437
       208 -10.0057     93.8782     16.1852   1.0556386474e+01   5.9691632431e+01    0.2029454    0.1579815  34.86  0.001054679    1.362    0.266
       209 -11.9562    152.2838     98.5214   2.5477127184e+01   3.1341751954e+01    0.6698672    0.4005063 -58.23  0.002718455    2.082    0.520
       210 -13.4918     79.3640     49.9796   3.0513673132e+01   5.8113160184e+01     1.111929    0.7406429  39.96  0.005076276    1.483    0.326
       211 -12.0129    137.6693     81.7960   2.4097693743e+01   3.7998915119e+01    0.8223791    0.7138302 -82.84  0.002768148    1.246    0.197
       212 -10.6817    225.8915     99.3739   1.3129652858e+01   1.5980156309e+01    0.2129854    0.1464267 -41.12 0.0004883074    1.261    0.207
       213 -12.8285    199.5907     96.6147   1.6210676110e+01   2.1412016300e+01    0.3880786    0.2822634 -30.78  0.002102016    1.290    0.225
       214 -12.1422    162.2622     83.6430   1.9331703233e+01   3.1779556783e+01     0.817441    0.3989455  45.06  0.003121828    2.253    0.556
       215  -9.9848     14.4873     13.5324   5.0158459181e+01   7.6290159986e+01    0.1988557    0.1061692  36.05 4.240229e-05    2.017    0.504
       216 -12.7311    168.3545     78.6030   1.6795384023e+01   3.1221211965e+01     1.650942    0.6264076 -53.70  0.001816893    4.163    0.760
       217 -11.8110    248.6712     43.2451   3.5862630601e+02   1.9290912668e+01    0.7339794    0.2852571 -40.13  0.002266246    1.873    0.466
       218 -14.5748    199.5703     81.4313   1.2524170785e+01   2.3799069210e+01      2.37654     1.475523  29.00  0.009875681    2.478    0.596
       219 -13.2823    179.7975     70.5013   1.2655301976e+01   2.9873588222e+01     1.922293     0.641755  64.09  0.006353329    3.611    0.723
       220 -12.7113    161.3166     64.7746   1.4125376041e+01   3.5200209652e+01     1.649528    0.7083177  66.95  0.005924663    2.742    0.635
       221 -13.6401    186.6256     59.6536   8.7365295368e+00   2.9936408579e+01     2.078218    0.9484977  63.60  0.004982806    2.289    0.563
       222 -10.6232    181.0269    244.0293   4.7342082792e+01   1.4682368181e+00    0.1821871    0.1334938  14.71  0.001087142    1.025    0.025
       223 -13.8047    242.7399     61.0505   2.9013671758e+00   1.8180710902e+01     1.333053     1.078515  70.88  0.009174221    1.472    0.321
       224  -9.5844      9.3317     10.2627   5.3083533546e+01   7.7438223095e+01    0.1297513    0.0823826 -18.49 0.0003104339    1.574    0.365
       225 -10.5895    145.0383     53.9060   1.3803756810e+01   4.1029727594e+01    0.7057559    0.4441866  56.13  0.001851586    1.553    0.356
       226 -12.1521    137.5071     70.9379   2.0814309313e+01   4.0061388262e+01    0.8823798    0.4978016  61.83  0.002604073    1.860    0.462
       227 -12.2972    146.4053     64.8501   1.6990024046e+01   3.8897773516e+01     1.010129    0.6723233 -37.77   0.00464762    1.506    0.336
       228 -11.7658    137.6932     59.7745   1.7206434462e+01   4.1961035801e+01    0.6598188    0.5009032 -56.66  0.002021857    1.365    0.267
       229 -14.2844    218.3031     68.8985   7.1174808315e+00   2.1783839224e+01      1.42362    0.8718114  64.24  0.002481525    1.854    0.461
       230  -9.5169    218.5129    239.5356   4.0064337262e+01  -2.2527434983e+00    0.1091248    0.0778025   5.23 0.0002194403    1.023    0.023
       231 -10.2674     15.9042    238.7860   8.2026582165e+01   2.1989641271e+01    0.1595651    0.1412226  37.08 0.0007254823    1.280    0.219
       232 -12.9366    208.8506     68.1502   8.0455821223e+00   2.3819711917e+01    0.7732357    0.2889787 -41.76  0.001444959    2.256    0.557
       233 -13.0717    199.3192     68.5565   9.3481529324e+00   2.5788765136e+01    0.8270711    0.5427428  75.65  0.002594946    1.759    0.432
       234  -9.7500    101.1497    176.0215   5.5463640807e+01   2.4586298465e+01    0.1831057    0.1680012  41.04 -0.0006383859    1.035    0.034
       235 -12.6976    218.2133     54.5938   3.7510986011e+00   2.3740126427e+01     0.884443    0.6426606 -12.15  0.004129013    1.743    0.426
       236 -12.0840    238.2047     51.1918   1.1438869814e+00   2.0252741737e+01    0.4003314    0.2182064 -51.60  0.001732445    1.595    0.373
       237 -13.0103    229.9117     47.3955   9.9596178683e-01   2.2314677442e+01    0.7422519    0.6047515  37.36  0.004781735    1.667    0.400
       238 -12.6535    102.7849     96.2639   3.8110373125e+01   4.3014960962e+01    0.6649623    0.3982084  37.69 0.0004968484    1.713    0.416
       239 -11.8666     95.4873     90.1481   3.8730778431e+01   4.5987743644e+01    0.6503084    0.4784383  76.22  0.002793219    1.792    0.442
       240 -12.2837    114.7782     86.5139   3.1570211434e+01   4.2492513849e+01    0.4873225    0.4246144  -7.53 0.0009107277    1.367    0.268
       241 -12.6747    115.1748     80.9517   2.9736994039e+01   4.3567944704e+01    0.7811835    0.5203127 -55.62  0.003347987    1.656    0.396
       242 -11.6318     57.2314     99.4619   5.5631597061e+01   5.0661043897e+01    0.3761002    0.1404472  33.34   0.00129153    2.567    0.610
       243 -11.2341     11.5881     98.3621   7.4967882439e+01   5.5759958845e+01    0.2571204    0.2336136 -81.91 0.0006135041    1.004    0.004
