#   1 NUMBER                 Running object number                                     
#   2 MAG_AUTO               Kron-like elliptical aperture magnitude                    [mag]
#   3 X_IMAGE                Object position along x                                    [pixel]
#   4 Y_IMAGE                Object position along y                                    [pixel]
#   5 X_WORLD                Barycenter position along world x axis                     [deg]
#   6 Y_WORLD                Barycenter position along world y axis                     [deg]
#   7 A_WORLD                Profile RMS along major axis (world units)                 [deg]
#   8 B_WORLD                Profile RMS along minor axis (world units)                 [deg]
#   9 THETA_WORLD            Position angle (CCW/world-x)                               [deg]
#  10 FWHM_WORLD             FWHM assuming a gaussian core                              [deg]
#  11 ELONGATION             A_IMAGE/B_IMAGE                                           
#  12 ELLIPTICITY            1 - B_IMAGE/A_IMAGE                                       
         1 -12.8440    229.9000     35.1862   7.3125594154e+00   2.7742931406e+01     1.855345    0.4405885 -51.89  0.008470844    3.220    0.689
         2 -15.2530    242.4706     66.8282   1.2103729216e+01   2.1934832968e+01     1.441615    0.7716702 -45.74  0.009005108    1.362    0.266
         3 -15.4717    249.0024    115.6148   1.9930857866e+01   1.4445436214e+01     2.729389    0.3869585 -41.89  0.009559339    4.883    0.795
         4 -15.3243      3.1117    131.0022   8.5631390448e+01   4.7911941285e+01     4.072708    0.2986006 -72.89   0.00929267    6.560    0.848
         5 -11.8913    219.4255     60.1063   1.2770010261e+01   2.6376088556e+01     1.319061    0.4867808 -42.15  0.006940582    2.079    0.519
         6 -15.2437    195.7090     61.2183   1.5280547317e+01   3.0325411892e+01     1.763584     1.247248 -89.09  0.008945771    1.455    0.313
         7 -15.5442      5.7454     72.7283   7.6589669446e+01   6.3339496323e+01     1.962649     1.127071 -76.70  0.006754717    1.916    0.478
         8 -13.9835     12.0454     47.7083   6.6257980158e+01   6.8700004285e+01     1.279894    0.5929795 -39.23  0.005618352    2.222    0.550
         9 -15.4644     26.7211     12.3025   4.0283852611e+01   7.3053990938e+01     1.792781     1.568148 -71.26   0.01156799    1.643    0.391
        10 -15.5519     56.2659     13.6670   2.6927410279e+01   6.6955669212e+01     1.652006     1.125862 -28.39  0.009484423    1.745    0.427
        11 -16.3166     75.8780     10.1966   1.9427122690e+01   6.2870678513e+01     2.868789     1.557538  56.14   0.01228861    1.542    0.351
        12 -13.7702      8.9303     23.4000   5.9021614491e+01   7.3895722135e+01    0.6762314    0.4308874  -8.48  0.002756303    1.729    0.421
        13 -13.0813    158.3148     11.1454   7.4894045405e+00   4.3869643622e+01    0.6729435    0.2710267  80.56  0.003295413    2.319    0.569
        14 -15.4160    127.9178      9.0181   9.9999619235e+00   5.0807889389e+01      1.52488    0.7769998  87.70   0.00782766    1.864    0.463
        15 -13.6594    151.5692      2.9659   5.9883111406e+00   4.6106980912e+01    0.8371518    0.3533125  78.82  0.004322968    2.064    0.516
        16 -10.7479    211.4655      1.0000   1.9029072934e+00   3.4507445445e+01    0.2034142   0.05024439  79.46 0.0009307704    3.903    0.744
        17 -13.8223    248.2837    244.8360   3.9802278089e+01  -3.3176094678e+00    0.5594023    0.3077079  -7.84  0.004141829    1.595    0.373
        18 -12.6204    102.2633    248.9661   6.7939391987e+01   9.1326142262e+00    0.7019165    0.3419491   3.32  0.003095171    2.541    0.606
        19 -14.1676     94.7467    246.6301   6.9464460876e+01   1.0347378132e+01    0.6182998    0.3891588 -66.96  0.003410558    2.056    0.514
        20 -15.1637     41.1087    244.6314   8.2486335293e+01   1.6062627124e+01     1.932266    0.8596756  34.23   0.00935462    1.774    0.436
        21 -15.2490     10.9145    178.5432   8.6524578916e+01   3.4426019421e+01     1.522415    0.8638775  32.23  0.005115148    1.611    0.379
        22 -14.1731      5.0413    222.6376   9.0549770466e+01   2.3922991847e+01    0.6683593    0.5740372  84.49  0.003198452    1.214    0.176
        23 -15.1245     29.4385    200.0353   8.2442329425e+01   2.7365792901e+01     2.256704     1.582426 -86.45   0.01177317    1.530    0.346
        24 -15.1100      7.8570    211.2388   8.9285648908e+01   2.6393537410e+01    0.9574268    0.4672425  42.46  0.003481983    1.753    0.429
        25 -15.1176      9.0105    200.6173   8.8422598697e+01   2.8902622442e+01     1.249562    0.5726957  68.94   0.00527263    2.384    0.581
        26 -13.9531    230.3381    237.7007   4.1454871189e+01  -1.1007817910e+00    0.5715318     0.233755 -33.97  0.003484677    1.880    0.468
        27 -15.1569    238.4272    143.7728   2.5847538611e+01   1.1649228390e+01     1.567742    0.7059231 -31.23  0.008392317    2.249    0.555
        28 -12.7023    229.7322    227.9801   4.0184707548e+01   2.5814784278e-01    0.3833595    0.1799219 -44.38   0.00234565    2.060    0.514
        29 -15.0589    247.8932     84.9868   1.4818594008e+01   1.8793293560e+01     1.214415    0.6368026 -41.09   0.00804216    1.444    0.307
        30 -15.1293    247.8347    171.0508   2.9109658586e+01   6.6521067161e+00     1.259381     0.491595 -36.86  0.006288931    1.947    0.486
        31 -14.0177    249.6496    150.7633   2.5660217058e+01   9.3665910944e+00    0.8684545    0.3069411 -39.73  0.003865685    2.089    0.521
        32 -11.2613    144.3269    181.6579   4.8632073875e+01   1.7388417433e+01     0.130246    0.1086065  74.16 0.0006788091    1.738    0.425
        33 -15.8304     15.9909    233.4735   8.8200512902e+01   2.0634041971e+01     1.553044    0.8988712  88.11  0.006756164    1.918    0.479
        34 -13.0158     90.4584    167.4679   6.0067110278e+01   2.8371018512e+01    0.8645478    0.5438526 -38.77   0.00386607    1.723    0.420
        35 -11.8676    145.7677    165.7308   4.5469147451e+01   2.0433064010e+01    0.2981632    0.2608536  57.87  0.001734595    1.397    0.284
        36 -14.3283      5.9980    239.8399   9.0981177757e+01   2.0025019554e+01     1.016132    0.4417375  67.51  0.004706005    2.441    0.590
        37 -11.8904    152.1048    155.6115   4.2175507274e+01   2.1525790422e+01    0.3194272    0.2717024  40.08  0.001874349    1.283    0.220
        38 -14.7300     43.1320    226.4257   8.0665369399e+01   1.9817257630e+01      1.25447    0.7043554  47.76  0.004116832    1.707    0.414
        39 -13.8411      8.2488     99.3903   7.9776525658e+01   5.6263326179e+01    0.6485538    0.4567311 -76.88  0.002207474    1.437    0.304
        40 -11.4797    208.4756    148.1678   3.0644615431e+01   1.4704476121e+01    0.1945978    0.1760303  22.13  0.001419789    1.313    0.239
        41 -13.0126     39.2877    144.8316   7.3347040372e+01   4.1032315259e+01    0.5148181    0.2925532 -12.61  0.001875736    2.461    0.594
        42 -12.8201     12.8326    102.2432   7.8020004221e+01   5.5178654500e+01    0.6406465     0.384827 -25.38  0.002185648    1.828    0.453
        43 -12.9461    215.7891    128.4011   2.6043275134e+01   1.6905213945e+01    0.3811282    0.3668611  -4.18  0.002955906    1.251    0.201
        44 -14.0016    190.0685    113.2549   2.6779602177e+01   2.3271186703e+01    0.8182259    0.6630869  59.69  0.004442309    1.442    0.306
        45 -15.8717    178.6330     96.5888   2.5044399593e+01   2.8033897565e+01     2.168932     1.117613  62.75   0.01051616    2.389    0.581
        46 -12.8194     67.9211    230.0007   7.4456884098e+01   1.6533337883e+01     1.222631    0.3001348  43.20  0.003755083    4.444    0.775
        47 -14.5211    179.4716     75.0377   2.0214941966e+01   3.1327561885e+01     1.130738    0.9187191 -19.27  0.006413503    1.647    0.393
        48 -14.4901    203.6120     76.1142   1.7485973190e+01   2.6821536347e+01     1.368424    0.4172433 -47.54  0.005903364    2.725    0.633
        49 -12.3957     54.4103    238.4466   7.8676184777e+01   1.6101898570e+01    0.4762841    0.2041714  40.43  0.001551697    2.045    0.511
        50 -13.0283    171.5963    114.5720   3.0031726617e+01   2.6166874251e+01    0.5014266     0.400359  46.73  0.002717837    1.412    0.292
        51 -14.7334    213.8796    100.1119   2.1008666109e+01   2.1584031633e+01      1.20154    0.8429866 -38.37  0.006088644    1.269    0.212
        52 -13.8233    146.2851     98.5405   3.1149355852e+01   3.3804992063e+01    0.9862086    0.7170426  -4.10  0.004650516    2.362    0.577
        53 -14.5481    141.1718     86.9667   2.9359500991e+01   3.6946477175e+01    0.9791009    0.7846773 -81.23  0.003730472    1.333    0.250
        54 -13.6389    228.3306    102.2986   1.9772894983e+01   1.9112731225e+01    0.8816075     0.373639 -36.40  0.004616353    2.124    0.529
        55 -13.9947     58.7944    233.4542   7.7134714715e+01   1.6730184302e+01    0.9290881    0.5670424  38.48  0.003754629    1.454    0.312
        56 -14.3549    144.7023     69.9889   2.4396715305e+01   3.9108591828e+01    0.8399554     0.813443 -43.11   0.00370442    1.212    0.175
        57 -13.1611    126.4674     71.1432   2.8264865171e+01   4.2836404312e+01    0.6174847    0.3859108  71.73  0.002930759    1.819    0.450
        58 -11.7213     27.0826    232.4830   8.5292764085e+01   1.9926438659e+01    0.3681406     0.215397  51.06  0.001227153    1.600    0.375
        59 -12.6405     19.0356     47.0446   6.1454541217e+01   6.8092726704e+01    0.5750407    0.3527622  65.53  0.002432621    3.041    0.671
        60 -13.9387     52.2827     45.1992   4.2588143653e+01   6.3216318052e+01    0.9016267    0.7748082 -28.15  0.004765438    1.286    0.222
        61 -14.2635     37.9260     52.1687   5.2311627780e+01   6.4421861469e+01     1.238938    0.5176017  35.49  0.003619902    2.191    0.544
        62 -13.0741     43.0737     45.2368   4.6982994154e+01   6.4896548743e+01      0.65402    0.4096614  31.20  0.002433177    1.530    0.346
        63 -12.2348    117.1848     53.8176   2.5286879967e+01   4.7717012439e+01    0.1870019    0.1649968  36.85  0.001093574    1.354    0.261
        64 -12.1620    149.6207     49.2266   1.8239706113e+01   4.1185567214e+01     0.351017    0.2107998 -64.88  0.001821267    1.737    0.424
        65 -12.5416    165.7730     46.0056   1.5271944965e+01   3.8213609004e+01     0.309113    0.2903795  61.29  0.001837978    1.341    0.254
        66 -13.5755    131.9768     38.2046   1.7950202321e+01   4.6578317980e+01    0.5505309    0.2683971 -74.79  0.002122425    3.334    0.700
        67 -13.0629     93.8740     34.8411   2.4467561312e+01   5.5808996811e+01    0.6345596    0.3708563 -61.36  0.002965376    2.185    0.542
        68 -12.7163      4.0622     35.2932   6.7762846912e+01   7.2053390524e+01    0.4871594    0.2932316 -35.52  0.001589224    1.600    0.375
        69 -13.6947    213.1015    231.3616   4.3276119112e+01   1.1750967416e+00     0.502458    0.2723469   3.24  0.003117052    1.923    0.480
        70 -14.9196     92.2380    217.2678   6.6753061288e+01   1.6580335717e+01    0.9171857    0.7774172  82.42  0.005336578    1.505    0.336
        71 -13.0208     75.4687    215.3987   7.0945254801e+01   1.8922207819e+01    0.5774823    0.5027208  68.04  0.003395182    1.320    0.243
        72 -11.2726    142.7118    204.5772   5.2733500816e+01   1.3046965403e+01    0.3340324    0.1235711 -57.29  0.001221889    3.628    0.724
        73 -12.1701      2.3834     23.2133   6.4357261169e+01   7.4601095041e+01    0.2996397    0.1916124 -45.54  0.001260899    1.561    0.359
        74 -14.2460    244.4022    224.8745   3.7606310877e+01  -4.8610311809e-01    0.6902059    0.3577939 -12.99   0.00416242    1.940    0.484
        75 -14.1104    248.7105    184.1185   3.1023531693e+01   4.7175115207e+00    0.6353227    0.3522864 -40.15  0.003000992    1.385    0.278
        76 -11.2884     31.2801    222.8476   8.3577068038e+01   2.1730376352e+01    0.3657898    0.2238915  78.60   0.00184955    1.876    0.467
