#   1 NUMBER                 Running object number                                     
#   2 MAG_AUTO               Kron-like elliptical aperture magnitude                    [mag]
#   3 X_IMAGE                Object position along x                                    [pixel]
#   4 Y_IMAGE                Object position along y                                    [pixel]
#   5 X_WORLD                Barycenter position along world x axis                     [deg]
#   6 Y_WORLD                Barycenter position along world y axis                     [deg]
#   7 A_WORLD                Profile RMS along major axis (world units)                 [deg]
#   8 B_WORLD                Profile RMS along minor axis (world units)                 [deg]
#   9 THETA_WORLD            Position angle (CCW/world-x)                               [deg]
#  10 FWHM_WORLD             FWHM assuming a gaussian core                              [deg]
#  11 ELONGATION             A_IMAGE/B_IMAGE                                           
#  12 ELLIPTICITY            1 - B_IMAGE/A_IMAGE                                       
         1  -7.7133    119.7813     11.0049   2.9201198944e+01   5.3485080075e+01     0.178877     0.118186 -23.96 0.0006408413    1.636    0.389
         2  -8.4832     55.8081      9.9234   4.7784700439e+01   6.9551891043e+01    0.2344159    0.1875006 -54.24 0.0006556109    1.569    0.363
         3  -7.7756     47.6297      9.8232   5.1984484143e+01   7.1251446947e+01     0.183166    0.1244017 -43.57 0.0004681374    1.664    0.399
         4  -8.1510     91.1709      8.2424   3.4129923408e+01   6.1297125305e+01    0.1958907    0.1641003 -64.80 0.0005791051    1.344    0.256
         5  -8.1051      6.6532      8.3273   8.3432448288e+01   7.7269147220e+01    0.1231439    0.0940216  54.27 0.0002979423    1.752    0.429
         6  -8.4058     33.8469      5.1728   5.7523238928e+01   7.4518639157e+01    0.3029966    0.1644894 -53.88  0.001297452    2.846    0.649
         7  -8.5671     79.0726      3.5284   3.5021542490e+01   6.4862028701e+01    0.2712919     0.178204 -43.73   0.00103844    1.729    0.422
         8  -7.7094     44.5929      2.8136   4.8950930575e+01   7.2857744618e+01    0.1763434    0.1234605 -40.28 0.0005359569    1.608    0.378
         9  -8.0725     16.1913      3.4101   7.1012688937e+01   7.7382985910e+01    0.1702881    0.1116585  35.14 0.0005486174    1.629    0.386
        10  -8.1537     62.6105      1.3687   3.9379228249e+01   6.9087549806e+01    0.2419423    0.1273953  63.89 0.0005664555    1.969    0.492
        11  -9.6972     10.9490    245.2006   1.0668760536e+02   2.2518684248e+01    0.4495754   0.07655548  54.04  0.001954266    3.761    0.734
        12 -10.0429    248.8026    242.3128   6.0767622279e+01  -2.4073568699e+00    0.4217316    0.1617942 -33.38  0.002319943    2.752    0.637
        13  -9.1955    232.8783    246.7272   6.3777056584e+01  -1.3026705708e+00    0.3208273     0.153687 -28.23  0.001787686    2.051    0.513
        14  -9.3834    219.0673    247.6455   6.6090429122e+01  -2.2407186447e-02    0.3151525    0.1738534 -44.03  0.001965534    3.287    0.696
        15  -9.1326    146.9948    245.7997   7.8771246233e+01   8.1431819337e+00    0.2331737    0.1478421  47.71  0.001470202    2.039    0.509
        16  -8.3738     93.8636    249.4922   8.9831795106e+01   1.3735030860e+01    0.2039433    0.1032325  52.94  0.001092378    2.279    0.561
        17  -7.3453     86.3051    250.6436   9.1476251271e+01   1.4394202058e+01    0.1153384   0.06432276  49.24 0.0007040448    1.719    0.418
        18  -7.4019     72.3005    250.6751   9.4364581268e+01   1.5887146185e+01    0.1145724   0.06178784  48.45 0.0007028465    1.634    0.388
        19  -7.7738     25.6899    250.3116   1.0387203153e+02   2.0446412433e+01    0.1142794   0.05174753  48.60 0.0002200612    1.626    0.385
        20  -8.9423    120.0757    245.0817   8.4063926125e+01   1.1387525627e+01    0.2472888    0.1774259  65.93  0.001619533    2.149    0.535
        21  -8.8662     67.5545    244.3160   9.4943069162e+01   1.7380242324e+01    0.1634598    0.1098799 -86.07 0.0007890966    1.959    0.489
        22  -8.5572    201.9961    243.0167   6.8328693976e+01   2.2433985195e+00     0.194314    0.1366014 -43.03 0.0008948089    2.276    0.561
        23  -8.1395    139.4476    244.2467   8.0083195230e+01   9.2322431841e+00    0.1202926     0.112675  87.97 0.0009416919    1.674    0.403
        24  -8.9726     78.2340    243.1951   9.2612844997e+01   1.6416993028e+01      0.28677    0.1232454  54.04  0.001444986    2.695    0.629
        25  -7.6923     34.6644    244.2991   1.0182588673e+02   2.0623338418e+01     0.118599   0.05424168  47.91 0.0007033265    1.655    0.396
        26  -8.6454    169.1172    243.0999   7.4231551441e+01   5.9142786194e+00    0.1895793    0.1281076  30.69 0.0007377354    1.329    0.247
        27  -8.1270     49.5037    242.5506   9.8645498320e+01   1.9502122030e+01    0.1723598   0.09166426  76.57  0.001023009    2.342    0.573
        28  -9.2140    183.3100    240.1013   7.1244048264e+01   4.6460922032e+00    0.3371175    0.2193745  50.85  0.001959762    3.036    0.671
        29  -9.2380    160.2000    240.2472   7.5574373638e+01   7.3101261890e+00    0.2396753      0.20982  79.33  0.001327256    2.157    0.536
        30  -8.2874    153.6695    241.7208   7.7008752464e+01   7.8903589287e+00    0.1692071    0.1402663  81.48  0.001158141    2.381    0.580
        31  -8.0917     88.1274    241.9017   9.0422503308e+01   1.5527664302e+01    0.1699685    0.1211103  44.45 0.0006564841    1.255    0.203
        32  -8.6264    149.1355    250.2267   7.8845725987e+01   7.3279381478e+00    0.1761134    0.1374008 -13.46 0.0008033282    1.402    0.287
        33  -9.0643    241.7581    237.9670   6.1223468659e+01  -1.3313651891e+00    0.4075042    0.1565107 -12.33   0.00188954    4.076    0.755
        34  -8.2036    146.3578    239.3842   7.8170348348e+01   9.0666494821e+00    0.1910008    0.1288708  49.83 0.0009364666    1.998    0.500
        35  -9.9479    215.1364    233.4322   6.4818569322e+01   1.8570546184e+00     0.400336    0.3503341  86.82  0.002501752    4.032    0.752
        36  -8.5799    193.9931    239.2960   6.9230935249e+01   3.5340528250e+00    0.1549389    0.1040124  16.65 0.0005070763    1.088    0.081
        37  -9.3070    135.6959    238.6296   8.0218607318e+01   1.0447166646e+01     0.246938    0.1501703  43.88  0.001068176    1.733    0.423
        38 -10.2525    116.6503    237.4791   8.4014437610e+01   1.2895003591e+01    0.2235712    0.1830481  24.87  0.000423884    1.096    0.088
        39  -9.3231    108.5778    233.9851   8.5370434411e+01   1.4388142791e+01    0.4048501    0.1954295  47.59  0.001238742    2.202    0.546
        40  -7.5232     40.6947    239.6646   1.0036431450e+02   2.0832447803e+01   0.09843502   0.08018189 -10.62  0.000703966    1.669    0.401
        41  -9.2966    231.0452    236.0271   6.2607816381e+01  -7.7778744582e-02    0.3087027    0.2012345 -26.63  0.001919496    1.654    0.395
        42  -8.3922    209.1847    238.2321   6.6471270061e+01   1.9837609485e+00    0.1315835    0.1056568  14.93 0.0005456163    1.383    0.277
        43  -8.1656    129.0124    238.1908   8.1531007801e+01   1.1311386604e+01    0.1473861    0.1196203  56.08  0.001005256    1.634    0.388
        44  -8.3356     25.6239    236.7662   1.0342933757e+02   2.2701745634e+01    0.2398267    0.0804828  62.32  0.001157997    3.043    0.671
        45  -8.9015    203.0876    234.3010   6.6977191928e+01   3.0824942760e+00    0.2320386    0.1654359 -45.93  0.001039861    2.388    0.581
        46  -9.7849    175.7592    233.3058   7.1755360898e+01   6.3453662988e+00    0.3579945    0.2040033 -50.64  0.002108078    2.843    0.648
        47  -8.6850    248.0394    234.1663   5.9751076273e+01  -1.5777296592e+00    0.1930281    0.1090763 -13.03 0.0008402734    1.419    0.296
        48  -9.5514    246.5361    228.6082   5.9184744262e+01  -8.9858137139e-01     0.362554    0.1426197 -28.68  0.001576702    2.320    0.569
        49  -8.1499    170.3666    235.3057   7.3026413608e+01   6.7343665517e+00    0.1237919    0.1056989 -36.23 0.0005618226    1.627    0.385
        50  -8.8073     78.7588    234.2996   9.1834767039e+01   1.7792238141e+01    0.2256315    0.1399921  74.55  0.001199851    2.216    0.549
        51  -8.1914    123.0056    233.9947   8.2324586310e+01   1.2647570087e+01    0.1802664    0.1180389  49.39 0.0007232997    1.750    0.429
        52  -8.2895     99.7903    234.2021   8.7272343109e+01   1.5395940106e+01    0.1987843   0.09238033  53.17 0.0009520458    2.804    0.643
        53  -8.5764    194.7717    232.5629   6.8194215967e+01   4.2188350802e+00    0.1608775    0.1439234 -32.10 0.0008985577    1.759    0.432
        54  -7.5018    145.6298    233.3198   7.7606233768e+01   9.9823148976e+00    0.1147505   0.07628594  46.17  0.000703496    1.796    0.443
        55  -8.9156    140.2481    230.2034   7.8327809247e+01   1.1083617856e+01    0.3645535    0.1321668  41.15  0.001546871    2.691    0.628
        56  -8.5626     92.9148    231.9451   8.8555505972e+01   1.6561732918e+01     0.306918    0.1427929  52.38    0.0011702    2.534    0.605
        57  -9.5759     68.3774    231.6724   9.3912799796e+01   1.9371900761e+01    0.4457355    0.2113685  63.79  0.002228121    2.849    0.649
        58  -9.1962    186.3688    230.3207   6.9400211820e+01   5.4594220578e+00    0.2425298    0.2006963 -61.92  0.001378482    2.476    0.596
        59  -8.1206    157.8133    231.8126   7.5002500456e+01   8.6987407306e+00    0.1487456    0.1146913  32.49  0.000477686    1.317    0.241
        60  -8.0586    132.5008    232.5078   8.0187719778e+01   1.1706582846e+01    0.1189081   0.08970376  26.76 0.0008098277    1.064    0.060
        61  -9.1003    235.9960    230.2144   6.1017332751e+01   5.0706580658e-04    0.2342003    0.1187345 -27.60  0.001017715    1.865    0.464
        62  -8.5528      1.7056    230.8112   1.0827960793e+02   2.5691601088e+01    0.2069318    0.1018411  60.01  0.001324458    1.649    0.393
        63  -8.9642    151.4771    228.9809   7.5905072375e+01   9.8637547292e+00      0.23918    0.1798078  57.84   0.00123324    2.128    0.530
        64  -9.3958    148.6000    224.3217   7.5901281987e+01   1.0879737805e+01    0.2960176    0.2151783  58.51  0.001799415    2.219    0.549
        65  -9.0684      9.0351    229.5215   1.0671683143e+02   2.5352000592e+01    0.2468668    0.0483214  54.75  0.001044629    3.562    0.719
        66  -8.0901    229.9925    228.9497   6.1777211155e+01   7.4930210005e-01    0.1348517    0.1196235   9.49  0.001117097    1.744    0.427
        67  -8.6491    162.4270    227.7585   7.3582434327e+01   8.6754460540e+00    0.2643353    0.1619412  44.90  0.001567544    2.033    0.508
        68  -8.1255    120.1924    227.7594   8.2245265134e+01   1.3935491997e+01    0.1884955    0.1027262  54.74 0.0008410537    2.699    0.629
        69  -8.1506    223.4407    226.5477   6.2482941738e+01   1.6974532395e+00     0.192738   0.08880403 -30.31 0.0007403845    2.128    0.530
        70  -9.3860    225.7565    221.5728   6.1385880232e+01   1.9799577207e+00    0.2405805    0.1809159  -0.34  0.001104949    1.152    0.132
        71  -7.9886    177.9624    227.0132   7.0507025910e+01   6.8725133144e+00    0.1403783    0.1034375  13.69 0.0004914995    1.004    0.004
        72  -8.7262    180.6093    224.0714   6.9609145248e+01   6.9248236754e+00    0.2366049    0.1347159  35.03  0.001047344    1.635    0.388
        73  -8.7815    127.7065    226.9505   8.0558093312e+01   1.3123914326e+01    0.2582855    0.1476615  43.85  0.001284144    1.753    0.430
        74  -8.2778     49.5923    226.4500   9.7743563704e+01   2.2245282767e+01    0.2244419   0.09986479  60.78  0.001142574    2.460    0.594
        75  -8.5562    206.0568    225.6287   6.5257479923e+01   3.7295811068e+00    0.1739676    0.1438017 -30.79  0.001057097    1.701    0.412
        76  -8.3381    200.1317    226.1816   6.6365836297e+01   4.3464538307e+00    0.1361823    0.1122061  13.89 0.0004022105    1.324    0.244
        77  -8.9665    140.9462    224.7016   7.7520519618e+01   1.1792950339e+01    0.2478307    0.1918643 -60.31  0.001275572    1.914    0.477
        78  -8.9174     94.0066    223.9245   8.7579081294e+01   1.7754782912e+01    0.3817483    0.1592547  45.73  0.001844562    2.274    0.560
        79  -8.7995    216.3312    222.9984   6.3138728359e+01   2.8653368707e+00    0.1763095    0.1495651 -22.50 0.0008045125    1.629    0.386
        80  -7.8924    114.0035    223.9499   8.3166067510e+01   1.5302154492e+01    0.1854567      0.12049  49.39 0.0006564501    1.669    0.401
        81  -8.9392    104.7767    223.4651   8.5140529881e+01   1.6523123078e+01    0.2705862    0.1862655  68.59  0.001607491    2.080    0.519
        82  -7.7233     38.3756    224.2515   1.0013268999e+02   2.3738746465e+01    0.1479972   0.09192461  71.27 0.0005788814    1.675    0.403
        83  -8.6613    173.1217    222.6605   7.0832188310e+01   8.0285737263e+00    0.1902781    0.1780978  58.26 0.0008023499    1.775    0.437
        84  -9.2941    160.8603    221.3563   7.3047902459e+01   9.7440200680e+00    0.5339127    0.2175862  46.31  0.002162533    4.016    0.751
        85  -9.1944    238.9931    221.2916   5.9261948523e+01   5.9716693354e-01    0.2426755    0.1448833 -27.87  0.001072074    1.665    0.399
        86  -9.3098    192.3565    221.2374   6.7049735987e+01   5.8566952631e+00    0.2150288     0.207229  33.78 0.0008977356    1.773    0.436
        87  -8.4424     27.4218    220.8567   1.0243148466e+02   2.5369201647e+01    0.2377522    0.1016863 -75.37  0.001285717    2.654    0.623
        88  -8.5143      8.5015    222.4650   1.0666000819e+02   2.6661509195e+01    0.1117141   0.08267168  46.29 4.923412e-05    1.003    0.003
        89  -8.2869    202.6990    219.9574   6.5024536634e+01   4.7802516779e+00    0.1516715    0.1155294  -0.14  0.000559541    1.111    0.100
        90  -9.2085    120.2181    218.8059   8.1231864271e+01   1.5341081872e+01    0.4052919    0.2005929  53.14  0.001841179    3.036    0.671
        91  -8.7066     82.8855    220.0307   8.9732172453e+01   1.9741834349e+01    0.2509852    0.1446399  51.56  0.001047697    1.732    0.423
        92  -7.9412     73.2892    220.6314   9.1975461645e+01   2.0742488504e+01    0.1255852   0.07273728  53.49 0.0007023509    1.710    0.415
        93  -9.4526    249.4702    218.1855   5.7224724687e+01  -1.6582226613e-01    0.2129828    0.1709703  42.26  0.001208735    2.523    0.604
        94  -7.9118    151.4937    218.4688   7.4552972829e+01   1.1353115613e+01    0.1220437    0.0935503  17.26 0.0008097168    1.023    0.023
        95  -9.2614    133.0540    216.0293   7.8110126257e+01   1.4120406689e+01    0.4126431    0.2589808  62.92  0.002040544    3.043    0.671
        96  -9.1221     51.6654    217.1067   9.6701532143e+01   2.3727363609e+01    0.2577877    0.1581463  74.93  0.001087245    1.859    0.462
        97  -7.4952    179.5051    217.4913   6.8894047003e+01   7.9117433619e+00    0.1165849   0.09025928  15.31 0.0008093604    1.080    0.074
        98  -8.7149    169.3899    216.0203   7.0633185950e+01   9.3924103682e+00    0.2244766    0.1970006  85.93  0.001007854    2.179    0.541
        99  -8.5892    143.0754    216.5114   7.6041832364e+01   1.2736786197e+01    0.2224967    0.1760961  59.04  0.001280125    1.835    0.455
       100  -8.3274     62.0462    217.0917   9.4293350009e+01   2.2629119390e+01    0.2589704    0.1022562  47.87  0.001237878    2.237    0.553
       101  -8.1393    210.1633    219.1375   6.3614609245e+01   4.0049620557e+00    0.1350972    0.1131784   6.26 0.0004307712    1.340    0.254
       102  -7.8000    111.3817    216.6828   8.2945183778e+01   1.6816705791e+01    0.1294387   0.07807901  50.04 0.0007022249    1.822    0.451
       103  -8.3180     18.5627    215.2917   1.0421580989e+02   2.7174774091e+01    0.2030899    0.0999676  85.19  0.001153165    2.178    0.541
       104  -8.6727    232.2625    214.2847   5.9262239007e+01   2.0547989884e+00    0.1990564    0.1557947 -27.89  0.001228688    1.667    0.400
       105  -8.0731    154.6239    215.2608   7.3482430319e+01   1.1412764453e+01    0.1716433    0.1324778  51.64  0.001087399    1.791    0.442
       106  -7.8594     41.5174    215.4972   9.8957039157e+01   2.5048059454e+01    0.1201954   0.09179928  43.56 -3.598344e-05    1.026    0.025
       107  -9.3974    214.1046    212.1173   6.1896400868e+01   4.3618051250e+00    0.3109335    0.2162775  43.57  0.002022766    2.201    0.546
       108  -8.9180     93.0572    213.7050   8.6795824141e+01   1.9628848522e+01    0.3293245    0.1489067  48.33  0.001516587    2.277    0.561
       109  -9.4365     73.7598    212.0127   9.1146583598e+01   2.2247021781e+01    0.6911043    0.1896327  48.99  0.002383567    4.331    0.769
       110  -8.0342    106.7449    212.7708   8.3554324918e+01   1.8069354604e+01    0.1716233    0.1222674  45.62  0.001048974    1.360    0.265
       111  -8.1315    185.6614    214.1667   6.7257116363e+01   7.5733183578e+00    0.1518188    0.1386709  -7.33  0.000785859    1.430    0.301
       112  -8.5197    161.7715    212.1259   7.1597294848e+01   1.0929002167e+01     0.172757    0.1459558  32.91 0.0008506002    1.339    0.253
       113  -9.3360      5.7560    207.7453   1.0690542480e+02   2.9640012923e+01    0.2945946    0.1033857  66.66  0.001405925    2.647    0.622
       114  -9.0927    204.1790    210.5298   6.3363325514e+01   5.7394955557e+00    0.2184527    0.1668855 -29.07 0.0008286271    1.519    0.342
       115  -8.3002    192.4704    210.4499   6.5448239448e+01   7.1980105030e+00    0.1630474    0.1477971  33.98 0.0006171435    1.626    0.385
       116  -9.3961    175.4199    209.6228   6.8537133160e+01   9.4922686909e+00     0.325949    0.2401969  55.53  0.001698588    2.358    0.576
       117  -8.5948    148.1888    210.5105   7.4166892130e+01   1.2969930153e+01    0.2351023    0.1781404  52.99  0.001084145    1.790    0.441
       118  -8.8778    116.3785    210.3398   8.1087276126e+01   1.7232994516e+01    0.2964163    0.1797001  53.90 0.0008599834    2.070    0.517
       119  -8.1531     46.9046    209.7770   9.7351473304e+01   2.5596967645e+01    0.2190493   0.08851557  46.27   0.00107655    2.006    0.501
       120  -7.8930     32.4477    209.9725   1.0078410839e+02   2.6964042613e+01    0.1709422   0.07054013  64.16 0.0007315528    2.576    0.612
       121  -9.1878    236.5341    208.0305   5.7637148425e+01   2.2616617214e+00    0.2280199    0.1871396 -33.43  0.001264731    1.871    0.465
       122  -8.3824     85.6284    209.2970   8.8092823289e+01   2.1332821357e+01    0.1997569    0.1197026  54.02  0.001090694    1.767    0.434
       123  -9.3076    246.4905    207.0819   5.5978579401e+01   1.2801861546e+00    0.2146364    0.1459019 -18.71 0.0007562432    1.300    0.231
       124  -8.3634    139.1223    207.6986   7.5716241862e+01   1.4626417636e+01    0.1821495    0.1729823  65.98 0.0008546882    1.441    0.306
       125  -8.0975    126.4918    208.0530   7.8535453979e+01   1.6271784693e+01    0.1568219    0.1270607 -52.62 0.0006464492    1.559    0.359
       126  -9.0604     99.2991    205.7105   8.4489779213e+01   2.0267352786e+01    0.3306154    0.2117789  71.54  0.001161426    2.378    0.579
       127  -8.6080     12.4652    206.5142   1.0532258284e+02   2.9359270614e+01    0.1163338   0.08938252  48.53 0.0005179812    1.006    0.006
       128  -9.2140    194.8013    203.4348   6.3948660007e+01   7.8094145855e+00     0.246911     0.233252  24.38 0.0009642189    1.590    0.371
       129  -9.3590    192.7399    197.3804   6.3371075436e+01   8.8800015456e+00    0.3409355    0.3020978  89.64  0.001563439    2.350    0.574
       130  -9.0066    184.0308    203.8269   6.6012927832e+01   9.1577054508e+00    0.2884106    0.1964138  43.44  0.001581224    1.851    0.460
       131  -7.8905    108.9834    204.9850   8.2140077568e+01   1.9131929390e+01    0.1944174    0.1328933  53.36 0.0006559679    1.649    0.394
       132  -8.4604     56.2396    205.0770   9.4782696253e+01   2.5527084356e+01     0.242266    0.1089439  48.49 0.0009526522    1.959    0.490
       133  -9.6444    163.9367    203.0347   6.9839974018e+01   1.1963828155e+01     0.389809    0.2247183  46.46  0.001358936    2.196    0.545
       134  -8.6074    131.3533    203.9939   7.6921202580e+01   1.6284553175e+01    0.2328903    0.1493857  47.24  0.001293486    1.718    0.418
       135  -9.4801    250.1347    201.6371   5.4589964878e+01   1.4614300844e+00    0.3579253    0.1293411 -31.45  0.001461116    2.467    0.595
       136  -9.4640    245.7032    193.2751   5.3903052763e+01   2.8486669882e+00    0.2835723    0.1988893 -45.22  0.001852709    2.524    0.604
       137  -9.1682    243.2881    200.4209   5.5412094683e+01   2.3391673311e+00    0.2686302    0.1467651 -27.55 0.0008215379    1.638    0.390
       138  -8.4139    210.9908    201.5311   6.0783289449e+01   6.0069237381e+00    0.1838242    0.1481954 -33.37 0.0008349323    1.627    0.385
       139  -8.8550    140.4505    200.8493   7.4479547347e+01   1.5544823538e+01    0.3026309     0.204924  58.18  0.001576343    2.250    0.556
       140  -8.1853     48.7636    202.1862   9.6399884858e+01   2.6886689207e+01    0.2262432   0.08385708  54.84  0.000957687    2.826    0.646
       141  -7.7020     41.3254    202.6565   9.8250885523e+01   2.7547055925e+01    0.1347031   0.06857265  52.72 0.0007050798    1.738    0.425
       142  -8.1020    222.1744    201.2131   5.8855852879e+01   4.6842351330e+00    0.1384886    0.1166222 -12.09 0.0004877141    1.378    0.274
       143  -8.4444     80.1618    201.0965   8.8595415152e+01   2.3536208647e+01    0.2645543    0.1194022  47.76  0.001231439    2.131    0.531
       144  -9.5215    149.7106    198.4585   7.2128116217e+01   1.4634286668e+01    0.3751948    0.2751223  68.31  0.001561065    2.547    0.607
       145  -8.8429    124.0571    199.0206   7.7900508602e+01   1.8131696241e+01    0.2716048    0.2065561  72.43  0.001091808    1.989    0.497
       146  -9.3247    112.8168    198.1638   8.0399984803e+01   1.9830901758e+01    0.3853152    0.2146895  56.96  0.001672747    2.591    0.614
       147  -9.1543    237.0908    198.0033   5.5969044176e+01   3.3048329754e+00    0.2932463    0.1252189 -33.65  0.001579334    2.243    0.554
       148  -8.2969    177.1044    198.9104   6.6584699577e+01   1.0768603120e+01    0.1716902     0.146481  27.91 0.0005751209    1.315    0.240
       149  -9.0260     88.8223    198.1883   8.6172679544e+01   2.3008115303e+01    0.3494358    0.2085765  62.75  0.001378695    2.176    0.540
       150  -8.5184    202.3031    197.5513   6.1665206222e+01   7.6067976456e+00    0.1988796    0.1712344 -55.16 0.0009054774    2.069    0.517
       151  -8.9958     61.1715    196.9306   9.2916460402e+01   2.6591597182e+01    0.3720059    0.1864921  62.78  0.001378811    2.395    0.583
       152  -7.6520     29.3139    197.6532   1.0091642558e+02   2.9693014135e+01    0.1339961    0.0670108  53.23 0.0003451605    1.717    0.417
       153  -8.6057     12.6067    196.8895   1.0497138928e+02   3.1264949165e+01    0.2415749     0.114278  69.44   0.00129351    2.006    0.502
       154  -8.8230    215.8413    195.2161   5.8942603826e+01   6.1802726487e+00     0.206841    0.1481341 -39.91  0.000897012    1.856    0.461
       155  -8.2103    133.0346    195.9219   7.5428698416e+01   1.7405468005e+01    0.1889513    0.1442193  56.22 0.0008537807    1.681    0.405
       156  -7.6267     36.3062    196.6343   9.9125224246e+01   2.9248296489e+01    0.1355652   0.06942705  54.36 0.0007037016    1.746    0.427
       157  -8.6793    224.6915    193.9000   5.7264228064e+01   5.2463099052e+00    0.2722815    0.1275146 -40.05  0.001219474    2.543    0.607
       158  -7.5686    209.3215    195.6578   6.0127594724e+01   6.9483457519e+00    0.0969208   0.09320855  30.68 0.0007050292    1.724    0.420
       159  -8.9748    185.2728    194.7045   6.4341652026e+01   1.0250148717e+01    0.1991575    0.1904276  41.31 0.0007177216    1.585    0.369
       160  -9.0637    161.0037    194.0370   6.9071420220e+01   1.3731933668e+01    0.2718808    0.2202076  65.64  0.001208596    2.049    0.512
       161  -8.4158    230.9375    193.7355   5.6237315861e+01   4.5119146284e+00    0.1816569    0.1246614 -31.71 0.0006198122    1.596    0.373
       162  -8.8930     77.0996    193.7802   8.8615811090e+01   2.5339665518e+01     0.253177    0.1784589  50.17 0.0005825547    1.330    0.248
       163  -8.8824     43.8548    193.3794   9.7016603697e+01   2.9171774400e+01    0.4071388     0.174628  53.09  0.001919454    2.192    0.544
       164  -8.4284    172.7640    191.7168   6.6302687811e+01   1.2417534548e+01     0.192548    0.1673001 -78.94 0.0008538039    2.056    0.514
       165  -7.7594     67.2972    203.6230   9.1973010500e+01   2.4576892971e+01    0.1335968   0.07683975  55.34  0.000702485    1.752    0.429
       166  -7.9254    205.2786    191.6155   6.0170527746e+01   7.9890407909e+00   0.09808939   0.09482069 -40.62 0.0005446838    1.723    0.420
       167  -8.0354    198.8634    191.3716   6.1274886212e+01   8.8706861573e+00    0.1547458     0.130346  -6.13 0.0005058773    1.190    0.160
       168  -7.9981    179.1833    191.2394   6.4955488296e+01   1.1584940792e+01    0.1513817    0.1393072  22.74  0.000606174    1.360    0.265
       169  -9.0402    139.3188    190.2451   7.3181121528e+01   1.7469823891e+01    0.2678184    0.2231319  80.92 0.0009900894    1.861    0.463
       170 -10.3139     92.3403    188.6811   8.4206537073e+01   2.4390759196e+01    0.9380849    0.2182073  41.66  0.003102094    3.725    0.732
       171  -8.7145    148.5209    189.0800   7.0961996239e+01   1.6323529081e+01    0.2306901    0.1847219 -70.70   0.00105325    1.960    0.490
       172  -8.5900      5.5052    190.5389   1.0650415558e+02   3.3105685736e+01    0.1151556    0.0964248  51.45 -2.580363e-05    1.062    0.058
       173  -8.8292    129.3354    188.2476   7.5164402605e+01   1.9270186871e+01    0.2561212    0.2081923  64.54 0.0008163651    1.646    0.392
       174  -8.7816     34.2557    187.8128   9.9113020221e+01   3.1276567975e+01    0.3172287    0.1436934  59.55  0.001346197    2.189    0.543
       175  -8.3047    237.2720    188.0962   5.4321065670e+01   4.4094943582e+00    0.1563909    0.1112449 -15.39 0.0007019026    1.171    0.146
       176  -8.8054    216.4970    187.6379   5.7577606466e+01   7.0397985212e+00    0.2008299    0.1700844 -20.56 0.0009414703    1.383    0.277
       177  -8.8292    191.4909    187.2627   6.1945649713e+01   1.0436041901e+01    0.2385657    0.2246409  76.21  0.001600244    1.831    0.454
       178  -9.2129    156.0512    187.2200   6.9038671438e+01   1.5524271853e+01    0.2624807    0.2048673 -58.89 0.0008293164    1.842    0.457
       179  -9.5475    120.7036    186.0056   7.6871895967e+01   2.0931556412e+01    0.4219343    0.2739719 -76.20  0.002051648    2.597    0.615
       180  -9.1799     54.7866    186.6845   9.3681565530e+01   2.9409547948e+01    0.3970777    0.1849043  61.71  0.001406238    2.561    0.610
       181  -8.2235    230.4915    187.0302   5.5197156470e+01   5.3543001554e+00    0.1618379   0.09353818 -27.57 0.0005906821    1.557    0.358
       182  -8.5427    164.9879    186.6302   6.7061014428e+01   1.4309632186e+01    0.2267383    0.1944469  79.18  0.001289586    2.007    0.502
       183  -9.2343    109.4907    185.8225   7.9566217583e+01   2.2578415830e+01    0.3596384    0.2474658  66.24  0.001177787    2.032    0.508
       184  -9.1653    249.3869    185.5447   5.2092189171e+01   3.2818304460e+00    0.1987519    0.1529088 -25.24 0.0009154284    1.456    0.313
       185  -8.8328    210.0775    184.0404   5.8060690349e+01   8.3414609479e+00    0.2088836    0.1432204 -24.25 0.0005346093    1.353    0.261
       186  -8.7352    202.9331    184.4445   5.9382085516e+01   9.2502769715e+00    0.1968324    0.1599315 -37.20 0.0007584676    1.571    0.363
       187  -8.6589    182.9707    184.6132   6.3119766988e+01   1.2013976396e+01    0.2122507     0.171111 -33.74 0.0007921664    1.418    0.295
       188  -9.0362     66.5284    184.4062   9.0388590125e+01   2.8538460198e+01    0.3550574    0.1906866  54.89 0.0009338638    1.937    0.484
       189  -8.5108    224.1247    183.5396   5.5625231884e+01   6.5730339929e+00    0.1823187    0.1336298 -25.78 0.0006168439    1.354    0.261
       190  -8.9264    174.3409    183.4909   6.4631621913e+01   1.3427806764e+01    0.2242107    0.2095383  57.02 0.0009005584    1.568    0.362
       191  -7.8069    197.2757    183.6100   6.0259335914e+01   1.0140963255e+01    0.1029609   0.09834671 -61.56 0.0006995671    1.730    0.422
       192  -8.9981     44.5382    182.3417   9.6036178728e+01   3.1429347496e+01    0.3692824    0.1676632  52.43  0.001052558    2.074    0.518
       193  -8.1781      1.7813    183.5706   1.0723957092e+02   3.4827906581e+01    0.1725125   0.08181029  37.04 0.0009430112    1.660    0.398
       194  -9.2492    147.5777    180.4720   6.9795111630e+01   1.7909775673e+01    0.2877508    0.2404455  68.44  0.001003538    1.762    0.433
       195  -9.6396     25.7021    178.5987   1.0081881792e+02   3.4039426955e+01    0.6572909    0.2025674  68.32  0.002192307    4.692    0.787
       196  -7.9634    240.5089    180.0566   5.2475322534e+01   4.9514566977e+00    0.1649878   0.09024799 -26.93 0.0006742823    1.574    0.365
       197  -8.6730    137.7652    179.0883   7.1797313282e+01   1.9642884600e+01    0.3005506    0.2093765  56.41  0.001320688    1.927    0.481
       198  -8.7374    250.5243    172.5286   4.9721038076e+01   4.6100572033e+00    0.2271691    0.1262496 -19.77 0.0005259017    1.489    0.328
       199  -9.2650    248.9221    177.2863   5.0767340786e+01   4.2606455103e+00     0.263763    0.2069731 -37.53  0.001185199    1.783    0.439
       200  -8.1190    247.2929    173.6679   5.0379781626e+01   4.8686142809e+00    0.1458468    0.1004696  27.18 0.0004303178    1.484    0.326
       201  -9.4323    191.5906    178.2102   6.0376570703e+01   1.1704163528e+01    0.2440818    0.2342168  35.14 0.0006456577    1.503    0.335
       202  -8.9554    205.0383    177.1783   5.7750761169e+01   9.9422856238e+00    0.2366568    0.1549104 -33.68 0.0006937776    1.554    0.356
       203  -7.9977    169.4048    178.2793   6.4746919541e+01   1.4965598367e+01    0.1582119    0.1217427 -47.67 0.0004698368    1.648    0.393
       204  -8.4534    129.2629    177.2245   7.3495446513e+01   2.1276628290e+01    0.2494553    0.1781152  62.58 0.0008385162    1.997    0.499
       205  -7.6493     71.3224    178.6448   8.8512569258e+01   2.9170894622e+01    0.1441297   0.08666689  56.76  0.000704627    1.761    0.432
       206  -9.1574     35.8802    176.5086   9.7940039528e+01   3.3565087658e+01    0.4844655    0.1859374  67.96  0.001850427    3.453    0.710
       207  -8.4812    231.1320    176.7164   5.3334769395e+01   6.5160395498e+00     0.191878    0.1322484 -29.73 0.0008417907    1.438    0.304
       208  -8.5573    217.4794    176.9763   5.5582661336e+01   8.2687488759e+00    0.1914907    0.1501361 -32.03 0.0007179419    1.466    0.318
       209  -8.9781     89.2285    176.7032   8.3511327627e+01   2.7232981421e+01    0.2859692    0.1838975  55.73 0.0008344159    1.708    0.414
       210  -9.9876     57.5053    173.1875   9.1710018329e+01   3.2014382454e+01    0.8151118    0.3352228  68.45  0.002651865    4.672    0.786
       211  -8.6507     13.1464    176.4329   1.0405949712e+02   3.5543080819e+01    0.2642326    0.1295714  49.25   0.00108297    1.678    0.404
       212  -9.1492    183.0190    175.6344   6.1560339688e+01   1.3335863782e+01    0.2518666    0.1936432 -40.22 0.0009479899    1.528    0.345
       213  -9.2381    158.7091    174.7213   6.6384864959e+01   1.7173980116e+01    0.3442129    0.2613492  70.95  0.001523972    2.400    0.583
       214  -9.2220    104.2237    174.3805   7.9279292508e+01   2.5580947589e+01    0.4963837    0.2680649  58.86  0.001825714    2.782    0.641
       215  -8.7169    224.7950    174.5429   5.3958169045e+01   7.6068567890e+00    0.2073771    0.1391068 -41.17 0.0008876621    1.878    0.468
       216 -10.7342     75.8356    169.9468   8.6273174498e+01   3.0469242253e+01     1.109325    0.4691585 -81.44  0.003643838    4.727    0.788
       217  -9.6362     81.5889    155.3923   8.2692548957e+01   3.2919198915e+01    0.4989785    0.4656488  14.42  0.001904118    1.114    0.102
       218  -9.5324    175.7797    172.0415   6.2354466723e+01   1.4977150989e+01    0.2927697    0.2314803 -28.58 0.0009791892    1.295    0.228
       219  -8.9755    151.7450    172.9803   6.7607432988e+01   1.8552084122e+01    0.2247229    0.1863168  -2.40 0.0003225881    1.160    0.138
       220  -8.7384    149.9905    169.4998   6.7392814990e+01   1.9432649664e+01    0.2383077    0.2114911  75.47  0.001019789    1.604    0.377
       221  -8.3564    143.0819    172.6101   6.9500243110e+01   1.9974675485e+01    0.2087722    0.1893513 -59.53 0.0007663714    1.409    0.290
       222  -8.5887    134.8806    171.6209   7.1246109761e+01   2.1441126666e+01    0.2282889    0.2069728 -60.64 0.0008679982    1.374    0.272
       223  -9.2490     45.0595    170.4555   9.4930122842e+01   3.3993432184e+01    0.4265184    0.2129383  82.67   0.00188301    2.501    0.600
       224  -8.5667    198.8052    170.2815   5.7633865580e+01   1.1790306379e+01    0.2024038    0.1623373 -52.67 0.0007622055    1.889    0.471
       225  -9.6025    121.3200    170.0268   7.4276428966e+01   2.3861792271e+01    0.3429671    0.2715366  86.61  0.001037503    1.831    0.454
       226  -7.7997     68.8583    170.8372   8.8310598895e+01   3.1167808503e+01    0.1920734    0.1395224  54.89 0.0004945088    1.341    0.254
       227  -8.4355    237.3712    169.2478   5.1065844095e+01   6.6253818145e+00    0.1835475    0.1201379 -29.63  0.000642441    1.427    0.299
       228  -9.1409    230.4258    168.9120   5.2068205641e+01   7.5696766966e+00    0.3080827    0.1601745 -40.83  0.001696391    2.234    0.552
       229  -8.4817    205.7516    169.9298   5.6331186669e+01   1.0834523206e+01    0.2010836    0.1544948 -41.80 0.0006300235    1.643    0.391
       230  -8.3449    244.6554    169.1773   4.9977554416e+01   5.7140150956e+00    0.1634272     0.120351 -28.90 0.0007395796    1.402    0.287
       231  -9.2032    166.9639    168.3754   6.3505287598e+01   1.6932735908e+01    0.3190114    0.2060614  51.66  0.001275359    2.076    0.518
       232  -8.3775     88.8486    168.7137   8.2546270989e+01   2.8967173326e+01    0.2514419    0.1669358  72.08  0.001210049    2.033    0.508
       233  -8.5058    218.9044    168.1212   5.3768599371e+01   9.2264414028e+00    0.1670826    0.1475205 -11.31 0.0005252808    1.284    0.221
       234  -7.9231    211.4720    167.9929   5.4989849745e+01   1.0283819660e+01    0.1497493    0.1013579 -52.14 0.0005939084    2.452    0.592
       235  -9.0616    111.4725    167.0062   7.6288431437e+01   2.5982717156e+01    0.2907235    0.2125928  71.36  0.001231485    1.912    0.477
       236  -8.9793    191.8839    166.3630   5.8192048607e+01   1.3387533991e+01    0.2603832    0.1689214 -38.36 0.0005125884    1.631    0.387
       237  -8.9935    185.0151    166.4630   5.9517616249e+01   1.4420585120e+01    0.2171394    0.1720469 -44.42 0.0005945997    1.565    0.361
       238  -9.2451     20.6009    166.0423   1.0151361908e+02   3.7279136056e+01    0.3603497    0.1547927  54.57   0.00149859    2.114    0.527
       239  -7.8875     13.3304    167.6494   1.0362699249e+02   3.7484254839e+01    0.1417383   0.06932863  54.05 0.0007047905    1.771    0.435
       240  -9.6466    137.1593    164.2873   6.9442798809e+01   2.2437429473e+01    0.6407809    0.2784452  49.99  0.002183123    3.232    0.691
       241 -10.0255     95.1953    162.9438   7.9986229922e+01   2.9286430401e+01    0.7869905    0.3970659  63.85  0.002663128    4.042    0.753
       242  -8.2963    233.9609    164.7193   5.0770675756e+01   7.6237793774e+00    0.1929109    0.1239857 -35.38 0.0005968274    1.608    0.378
       243  -8.8086    159.5581    164.1128   6.4308053760e+01   1.8828635556e+01    0.2342194    0.2005325  52.02 0.0007299022    1.456    0.313
       244  -9.4206     33.7535    163.3185   9.7575028664e+01   3.6748359514e+01    0.5818269    0.1533524  43.48  0.002166864    3.008    0.668
       245  -8.1675    240.0501    164.0105   4.9731581834e+01   6.9141815533e+00    0.1514628    0.1330176 -37.63  0.000515061    1.642    0.391
       246  -8.7236    212.8690    163.5509   5.3937118485e+01   1.0686681743e+01    0.2116675    0.1541062 -28.81 0.0004143734    1.325    0.245
       247  -8.3535     56.9576    163.6911   9.0888147200e+01   3.4211470200e+01    0.4255374    0.1885785   7.74  0.001344586    4.650    0.785
       248  -8.8608     61.0357    160.2863   8.9324470296e+01   3.4506210587e+01    0.3666825    0.1949389  60.09  0.001338982    2.187    0.543
       249  -8.6266    246.1699    162.6036   4.8592404432e+01   6.2990167408e+00    0.1987908    0.1270332 -22.15 0.0005134749    1.273    0.215
       250  -8.6361    204.9804    162.4946   5.5098056221e+01   1.1983978316e+01    0.2112609    0.1581671 -39.61 0.0006059633    1.550    0.355
       251  -9.2778      3.4226    161.9637   1.0615744437e+02   3.9468247223e+01    0.4562249    0.1410331  50.20  0.001957602    2.594    0.614
       252  -8.8765    151.8386    160.9651   6.5435407690e+01   2.0638530450e+01    0.2651456    0.2386408  86.61 0.0009805071    1.575    0.365
       253  -8.9001    177.5735    160.5578   5.9878350952e+01   1.6509521264e+01    0.2537152    0.2299377  74.43  0.001008729    1.670    0.401
       254  -8.6002    227.5697    158.9286   5.0693899950e+01   9.2210141146e+00    0.2278604    0.1600991 -43.06  0.001036323    1.809    0.447
       255  -9.9515    249.6180    157.1390   4.7123304635e+01   6.5065200278e+00    0.3062424    0.2456717 -43.76  0.001427681    1.793    0.442
       256  -9.0235    244.1679    158.8807   4.8206509802e+01   6.9996638788e+00    0.3014136     0.128874  26.89   0.00149717    2.807    0.644
       257  -8.6069    236.9744    158.5680   4.9197199559e+01   7.9851515663e+00    0.1820902    0.1371458 -38.49 0.0008376985    1.605    0.377
       258  -8.3570    128.0734    158.6715   7.0658015703e+01   2.4997026988e+01    0.2176162    0.1984083 -77.94  0.000756446    1.370    0.270
       259  -9.6037    105.9678    157.8239   7.6250810314e+01   2.8735032671e+01    0.4405063    0.2786384  61.51  0.001308534    2.154    0.536
       260  -8.5515    196.6203    157.6686   5.5680451948e+01   1.3946861174e+01    0.2003748    0.1789357 -77.53 0.0006789748    1.869    0.465
       261  -8.4486    188.1920    157.6600   5.7249587900e+01   1.5269384882e+01    0.2067162     0.162348 -36.59  0.000526681    1.381    0.276
       262  -9.1415    167.5762    157.0658   6.1265577848e+01   1.8709192232e+01    0.2881661    0.2390987 -82.56 0.0008832946    2.027    0.507
       263  -8.6824    217.9714    156.4996   5.1769738774e+01   1.0903701799e+01    0.2209565    0.1500624 -40.05 0.0008486976    1.658    0.397
       264  -9.3119    119.5795    154.8576   7.2135328121e+01   2.7158866411e+01    0.4125698     0.282855 -83.30  0.001421564    2.481    0.597
       265  -9.2510    157.6865    155.7555   6.3145893961e+01   2.0584322921e+01    0.2432619    0.2121789 -60.94 0.0007785327    1.511    0.338
       266  -9.1636     49.7144    154.9461   9.2094719164e+01   3.7068862589e+01    0.4530773    0.1958626  54.75  0.001617434    2.559    0.609
       267  -8.5041     22.8351    155.9527   1.0025603839e+02   3.9436458600e+01    0.2137547    0.1249698 -47.23 0.0009274781    2.064    0.516
       268  -9.6154    242.7089    149.9531   4.6769230310e+01   8.2772403077e+00    0.2517649    0.2183727  15.42  0.001886664    1.298    0.230
       269  -9.4086    241.0099    153.5966   4.7689949307e+01   8.0581853120e+00    0.3287472     0.255412  79.46  0.001834206    3.437    0.709
       270  -8.0254    204.5833    155.0571   5.3756417409e+01   1.3100435340e+01    0.1825392    0.1098479 -33.06 0.0006568046    1.572    0.364
       271  -8.8353    144.3719    154.3392   6.5906917275e+01   2.3093236565e+01    0.2276751    0.2132841  40.98 0.0006061948    1.193    0.162
       272  -9.4028     68.2644    153.7522   8.6380396186e+01   3.5107481908e+01    0.4382049    0.2255057  57.84  0.001588149    2.351    0.575
       273  -7.9122    232.9739    153.9475   4.8937571776e+01   9.1091007826e+00    0.1598593    0.1363611 -44.02 0.0004300406    1.645    0.392
       274  -9.7192    132.9079    152.7438   6.8367368593e+01   2.5346877725e+01    0.4167802    0.3021641  65.76  0.001243142    2.003    0.501
       275  -9.1667    133.4275    147.8096   6.7291827840e+01   2.6223907671e+01    0.3260894    0.2257773 -23.53   0.00148995    1.710    0.415
       276  -8.7311    151.9442    152.2279   6.3748873420e+01   2.2187994072e+01    0.2387722    0.1988521 -34.83 0.0008463225    1.258    0.205
       277  -8.4542    182.7840    151.4665   5.7084130615e+01   1.7109220262e+01    0.2447758    0.1700684 -53.52  0.001052552    2.003    0.501
       278 -11.0142     55.3068    143.5740   8.9044261770e+01   3.9145570917e+01     1.162712     0.647692  85.09  0.004483671    2.344    0.573
       279  -8.3616     20.2282    152.4434   1.0081076475e+02   4.0479142346e+01    0.1810948    0.1010639  38.26 0.0009293156    1.568    0.362
       280  -8.6625      9.9244    153.0000   1.0392328705e+02   4.1111358453e+01    0.3259057   0.06783721  17.65  0.001039148    4.824    0.793
       281  -8.7100      2.6696    151.0673   1.0598700023e+02   4.2036847959e+01    0.3618513    0.1030728 -82.06  0.001219073    3.287    0.696
       282  -9.5172    248.8680    149.1289   4.5758740064e+01   7.5562180003e+00    0.2795179    0.1402217 -28.49 0.0008306535    1.643    0.391
       283  -8.9724    189.4435    149.8514   5.5485583116e+01   1.6269422988e+01    0.2518489     0.212735 -65.69 0.0008511501    1.831    0.454
       284  -8.1832    162.7504    150.7882   6.1068715383e+01   2.0591897400e+01    0.1776047    0.1612833  57.33  0.001053794    1.394    0.283
       285  -8.8925     98.3892    150.6988   7.7146659799e+01   3.1458053694e+01    0.2909874     0.211987  63.95 0.0008547805    1.658    0.397
       286  -8.3931    213.0850    149.8093   5.1289994707e+01   1.2545810553e+01    0.1707723    0.1567351 -16.83  0.000517772    1.277    0.217
       287  -8.5711    198.8975    148.5650   5.3492541846e+01   1.4936316828e+01    0.2183112    0.1649517 -42.13 0.0006385291    1.517    0.341
       288 -10.0333     89.2963    146.1142   7.8993704321e+01   3.3889461399e+01    0.6903855    0.3973167  79.70  0.002487168    3.478    0.712
       289  -9.6212     39.9486    147.6791   9.4352607685e+01   3.9844976599e+01    0.5713978    0.2199901  53.21  0.002117419    2.798    0.643
       290  -9.5529    233.7419    147.3913   4.7582909455e+01   9.8372350365e+00    0.2538875    0.1323242 -28.62   0.00088064    1.648    0.393
       291  -9.7322     29.2506    149.7448   9.7863735568e+01   4.0364418209e+01    0.6575686    0.2924989  72.64  0.002704986    2.672    0.626
       292  -8.4017    223.3620    146.5813   4.9004933704e+01   1.1445522631e+01    0.2215124    0.1282554 -27.37 0.0006012137    1.517    0.341
       293 -10.3338    148.9673    144.7847   6.2950084783e+01   2.4071646537e+01    0.5473995     0.403291  81.52  0.001714809    2.530    0.605
       294 -10.2473    106.7047    144.0244   7.3628757919e+01   3.1574785071e+01    0.7581874    0.4893495  76.90  0.002396824    2.770    0.639
       295  -8.7269     78.0279    147.0101   8.2491160392e+01   3.5345313715e+01    0.2337176    0.1569845  60.02 0.0007003397    1.671    0.401
       296  -9.3127     13.1388    145.7372   1.0257529091e+02   4.2617871457e+01    0.3334254    0.1797959  65.28   0.00135703    1.761    0.432
       297  -8.9614    240.2770    145.0609   4.6191752850e+01   9.2156975267e+00    0.2209212    0.1315972 -33.91 0.0004653072    1.531    0.347
       298 -10.5547    243.2215    143.0101   4.5387936067e+01   9.0627944892e+00    0.8438591    0.1583473 -38.05   0.00283391    5.098    0.804
       299  -8.1820    175.7095    146.1559   5.7424722419e+01   1.9157161664e+01    0.1938147    0.1696285 -60.82  0.000747558    1.554    0.356
       300  -9.6513    139.1270    144.6687   6.5266575261e+01   2.5836932864e+01    0.3843503     0.268004 -64.69  0.001211989    2.025    0.506
       301  -9.0531    139.4048    137.5915   6.3742961788e+01   2.7161634312e+01    0.4045694    0.2408734 -10.72  0.001506315    3.095    0.677
       302  -9.7201    125.1732    142.6759   6.8381577601e+01   2.8696148576e+01    0.4924854    0.3553348  84.64  0.001699434    2.351    0.575
       303  -8.8382    247.0962    143.6568   4.4977243293e+01   8.4535913669e+00    0.2136403    0.1332398 -21.00 0.0005850345    1.314    0.239
       304  -7.8295    194.5592    143.7675   5.3312626136e+01   1.6362736509e+01    0.1683683    0.1161753 -42.80  0.000806301    1.603    0.376
       305  -8.7504    165.6819    143.7970   5.9025208192e+01   2.1295294128e+01    0.2317699     0.212289 -45.64 0.0007677089    1.292    0.226
       306 -10.8914     69.4858    138.9547   8.3895131933e+01   3.8443372958e+01    0.9016643    0.4496646 -70.05  0.002903672    2.290    0.563
       307  -8.3935    207.2855    146.9000   5.1694965071e+01   1.3851398906e+01    0.2389936    0.1938315 -70.64  0.001366598    2.232    0.552
       308  -9.1638      2.4425    141.3747   1.0568153980e+02   4.4355459638e+01    0.3590188    0.1485487  65.12  0.001554193    2.287    0.563
       309  -8.3555    182.0593    141.3121   5.5166980633e+01   1.8857860772e+01    0.1805696    0.1636333  12.38 0.0004517583    1.093    0.085
       310  -7.9026    250.4730    140.5118   4.3929308023e+01   8.3777745424e+00    0.1150913    0.0886496 -13.72 0.0008099435    1.007    0.007
       311  -8.3028    134.0000    139.9443   6.5572913079e+01   2.7677787347e+01    0.2260255   0.08225944 -47.05 0.0007976638    2.909    0.656
       312  -9.8274     23.4193    137.6951   9.8755772322e+01   4.3804263368e+01    0.6166255    0.2348777  56.75   0.00212301    2.801    0.643
       313  -8.8365    172.2340    137.8946   5.6418214235e+01   2.1146315077e+01     0.271603    0.2075094 -60.04  0.000613341    1.826    0.452
       314  -7.7173    218.5461    138.4797   4.8159976519e+01   1.3277006188e+01    0.1231385    0.1039238 -12.87 0.0001299659    1.058    0.055
       315  -8.2405    207.3553    137.5052   4.9787876326e+01   1.5195191138e+01    0.2070685    0.1394703 -46.73 0.0009840387    1.795    0.443
       316  -8.5817    197.7192    137.3750   5.1428529812e+01   1.6807123479e+01    0.2241446    0.1888582 -50.35 0.0008567514    1.510    0.338
       317  -9.1678    150.8888    136.0099   6.0672908859e+01   2.5357233837e+01    0.4950011    0.2440165  28.14  0.001947637    2.448    0.591
       318 -10.4599     83.3544    133.0900   7.8539352143e+01   3.7821762410e+01    0.5810814    0.4071269 -69.62   0.00152365    1.605    0.377
       319  -8.3906    247.0124    130.0138   4.2369025057e+01   1.0136882192e+01    0.2044182    0.1403467 -32.35 0.0005709629    1.305    0.234
       320  -8.9631    250.7837    129.8286   4.1843813807e+01   9.6275859907e+00    0.4210387   0.09009969 -30.73  0.001522855    4.082    0.755
       321  -7.6958    192.5262    136.5108   5.2185056079e+01   1.7819588327e+01    0.1309499    0.1161896  -6.17 0.0008096419    1.042    0.041
       322  -8.6009    162.6308    136.1718   5.8078667623e+01   2.3176431284e+01    0.2044443    0.1713456 -53.12 0.0006938987    1.430    0.301
       323  -9.2241     39.1600    135.8176   9.3372571220e+01   4.2837845045e+01    0.2916953    0.1964255  57.79 0.0007817004    1.462    0.316
       324  -8.0437    187.8385    135.5695   5.2855914436e+01   1.8775733389e+01    0.1678028    0.1261191  50.81 0.0004955018    1.592    0.372
       325  -8.6691    179.3995    133.7676   5.4094338358e+01   2.0555622191e+01    0.2508073    0.2197746 -75.58 0.0009849849    1.639    0.390
       326  -8.8224    112.8108    133.1550   6.9794150219e+01   3.2887635842e+01    0.3295781    0.2474333  69.54 0.0009738698    1.762    0.432
       327  -7.9076    237.4350    133.2871   4.4310384649e+01   1.1109881315e+01    0.1612008   0.09490629 -37.00 0.0005571173    1.600    0.375
       328  -8.0163    231.4873    133.5691   4.5214193413e+01   1.1956988637e+01    0.1204035   0.09826343 -11.84 9.267981e-05    1.011    0.011
       329  -9.9234    132.5033    131.2646   6.4117031545e+01   2.9690601308e+01    0.4947569     0.359758  83.64 0.0008887692    2.356    0.575
       330  -9.1719    143.0855    131.5452   6.1549003135e+01   2.7654628986e+01    0.2978889    0.2476355 -73.87  0.000649512    1.616    0.381
       331 -10.0975     97.8758    129.5755   7.3404032145e+01   3.6282403301e+01    0.6288363    0.2607197 -51.91  0.002266104    2.494    0.599
       332 -10.4488     60.1776    124.9870   8.4766625777e+01   4.3116331208e+01    0.8070139    0.4231697  69.24  0.002773566    2.976    0.664
       333  -8.1192    204.6730    130.1753   4.8712971511e+01   1.6711511497e+01    0.1927708    0.1487574 -43.55 0.0006795631    1.451    0.311
       334  -8.0231    192.9818    130.0330   5.0725131855e+01   1.8745678905e+01    0.1876143    0.1584674 -60.71 0.0004446929    1.613    0.380
       335  -9.2054    168.4506    129.4468   5.5373275268e+01   2.3283394741e+01    0.2602794    0.2384787 -81.71 0.0006833801    1.446    0.308
       336  -9.5858    152.9700    128.8840   5.8635896087e+01   2.6293849062e+01    0.4506792    0.2666252 -50.91  0.001311031    1.972    0.493
       337  -9.8136     12.6789    128.7841   1.0168664613e+02   4.6817255614e+01    0.4992979    0.2244904  63.98  0.001682859    2.279    0.561
       338  -7.7642    220.6712    129.7207   4.6045938049e+01   1.4149127121e+01    0.1249659   0.08556515   5.02 0.0004888558    1.599    0.375
       339  -8.0303    211.6420    129.1007   4.7336583853e+01   1.5702738649e+01    0.1953178    0.1424303 -43.60  0.001004689    1.524    0.344
       340  -9.4527    162.6182    127.5525   5.6191630377e+01   2.4709392233e+01    0.4430713    0.2552754 -28.88   0.00200062    1.897    0.473
       341  -9.3542    158.6061    121.2998   5.5642472336e+01   2.6602670245e+01    0.3388856    0.2752901 -78.09  0.001101591    1.780    0.438
       342 -10.8594     44.8618    122.9059   8.9816306846e+01   4.5489294525e+01     1.319375    0.5664406  69.49  0.004054291    4.360    0.771
       343  -9.9966    118.0291    125.0378   6.6604237332e+01   3.3688361363e+01    0.5543594    0.4012538  78.59  0.001688271    2.136    0.532
       344  -7.5716    228.5271    125.4965   4.4008478707e+01   1.3478953542e+01    0.1221327    0.1017943 -17.97 0.0007547351    1.050    0.048
       345  -9.0244    179.1775    124.4876   5.2099800095e+01   2.2128519518e+01    0.2572791    0.2446961 -79.38  0.000716808    1.342    0.255
       346  -9.5212    134.3404    124.6485   6.2178135592e+01   3.0675740792e+01    0.4067771    0.2402437  31.01  0.001772937    1.777    0.437
       347  -9.6773    131.0666    118.4421   6.1583763647e+01   3.2568546457e+01    0.5207171    0.3498153  79.81  0.002003415    2.932    0.659
       348 -10.2444     28.3740    121.9345   9.5601499047e+01   4.7359095133e+01    0.8093796    0.3250615  65.59  0.002828483    3.412    0.707
       349  -9.0518    248.5901    134.8709   4.3102785159e+01   9.3193772101e+00    0.2691041    0.1607039 -25.25 0.0008399644    1.361    0.265
       350  -8.1869    188.4987    123.8978   5.0202106992e+01   2.0509862254e+01    0.1985878    0.1237423 -35.40 0.0005564087    1.524    0.344
       351  -9.1198     84.5026    122.3976   7.6142372412e+01   4.0179932044e+01    0.5597159    0.3286672  24.40  0.002383225    1.863    0.463
       352  -7.7773    194.8720    121.8210   4.8594368892e+01   1.9681528344e+01    0.1709553    0.1492438 -45.25 0.0003706563    1.305    0.234
       353  -8.9942    172.0035    121.4102   5.2830381313e+01   2.3997482785e+01    0.2456271    0.1886554 -49.26 0.0004164201    1.471    0.320
       354 -10.0468     73.4145    128.9458   8.0988058905e+01   4.0307601162e+01    0.4992529    0.3290907  82.37  0.001528207    2.047    0.512
       355  -9.6436     71.2077    119.7191   8.0054928419e+01   4.2888817433e+01    0.4273926    0.2602066  64.49  0.001192147    2.168    0.539
       356  -9.9356    141.5970    118.1072   5.8846045824e+01   3.0553687399e+01    0.5293303    0.3378865 -60.22   0.00128398    2.130    0.530
       357  -9.6660      3.0177    117.1868   1.0435332737e+02   5.0300059571e+01    0.5452913    0.2023343  62.33  0.002174226    2.775    0.640
       358  -8.5316    231.0942    117.6645   4.2024890946e+01   1.4112580259e+01    0.1660603     0.144085  -5.20  0.000612836    1.086    0.079
       359  -8.1319    185.5297    115.5511   4.8862020198e+01   2.2394042001e+01    0.2294888    0.1183285 -45.31 0.0006789275    2.096    0.523
       360 -10.1261    109.2870    114.1477   6.6618469467e+01   3.7706813160e+01    0.4766015    0.3458912 -75.62  0.001348602    1.881    0.468
       361  -8.9783     59.2089    114.9852   8.3411198867e+01   4.5756672723e+01    0.3206903    0.2395638  -6.89  0.001552024    1.688    0.408
       362  -8.3576    192.9482    115.1543   4.7435927605e+01   2.1065675785e+01    0.1953632    0.1728643 -47.39 0.0004926111    1.280    0.219
       363  -9.9835     79.0479    112.4258   7.5901681337e+01   4.3463274261e+01     0.604199     0.388668  74.35  0.001768971    2.337    0.572
       364  -8.6743     78.4766    105.0063   7.4462362786e+01   4.5359242476e+01    0.4046031    0.2479841  -0.40  0.001455376    3.004    0.667
       365  -8.0052    167.4176    114.2077   5.2089025295e+01   2.6131317876e+01    0.1930549    0.1302671 -46.61  0.000675771    1.586    0.370
       366 -10.0806     92.8493    112.3060   7.1276336056e+01   4.1150693173e+01     0.524891    0.3554725 -75.35  0.001183185    1.968    0.492
       367  -8.8978     93.8065    104.3894   6.9089895165e+01   4.2821798321e+01    0.4780546    0.2806175   7.04  0.001539701    3.679    0.728
       368 -10.2824    133.4666    109.5795   5.8808986526e+01   3.3881004985e+01    0.6936948     0.353999 -44.54  0.002129361    2.012    0.503
       369  -9.8507    122.1281    112.2673   6.2496036945e+01   3.5615531264e+01    0.3620795    0.2639181 -58.38 0.0005529057    1.576    0.365
       370  -8.5689    174.9346    111.5456   4.9939090561e+01   2.5100309307e+01    0.2541259    0.1855147 -49.99 0.0006304533    1.540    0.351
       371  -8.9384    159.1746    111.6683   5.3229010768e+01   2.8231146720e+01    0.2439157    0.1879586 -46.91 0.0005635252    1.379    0.275
       372 -10.3441     66.5889    109.9948   7.9793313283e+01   4.5981043310e+01    0.5656275    0.4034598 -81.23  0.002245245    1.626    0.385
       373  -9.8240     14.2475    111.0187   9.9772190753e+01   5.1233891292e+01    0.4511304    0.2016833  62.34  0.001616375    2.445    0.591
       374  -7.5271    200.2409    111.6643   4.5397673493e+01   2.0252248137e+01    0.1261007    0.0965187 -52.01 0.0002678207    1.547    0.354
       375 -10.5173    248.3623    106.7833   3.7553727062e+01   1.2804067358e+01    0.4435262    0.2009587 -36.54  0.002357924    1.847    0.459
       376  -9.5976    249.4656    100.7562   3.6188075529e+01   1.3373063931e+01     0.278589    0.1413617 -41.20  0.001533723    1.828    0.453
       377  -7.8685      1.3582    129.7058   1.0553789046e+02   4.7259261974e+01    0.1413889   0.07575563  52.16 0.0007031324    1.697    0.411
       378  -8.1337    189.4543    107.8748   4.6366485362e+01   2.2863468281e+01    0.1994551    0.1243761 -34.44 0.0005259241    1.498    0.333
       379  -9.9704    117.3643    103.9370   6.1742533700e+01   3.8337782481e+01    0.5824773    0.4035573  75.75  0.002401125    2.287    0.563
       380 -10.1566    108.6812     98.4538   6.2861981029e+01   4.1281323617e+01    0.5830192    0.3996209  70.88  0.001271134    2.139    0.532
       381  -8.9054    107.7438     92.4015   6.1498592845e+01   4.2788205748e+01    0.5820943    0.2951047  30.58  0.002101199    2.476    0.596
       382 -10.5710     45.8146    102.1884   8.6212538298e+01   5.0704205534e+01    0.8496566    0.4008057  61.95  0.002943727    3.259    0.693
       383 -10.6459     22.8293    102.2160   9.5494260736e+01   5.2915077676e+01    0.8640193    0.3829249  66.03  0.002479888    2.912    0.657
       384  -9.1616     22.8260     89.7966   9.3870592134e+01   5.6164758155e+01     0.369802    0.2862208 -22.09   0.00126395    1.447    0.309
       385  -9.6408    150.4843    102.5572   5.2888348831e+01   3.1691461254e+01    0.5744891    0.3046623 -54.56  0.001834787    2.521    0.603
       386  -9.4861    139.8229    104.4434   5.5904527164e+01   3.3578756816e+01    0.3328866    0.2784096  87.45 0.0008475371    1.558    0.358
       387  -8.6146    166.7646    103.9112   4.9713330585e+01   2.8048263066e+01    0.2585797    0.1890204 -52.99 0.0007148891    1.567    0.362
       388 -10.4055    128.7387    101.2252   5.7900367523e+01   3.6546810810e+01    0.5487042    0.3483775 -42.97  0.001325488    1.609    0.378
       389  -9.1260      6.7273    102.4778   1.0200174102e+02   5.3872896694e+01    0.3171397    0.1606815  81.84  0.001087202    1.970    0.492
       390  -8.0830    175.7703    102.1690   4.7501622532e+01   2.6496183427e+01    0.2264163    0.1498144 -71.26 0.0009194111    2.754    0.637
       391  -8.1313    159.8388    100.5920   5.0318929253e+01   3.0072484488e+01    0.2329763    0.1668993 -42.92 0.0005077508    1.408    0.290
       392  -9.2850     82.0949     99.9496   7.1987638034e+01   4.5965900417e+01    0.3902844    0.2772922 -84.80 0.0009084241    1.915    0.478
       393 -10.1200     63.9654     95.7032   7.7711089848e+01   4.9944750487e+01    0.6635494    0.4161078 -89.57  0.001608639    2.360    0.576
       394  -8.9347     65.2081     87.4483   7.5222171812e+01   5.1804426123e+01    0.7973929    0.3572693  17.75  0.002408634    3.976    0.748
       395  -9.2896     95.1181     96.9413   6.6763085089e+01   4.4292023741e+01    0.3234611    0.2631988 -75.32  0.000682936    1.453    0.312
       396  -9.9592    248.1335     92.6980   3.4665577314e+01   1.4564474474e+01     0.320607    0.1837423   2.28  0.001562574    2.812    0.644
       397  -8.1001    164.9324     93.9585   4.7544563819e+01   3.0142505666e+01    0.2179709    0.1715162 -66.11 0.0005121544    1.594    0.373
       398  -9.7945    139.3272     91.5890   5.2595393440e+01   3.6154357248e+01    0.6093956    0.3028548 -48.73  0.001797916    2.225    0.550
       399  -9.0902     46.3747     92.4187   8.4132049733e+01   5.3159406771e+01    0.6121044    0.3102151  12.08  0.002352531    2.616    0.618
       400  -7.7431    188.6699     93.3460   4.2996631845e+01   2.5280063920e+01    0.1402367    0.1042079 -64.24 0.0007050036    1.757    0.431
       401  -8.0696    176.4866     92.9692   4.5055726895e+01   2.7854876495e+01    0.2139952    0.1307272 -38.04 0.0006619095    1.561    0.359
       402  -9.2468    120.6185     92.8122   5.7833810935e+01   3.9988855396e+01    0.3205865    0.2398942  42.73  0.001281712    1.306    0.234
       403  -9.9897    124.6063     90.7345   5.6149318810e+01   3.9550113551e+01    0.5223303      0.34719 -51.37 0.0009143943    1.628    0.386
       404  -8.2435    157.8051     91.5397   4.8379220915e+01   3.2102300070e+01    0.2333772    0.1654066 -41.23 0.0003454619    1.400    0.286
       405  -9.3013      5.1215     91.7269   1.0181026730e+02   5.6734258794e+01    0.3292265    0.1596427  49.92 0.0009308342    2.122    0.529
       406  -9.5255     34.6993     89.4818   8.8588204189e+01   5.5203687477e+01    0.4803723    0.2697691  77.90  0.001665553    2.384    0.581
       407 -10.1087     86.5426     85.6438   6.6617394679e+01   4.8521050367e+01    0.6991434    0.4182374 -59.58  0.001938795    1.905    0.475
       408  -7.4163    164.2794     87.3019   4.5912023307e+01   3.1411915671e+01    0.1422733    0.1111388   8.65 0.0002076996    1.546    0.353
       409  -9.7427     48.6145     84.1845   8.1394445576e+01   5.4990256223e+01    0.5909005    0.3171668  60.83  0.001751418    2.730    0.634
       410  -7.9534    179.3936     85.2283   4.2536412289e+01   2.8473473294e+01    0.2043123    0.1205119 -43.58 0.0005431905    1.677    0.404
       411  -9.7877    104.8232     82.8904   5.9658108507e+01   4.5441182747e+01    0.4826558    0.3400798 -72.72  0.001022587    2.006    0.502
       412  -8.6856    105.6208     76.7600   5.7527329863e+01   4.6556540860e+01    0.2870115    0.2161366   0.61  0.001037959    1.823    0.451
       413  -8.5603    158.0052     83.5597   4.6163183590e+01   3.3437153594e+01    0.2694014    0.1924345 -50.47 0.0004482241    1.497    0.332
       414  -9.1632    140.8722     82.3756   4.9615612051e+01   3.7523532534e+01    0.3529913    0.2084177 -46.07  0.000894569    1.758    0.431
       415  -8.4908    151.0463     88.7718   4.9092084935e+01   3.4079558511e+01    0.2728852    0.1776585 -50.03 0.0008285334    1.672    0.402
       416  -9.5846     24.6866     80.3264   9.1545933752e+01   5.8494311272e+01    0.5059103    0.2722601  74.62  0.001429369    2.434    0.589
       417  -9.3202     10.1889     80.9549   9.8474130994e+01   5.9292215126e+01    0.4332819    0.1709775  47.44  0.001712644    2.783    0.641
       418  -8.8301    119.4094     79.7405   5.4362955492e+01   4.2895864080e+01    0.4421054    0.2540455 -53.83  0.001322117    2.048    0.512
       419  -8.7369     74.8057     80.2355   6.9448149831e+01   5.1940754938e+01    0.3194434    0.2186554 -71.98  0.001088491    1.853    0.460
       420  -8.4798    166.9146     79.5236   4.3286568434e+01   3.2112298471e+01    0.2264268    0.1781298 -35.61 0.0004365943    1.229    0.186
       421  -8.4570    150.1449     79.8201   4.6774857016e+01   3.5861802332e+01    0.2688496    0.1906343 -48.63 0.0009413959    1.476    0.323
       422  -8.0550    184.2080     77.9737   3.9825728520e+01   2.8555104609e+01     0.191507    0.1044204 -33.54 0.0006805842    1.717    0.418
       423  -9.0061     50.5992     77.4640   7.8880138937e+01   5.6425613958e+01    0.4677931    0.1607441  17.02  0.001026923    7.582    0.868
       424  -7.9701    157.3864     76.2403   4.4230651454e+01   3.4810803141e+01    0.2040158    0.1301862 -45.67 0.0004047669    1.596    0.374
       425  -9.4887    128.0760     74.9330   5.0552356730e+01   4.1841815108e+01    0.4172995     0.259047 -53.18 0.0007002397    1.848    0.459
       426  -8.6085    140.6369     75.1544   4.7541947181e+01   3.8878373337e+01    0.2353401    0.1797816 -54.71 0.0006820108    1.429    0.300
       427  -9.9742     63.0656     73.2414   7.2210546752e+01   5.5601306006e+01    0.5048788    0.3183614 -69.99  0.001256512    1.972    0.493
       428  -9.6932     82.4160     72.3356   6.4106354363e+01   5.2332821444e+01    0.4821926    0.3288314 -70.01  0.001187702    1.972    0.493
       429  -8.2738    163.4494     72.8011   4.2065037746e+01   3.3979681746e+01    0.2788498    0.1296384 -39.64  0.001118313    2.062    0.515
       430  -8.3225    151.4181     73.2308   4.4588331726e+01   3.6694951511e+01    0.2072676    0.1333825 -46.78 0.0007047476    1.605    0.377
       431  -8.5683    115.7504     72.6943   5.3201569838e+01   4.5109067789e+01    0.2975641    0.2039262 -51.71 0.0006348903    1.585    0.369
       432  -8.3916     42.6331     72.3117   8.1265985781e+01   5.8744613387e+01    0.3144306    0.1841641 -82.49  0.001295211    2.280    0.561
       433  -9.1574     28.5046     70.7191   8.7854295236e+01   6.0655193620e+01    0.6299418    0.2582317 -26.42  0.001890412    4.666    0.786
       434  -7.8207    175.4975     72.4538   3.9803143406e+01   3.1301816501e+01    0.1386222    0.1334011 -25.74 0.0002034518    1.022    0.021
       435  -8.8703    105.8926     71.5832   5.5786201397e+01   4.7555227388e+01    0.2863225    0.2235513 -55.00 0.0006326999    1.390    0.281
       436  -9.3945     95.2009     70.7427   5.8995324189e+01   5.0060861374e+01    0.4594033    0.2639947 -57.76  0.001045521    2.163    0.538
       437  -8.8200     16.7744     69.9817   9.3697377888e+01   6.1762566331e+01    0.2494272    0.1749888  77.53 0.0008019884    1.562    0.360
       438  -8.7885    147.2090     67.9137   4.3889333929e+01   3.8576016351e+01    0.2994703    0.1880732 -47.31 0.0005762136    1.660    0.397
       439  -8.8845    121.6446     65.6064   4.9264277267e+01   4.5074603682e+01    0.3794983    0.2348041 -57.75 0.0008793263    2.045    0.511
       440  -7.7558    210.3917     66.7513   3.3224192847e+01   2.4661920158e+01    0.1293897   0.09242269 -66.36 0.0006947294    1.674    0.403
       441  -8.7306    138.5117     65.7640   4.5143744585e+01   4.1015944551e+01     0.320297    0.2183468 -63.34 0.0009004626    1.871    0.466
       442  -8.7124     64.5939     63.0554   6.8322065631e+01   5.7729357951e+01     0.475004    0.2805213 -18.40  0.001693888    3.068    0.674
       443  -9.2717     37.4224     64.0863   8.1709660717e+01   6.1421604658e+01    0.3569465    0.2319517  74.08  0.001453772    2.181    0.542
       444  -9.1641    110.1285     63.3290   5.1735455590e+01   4.8205494864e+01    0.3582114    0.2594717 -55.48 0.0007394253    1.555    0.357
       445  -9.6317     51.3427     69.2370   7.6303775989e+01   5.8359173894e+01    0.5155864    0.3080917 -84.92  0.001566857    2.725    0.633
       446  -8.1111    158.0495     61.5154   3.9786897736e+01   3.7017325131e+01    0.2073451    0.1424597  59.38 0.0003450071    1.478    0.323
       447  -9.3779     97.6209     60.2383   5.4569320135e+01   5.1665716589e+01    0.3237449    0.2740433  73.46 0.0007934305    1.347    0.258
       448  -9.6976     73.2961     59.1694   6.3235587198e+01   5.6998209727e+01    0.4555468    0.2702777 -56.35   0.00113317    1.918    0.479
       449  -7.8420    147.0172     58.7422   4.1089523071e+01   4.0110977641e+01    0.1866815    0.1261907  58.81 0.0003461184    1.479    0.324
       450  -8.2842    130.8567     57.5583   4.4261028445e+01   4.4258458152e+01    0.2917474    0.1838544 -53.15 0.0005942308    1.810    0.447
       451  -9.8014     23.4044     56.0928   8.7261246036e+01   6.4818735808e+01    0.5182694    0.2875811  72.66  0.002107505    2.769    0.639
       452  -9.4863      7.6370     56.8555   9.6502339824e+01   6.5643440536e+01    0.3731419    0.2164238  72.68  0.001436267    2.033    0.508
       453  -8.3478    140.0437     56.0046   4.1672144011e+01   4.2253199114e+01    0.2408243    0.1724391 -65.21 0.0005570452    1.690    0.408
       454  -9.1562    119.1007     55.0590   4.6343282666e+01   4.7558968165e+01    0.4569368    0.2347789 -48.24  0.001322082    2.175    0.540
       455  -8.8371     44.2820     55.2577   7.5497928155e+01   6.2712614704e+01    0.3323344    0.2445198 -83.17 0.0009808026    1.759    0.431
       456  -9.2792     62.8856     54.3821   6.6021997185e+01   5.9974469282e+01    0.3373828    0.2120622 -57.25 0.0007356715    1.766    0.434
       457  -8.9340     54.0973     53.4819   6.9875714416e+01   6.1664957686e+01    0.3746209    0.2111595 -70.48  0.001270059    2.784    0.641
       458  -8.7100    105.8160     52.9499   4.9320748813e+01   5.1134531020e+01    0.2742742     0.209343 -61.68 0.0006468339    1.548    0.354
       459  -9.4378     92.4443     50.3262   5.2616914169e+01   5.4733393443e+01    0.4451016    0.2523618 -51.84  0.001171137    2.072    0.517
       460  -8.1165     89.2003     59.2349   5.7111822690e+01   5.3723069339e+01    0.2101408      0.18231 -84.95  0.000586153    1.379    0.275
       461  -8.0161    145.0003     48.9811   3.8354515456e+01   4.2103851322e+01    0.1793828    0.1660246 -39.96 0.0005401268    1.089    0.082
       462  -8.5145    129.8383     49.0885   4.1604439160e+01   4.5883327380e+01    0.2305714    0.2004741 -63.41 0.0005707136    1.218    0.179
       463  -8.5062    120.8410     47.3057   4.3120732577e+01   4.8417667571e+01    0.2548639    0.1968544 -47.02 0.0006057593    1.349    0.259
       464  -9.0253     82.2516     46.3677   5.4719001504e+01   5.7754073340e+01    0.3788954    0.2570021 -65.20  0.001079709    2.084    0.520
       465  -7.9676    163.7089     47.6599   3.4607839522e+01   3.7676614268e+01    0.1432322    0.1094125  21.67 0.0007025262    1.648    0.393
       466  -8.1797    112.4285     46.7491   4.5109167046e+01   5.0597994951e+01    0.2634934     0.141591 -41.13 0.0006601504    1.913    0.477
       467  -8.4910     45.0170     44.4591   7.1221658266e+01   6.5097063021e+01     0.258527    0.2008639 -72.81 0.0006644576    1.584    0.369
       468  -8.8261     16.8469     44.5392   8.8288514825e+01   6.8199636094e+01    0.2465671    0.1963461  66.91 0.0005639276    1.487    0.328
       469  -8.6124    132.8691     42.9340   3.8777390473e+01   4.6054258675e+01    0.2694818    0.1968113 -40.40 0.0007061556    1.385    0.278
       470  -8.7197     58.2577     42.5063   6.3504779207e+01   6.3338368695e+01    0.2995301    0.2151098 -74.66  0.001103689    2.089    0.521
       471  -9.6410      5.3175     41.8652   9.5245556457e+01   6.9513066025e+01    0.3745722    0.2106156  81.08  0.001255878    2.166    0.538
       472  -8.6393    106.0218     41.4176   4.4837009312e+01   5.3049911621e+01    0.2846506     0.199664 -52.57 0.0006541495    1.606    0.377
       473  -8.3808     92.8600     42.1672   4.9203959208e+01   5.6102818462e+01    0.2136223    0.1782633  14.18 0.0006286703    1.358    0.263
       474  -9.3365     69.5132     41.0682   5.7666425207e+01   6.1459753998e+01    0.3732668    0.2547656 -61.89  0.001154939    1.950    0.487
       475  -8.0837    140.4005     41.1971   3.6642754875e+01   4.4389303779e+01     0.202451    0.1310806 -43.09 0.0003765137    1.554    0.357
       476  -8.5323     36.8737     40.5998   7.4404470172e+01   6.7100099693e+01    0.2561722     0.190476 -81.94 0.0007692282    1.818    0.450
       477  -8.7126     95.5903     37.7516   4.6473738511e+01   5.6192736058e+01    0.2576537    0.1787474 -45.02 0.0007805196    1.542    0.351
       478  -8.0756     80.8008     36.7923   5.1182826456e+01   5.9815112724e+01    0.1957446    0.1755043 -74.92 0.0004514433    1.308    0.235
       479  -9.3354     26.2445     35.2069   7.9079441764e+01   6.9588629388e+01    0.3276119    0.2333115 -80.60 0.0009007492    1.811    0.448
       480  -7.7970    126.0111     35.2998   3.7485618227e+01   4.8904472820e+01    0.2025781    0.1859695  67.34 0.0004318868    1.043    0.041
       481  -8.4881    111.7172     34.3913   4.0496163012e+01   5.2700049251e+01    0.2269962     0.168622 -73.81  0.000522143    1.670    0.401
       482  -7.7486     88.7640     33.9975   4.7087328252e+01   5.8437063704e+01    0.1908928    0.1257454 -33.95 0.0008187534    1.592    0.372
       483  -8.4143    119.0348     32.7680   3.8080655874e+01   5.1055832622e+01    0.2692399    0.1778379 -47.11 0.0005862121    1.613    0.380
       484  -8.0140    104.3354     33.6676   4.2165043924e+01   5.4673593965e+01     0.155699    0.1149712 -72.92 0.0007052184    1.735    0.424
       485  -8.6938     48.6108     32.9986   6.4296300143e+01   6.6964644827e+01    0.2305239    0.2146316 -89.86  0.000669165    1.322    0.244
       486  -8.5115     60.6286     32.1461   5.7651729664e+01   6.4925649251e+01    0.2338805    0.1979391  54.40 0.0006521564    1.290    0.225
       487  -7.8855    139.2984     31.3041   3.3407763806e+01   4.6003732930e+01    0.1462601    0.1084329  32.07  0.000338929    1.586    0.369
       488  -8.9990     72.0476     30.6500   5.1810929074e+01   6.2815697621e+01    0.2691233    0.2023305 -55.21 0.0006928953    1.592    0.372
       489  -8.8395     12.9426     30.0380   8.6717939702e+01   7.1958816497e+01    0.3428247    0.1896357 -82.26  0.001395756    2.334    0.572
       490  -8.3853    101.4854     29.0723   4.1012648771e+01   5.6061624840e+01    0.2146103    0.1464599 -33.19  0.000536891    1.535    0.349
       491  -7.7863     42.2859     29.6698   6.6367200337e+01   6.8669821152e+01    0.1322008    0.1127482  80.53 0.0003185572    1.615    0.381
       492  -8.8288     81.5959     27.1931   4.6456669397e+01   6.1205381001e+01    0.3179227    0.2338211 -63.60  0.001014599    1.785    0.440
       493  -8.9064      3.9251     27.5448   9.2945094862e+01   7.3050379872e+01     0.271373    0.1888134  57.17  0.001008588    1.784    0.439
       494  -8.8591     91.9007     26.3302   4.2610218795e+01   5.8847424335e+01    0.3099728    0.1932743 -48.01  0.000816123    1.831    0.454
       495  -7.5047    117.6243     22.3125   3.4238227670e+01   5.2789385052e+01    0.1573977      0.10694 -69.82  0.000124092    1.790    0.441
       496  -8.1854    104.2632     22.6109   3.7467291689e+01   5.6230290482e+01    0.2134407      0.12472  52.27 0.0009428588    1.581    0.368
       497  -9.0771     63.6632     20.7967   5.0417209956e+01   6.6249475811e+01    0.3125748    0.2431326 -56.83 0.0009113056    1.606    0.377
       498  -8.7300     48.4289     21.4002   5.8467650101e+01   6.9196898641e+01    0.2572541    0.2240463  88.06 0.0006910511    1.593    0.372
       499  -7.6762     34.4944     22.5485   6.7752825520e+01   7.1280477817e+01    0.1334447    0.1262057   1.34 0.0005657611    1.089    0.081
       500  -7.8593    120.6428     20.7737   3.2995378342e+01   5.2181104278e+01    0.2057503    0.1255951 -39.73  0.000661799    1.684    0.406
       501  -7.9730     19.5236     21.4721   7.8242873027e+01   7.3346793687e+01    0.1304867    0.1194992 -21.80 6.442063e-05    1.048    0.046
       502  -8.7695     74.2666     19.5503   4.5350496653e+01   6.4058517763e+01    0.2799426    0.2191205 -66.66 0.0007112783    1.667    0.400
       503  -8.1216     39.0560     18.0550   6.2247242544e+01   7.1433411284e+01     0.196744     0.171666  87.24 0.0005748961    1.641    0.391
       504  -8.1731     87.8835     17.1628   3.9490417859e+01   6.1089858455e+01    0.2173955    0.1902912 -65.55 0.0005930259    1.296    0.228
       505  -7.8066    113.2500     16.6478   3.2820128350e+01   5.4607942289e+01    0.1471671    0.1038523 -58.51  0.000256096    1.593    0.372
       506  -8.1155     30.0143     15.9285   6.7270591239e+01   7.3219173649e+01     0.196964    0.1677997  73.77 0.0008858319    1.704    0.413
       507  -8.0650     96.9901     14.9866   3.5882406101e+01   5.9044314108e+01    0.2233659    0.1654711 -61.94 0.0004610906    1.593    0.372
       508  -7.9163      7.5412     15.4853   8.5826045752e+01   7.5647066653e+01     0.127037    0.1121613 -33.06 0.0002110137    1.032    0.031
       509  -7.9469     17.2429     13.9461   7.6415182954e+01   7.5176663322e+01    0.1619271     0.104261 -53.69  0.000301918    1.527    0.345
       510  -9.1461    211.2162    246.6069   6.7242592422e+01   8.8780816701e-01    0.2518679    0.2011929 -52.83  0.001741567    2.956    0.662
       511  -7.4940     83.6537     11.2745   3.7801503492e+01   6.2866878036e+01    0.1421298    0.1092525 -76.92 0.0003280744    1.626    0.385
       512  -7.9585    191.4797    249.4949   7.0976446615e+01   2.6750037201e+00    0.1069281   0.07558577  14.83  0.000809262    1.073    0.068
       513  -8.9867    175.6768    247.4937   7.3553996630e+01   4.6431453826e+00    0.2318912    0.1849152  55.78  0.001316378    2.376    0.579
       514  -8.8407    132.4296    247.8857   8.1861025314e+01   9.5621494746e+00    0.2637341     0.162196  53.60 0.0007327493    2.353    0.575
       515  -8.1464    113.4402    248.4474   8.5734324983e+01   1.1676628627e+01    0.1562533    0.1110699 -84.95  0.001026514    2.393    0.582
       516  -9.2343    243.2398    246.2161   6.2125306037e+01  -2.2443834828e+00    0.3069494    0.1296611 -22.17  0.001677915    2.188    0.543
       517  -8.9305    156.2852    247.8310   7.7210808391e+01   6.8082452205e+00    0.1832602    0.1453315  41.48 0.0008124851    1.588    0.370
       518  -9.1076    103.8138    246.6455   8.7543234300e+01   1.3036567537e+01    0.3111913    0.1940116  89.89  0.001820134    2.987    0.665
       519  -9.9384    223.9251    243.7910   6.4797093539e+01  -1.3020057717e-01     0.331426    0.1830209 -37.60  0.002267551    2.416    0.586
