#   1 NUMBER                 Running object number                                     
#   2 MAG_AUTO               Kron-like elliptical aperture magnitude                    [mag]
#   3 X_IMAGE                Object position along x                                    [pixel]
#   4 Y_IMAGE                Object position along y                                    [pixel]
#   5 X_WORLD                Barycenter position along world x axis                     [deg]
#   6 Y_WORLD                Barycenter position along world y axis                     [deg]
#   7 A_WORLD                Profile RMS along major axis (world units)                 [deg]
#   8 B_WORLD                Profile RMS along minor axis (world units)                 [deg]
#   9 THETA_WORLD            Position angle (CCW/world-x)                               [deg]
#  10 FWHM_WORLD             FWHM assuming a gaussian core                              [deg]
#  11 ELONGATION             A_IMAGE/B_IMAGE                                           
#  12 ELLIPTICITY            1 - B_IMAGE/A_IMAGE                                       
         1 -15.0523     69.0941    145.6113   1.0466973912e+02   3.6963266380e+01     5.698298     2.020077  56.35   0.01256012    4.616    0.783
         2 -14.2576    204.2225     35.9674   4.5165004731e+01   2.9736509290e+01      1.93212     1.397939  12.45  0.008094885    1.861    0.463
         3 -14.0909    218.9964     21.0069   3.9673243775e+01   2.8035285000e+01      1.13415    0.9554842  22.01  0.003003455    1.494    0.331
         4 -11.8897      2.3104      4.0827   1.0190810704e+02   7.7692889933e+01    0.5710519    0.2645824 -60.40  0.002977919    1.881    0.468
         5  -9.2916    134.4957     11.9003   4.6537983975e+01   5.0400487684e+01    0.1996769     0.141286 -26.83 0.0003692111    1.454    0.312
         6 -10.6252     53.7926      4.5823   6.5605974541e+01   7.0729250557e+01    0.1802974     0.127828  60.52 0.0009536076    1.724    0.420
         7 -11.8022    241.7915      2.0294   3.3419421828e+01   2.4988587497e+01     0.582162    0.2177914  80.51  0.002546984    2.903    0.656
         8  -9.8553     60.6849      3.3422   6.1711093021e+01   6.9489908462e+01     0.130856    0.1042224 -61.01 0.0006237432    1.708    0.415
         9 -11.0654     65.3630    196.6629   1.1122483545e+02   2.6344936776e+01    0.3818013    0.3309474  -6.36  0.002547557    1.586    0.370
        10 -11.0323    139.9307    249.3858   1.0102192220e+02   8.0370929026e+00     0.235785    0.1730353  49.67  0.001724771    1.442    0.307
        11 -10.8537    134.3443    248.6302   1.0197466892e+02   8.8478333002e+00     0.242067    0.1707621 -84.19   0.00160088    2.485    0.598
        12 -15.0149     49.3816    221.1168   1.1643861590e+02   2.3579454459e+01     1.940608     1.772609  59.54   0.01537579    1.242    0.195
        13 -14.9791     85.5612    229.3773   1.0965162404e+02   1.7920027050e+01     2.304139     1.369815  45.41  0.007097781    1.309    0.236
        14 -15.8586      5.1902    157.2159   1.2318894269e+02   4.0818154161e+01     5.304581      1.58754 -82.18   0.02266535    2.942    0.660
        15 -11.4740    193.5637    195.4333   8.3845197990e+01   7.8982454956e+00    0.7282174    0.4190786 -61.63  0.002629324    6.305    0.841
        16 -10.5967    111.4891    197.1136   1.0087142284e+02   2.0045818599e+01    0.2557777    0.1590199  43.12 0.0007410694    1.369    0.270
        17 -12.9226      7.8401    187.4238   1.2372693331e+02   3.4107943271e+01     0.441175    0.3889906  63.24 0.0005958456    1.202    0.168
        18  -8.8969     92.4813    184.5029   1.0367171478e+02   2.5190259109e+01    0.1296555    0.1116794  49.26 0.0008103921    1.002    0.002
        19 -10.5658    146.4798    182.5392   9.1130425428e+01   1.7255515172e+01     0.234831    0.2078679  21.35 0.0007359731    1.048    0.046
        20 -10.1267     99.4881    180.9539   1.0157057944e+02   2.4887134850e+01    0.2238132    0.1722197  23.06 0.0004795766    1.390    0.281
        21 -12.2583     65.0523    177.9583   1.0956091916e+02   3.0220526762e+01     0.399918    0.3021159 -36.10  0.002324964    1.825    0.452
        22 -12.1299     69.8293    172.6126   1.0781364587e+02   3.0758053759e+01    0.3282452    0.2802621  24.33  0.001042886    1.314    0.239
        23 -13.7510     57.1384    129.1909   1.0585912133e+02   4.2486372441e+01     2.399645    0.8095789 -79.01  0.006605172    5.404    0.815
        24 -12.1604     79.1071    163.0223   1.0429739640e+02   3.1603975962e+01    0.4320605    0.3384851  44.40 0.0004060734    1.160    0.138
        25 -13.5569     66.6650    158.8782   1.0705317033e+02   3.4215800681e+01    0.4889936     0.388647 -58.39  0.001566825    1.374    0.272
        26 -12.7242     86.1472    156.3283   1.0153397066e+02   3.2078296540e+01    0.7691492     0.511701 -37.13  0.001638223    1.991    0.498
        27  -9.5267    173.2008    244.9031   9.4511900144e+01   4.3438564617e+00     0.176754    0.1375188 -78.70  0.001165399    2.772    0.639
        28  -9.3868    158.5020    161.5112   8.4894069510e+01   1.8936126569e+01    0.3384679    0.2149569 -79.30  0.001203351    4.458    0.776
        29 -10.8608    209.7119    199.4003   8.1610559765e+01   5.0409044038e+00    0.2041884    0.1927456 -17.93 0.0007185298    1.478    0.323
        30 -11.2629    133.6446    143.7439   8.7157081290e+01   2.6825956421e+01     1.006693    0.2781457 -55.10  0.002618423    5.828    0.828
        31 -11.1297    139.4481    171.9649   9.0951706110e+01   2.0305886689e+01    0.4653355    0.2325143  53.84  0.001924805    2.607    0.616
        32 -13.9336     24.8775    225.4155   1.2157263125e+02   2.5315097416e+01     1.151757    0.3457159  44.85   0.00613377    2.141    0.533
        33 -10.2690     99.5220    142.4911   9.5719691838e+01   3.3097292489e+01    0.3115026    0.2321164  51.76 0.0009663996    1.305    0.234
        34 -10.0638    102.2079    139.2027   9.4394779643e+01   3.3390891610e+01    0.3751085    0.2574096 -19.37  0.001265597    2.298    0.565
        35 -12.2036     87.9259    141.0945   9.8674343272e+01   3.5276822632e+01    0.2650416    0.2518982 -57.52 0.0003530485    1.138    0.121
        36 -10.4758     81.5500    141.4809   1.0053074863e+02   3.6158966712e+01    0.2887034    0.2087397  63.29 0.0006709141    1.433    0.302
        37 -10.7530     30.3271    137.1659   1.1493178418e+02   4.3453471958e+01    0.2204327    0.1695461  37.54  0.000579668    1.326    0.246
        38 -15.4969      9.3801    208.2229   1.2408337090e+02   2.9876348399e+01     2.533253     1.491408 -48.23   0.01533234    2.696    0.629
        39  -9.2721    159.7780    135.7935   7.9408978395e+01   2.3418943984e+01    0.1874261    0.1701586  86.37 0.0005433151    1.352    0.260
        40 -10.2485    105.9861    130.9891   9.1774261407e+01   3.4597165296e+01     0.335201    0.3002125  74.66  0.001216291    1.149    0.130
        41 -11.3293    135.7302    128.3275   8.3390390731e+01   2.9605348470e+01    0.6305131    0.1506737 -51.17  0.001603736    5.384    0.814
        42 -10.6657     34.9162    171.9901   1.1651891552e+02   3.4932354205e+01    0.1921339    0.1559249  67.66 0.0004731592    1.023    0.023
        43 -10.1688    174.8333    148.9329   7.8984820950e+01   1.8209801654e+01    0.2406505    0.1965868 -60.96 0.0008053214    1.594    0.373
        44 -10.7054     97.7602    127.1412   9.3318503675e+01   3.6913035232e+01    0.3139804     0.267993  -9.94  0.001648313    1.460    0.315
        45 -11.7289     34.6838    130.7740   1.1298288856e+02   4.4600183261e+01    0.3986063    0.2290135 -68.65  0.001586352    1.601    0.375
        46 -10.1906    116.5510    125.0961   8.7645697245e+01   3.3991726830e+01    0.2671374    0.2210155 -46.99  0.001200836    1.243    0.196
        47 -10.1512    110.3652    131.1350   9.0602555068e+01   3.3783986740e+01    0.2991963    0.2350508  -3.66  0.001010222    1.718    0.418
        48  -8.6242     89.3414    122.6647   9.4888345392e+01   3.9385168232e+01    0.1568009    0.1090847  71.52 0.0007050776    1.759    0.431
        49  -9.9198    107.1158    119.7280   8.9078050698e+01   3.6958458717e+01    0.2218187    0.2064553 -58.17 0.0003752189    1.086    0.079
        50  -8.6752     86.6415    120.2809   9.5223878427e+01   4.0398609815e+01    0.1537554    0.1074525  66.73 0.0005667877    1.667    0.400
        51  -9.6697    168.3001    113.2732   7.2315363472e+01   2.5882312430e+01    0.2827677    0.2120517 -79.24  0.001068569    2.022    0.505
        52 -10.1289     39.9643    113.4887   1.0915773395e+02   4.8391215783e+01    0.1917805     0.133577  29.87 0.0005202622    1.540    0.351
        53 -10.0002    205.4378    110.2459   6.4549508100e+01   1.8739612500e+01    0.2732558    0.1897089  42.14 0.0009784593    1.516    0.341
        54  -9.3095    114.4497    110.5199   8.4855994682e+01   3.7646440277e+01    0.1480343    0.1471688  -9.89 2.360898e-05    1.041    0.039
        55 -10.0968    230.4627    166.4951   7.2333689494e+01   6.2499860132e+00    0.1217484   0.09935869  -1.95 0.0001342661    1.030    0.029
        56 -10.3268    134.7305    104.5863   7.7900515013e+01   3.4760339769e+01    0.4236435    0.1273651 -48.74  0.001227184    3.682    0.728
        57 -10.9334     41.6341    103.1255   1.0700898853e+02   5.0849286357e+01     0.304454      0.16683  46.40 0.0009572145    1.882    0.469
        58 -10.0482    130.8036     96.9953   7.6880215444e+01   3.7188070323e+01    0.2602141    0.1800931 -73.21  0.001076396    2.077    0.519
        59  -9.2403     60.2936     94.6878   9.8610245365e+01   5.0709697658e+01    0.1466915    0.1068538  73.41 0.0002865049    1.593    0.372
        60 -16.0646      9.1760    239.7874   1.2499024585e+02   2.4283118260e+01     3.093254      2.34486  26.36   0.02496512    1.550    0.355
        61 -10.3783     41.7075     91.9675   1.0503607763e+02   5.3687953895e+01    0.2148521    0.1980502  36.67 0.0004380975    1.188    0.158
        62 -10.4986     53.0574     90.7032   1.0043906144e+02   5.2672294015e+01    0.2882927    0.1960653 -56.20 0.0009181738    1.366    0.268
        63  -9.9422    112.6066     82.1909   7.7654663080e+01   4.4270398002e+01    0.4351595    0.2687922  74.07  0.001559118    2.859    0.650
        64  -9.7100    159.4559     81.5224   6.5664875174e+01   3.3664673127e+01    0.1503813    0.1462099 -27.30 0.0001344225    1.013    0.013
        65  -8.3636     69.6936     81.3633   9.1841889354e+01   5.2606125278e+01    0.1535477    0.1134011  80.69 0.0007038414    1.740    0.425
        66  -9.3019     98.4366     71.1354   7.8550959176e+01   4.9648584108e+01    0.2135207    0.1420329 -59.59 0.0005749773    1.710    0.415
        67 -10.4910     51.1456     63.9278   9.4409472225e+01   5.9541267697e+01     0.377945    0.2192426  51.64  0.001149201    2.136    0.532
        68 -10.5641     13.4679     60.0547   1.1130135735e+02   6.4156518897e+01    0.2525246     0.203962 -77.46 0.0004577507    1.118    0.106
        69 -13.4192    195.5042     42.1014   4.7940669265e+01   3.1042607985e+01     1.188931    0.7316247  42.81  0.003634528    1.935    0.483
        70 -14.2249     30.3991    247.3309   1.2135153452e+02   2.1084212139e+01    0.9698372    0.6951413  14.76   0.00590858    1.920    0.479
        71  -9.9281    198.6677    222.7889   8.7112467444e+01   3.6695270220e+00    0.1869026    0.1189904  22.77 0.0004911007    1.257    0.205
        72 -10.9967    139.3746     45.0596   5.8184465234e+01   4.4800239965e+01    0.3953294    0.2923143 -75.61 0.0007740234    1.655    0.396
        73 -10.1501    143.0214     40.1264   5.5660788496e+01   4.4602935811e+01    0.2265366    0.2122272 -74.84 0.0004356897    1.073    0.068
        74 -15.7107     62.0358    247.5319   1.1549134045e+02   1.7756352575e+01     9.199122     2.593432  24.65  0.005242607   10.962    0.909
        75 -12.3584    212.9740     27.4323   4.1920602987e+01   2.8700143632e+01    0.4348086    0.3445395  44.21  0.001058208    1.498    0.332
        76 -10.8510      2.3462     24.3884   1.0963845017e+02   7.3260436243e+01    0.3088714    0.1091817 -75.32  0.001253901    2.935    0.659
        77 -10.0889    189.6934     14.9962   4.0604738375e+01   3.5660739147e+01    0.1966433    0.1693366 -39.57 0.0005503614    1.112    0.101
        78 -13.4476     38.4422    205.5138   1.1783552487e+02   2.7648671413e+01    0.4855919    0.4219526  37.16  0.001302409    1.278    0.218
        79 -14.9546     48.6092    194.7203   1.1488741068e+02   2.8685101806e+01     1.611751     1.195214  61.72   0.01068503    1.128    0.113
        80  -9.4917     12.2994     53.3266   1.1058328437e+02   6.5888802531e+01    0.1386794    0.0789229 -44.50   0.00030599    1.636    0.389
        81 -10.6125    113.1244    207.3981   1.0174952189e+02   1.7988522018e+01    0.1969811    0.1721888  80.73 0.0003497646    1.327    0.246
        82 -10.3573     62.9789    201.2900   1.1214854001e+02   2.5727779223e+01    0.2068423    0.1533825  78.85 0.0003524615    1.339    0.253
