#   1 NUMBER                 Running object number                                     
#   2 MAG_AUTO               Kron-like elliptical aperture magnitude                    [mag]
#   3 X_IMAGE                Object position along x                                    [pixel]
#   4 Y_IMAGE                Object position along y                                    [pixel]
#   5 X_WORLD                Barycenter position along world x axis                     [deg]
#   6 Y_WORLD                Barycenter position along world y axis                     [deg]
#   7 A_WORLD                Profile RMS along major axis (world units)                 [deg]
#   8 B_WORLD                Profile RMS along minor axis (world units)                 [deg]
#   9 THETA_WORLD            Position angle (CCW/world-x)                               [deg]
#  10 FWHM_WORLD             FWHM assuming a gaussian core                              [deg]
#  11 ELONGATION             A_IMAGE/B_IMAGE                                           
#  12 ELLIPTICITY            1 - B_IMAGE/A_IMAGE                                       
         1  -9.3464     39.4669      7.6035   9.5159745717e+01   6.7609315757e+01    0.3468449     0.233551   8.77  0.001639051    1.245    0.197
         2 -10.8027     39.3104     29.7963   1.0435135709e+02   6.4830637559e+01    0.7485266    0.2889276 -39.38  0.003558874    2.394    0.582
         3 -11.8493    128.6198     14.7884   7.2254288524e+01   5.0455312199e+01     1.236314    0.9366543 -45.45  0.007403282    1.563    0.360
         4 -12.1312     83.6228      5.0955   7.9304034582e+01   6.0717078371e+01     2.049634     1.029349   1.77  0.009890557    2.756    0.637
         5 -10.5385     71.2627      5.3687   8.2986151760e+01   6.2941152019e+01    0.5589522    0.2802776  39.22  0.002712168    1.661    0.398
         6 -12.4737    115.8471      4.0322   7.1319775737e+01   5.4234210227e+01     3.609653    0.6741283  61.47   0.01136445    4.592    0.782
         7 -11.4166    131.8084      3.2287   6.8058659911e+01   5.0756640691e+01     1.546456    0.2716279  62.04  0.005038748    4.071    0.754
         8 -13.8114    168.6367     11.8857   6.4783772304e+01   4.1373198554e+01     3.049726     1.649667  63.81   0.01528912    1.546    0.353
         9  -9.8658    110.6801     16.1638   7.6529752961e+01   5.4266558336e+01    0.5554582     0.237166  46.94  0.002468504    1.965    0.491
        10  -9.1628    116.7648     17.9916   7.5770454119e+01   5.2775311488e+01    0.2945223    0.2559196 -15.49  0.001488993    1.281    0.219
        11  -9.3020    117.5051     14.4712   7.4438247278e+01   5.2956506964e+01    0.3250162    0.2468762  63.89  0.001690946    1.279    0.218
        12  -9.8680     93.7940     17.6451   8.1258415637e+01   5.7584308914e+01    0.4221963    0.3848792 -81.84  0.002121136    1.510    0.338
        13  -9.6564     64.5592     16.6331   8.9705545305e+01   6.2951095474e+01    0.2507997    0.2141942 -46.23  0.001179733    1.716    0.417
        14  -8.0670     19.6141     14.7650   1.0674725158e+02   6.9000850752e+01    0.4320724    0.2174011 -13.68  0.002445607    2.163    0.538
        15 -10.8463    248.7829     14.1504   5.6798078728e+01   2.2760562994e+01    0.8390471    0.3046774 -51.07  0.003989011    2.365    0.577
        16  -8.9359     69.2397     13.8609   8.7044546175e+01   6.2471989107e+01    0.2303125    0.1926808  55.12  0.001551536    1.558    0.358
        17 -11.8914     44.3602     21.0967   9.8912197754e+01   6.5380523705e+01    0.9739795    0.9025447  67.57  0.006954148    1.951    0.488
        18  -9.8188    204.2496      4.0272   5.8688359110e+01   3.3766468027e+01    0.2538268    0.1674533 -59.86  0.001370031    1.460    0.315
        19 -10.0517    199.5266      8.1556   6.0104557798e+01   3.4438440318e+01     0.286855    0.1524316  64.00 0.0007297633    1.638    0.389
        20 -10.3036     61.0882      2.1288   8.4875785469e+01   6.4949716175e+01    0.5744888    0.3330149  31.02  0.003555653    1.446    0.308
        21  -8.8741     52.4204      2.0102   8.7795513225e+01   6.6330610700e+01     0.438202    0.2316148   7.14  0.002402375    2.202    0.546
        22  -8.1719    230.2310      5.6036   5.6648355573e+01   2.7736832149e+01    0.1656246    0.0948558  67.91 0.0007903236    1.598    0.374
        23 -10.0473    213.9690      4.9946   5.7963550601e+01   3.1439957226e+01     0.308488    0.1466551  66.65  0.001592497    1.814    0.449
        24  -8.9918     17.0518      2.2198   1.0245950373e+02   7.0806038314e+01    0.2307786    0.1924316 -38.63  0.001665686    1.907    0.476
        25 -11.7375    155.4665     20.5217   6.9137001241e+01   4.3627748767e+01     1.134715    0.5022771  59.70  0.004017309    1.889    0.471
        26  -8.5566     26.3543      2.4125   9.8336071729e+01   6.9783872422e+01    0.2005416    0.1533555  -8.45  0.001551984    1.162    0.139
        27  -9.9732    250.2288      5.0790   5.4974779816e+01   2.3515173018e+01    0.4782817    0.2027521 -36.21  0.002473244    2.445    0.591
        28  -8.2179     40.3218      1.4353   9.2073637036e+01   6.8131635365e+01    0.2424142   0.09409841  41.78  0.001274558    2.477    0.596
        29  -8.7521     83.2989     69.8756   1.0247878521e+02   5.2019355039e+01    0.3640231    0.1491402  31.47  0.001359875    2.985    0.665
        30  -9.2867     74.4090     68.2383   1.0485146008e+02   5.3762192192e+01    0.5340835    0.3479571   8.47  0.002613489    1.966    0.491
        31 -11.4802     13.8023     73.7038   1.2764946483e+02   5.9369104711e+01    0.8763337    0.6245762 -47.48  0.005867196    1.090    0.082
        32  -8.0694     34.2544     68.4142   1.1895776061e+02   5.8773557521e+01    0.1557262    0.1121739  34.09 0.0009522989    1.664    0.399
        33  -9.3405     48.9917     62.3126   1.1181935389e+02   5.8351680596e+01    0.3334645    0.2204258  27.42  0.001931488    1.609    0.378
        34  -8.8148     69.5325     61.3412   1.0429205467e+02   5.5752331996e+01     0.241156    0.2056522  64.13  0.001421715    1.678    0.404
        35 -10.3738      4.1717     75.9530   1.3150057194e+02   5.9493762882e+01    0.5230254    0.3242754 -53.36  0.002815623    1.214    0.176
        36  -8.0933     75.6078     60.2172   1.0188999504e+02   5.5003392322e+01     0.193271    0.1145524 -29.73 0.0008702797    1.699    0.411
        37  -9.1414    221.2630     80.9730   7.4242546714e+01   1.9207401391e+01    0.3029754     0.174816 -87.25  0.001188187    2.696    0.629
        38  -8.9167    198.8386     54.8128   7.1352892170e+01   2.8696356764e+01    0.2278284       0.2219  46.92 0.0005796436    1.223    0.183
        39  -8.0591     34.2973     52.5768   1.1428190706e+02   6.1716851659e+01    0.2070356    0.1082446  30.31 0.0009909917    2.098    0.523
        40  -7.8419     23.2935     52.3668   1.1850461822e+02   6.2762281008e+01    0.1275668   0.06906339 -28.64 0.0003747669    1.716    0.417
        41 -10.3575     83.5807     47.3942   9.4970768149e+01   5.5738497840e+01    0.6472183     0.528075 -72.15  0.003626504    1.964    0.491
        42  -7.9046    111.0064     46.5162   8.6701560209e+01   5.0563244276e+01    0.2059289    0.1006319  32.14 0.0008099123    2.562    0.610
        43  -9.9918     81.4465     37.6251   9.2185640722e+01   5.7517820030e+01     0.427457    0.2401404 -40.42  0.002185512    1.978    0.494
        44  -8.3792     97.3783     44.1682   8.9680997345e+01   5.3651996922e+01    0.1815397    0.1205735 -42.04 0.0009435843    1.693    0.409
        45 -10.4014      3.7727     39.2581   1.2253929642e+02   6.6456643258e+01    0.5906035     0.348774 -38.56  0.002682876    1.258    0.205
        46  -9.0340     12.1434     33.8966   1.1724849803e+02   6.6798628947e+01    0.4076736    0.2030109 -39.51  0.001917723    1.556    0.357
        47 -10.2814     50.8955     36.4791   1.0235877151e+02   6.2410259128e+01     0.620984    0.5230827 -71.37   0.00386122    2.177    0.541
        48 -10.9248    184.3552    246.5526   1.1588809129e+02  -4.2452925469e+00    0.5072532    0.2484891  45.69  0.002445001    1.905    0.475
        49 -10.6219    171.3803    243.5248   1.1797688744e+02  -1.5640936153e+00    0.3966986    0.2048272  27.56  0.001784455    2.254    0.556
        50  -8.8581     69.2666     37.0611   9.5977057192e+01   5.9642012167e+01    0.2847682    0.2283377  30.07  0.001817174    1.218    0.179
        51  -8.0894     97.0396     36.5085   8.7121811684e+01   5.4759617292e+01    0.2075967    0.1190584  47.13  0.001043504    1.622    0.383
        52  -8.5413     27.5901     35.4054   1.1122003165e+02   6.5243848206e+01    0.2317549    0.1629217 -18.30  0.001461845    1.174    0.148
        53  -9.5678     66.5518     30.3498   9.4395355383e+01   6.0982750884e+01    0.4431145    0.2368934 -22.75  0.002309913    1.950    0.487
        54  -9.9886     86.4149     31.0981   8.8283484289e+01   5.7472353985e+01     0.413118    0.2850078  42.53  0.002397504    1.348    0.258
        55 -10.4392    225.4426     29.0140   6.1982839113e+01   2.6027218618e+01    0.4215096    0.3085118  61.11  0.001376786    1.441    0.306
        56  -9.6255    163.2832    244.3007   1.1970176295e+02  -3.0785552232e-01    0.2854729    0.1775321 -77.48  0.001256861    3.193    0.687
        57 -10.0290    203.8802    225.9603   1.0864072247e+02  -4.2281786221e+00    0.2971303     0.163578  15.66  0.001225541    2.798    0.643
        58  -8.8476    210.0179    220.2622   1.0642292215e+02  -4.3360657063e+00    0.2115336    0.1488278 -82.81 0.0008855819    3.514    0.715
        59  -9.1086    238.8311    203.1764   9.7756555877e+01  -6.3477600625e+00     0.188289    0.1418855  -0.34  0.001075849    1.338    0.253
        60  -9.1734     41.1534    141.8508   1.3203283750e+02   4.1732438542e+01    0.3360769    0.2332766  66.09  0.001850795    1.633    0.388
        61 -11.4357     10.5085    140.6591   1.3976138817e+02   4.4795754836e+01    0.5111486    0.4579029  71.90  0.003703608    1.243    0.196
        62  -9.0558     10.2606     26.8556   1.1563862411e+02   6.8053675115e+01    0.2453881    0.1417726 -26.51    0.0016247    1.390    0.281
        63  -9.3965    104.7465     25.4725   8.1185936449e+01   5.4539528739e+01    0.4188569    0.3303005  32.28  0.002559216    1.135    0.119
        64  -7.4556     64.3146     25.3185   9.3230116660e+01   6.1976378408e+01      0.12689   0.08099151   8.94 0.0002410684    1.651    0.394
        65  -8.5362    118.5453     23.5104   7.7203689649e+01   5.1814140478e+01    0.3320007    0.1847346  67.11  0.001575472    2.029    0.507
        66 -12.6383    240.8182    132.8194   8.2852712628e+01   5.6973486824e+00     1.513322     1.156361  51.79  0.005162264    1.458    0.314
        67  -9.5150     17.8778    126.7612   1.3601499605e+02   4.7443786973e+01    0.2398803    0.1413191  83.54  0.001242957    2.050    0.512
        68  -8.0247     22.7883    125.4055   1.3446892618e+02   4.7361035826e+01    0.1516771    0.1192747  -9.82 0.0009456064    1.653    0.395
        69  -8.6800     19.9797     22.2466   1.0958799296e+02   6.7935534965e+01    0.2766366    0.1625862  29.95  0.001799905    1.905    0.475
        70  -9.4853     13.4204    119.8175   1.3622923698e+02   4.9372948041e+01    0.2516457    0.1069319  23.93  0.001243021    2.887    0.654
        71  -9.9304     10.3944    129.1898   1.3835255605e+02   4.7444644599e+01    0.2382296    0.1750419 -68.78  0.001553672    1.063    0.059
        72  -9.8139      9.3602    117.1494   1.3697204114e+02   5.0260846591e+01    0.2673847    0.1578007 -30.73  0.001510123    2.062    0.515
        73  -8.0817      8.1735     16.8983   1.1287466845e+02   6.9690810414e+01    0.2563162     0.110291 -16.53  0.001275777    2.947    0.661
        74  -9.5792     16.6580    103.9317   1.3274037594e+02   5.2724766496e+01    0.3452123    0.2905189  61.32  0.002351522    1.453    0.312
        75  -8.8266     97.4425     28.6224   8.4226397837e+01   5.5657788343e+01    0.4083059    0.2198619  -6.35  0.001794681    2.768    0.639
        76  -9.6403     30.0026    101.9439   1.2825513595e+02   5.2103545346e+01    0.3268767     0.141991 -53.07  0.001450861    1.810    0.448
        77  -9.3359     47.1592     98.3920   1.2206218038e+02   5.1195642251e+01     0.244929    0.1539007 -47.61  0.001309199    1.362    0.266
        78  -8.5175    125.0255     28.7121   7.7452924998e+01   4.9800693383e+01    0.2536848    0.1969001  -2.82  0.001451717    1.488    0.328
        79  -7.9811     63.6862     98.6480   1.1686239652e+02   4.9121583558e+01    0.1455839   0.09655091 -26.70 0.0007045986    1.730    0.422
        80  -7.8180     57.9773     90.4853   1.1664145159e+02   5.1634739508e+01    0.1764281      0.10944  56.31 0.0008093171    2.454    0.592
        81  -9.0207      2.4978     89.2866   1.3458040983e+02   5.6802270707e+01    0.2822534    0.1984489 -76.85  0.001762797    1.409    0.290
        82 -10.3217     35.2363     79.7720   1.2158277007e+02   5.6400941639e+01    0.4836247    0.3089179 -84.47  0.002308497    2.829    0.647
        83 -11.6488     41.9924     83.9750   1.2031677516e+02   5.4854782829e+01    0.9793315    0.6558498   1.86  0.005451548    1.815    0.449
        84 -11.3127     45.3391     81.5062   1.1854665095e+02   5.5010667409e+01    0.8719735    0.4193802 -43.25  0.004119347    1.801    0.445
        85  -9.1442    227.9312     78.8392   7.2774317718e+01   1.8060555816e+01    0.3460635    0.2966602  19.51  0.001910234    1.634    0.388
        86  -7.7665     71.1510     80.4007   1.0957393208e+02   5.1917858291e+01    0.1784848    0.1259548  45.79 0.0009321359    1.659    0.397
        87  -7.4972    204.3100     76.6329   7.5862186300e+01   2.3893820781e+01    0.1579472    0.1047288 -70.17 0.0004078851    1.760    0.432
        88 -10.1129     24.6607     65.6150   1.2171983730e+02   6.0169741320e+01    0.6937317    0.2159593 -48.37  0.003106543    2.402    0.584
