#   1 NUMBER                 Running object number                                     
#   2 MAG_AUTO               Kron-like elliptical aperture magnitude                    [mag]
#   3 X_IMAGE                Object position along x                                    [pixel]
#   4 Y_IMAGE                Object position along y                                    [pixel]
#   5 X_WORLD                Barycenter position along world x axis                     [deg]
#   6 Y_WORLD                Barycenter position along world y axis                     [deg]
#   7 A_WORLD                Profile RMS along major axis (world units)                 [deg]
#   8 B_WORLD                Profile RMS along minor axis (world units)                 [deg]
#   9 THETA_WORLD            Position angle (CCW/world-x)                               [deg]
#  10 FWHM_WORLD             FWHM assuming a gaussian core                              [deg]
#  11 ELONGATION             A_IMAGE/B_IMAGE                                           
#  12 ELLIPTICITY            1 - B_IMAGE/A_IMAGE                                       
         1 -14.2458    153.2401     54.3057   8.6279335964e+01   3.9950608843e+01     1.213022    0.9115731  25.83  0.001095231    1.515    0.340
         2 -14.6204    164.7272     39.5716   7.8988705439e+01   3.9026651928e+01     1.323666     1.014413  -9.75  0.003946543    1.463    0.316
         3 -14.3153    179.0465      6.8029   6.5988518642e+01   3.8803242144e+01     1.076589    0.9010658  72.53  0.004377359    1.137    0.121
         4 -11.2322     13.3247    244.1445   1.5246506764e+02   2.4342121961e+01     0.251954    0.1202745 -73.21  0.001737716    2.541    0.606
         5 -19.6674     72.1385    181.1190   1.3671635950e+02   2.9410037445e+01     15.01817     7.022244 -72.28   0.07322508    2.459    0.593
         6 -11.6030     24.1631    229.8815   1.5009443320e+02   2.5651474630e+01    0.3083651     0.124075  55.09  0.001680304    1.802    0.445
         7 -11.2956    219.6095    225.2091   1.1147615874e+02   1.0959406974e+00    0.2624017   0.09666388 -40.00  0.001258792    4.037    0.752
         8 -10.6118    110.1412    223.1600   1.3230951698e+02   1.6806720347e+01    0.1657387    0.1265249  33.98 0.0003623331    1.092    0.084
         9 -12.1029    156.6758    191.3315   1.1841941510e+02   1.4824654395e+01    0.2337325    0.1712545  51.06  0.000595559    1.528    0.346
        10 -12.6757    154.7256    186.2707   1.1805155205e+02   1.5943848868e+01    0.3558047    0.2149856 -39.70  0.001897507    1.962    0.490
        11 -14.2334    206.9784    179.7969   1.0635870655e+02   8.2437543729e+00    0.7823386    0.6508154   8.16  0.004260153    1.105    0.095
        12 -13.4562    196.5774    172.2804   1.0696930723e+02   1.0987467253e+01    0.6701909    0.3874718 -42.62  0.002532484    2.162    0.537
        13 -11.8974     15.6449    220.0274   1.5144257684e+02   2.8080670925e+01    0.1602206    0.1240043  56.00 0.0005772444    1.110    0.099
        14 -10.2261      4.3534    180.2630   1.5271919805e+02   3.6374579325e+01       0.2621    0.1538846 -23.86  0.001322716    3.370    0.703
        15 -11.2917      9.5938    175.0341   1.5136858571e+02   3.7034489315e+01    0.1946818    0.1322322  41.91 0.0006945966    1.277    0.217
        16 -13.2563    178.0494    171.7275   1.1060261569e+02   1.4259978334e+01    0.4743395    0.3498525 -30.12    0.0027316    1.488    0.328
        17 -14.1286    138.4300    171.4364   1.1933483052e+02   2.1216642908e+01     1.184887    0.4190171  44.91  0.004453721    2.671    0.626
        18 -12.8737    145.5023    169.4898   1.1736299132e+02   2.0340412818e+01    0.3862922    0.3118287  88.52  0.002111393    1.845    0.458
        19 -12.9238    141.7319    167.1846   1.1784653683e+02   2.1411719853e+01    0.6375192    0.2031535  38.58  0.002307671    2.689    0.628
        20 -11.6246     30.5741    183.9468   1.4687290940e+02   3.3444163504e+01    0.4161543    0.1786783  35.60  0.002236739    1.875    0.467
        21 -11.7310    113.1775    169.0395   1.2505551744e+02   2.5883785332e+01     0.309866    0.1866512  44.02   0.00075406    1.451    0.311
        22 -12.0853    110.8782    208.9810   1.3068642744e+02   1.8985411600e+01    0.2670916    0.2044034   5.52  0.001529931    1.664    0.399
        23 -10.7169    114.0000    250.0031   1.3398914478e+02   1.2409410146e+01     0.120639   0.06481352 -59.75 0.0004913966    2.654    0.623
        24 -13.2417     11.6877    206.1403   1.5184963018e+02   3.0874198297e+01     0.425332    0.2433664  28.49   0.00237355    1.686    0.407
        25 -10.8407    122.5452    165.9306   1.2225745678e+02   2.4946233909e+01    0.3444821    0.1498347  49.04 0.0009574048    2.420    0.587
        26 -10.9111     14.9652    164.2227   1.4967173842e+02   3.8869484320e+01     0.326223    0.1992388   0.49  0.001828845    2.504    0.601
        27 -10.3556      1.9739    165.2757   1.5286515941e+02   3.9591013243e+01    0.1425043    0.1163113  52.12 0.0002997317    1.141    0.123
        28 -11.2096    223.8600    163.8787   1.0032460279e+02   7.5583792811e+00    0.2019899    0.1710833 -17.71 0.0004370858    1.297    0.229
        29 -10.8344    237.5088    159.4647   9.7151922609e+01   5.9093059116e+00    0.1259891   0.09979925   5.06 0.0005256432    1.024    0.024
        30 -12.2476    164.7535    157.7573   1.1084704144e+02   1.8911499049e+01    0.2891458    0.2231123  19.58 0.0006624451    1.226    0.184
        31 -14.2566    134.2234    146.2441   1.1585663979e+02   2.6733460543e+01     1.334858    0.4883707 -56.81  0.004201461    4.311    0.768
        32 -14.3845    143.5883    144.6168   1.1320179255e+02   2.5281770144e+01    0.9821753    0.5918749 -65.20  0.004028792    2.728    0.633
        33 -10.9069      9.2152    202.3167   1.5225447651e+02   3.1776664819e+01    0.1353823     0.088661  57.59            0    1.118    0.105
        34 -10.5134    174.4849    140.5544   1.0517944078e+02   1.9978626748e+01    0.1442847    0.1283503  22.60  7.66978e-05    1.036    0.035
        35  -9.9642     28.6350    238.7196   1.4953804046e+02   2.3798439594e+01   0.08638053    0.0746737  10.23 0.0007013843    1.681    0.405
        36 -12.0036      5.9486    137.2235   1.5088060642e+02   4.5437837019e+01    0.2599011    0.2325004 -55.67  0.001239685    1.343    0.256
        37 -10.0999     13.7401    137.3739   1.4870093615e+02   4.4894700403e+01    0.1390494    0.1144088   9.27 0.0002808546    1.506    0.336
        38 -13.8918    136.0428    127.3895   1.1145916595e+02   3.0166855016e+01     1.638591    0.3137705 -49.66  0.003691312    7.082    0.859
        39 -12.3083    160.8600    127.6685   1.0537869727e+02   2.5020379258e+01    0.4219592    0.3193514 -41.25  0.002123778    1.428    0.299
        40 -10.8339    143.9032    128.4731   1.0968409719e+02   2.8360730388e+01    0.2253911    0.1389438  42.26 0.0004671995    1.504    0.335
        41 -11.6263    156.5079    198.5472   1.1953848308e+02   1.3744606360e+01    0.2486065    0.1280589 -57.20  0.001147465    3.238    0.691
        42 -13.3904    162.9171    202.1619   1.1873770275e+02   1.2201366757e+01    0.6125715    0.3562945 -61.01  0.002289267    3.327    0.699
        43 -11.8251    158.4658    204.1544   1.1994225301e+02   1.2604323450e+01    0.3524664    0.1639574  46.04  0.001681193    2.141    0.533
        44 -12.0122    169.0257    202.5656   1.1755194595e+02   1.1189945885e+01    0.1848506    0.1788809  59.88 0.0001453952    1.461    0.316
        45 -12.0729    171.1239    116.7648   1.0043751886e+02   2.4808366579e+01    0.4041487    0.3197166 -83.36 0.0008154238    1.967    0.492
        46 -11.8649    133.7902    249.9330   1.3024231852e+02   9.8532765544e+00    0.1502634    0.1337401  22.69 0.0006992074    1.293    0.226
        47 -11.6241      7.1164    111.0727   1.4922028165e+02   5.1475818286e+01    0.2054613     0.182132 -37.86 0.0009577947    1.347    0.258
        48 -10.5749    205.5208    110.1859   9.1908114551e+01   1.8517112730e+01    0.2548665    0.1934052  40.40 0.0006667358    1.305    0.233
        49 -10.8001    138.8728    198.9601   1.2336312352e+02   1.6451468400e+01    0.5010675    0.1871206  47.99  0.001986989    2.971    0.663
        50 -11.8347    174.4236    149.4139   1.0705874513e+02   1.8499701204e+01    0.2934281    0.2483639  -6.98 0.0009276091    1.182    0.154
        51 -13.9338    167.2712    190.9627   1.1612744661e+02   1.3156648132e+01    0.5827278    0.4858933  72.62  0.003518527    1.876    0.467
        52 -11.1018      6.8234    101.9681   1.4875056183e+02   5.3685222672e+01    0.1938164     0.178845  33.29 0.0007625145    1.242    0.195
        53 -13.9363    175.2223    194.1785   1.1500548103e+02   1.1401709617e+01    0.5601103    0.4185337 -44.18  0.002856582    1.747    0.427
        54 -13.1258    180.3836    192.6731   1.1372388217e+02   1.0786912439e+01    0.3637209    0.3460536 -57.43  0.001604178    1.563    0.360
        55 -13.4878    176.5465    187.8879   1.1371619942e+02   1.2094240395e+01    0.5539412    0.3339069 -57.03  0.002658937    3.007    0.667
        56 -10.0379    150.7983    248.5988   1.2692268917e+02   7.7683966632e+00    0.1285855    0.1227657  20.48 0.0006138121    1.419    0.295
        57 -11.2777    125.1042    247.6305   1.3166931887e+02   1.1290260090e+01    0.1714322    0.1312313 -51.86   0.00129719    1.846    0.458
        58 -12.6878    168.5325     31.5872   7.5638277007e+01   3.9020936456e+01     0.417149    0.3871035  19.73 0.0008608726    1.145    0.127
        59 -10.6093     13.5128     59.9401   1.4173925528e+02   6.3748202106e+01    0.1770574     0.165768 -64.11 0.0004524862    1.093    0.085
        60 -10.1482    142.8580     33.1622   8.0929881098e+01   4.5843020331e+01    0.2382868    0.2053447 -82.08 0.0009037944    1.281    0.219
