#   1 NUMBER                 Running object number                                     
#   2 MAG_AUTO               Kron-like elliptical aperture magnitude                    [mag]
#   3 X_IMAGE                Object position along x                                    [pixel]
#   4 Y_IMAGE                Object position along y                                    [pixel]
#   5 X_WORLD                Barycenter position along world x axis                     [deg]
#   6 Y_WORLD                Barycenter position along world y axis                     [deg]
#   7 A_WORLD                Profile RMS along major axis (world units)                 [deg]
#   8 B_WORLD                Profile RMS along minor axis (world units)                 [deg]
#   9 THETA_WORLD            Position angle (CCW/world-x)                               [deg]
#  10 FWHM_WORLD             FWHM assuming a gaussian core                              [deg]
#  11 ELONGATION             A_IMAGE/B_IMAGE                                           
#  12 ELLIPTICITY            1 - B_IMAGE/A_IMAGE                                       
         1 -13.2540    197.8028     42.2830   4.2703629865e+01   3.0834928945e+01     1.050895    0.9531548 -57.57  0.003345562    1.067    0.063
         2 -13.2733    231.7920      6.8516   3.1204404841e+01   2.7561460436e+01     1.143717    0.8710112 -21.47  0.007623583    1.685    0.406
         3 -13.8271    206.8883     33.2909   3.9390487679e+01   2.9925018644e+01     1.471457    0.9419411 -16.62  0.001335298    2.106    0.525
         4 -10.7633     33.4133     11.2516   7.3527083253e+01   6.9076427687e+01    0.2924727   0.09721574 -30.58  0.001276547    2.952    0.661
         5 -10.3519     61.8394      8.1306   6.0271736968e+01   6.4976593688e+01    0.1731471    0.1592879   8.11 0.0005528996    1.265    0.210
         6 -11.5749     52.6010      3.2491   6.1347007054e+01   6.7065320900e+01    0.4109313    0.1819064  42.37  0.002117195    1.953    0.488
         7 -11.3273     30.1762      2.4362   7.0604856427e+01   7.0572084998e+01    0.3961555    0.1471316  42.06  0.001878929    2.937    0.660
         8 -11.0311    184.1105    212.1484   8.4461102496e+01   3.1412752366e+00     0.272095    0.1955019  -6.57  0.001467376    1.498    0.333
         9 -11.6089    139.9039    248.4546   9.9179667630e+01   3.7407036226e+00    0.4564356    0.3347051 -49.81  0.002840998    1.612    0.379
        10 -13.3182     57.4383    184.8273   1.0931956937e+02   2.8529465916e+01     1.834464    0.9987916  35.83  0.009069911    1.847    0.458
        11 -16.3178     71.1399    151.2733   1.0088014573e+02   3.4922908962e+01     21.25276     11.67742  84.67   0.01756818    3.511    0.715
        12 -10.7369    147.9971    187.9421   8.7957154404e+01   1.3855410517e+01    0.4449705     0.340112  88.58  0.001690125    1.991    0.498
        13  -8.2195    193.4734    170.4568   7.4446760215e+01   9.1962333377e+00    0.1439507    0.1311333 -10.70 0.0001847338    1.031    0.030
        14  -9.3551    148.0337    174.4494   8.5357842550e+01   1.6707313469e+01    0.2250547    0.1935399 -42.55 0.0004598539    1.173    0.148
        15 -10.0338    240.4884    169.0667   6.5299487799e+01   1.4840732036e+00    0.2045527    0.1135473 -35.17 0.0005021948    1.556    0.357
        16  -9.6437    184.9770    167.6835   7.5641387977e+01   1.1281566192e+01    0.2059625    0.1884282  11.10 0.0008065865    1.067    0.063
        17 -11.6719    195.7704    204.5060   8.0695550863e+01   2.5995920345e+00    0.6220947    0.2263482  28.92  0.002197927    3.385    0.705
        18  -9.0478     36.8468    167.7868   1.1236949458e+02   3.4919705533e+01    0.2355167    0.1513584  54.35 0.0005905614    1.605    0.377
        19  -9.6305     32.6788    165.1671   1.1311968220e+02   3.5969709295e+01    0.2591737    0.2067477  55.42 0.0009478373    1.280    0.219
        20  -8.9353     72.1085    188.3175   1.0622263200e+02   2.5829261051e+01    0.1863986    0.1587759  63.23 0.0005691556    1.123    0.110
        21 -11.6048     90.3755    151.6809   9.5632840157e+01   3.2002392398e+01    0.7278996    0.4759931 -27.61  0.003173872    2.035    0.509
        22 -10.9550    133.8058    145.3485   8.2690197759e+01   2.5866583618e+01     1.285671    0.3399478 -54.25  0.002975485    5.798    0.828
        23  -9.2580    174.8298    149.0658   7.3753671592e+01   1.6972763767e+01     0.224586    0.2078633 -66.32 0.0005917858    1.253    0.202
        24  -9.7756     31.8934    203.6028   1.1704423410e+02   2.7109378871e+01    0.2829481    0.1913436 -88.45  0.001721699    1.318    0.241
        25 -10.2290     39.9860    146.8115   1.0885648080e+02   3.9753046992e+01    0.2846805    0.2301523  10.06  0.001043142    1.526    0.345
        26 -10.3785    103.6649    138.1114   8.9150655061e+01   3.3115768133e+01    0.5425768    0.3286438 -25.64  0.002105628    2.382    0.580
        27 -10.2447    105.8789    130.8807   8.6892903570e+01   3.4460979728e+01    0.3848341    0.3282627 -61.90  0.001236249    1.210    0.174
        28 -11.6253     91.0541    137.6697   9.2629850173e+01   3.5330647047e+01    0.2923531    0.2596173 -35.42 0.0004071738    1.132    0.116
        29  -9.2166     24.7217    193.9922   1.1779536762e+02   2.9975464688e+01    0.4247811     0.126507  49.44  0.001711672    3.275    0.695
        30 -10.2602    107.0572    250.0547   1.0598227476e+02   8.2009004356e+00    0.1942493    0.1591431  43.94  0.001296324    1.026    0.025
        31 -10.7290     33.2160    130.7011   1.0842952539e+02   4.4416843886e+01    0.3340965    0.2130295 -70.66  0.001188783    1.390    0.280
        32 -10.7041    134.9050    121.9898   7.6804873015e+01   3.0932816799e+01    0.8161515   0.08736841 -46.51  0.001390556    9.747    0.897
        33  -9.1165    160.1364    127.2718   7.1917569031e+01   2.4533497361e+01    0.2871732     0.192833 -57.15  0.001233241    1.735    0.424
        34 -10.2770     99.5697    125.0098   8.7328764696e+01   3.6973111254e+01    0.3300593    0.2612814 -14.85 0.0008799982    1.480    0.325
        35  -8.8077     93.0284    125.6435   8.9396513045e+01   3.7933967467e+01    0.2033478    0.1886623  34.47 0.0005235196    1.137    0.120
        36 -11.0337    118.9522    123.1091   8.1361362582e+01   3.3856167302e+01    0.5738402    0.3913974  -0.23  0.002302848    2.253    0.556
        37  -9.2098    108.3063    118.1987   8.3129945530e+01   3.7007920417e+01    0.2332834    0.2046853  16.91 0.0004261208    1.205    0.170
        38 -12.1506     43.3025    109.0565   1.0141871411e+02   4.8769302363e+01    0.5663872    0.4134649 -58.81  0.001641612    1.200    0.167
        39  -9.9544    231.4173    113.7731   5.4904935357e+01   1.2496421876e+01    0.2480265    0.2321247 -31.66 0.0008059178    1.076    0.071
        40 -10.3401    119.9051    110.8194   7.7929728010e+01   3.6452585300e+01    0.3023423    0.2293976  62.71  0.001382313    1.647    0.393
        41 -11.1322    115.2547    109.2837   7.8824862460e+01   3.7713984254e+01    0.5502207    0.2755981 -35.81  0.001733662    2.204    0.546
        42  -9.2339    205.5018    110.0556   5.8343077152e+01   1.8314156123e+01    0.2525309     0.201357  29.22  0.000646777    1.441    0.306
        43 -10.0844    112.2469    129.1278   8.4689944487e+01   3.3721144306e+01     0.358189    0.2871781   1.98 0.0008530346    1.493    0.330
        44 -11.3236     33.2679     99.8119   1.0293035294e+02   5.1974881617e+01    0.3790356    0.3270758  50.93  0.001871331    1.397    0.284
        45  -9.3201    128.8039     95.9864   7.1407277523e+01   3.7795899893e+01    0.2609873    0.2205964  45.13 0.0005431937    1.218    0.179
        46 -10.9320    192.8978    194.8263   7.9459042894e+01   4.7732642497e+00    0.9171541    0.5102056 -63.96  0.002931664    5.266    0.810
        47 -17.4655     11.0382    244.3795   1.2373932157e+02   2.0820373033e+01     3.899463     1.884104  26.12   0.02182988    2.648    0.622
        48 -14.4815     44.1809    196.0438   1.1365116356e+02   2.7482662190e+01     5.741158     1.761716  57.73   0.01626311    6.256    0.840
        49  -9.4994    156.3435     88.5604   6.2553334832e+01   3.3150357074e+01    0.3208849    0.2395114 -75.30 0.0008573663    1.834    0.455
        50 -10.8090     61.0206    198.3634   1.1006148899e+02   2.4958680703e+01    0.2535957    0.2493121  -0.48 0.0005621245    1.243    0.195
        51  -8.2713    117.4815     86.4071   7.1702426701e+01   4.2125250418e+01     0.150345    0.1434319   1.94  0.000110666    1.017    0.017
        52  -9.4023     75.2305     85.0011   8.4487316912e+01   5.0213895901e+01    0.2254636    0.2007842  18.15 0.0003641698    1.159    0.137
        53  -9.2124    157.9960     82.7169   6.0544874146e+01   3.3844509605e+01    0.2088068    0.1971521  49.91 0.0004882968    1.074    0.069
        54  -9.3288     59.0520     67.8726   8.5063034612e+01   5.6199679905e+01    0.2092338    0.1767137 -19.40 0.0004112598    1.047    0.045
        55 -12.8611    186.6432     50.8710   4.6485058630e+01   3.2243688863e+01    0.8318824    0.7981965  11.20 0.0007491755    1.191    0.160
        56  -9.5373     89.3366    211.2728   1.0517322297e+02   1.8298275409e+01    0.2301793    0.1953793  72.75 0.0004427457    1.157    0.136
        57  -8.9040     72.1400     53.8694   7.5416542112e+01   5.6846703772e+01    0.1962039    0.1916117  -1.03 0.0008615861    1.256    0.204
        58 -11.1278    162.8497    211.9221   8.8903689295e+01   6.6204237217e+00    0.4309847    0.2203694  25.25  0.001857225    2.176    0.540
        59 -10.5173    240.7058    177.4419   6.6950491505e+01   8.0795324570e-02    0.2471316     0.143387 -18.58  0.001216561    1.814    0.449
        60  -9.3042     32.5230     36.5260   8.5058255928e+01   6.5380102324e+01    0.1257161    0.1013073 -16.47 8.528986e-06    1.033    0.032
        61 -16.2597      5.5098    211.0645   1.2296281418e+02   2.7997326416e+01     4.883969    0.7873961 -69.04   0.01452516    4.275    0.766
        62 -10.3450    187.0286    175.5153   7.6843399303e+01   9.3853024126e+00    0.3770322     0.298107 -44.53  0.001243041    1.327    0.247
        63  -9.7579    198.1543     23.5462   3.8020401621e+01   3.3045116967e+01    0.2299334    0.1956622  25.92 0.0008146357    1.527    0.345
        64  -9.3054     39.3296    176.8214   1.1277482910e+02   3.2492288188e+01     0.218705    0.1682086  42.47 0.0007031814    1.355    0.262
        65  -9.2026    189.7043     14.9283   3.6828334957e+01   3.5909897348e+01    0.1743478    0.1531974 -63.82 0.0007167623    1.104    0.094
        66 -11.4737    121.6701    197.5604   9.5760714145e+01   1.6284127400e+01    0.4921561    0.2935347 -66.99  0.002213329    2.115    0.527
        67 -10.4869    142.8469    209.5929   9.2889430208e+01   1.0340249213e+01    0.2589328    0.2099417 -60.72  0.001095514    1.436    0.304
