#   1 NUMBER                 Running object number                                     
#   2 MAG_AUTO               Kron-like elliptical aperture magnitude                    [mag]
#   3 X_IMAGE                Object position along x                                    [pixel]
#   4 Y_IMAGE                Object position along y                                    [pixel]
#   5 X_WORLD                Barycenter position along world x axis                     [deg]
#   6 Y_WORLD                Barycenter position along world y axis                     [deg]
#   7 A_WORLD                Profile RMS along major axis (world units)                 [deg]
#   8 B_WORLD                Profile RMS along minor axis (world units)                 [deg]
#   9 THETA_WORLD            Position angle (CCW/world-x)                               [deg]
#  10 FWHM_WORLD             FWHM assuming a gaussian core                              [deg]
#  11 ELONGATION             A_IMAGE/B_IMAGE                                           
#  12 ELLIPTICITY            1 - B_IMAGE/A_IMAGE                                       
         1 -13.6383      6.5981     10.9358   1.2277569155e+02   7.2039391094e+01     2.949237    0.5546671 -54.23   0.01208684    3.008    0.667
         2 -13.4348    190.3619     28.0059   7.1738574527e+01   3.3953877806e+01     1.314402     1.164788  36.55  0.005951875    1.114    0.103
         3 -13.9863    203.0861     10.1448   6.4269444180e+01   3.2427712335e+01     2.153446     1.245496  37.70  0.009475478    1.875    0.467
         4 -10.9617      5.8366     52.8672   1.3405210519e+02   6.3190898641e+01    0.2248209    0.2069125  66.30 0.0007411281    1.334    0.250
         5 -11.3981    124.5281    250.1404   1.3035105988e+02   1.3221986557e+01    0.5057904   0.09435743  41.64  0.002161493    3.849    0.740
         6 -10.5222    102.2030    247.3380   1.3353533017e+02   1.6421500539e+01    0.1952605    0.1215531  58.11 0.0007386262    1.295    0.228
         7 -10.0643     98.1272    249.9061   1.3434042755e+02   1.6603595407e+01    0.1944025    0.1365091  54.02   0.00113765    1.023    0.023
         8 -10.4793     97.0173    245.4596   1.3418900361e+02   1.7303975257e+01    0.1501609    0.1202801  71.76 0.0003438792    1.243    0.196
         9  -9.4228     67.3149    250.5580   1.3896724464e+02   2.0127622214e+01    0.1659865   0.05931706  45.51 0.0007480685    1.905    0.475
        10 -12.6627     32.3109    247.4865   1.4387201550e+02   2.4184153148e+01     1.146105    0.5547992  30.87  0.007846504    2.812    0.644
        11 -15.0738      6.9837    208.7410   1.4618853709e+02   3.2206595871e+01     5.162086    0.7485361 -77.07    0.0229324    5.517    0.819
        12 -14.3888     56.6730    212.0841   1.3831329693e+02   2.6836033434e+01     6.384424          nan  45.96   0.02049877    7.255    0.862
        13 -11.2088    148.5303    229.6346   1.2459966751e+02   1.2383163885e+01    0.3307413    0.1450405  35.06  0.001842435    2.126    0.530
        14  -8.9895     33.4848    228.9015   1.4291981490e+02   2.6698036457e+01    0.1394086    0.1101829  86.26 0.0004734444    1.335    0.251
        15  -9.8144     35.5029    225.4920   1.4245445848e+02   2.7003723316e+01    0.1401198    0.1009457 -82.16 0.0006052867    1.476    0.322
        16  -9.2954    162.3400    226.6565   1.2201396570e+02   1.0724175466e+01    0.1066022   0.07249705  62.30 0.0007048503    1.778    0.437
        17  -8.9285    146.6404    245.7122   1.2654692170e+02   1.0763595741e+01   0.09894903   0.06525709  26.48  0.000702414    1.685    0.406
        18 -10.7932    173.9882    222.3318   1.1958494332e+02   9.4865589987e+00    0.3065453     0.227767  59.14  0.001707589    1.563    0.360
        19 -15.0349     17.2705    166.7851   1.4249930692e+02   3.8532289964e+01     5.254159     1.472846  88.13   0.02021754    5.159    0.806
        20 -11.1963    229.7761    230.1830   1.1182264413e+02   3.9016948783e-01    0.4560106    0.2859449 -54.02  0.002415026    4.725    0.788
        21 -12.2073     49.8082    232.1690   1.4059181658e+02   2.4558458251e+01    0.3022662    0.2180429  67.66  0.001653558    1.085    0.078
        22  -8.8013    152.5307    212.9388   1.2201317044e+02   1.3894265311e+01    0.1278379     0.112214 -50.85 0.0003370798    1.459    0.315
        23 -10.2658     81.4116    242.2179   1.3635059914e+02   1.9614976963e+01     0.237868    0.1346872  68.54  0.001774157    1.680    0.405
        24 -11.3883     67.3430    198.2553   1.3547779315e+02   2.7841415146e+01     0.263371    0.1996215 -50.10  0.001373549    1.877    0.467
        25  -9.9940    193.1275    195.1796   1.1256457017e+02   9.6665261607e+00    0.5586941    0.3037125 -61.85  0.001810894    8.380    0.881
        26 -13.7796     48.8341    223.7028   1.4028435341e+02   2.5905017875e+01    0.8147491    0.4703448  59.62  0.004441797    1.279    0.218
        27 -11.5910     72.6707    190.5351   1.3386510696e+02   2.8494309102e+01    0.2118173    0.1925292 -70.63 0.0007585772    1.383    0.277
        28  -8.9029    104.1648    180.1511   1.2682348619e+02   2.6078615041e+01    0.1521519    0.1128606  64.99 0.0002583035    1.256    0.204
        29 -10.8327     81.7202    177.8719   1.3092832687e+02   2.9552086819e+01    0.1964882    0.1714571  85.18   0.00038338    1.133    0.117
        30 -13.2152     69.1747    175.6511   1.3314917220e+02   3.1528533558e+01    0.3968893    0.2445841 -46.84  0.001911129    2.294    0.564
        31 -11.8192     88.4885    168.3733   1.2852008189e+02   3.0360017920e+01     0.575376    0.4219268  61.26  0.003825319    1.215    0.177
        32 -12.9286     66.3190    143.0904   1.3016866852e+02   3.8114055798e+01     1.353962    0.6518593  81.12  0.002902871    3.513    0.715
        33 -11.6109     33.0600    156.1830   1.3865841875e+02   3.9116837256e+01    0.3462792    0.1533101 -75.27  0.002003881    1.980    0.495
        34 -11.9764     89.2964    151.7365   1.2622245531e+02   3.3375682394e+01     0.226334    0.2150848 -55.97 0.0004843037    1.258    0.205
        35  -9.9098    100.5662    152.2670   1.2385684237e+02   3.1638302754e+01    0.2478388    0.2168257 -76.47 0.0007766801    1.147    0.128
        36  -8.7690    103.3475    147.8817   1.2259152201e+02   3.2055030561e+01    0.2383395    0.1707586 -25.85  0.000522978    2.187    0.543
        37  -8.4277    192.2210    143.9675   1.0347276002e+02   1.6707758465e+01     0.160151    0.1090088 -31.88 0.0003816548    1.557    0.358
        38  -8.6542    242.3162    138.6730   9.3625402293e+01   7.7338914091e+00    0.1176165    0.1045124 -52.72 0.0002873247    1.674    0.403
        39  -9.7026    111.1329    137.3264   1.1911552134e+02   3.2867840533e+01    0.2578015     0.193427 -27.01  0.001116144    1.820    0.451
        40 -10.2687     98.6564    134.5622   1.2150255364e+02   3.5388037751e+01    0.2260598    0.2020023 -27.53 0.0008906982    1.387    0.279
        41 -10.2958     81.2553    248.6345   1.3678902071e+02   1.8788732475e+01    0.2018243    0.1276021  63.39  0.001491924    1.286    0.223
        42  -9.4017    107.9301    124.0382   1.1741699539e+02   3.6032148785e+01    0.1843304    0.1765562  80.91 0.0003042298    1.021    0.020
        43 -11.0546     53.7711    120.0392   1.3010759357e+02   4.4388114273e+01    0.3704061    0.1465329 -70.07  0.001687176    2.397    0.583
        44  -9.3243    203.4796    111.5086   9.3965105384e+01   1.9180184003e+01    0.1471375    0.1285707  11.76 0.0001022957    1.045    0.043
        45 -10.6208    168.0641    113.2235   1.0135255858e+02   2.6551439995e+01    0.3159606    0.2838625  89.48 0.0008539962    1.380    0.276
        46  -8.4979     77.4748     88.6055   1.1795109919e+02   4.8254250202e+01    0.1303473    0.1195798 -64.11 0.0001256322    1.022    0.021
        47  -9.3805    155.8273     75.8291   9.3837934804e+01   3.5766148102e+01    0.2017653    0.1841569 -74.39 0.0004436694    1.296    0.229
        48  -9.3428     23.6451     58.6624   1.2866605302e+02   6.0783642473e+01    0.3305858     0.147892  42.38  0.001667952    2.778    0.640
        49 -11.2370    248.6105    248.2902   1.1151971750e+02  -3.6368070198e+00    0.2856949    0.1978139  40.95  0.002281893    1.535    0.349
        50 -10.7241      1.7293     51.6244   1.3536182061e+02   6.3666270360e+01    0.2655299    0.1643259 -69.57  0.000910409    1.195    0.163
        51 -12.6204     42.6423    232.8322   1.4171679385e+02   2.5207792923e+01    0.2365891    0.2051229  68.86 0.0007698156    1.374    0.272
        52 -10.4235     46.3038    248.3959   1.4191149011e+02   2.2663228902e+01    0.2878763    0.1039193  61.27  0.001128237    2.307    0.567
        53 -10.9206     14.4322     55.5621   1.3138521780e+02   6.2104076833e+01    0.5262661    0.1825008  35.24  0.002535054    3.361    0.702
