#   1 NUMBER                 Running object number                                     
#   2 MAG_AUTO               Kron-like elliptical aperture magnitude                    [mag]
#   3 X_IMAGE                Object position along x                                    [pixel]
#   4 Y_IMAGE                Object position along y                                    [pixel]
#   5 X_WORLD                Barycenter position along world x axis                     [deg]
#   6 Y_WORLD                Barycenter position along world y axis                     [deg]
#   7 A_WORLD                Profile RMS along major axis (world units)                 [deg]
#   8 B_WORLD                Profile RMS along minor axis (world units)                 [deg]
#   9 THETA_WORLD            Position angle (CCW/world-x)                               [deg]
#  10 FWHM_WORLD             FWHM assuming a gaussian core                              [deg]
#  11 ELONGATION             A_IMAGE/B_IMAGE                                           
#  12 ELLIPTICITY            1 - B_IMAGE/A_IMAGE                                       
         1 -10.8852      4.7964     34.8890   1.0378382354e+02   6.8293625242e+01     1.017201    0.2905429 -54.71  0.004638768    2.517    0.603
         2  -9.1666    185.9932     18.0684   4.3157421949e+01   3.6390895933e+01    0.4101364    0.2366267 -13.52  0.001886302    2.284    0.562
         3 -10.4527    182.9971     10.2115   4.1317732089e+01   3.7955999983e+01     0.675964    0.3781683 -47.08  0.001732971    1.806    0.446
         4 -11.3506    186.4209      3.5076   3.9090552160e+01   3.7761624360e+01    0.3024197    0.2853239 -30.24  0.001277315    1.215    0.177
         5  -9.1388    181.6856      3.1842   3.9506535429e+01   3.8954251548e+01    0.2969907    0.1944967 -43.89  0.001619333    1.543    0.352
         6 -11.1931    218.9325     25.1944   4.1334616153e+01   2.7594928796e+01    0.3498901     0.275349  81.62  0.000623897    1.217    0.179
         7  -9.4977    140.1490     18.7967   5.0266339508e+01   4.7752554270e+01    0.6559448    0.3569177 -75.07  0.002422979    3.444    0.710
         8 -10.6495    142.2555     13.2760   4.8010017547e+01   4.7794259763e+01    0.8160357     0.316033  61.18  0.001061843    2.223    0.550
         9  -9.6713    134.8254      9.7871   4.8095349516e+01   4.9943654738e+01    0.3301836     0.291347   2.66 0.0006920896    1.226    0.185
        10  -9.5494    137.9798      7.9832   4.6924597325e+01   4.9338247049e+01    0.3960738    0.2277962   9.83   0.00133964    2.398    0.583
        11 -10.3372    133.0604     19.6641   5.1909985731e+01   4.9391396231e+01    0.3791803    0.3007647  12.80 0.0003747161    1.385    0.278
        12  -9.6660     79.5877     22.4314   6.6704600144e+01   6.0863556616e+01    0.6567075    0.3788969  10.69  0.001692189    2.279    0.561
        13 -10.2512     88.3580     16.3357   6.1334303615e+01   5.9846845712e+01     0.461605    0.3951418  66.54  0.001244863    1.450    0.310
        14 -11.2510     92.2050     12.4248   5.8558179689e+01   5.9462290623e+01     1.458861    0.6803024   0.10   0.00545207    3.615    0.723
        15 -12.0334    101.4345     13.8055   5.6709642570e+01   5.7337331900e+01    0.3252327    0.2498689  13.78 0.0002883627    1.292    0.226
        16 -10.8370    100.3066      9.7232   5.5304590247e+01   5.7984570522e+01    0.3387954    0.2831038 -72.78  0.001288998    1.624    0.384
        17  -9.3841    152.0155     17.7719   4.7877731141e+01   4.4920135421e+01    0.5014587    0.2321062 -19.97  0.001260392    2.525    0.604
        18  -9.5240    156.4713     14.4706   4.6116143315e+01   4.4146492377e+01    0.2779856    0.2357006 -63.11  0.001372189    1.249    0.200
        19 -10.1974     16.2203     18.6729   9.1864607983e+01   7.0383280561e+01    0.4157433    0.2270698 -39.68  0.001218761    1.470    0.320
        20 -10.5529     22.7563     17.1812   8.7844135390e+01   7.0007776086e+01    0.6065811    0.2619222  36.15  0.003100921    2.838    0.648
        21  -9.9588    211.2863     18.9385   4.0556582655e+01   3.0134280283e+01    0.4840692    0.3455869 -50.57  0.001639009    1.301    0.231
        22  -9.9825    204.4756     12.4375   3.9594906772e+01   3.2480456915e+01    0.5703865    0.3066962 -35.49   0.00230407    1.805    0.446
        23 -10.2919    209.5455     11.5724   3.8879038616e+01   3.1361802559e+01    0.3842036    0.2417226 -54.99 0.0005098142    1.500    0.333
        24  -9.7176    250.2871      8.0781   3.4758593393e+01   2.2579728216e+01    0.2844816    0.1471585 -37.67 0.0006783846    1.712    0.416
        25 -10.8584    237.0190     13.7817   3.6993807600e+01   2.4807966734e+01    0.8505951    0.5663487  -4.22  0.004435576    2.442    0.590
        26  -9.5585    233.3017      6.0669   3.5547357965e+01   2.6479020552e+01    0.3482137     0.258162  84.14  0.001574772    1.255    0.203
        27  -9.6152    234.8156      1.5366   3.4426065416e+01   2.6618443995e+01     0.207859    0.1442924 -86.97  0.000512342    1.289    0.224
        28 -10.5015    243.9677      4.3629   3.4401816787e+01   2.4328562483e+01     0.470139    0.2291737 -57.74  0.002451311    1.827    0.453
        29  -9.0816    248.4422      1.9549   3.3590284353e+01   2.3631165818e+01    0.2084392    0.1543607  85.97 0.0003304892    1.271    0.213
        30  -9.6990    247.1671     17.4291   3.6999654218e+01   2.2180881286e+01    0.3393119    0.2274468 -46.40  0.002037816    1.280    0.219
        31 -10.1855     32.3408      6.4041   7.7720802447e+01   7.0450106337e+01    0.2921217    0.2157368 -24.11 0.0004757094    1.262    0.208
        32  -8.7283     34.0437      1.6761   7.4358970791e+01   7.0805375958e+01    0.1717451    0.1331827  24.86 0.0003682747    1.325    0.245
        33  -9.2133     33.9574     12.6733   8.0171169287e+01   6.9408772580e+01    0.3882446    0.1707507  27.62   0.00195606    2.390    0.582
        34 -10.2421     40.3027     15.1010   7.8440449851e+01   6.8249567143e+01    0.5398076    0.3095205 -26.76  0.002332193    1.534    0.348
        35  -8.8975     30.4623     15.9375   8.3445180247e+01   6.9361891411e+01    0.2197056    0.1914108 -21.98 0.0005783021    1.320    0.243
        36 -10.1403     50.8340     18.2820   7.5422091394e+01   6.6317677895e+01    0.3511904    0.2855422  13.33  0.001165168    1.132    0.116
        37 -10.0375     46.5415     17.4803   7.6850181782e+01   6.7055984166e+01    0.3314529    0.2304692   8.53  0.001377784    1.350    0.259
        38  -9.2217     64.0633     17.3302   6.9788843268e+01   6.4315242694e+01    0.3349965     0.252029  -7.70  0.002055335    1.193    0.162
        39  -9.4740    113.0227     12.4918   5.3430809957e+01   5.4861373664e+01    0.2794809     0.245994  43.78 0.0005714216    1.037    0.036
        40  -9.4195    193.5978     12.9308   4.0866120377e+01   3.5066950066e+01    0.4169962    0.2776227  48.32  0.001876654    1.650    0.394
        41  -8.9794    126.9705     14.0564   5.1091404669e+01   5.1433844068e+01    0.2049897    0.1565431 -63.91 0.0006177982    1.626    0.385
        42  -8.7489      1.5065      2.3844   9.2344492371e+01   7.4125122287e+01    0.2304568    0.1098412 -34.64  0.001411591    1.582    0.368
        43 -10.3885      6.7066      7.9391   9.2060709735e+01   7.2883093088e+01    0.8217896    0.2875796 -39.73  0.004269436    2.175    0.540
        44  -9.4252     17.5038      8.8411   8.6540030500e+01   7.1794109293e+01    0.3587963    0.1703219 -29.69  0.001467185    1.779    0.438
        45  -9.3989     13.0913      9.3639   8.9189957700e+01   7.2129798547e+01    0.2964745    0.1860533 -28.37 0.0009953754    1.228    0.186
        46  -8.4398    172.1089     12.0448   4.3179769368e+01   4.0480002877e+01    0.3230839    0.2030444 -87.58  0.001587095    1.735    0.424
        47  -8.7377    229.1900     11.9477   3.7215560415e+01   2.6763202454e+01    0.2487381     0.182367 -75.21 0.0008412889    1.219    0.180
        48  -9.2316    163.8197     11.9547   4.4264489894e+01   4.2560043470e+01    0.2553017    0.2055699  81.61  0.001009174    1.179    0.152
        49  -7.4136     85.4993     11.2545   5.9941421163e+01   6.0968941574e+01    0.1677235    0.1144457 -35.14 0.0009249915    1.658    0.397
        50  -8.6114     81.0487     11.9364   6.1574137144e+01   6.1790991352e+01    0.3202467    0.1643901  36.15  0.001565236    1.830    0.454
        51  -8.7578     78.1692      9.3679   6.1290760295e+01   6.2622093541e+01    0.1758598    0.1470339  33.48            0    1.119    0.106
        52  -8.3047     74.1739     11.7888   6.3681704238e+01   6.3136353486e+01    0.2042672    0.1661087  52.80  0.001261278    1.428    0.300
        53  -8.4706     66.8899     11.8197   6.6169045389e+01   6.4473589171e+01    0.1952426    0.1436469  17.43 0.0005048294    1.207    0.171
        54  -8.8165     60.7043     11.5891   6.8301198366e+01   6.5579863796e+01     0.291613    0.2207325  75.93  0.001563562    2.656    0.623
        55 -10.0461     25.4644      9.8071   8.2884892574e+01   7.0817655278e+01    0.3728666    0.2811401 -37.23    0.0018496    1.496    0.332
        56  -8.1068     23.9599      2.9332   8.0031531610e+01   7.1918014396e+01    0.1494272    0.1364343 -28.91  0.001112648    1.649    0.394
        57  -8.5201    150.1873     10.7418   4.5879541519e+01   4.6075646579e+01    0.2014346    0.1753509 -48.10 0.0003915507    1.237    0.192
        58  -9.0206     15.0449      3.3718   8.5038316564e+01   7.2816775258e+01    0.2216748    0.1692729  18.25  0.001006979    1.430    0.301
        59  -8.0309     48.1780      9.8358   7.2387567995e+01   6.7805673103e+01    0.1717678    0.1543258  -3.02  0.001204548    1.289    0.224
        60  -7.9955    128.5675      9.2977   4.9056263643e+01   5.1501200436e+01    0.1685679    0.1269265   4.81 0.0005323905    1.489    0.328
        61  -8.0680     51.6653      8.0926   7.0071611173e+01   6.7470231042e+01     0.262924    0.1759852 -49.46 0.0009061896    2.513    0.602
        62 -10.2028    224.4685      4.2695   3.5820014442e+01   2.8655728628e+01     0.497116    0.3806773 -34.78    0.0019896    1.371    0.270
        63 -11.4309     65.7823      5.4185   6.3462661585e+01   6.5353531525e+01    0.9782028    0.2995599  47.14  0.004085488    2.857    0.650
        64  -8.5582     85.1517      6.5512   5.7943704871e+01   6.1498567483e+01    0.3419715    0.2161731  55.09  0.001764194    1.562    0.360
        65  -8.9985    196.1352      5.0739   3.8520417204e+01   3.5245277030e+01    0.3098853    0.2353404  81.07  0.001305751    1.186    0.157
        66  -8.8106    146.0529      5.4363   4.4773617250e+01   4.7580561818e+01    0.4381814     0.192424  58.27  0.001039938    1.918    0.479
        67  -8.8724    150.8868      1.7484   4.2869522311e+01   4.6700905825e+01    0.2344296    0.2001225  36.32  0.001431019    1.226    0.184
        68  -8.2970    121.0797      4.2348   4.8606789917e+01   5.3724621533e+01    0.2453291    0.1449728  41.34 0.0009391135    1.577    0.366
        69  -9.5329    113.1650      4.3342   5.0217623384e+01   5.5563926137e+01    0.3129953     0.274786 -10.30  0.001118509    1.224    0.183
        70  -8.6080    108.0463      5.9392   5.1947503050e+01   5.6598884232e+01     0.188061    0.1731885  37.28 0.0004182328    1.069    0.064
        71  -7.8512     40.9193      6.5222   7.3813376520e+01   6.9275218548e+01    0.1605268    0.1053963  32.46 0.0002861914    1.490    0.329
        72  -8.6859    168.8204      4.9835   4.1511491341e+01   4.1972816363e+01    0.2248001    0.1768302  74.80 0.0007278906    1.142    0.125
        73  -8.3620    130.1813      3.1987   4.6576194378e+01   5.1640003096e+01    0.3212305    0.1656489 -26.04  0.001548107    2.080    0.519
        74  -8.5468    218.0421      3.3487   3.6120652731e+01   3.0224599302e+01    0.2312994    0.1587809 -48.44 0.0005006467    1.337    0.252
        75  -8.0751    210.1101      2.6529   3.6618853130e+01   3.2144814050e+01    0.1782156    0.1426301  87.38 0.0005506641    1.114    0.102
        76  -8.2916    204.0134      2.7480   3.7180214196e+01   3.3579267662e+01     0.343226    0.1852951 -88.12  0.001334645    1.880    0.468
        77  -8.1076     77.8735      2.1392   5.8025446631e+01   6.3363997298e+01     0.167863     0.160805  10.43 0.0003395181    1.250    0.200
        78  -7.8931    125.4000      5.2516   4.8172054429e+01   5.2614573522e+01    0.2239102    0.1534542 -35.03  0.000753557    1.616    0.381
        79  -9.3116     31.9569     76.9799   1.0415243812e+02   5.7487840268e+01    0.3570983    0.1946938  11.49   0.00146256    2.410    0.585
        80  -7.9881    249.4068    249.8213   8.5712554098e+01  -1.1808060099e+01    0.1489239   0.08699354 -13.11 0.0009396349    1.647    0.393
        81  -7.7847    232.6693    250.3264   8.8624915241e+01  -9.6586388310e+00   0.09853447   0.08701915  43.23 0.0007050997    1.708    0.414
        82  -8.1877    110.6320    249.7965   1.1085227043e+02   8.6203837027e+00     0.196133    0.1456763 -86.36  0.001292885    1.568    0.362
        83  -8.6962    153.8258     78.1027   6.6772838818e+01   3.5658699513e+01    0.4973674    0.2121942  52.36  0.001014367    2.370    0.578
        84  -9.9032     18.8911     74.0205   1.0829620778e+02   5.9204345998e+01    0.5327883    0.3607473  39.94  0.003183056    1.872    0.466
        85  -8.8496     20.2549     68.4600   1.0648574955e+02   6.0342680121e+01    0.2766176    0.1916451 -75.79 0.0009344966    1.597    0.374
        86  -9.1136     14.8282     66.2417   1.0805977225e+02   6.1207694423e+01    0.2833728    0.1692241  -7.90 0.0006801669    2.087    0.521
        87  -8.8247     19.4894     62.9825   1.0542013388e+02   6.1593757692e+01    0.2782785    0.1626636 -46.12    0.0012846    1.347    0.258
        88 -10.1514     25.0519     59.9619   1.0237269459e+02   6.1808786791e+01    0.4728726    0.3805166 -69.16  0.002740866    1.389    0.280
        89  -9.2968     28.7176     54.2171   9.9176099936e+01   6.2692223355e+01    0.3985085     0.153788 -40.40  0.001216856    2.252    0.556
        90  -8.9782     10.5129     75.6639   1.1173391041e+02   5.9381324871e+01    0.3097121    0.1823909 -27.17  0.001296979    1.888    0.470
        91  -8.5568    232.4742     74.4747   5.1883348847e+01   1.7571454003e+01    0.2869806    0.1262642 -35.12  0.001174111    2.044    0.511
        92  -8.4570    249.6915     73.4276   4.9439211213e+01   1.4060847570e+01    0.2700637    0.1103472 -34.20  0.001114908    2.166    0.538
        93  -9.1940    148.6027     72.4208   6.6222972948e+01   3.7950681782e+01     0.330891    0.2737252  16.38  0.000542482    1.392    0.282
        94  -7.8481    152.4913     71.5730   6.5079428897e+01   3.7163346877e+01    0.1508232    0.1494574 -75.87 0.0001543642    1.026    0.025
        95  -7.9135    189.1257     73.4516   5.8327855090e+01   2.7859935683e+01    0.2134523    0.1483095  58.52 0.0004038761    1.482    0.325
        96  -8.1752     55.6997     71.3269   9.3859697579e+01   5.6152563398e+01    0.2148918    0.1993651  73.34  0.001094291    1.373    0.272
        97  -8.9945     59.2541     70.9908   9.2463792776e+01   5.5757533089e+01    0.4407103    0.2502344 -51.04  0.002123416    1.602    0.376
        98  -8.5364     57.5022     66.4615   9.1694155234e+01   5.6947709442e+01    0.2454991     0.202469  -9.87 0.0008174883    1.235    0.190
        99  -9.2683    243.2772     71.4648   4.9764100343e+01   1.5702353871e+01     0.310151    0.2267106  35.14 0.0007210862    1.808    0.447
       100  -8.1668    123.7998     70.5746   7.1790339912e+01   4.4063681674e+01    0.2184782    0.1990065  33.99 0.0005386589    1.104    0.094
       101 -10.7346    128.6819     71.0741   7.0666288205e+01   4.2870092711e+01    0.2835053    0.2773535  19.44 0.0002859175    1.032    0.031
       102  -9.3878    133.7206     69.0104   6.8713202693e+01   4.2088944235e+01    0.5567746    0.2246933  53.19  0.001467033    2.590    0.614
       103  -9.6606     28.9268     71.5688   1.0394022859e+02   5.8964386105e+01    0.2317399    0.1622716 -52.79 0.0003245031    1.159    0.137
       104  -8.4840    160.7911     70.9858   6.3096384794e+01   3.5242203667e+01    0.2363908    0.1948109 -58.23 0.0004607879    1.296    0.229
       105  -9.7319    113.3832     70.0741   7.4498442560e+01   4.6430259703e+01    0.4331837     0.393903 -68.15  0.002319227    1.273    0.215
       106  -8.8200    211.2274     69.7000   5.3702374474e+01   2.3169194188e+01    0.3460505     0.235491 -88.55   0.00119573    1.872    0.466
       107 -10.9897    100.2086     63.8890   7.6291830554e+01   5.0311564783e+01    0.9036017    0.7115354 -11.21  0.004632401    1.365    0.267
       108  -8.5767    192.5632     69.2421   5.6561535180e+01   2.7720687569e+01    0.2789578    0.2034908  49.25  0.001351022    1.442    0.306
       109  -8.0722    230.5001     84.4911   5.4610082668e+01   1.6401626476e+01    0.2791027    0.1416907  57.46  0.001209521    2.166    0.538
       110  -9.3234     40.0862     67.5313   9.8592465360e+01   5.8787323909e+01    0.3505909    0.2535464 -86.41  0.001840201    2.108    0.526
       111  -7.9314    221.7487     68.0154   5.1747419098e+01   2.0990602308e+01    0.1939728    0.1752723 -48.49 0.0003660279    1.026    0.026
       112  -8.5222    173.1450     66.5786   5.9295948737e+01   3.2942729165e+01    0.4084169    0.2633031  19.14  0.001604506    2.478    0.596
       113  -8.6044      3.5167     67.0268   1.1260194983e+02   6.1688901849e+01    0.2562235    0.1030687 -72.04  0.001006947    2.403    0.584
       114  -8.3823    204.1838     68.8542   5.4560322055e+01   2.4975566009e+01    0.2157713    0.1836062 -64.82 0.0003267136    1.176    0.149
       115  -8.9424    148.9748     66.8268   6.4389578888e+01   3.8847644538e+01    0.3431528    0.2316476  31.55  0.001116437    1.754    0.430
       116  -7.8231    152.6739     64.7025   6.2902988697e+01   3.8310119617e+01    0.2435848    0.1508173  50.89 0.0008377615    1.600    0.375
       117 -10.4304     48.9417     65.4933   9.4603009530e+01   5.8231665149e+01    0.2828838    0.2591919 -19.88  0.001806937    1.113    0.102
       118 -10.0556    233.5797     63.7001   4.9114141451e+01   1.8982568355e+01    0.4330105    0.3352986  15.61  0.001676905    1.841    0.457
       119  -8.7079    208.7513     64.6415   5.2744404022e+01   2.4552608535e+01    0.2905962    0.2117744  32.76  0.001408107    1.753    0.429
       120  -9.1723    144.1513     64.0477   6.4605087779e+01   4.0490871787e+01    0.3102002    0.2413693 -44.68 0.0005661827    1.311    0.237
       121  -8.3154    127.3241     64.7073   6.8930296279e+01   4.4334477524e+01    0.2602364    0.1856749  64.40 0.0005123387    1.651    0.394
       122  -9.7874    121.8540     64.0236   7.0139524274e+01   4.5694235541e+01    0.2565706    0.2498167  74.50 0.0002479535    1.129    0.114
       123  -8.1978     68.6180     64.3786   8.6965517393e+01   5.5789868606e+01    0.3511984    0.1906386  22.93  0.001528293    2.334    0.572
       124  -8.7946      8.9033     63.2010   1.0967958113e+02   6.2236393278e+01    0.2819083    0.2098801  71.12  0.001337238    1.879    0.468
       125  -8.3342    201.9126     64.0585   5.3626494312e+01   2.6282226383e+01    0.2239802    0.1745098  24.97 0.0005095052    1.647    0.393
       126  -8.0347    161.4084     62.6661   6.0431935894e+01   3.6498711135e+01    0.2016552    0.1472883 -22.08 0.0007994681    1.505    0.335
       127  -8.3006    138.9983     63.4964   6.5634167675e+01   4.1819077627e+01    0.2304982    0.1188068  33.22 0.0008106124    2.655    0.623
       128 -10.1102    242.4525     60.5715   4.7294678754e+01   1.7507477177e+01    0.4303521    0.2743477 -28.57  0.001848118    1.592    0.372
       129  -9.0212     80.7499     61.8696   8.1871489746e+01   5.4315784927e+01    0.6312037    0.2217125  37.57  0.002261596    3.105    0.678
       130  -9.7543     40.3913     61.2726   9.6614863412e+01   6.0084129257e+01    0.2949948    0.2226516 -70.48 0.0009938341    1.660    0.397
       131  -7.9367     60.3555     61.2964   8.8948685913e+01   5.7616813326e+01     0.142208   0.09655979 -14.77 0.0003821838    1.696    0.410
       132  -8.7049    188.8169     60.0284   5.4612967269e+01   3.0111723118e+01      0.36109     0.187563  61.56  0.001494955    1.965    0.491
       133  -8.0794    133.6157     57.2549   6.4865077829e+01   4.4144955583e+01    0.2682251    0.1393558 -33.50  0.000943203    1.939    0.484
       134  -7.9826    250.4148     58.3648   4.5887773009e+01   1.6136754524e+01    0.3104855    0.1181463 -32.61  0.001256971    2.434    0.589
       135  -8.3935    175.6680     58.8105   5.6535896520e+01   3.3568254511e+01    0.2829206    0.2476255  41.77 0.0009917695    1.206    0.171
       136  -9.5908    157.0947     56.9399   5.9534167733e+01   3.8491240510e+01    0.5523762    0.3202375  73.67  0.001459242    2.273    0.560
       137  -8.3768      2.2597     53.7442   1.1016864204e+02   6.4614284972e+01    0.1806682    0.1259035 -26.78 0.0005083306    1.407    0.289
       138  -8.4130      5.9125     58.2500   1.0972990328e+02   6.3470203384e+01     0.257513    0.1403965 -15.00  0.001134994    2.199    0.545
       139 -10.3599      8.9606     52.5913   1.0705086606e+02   6.4495206802e+01    0.3697037    0.3051342  63.81  0.002512879    1.722    0.419
       140  -9.4238    234.8181     56.2491   4.7160216013e+01   1.9807501006e+01    0.4016109    0.2235699 -60.04  0.001720928    1.975    0.494
       141  -8.1144    224.2058     56.8242   4.8605406144e+01   2.2120830095e+01    0.1814848    0.1643594  31.61  0.000688563    1.337    0.252
       142  -8.9020    192.4339     56.6048   5.3066071488e+01   2.9745114084e+01    0.4015408    0.2448905 -72.36 0.0005012762    2.261    0.558
       143  -9.2884    188.1332     51.8728   5.2416115315e+01   3.1515947743e+01     0.360429    0.2023965 -50.78  0.001042515    1.877    0.467
       144  -8.3916    197.5111     48.5165   5.0058330865e+01   2.9686109323e+01    0.2414986    0.1983851 -83.25 0.0005799353    1.242    0.195
       145  -8.8082    141.5732     55.1532   6.2300524542e+01   4.2582135556e+01     0.386888     0.252516  22.30  0.001631322    2.077    0.519
       146  -9.2314    113.2904     55.1459   6.9410538203e+01   4.9128266180e+01    0.4354666    0.3065819  18.79   0.00146782    1.706    0.414
       147  -9.8987    119.9395     50.5806   6.6002774421e+01   4.8393499417e+01    0.5321423      0.30957 -30.92 0.0004812802    1.741    0.426
       148  -9.0714     62.8237     55.1229   8.5889858578e+01   5.8474617038e+01    0.3586986    0.2711009  80.27  0.001400569    2.576    0.612
       149  -7.8907    207.2482     55.5932   5.0569623660e+01   2.6289590438e+01    0.1899719    0.1289967  51.56 0.0004764673    1.577    0.366
       150  -9.0518    124.3369     54.6145   6.6277080649e+01   4.6739891881e+01    0.3371424     0.234187  22.78  0.001417355    1.730    0.422
       151  -9.1934     43.4659     47.9561   9.0939086121e+01   6.2405728687e+01    0.3490833    0.2835344  79.24  0.001189392    2.160    0.537
       152  -8.6213     39.7824     43.9704   9.1032207206e+01   6.3584213102e+01    0.2365313    0.1440621 -40.21 0.0007025126    1.378    0.274
       153  -7.2877     77.4976     54.5442   8.0378731894e+01   5.6250490732e+01    0.1393788    0.1253023 -15.49 0.0005795484    1.028    0.027
       154  -8.4397     88.8857     46.8270   7.3661151629e+01   5.5530393249e+01    0.2538064    0.2115334   8.11 0.0008214737    1.170    0.146
       155  -8.6369     94.4479     51.7746   7.3749981765e+01   5.3619700810e+01    0.3325509    0.2476946  -5.94 0.0009875175    1.485    0.327
       156  -9.4258    205.5332     51.0696   4.9608534700e+01   2.7365387066e+01    0.4097792    0.2841612  20.97   0.00172696    2.185    0.542
       157  -9.1338     41.7574     54.5219   9.3908846295e+01   6.1316907556e+01    0.4318877    0.1815151 -46.83  0.001263843    1.974    0.493
       158  -8.0781     92.5186     48.4673   7.3122646615e+01   5.4555399623e+01    0.2278023     0.220812 -66.65 0.0005792158    1.269    0.212
       159  -9.4655    244.7934     49.9359   4.4550615518e+01   1.8523787252e+01    0.3364779    0.2254412  43.86  0.001160048    1.950    0.487
       160  -8.5660     84.9043     51.2941   7.6655061988e+01   5.5518857378e+01    0.2269578    0.1902634  49.65 0.0003804098    1.388    0.279
       161  -8.8632     80.7668     49.2366   7.7276588200e+01   5.6625322594e+01    0.3440443    0.2385374  23.48  0.001693941    1.536    0.349
       162  -8.3693     72.2154     51.2125   8.1015513432e+01   5.7741229380e+01    0.2339742    0.2085547  71.51 0.0007504374    1.587    0.370
       163  -8.3023     74.4987     48.4815   7.9171691279e+01   5.7846444341e+01    0.2596264    0.1328563  40.38 0.0007696619    2.047    0.511
       164  -9.8916    222.2885     48.6668   4.6802945180e+01   2.3737905013e+01    0.6991783    0.4893419  -6.23   0.00340414    2.062    0.515
       165  -9.2786    223.8123     40.6365   4.4624733392e+01   2.4489064547e+01    0.4476822    0.1817718 -38.21  0.001560476    2.158    0.537
       166  -8.7026    225.6055     36.1920   4.3333774857e+01   2.4663048100e+01     0.272134    0.2404862 -52.84 0.0005295064    1.077    0.072
       167  -9.3545    213.4880     49.1745   4.8040280885e+01   2.5731568488e+01    0.3433545    0.2735685 -61.89 0.0008288435    1.199    0.166
       168  -7.8146    177.3196     50.3194   5.3741195523e+01   3.4443257721e+01    0.1500272    0.1124016  26.46 0.0003260648    1.664    0.399
       169  -8.2214     61.7533     49.4098   8.4209140541e+01   5.9702876272e+01    0.2230136    0.1500379 -48.80 0.0004398654    1.577    0.366
       170  -9.3244    237.3054     48.6319   4.5053819047e+01   2.0339242757e+01    0.2555183    0.2323865 -32.21  0.001586468    1.203    0.169
       171 -10.7656    193.2277     48.8291   5.0775646384e+01   3.0696175884e+01     0.497585    0.3305979 -56.37  0.001910647    1.575    0.365
       172  -8.7317    143.2983     38.3258   5.6308333815e+01   4.4634099539e+01    0.2909196    0.1515982  26.58  0.000972556    3.174    0.685
       173  -7.7762    134.5019     49.4674   6.2019331058e+01   4.5170403193e+01    0.1473948    0.1397956  25.01  0.000135925    1.028    0.027
       174  -9.6737    137.3596     44.7477   5.9757305470e+01   4.5186205601e+01    0.4903724    0.3996927 -13.68  0.001490493    1.315    0.239
       175  -7.9025     34.2361     49.6194   9.5376181220e+01   6.3091492943e+01    0.1613151    0.1111769   1.08  0.000367612    1.604    0.376
       176  -9.9072    174.1857     45.1073   5.2723868918e+01   3.5978958471e+01    0.3533206     0.319738 -31.91  0.001429823    1.144    0.126
       177  -7.8873    181.8115     47.1094   5.2059043741e+01   3.3782336649e+01    0.1902894    0.1691339  17.56 0.0005084833    1.308    0.235
       178  -8.4500     20.1967     47.2065   1.0063555925e+02   6.4829440740e+01    0.1885953    0.1291654 -34.10  0.000507917    1.208    0.172
       179  -9.1869    231.9562     41.4785   4.3929041082e+01   2.2514514208e+01    0.3377303     0.207134 -72.05  0.001326541    1.809    0.447
       180  -9.3927    234.0029     44.9880   4.4547966626e+01   2.1577877028e+01    0.2980278    0.2604037   7.92  0.001055688    1.511    0.338
       181  -9.1164    238.0835     43.1056   4.3663719312e+01   2.0926285724e+01    0.2569827     0.190751  71.61 0.0007304839    1.408    0.290
       182  -8.4480    164.4792     46.1911   5.4753113032e+01   3.8264907267e+01    0.2235936     0.187275 -70.31  0.000447039    1.291    0.225
       183  -8.7705    163.3232     42.0835   5.3686784110e+01   3.9131970771e+01    0.4325524    0.1923772  60.87 0.0003963054    2.165    0.538
       184  -9.3461    156.1904     43.7900   5.5546363496e+01   4.0682533121e+01    0.4814806    0.2374537  52.86  0.001279386    1.918    0.479
       185  -8.8781    152.0214     40.3371   5.5235818721e+01   4.2201266386e+01    0.3108842    0.2266762 -67.97  0.000963486    1.681    0.405
       186  -8.0721    111.7306     46.4505   6.6709305408e+01   5.0875672332e+01    0.1929218    0.1806485  -8.61 0.0007773539    1.049    0.047
       187 -10.3808     32.9686     43.1011   9.3649069102e+01   6.4481310308e+01    0.5651377      0.38184   1.55  0.002085278    1.610    0.379
       188  -8.9199     19.6996     40.1323   9.8535601365e+01   6.6257475928e+01    0.2585779     0.254807  -6.84  0.001804925    1.381    0.276
       189  -9.2046     13.4620     36.8097   1.0029541918e+02   6.7367209091e+01    0.4195066    0.2656069 -71.90  0.001302064    2.336    0.572
       190  -8.9996    213.9127    244.6069   9.1022505125e+01  -6.3373737283e+00    0.2682165   0.09477812  37.79  0.001243832    2.390    0.582
       191  -9.9373     14.0235     30.0888   9.7626407220e+01   6.8580946851e+01     0.439377    0.1953873  23.96  0.002366538    2.516    0.603
       192 -10.3168      8.5377     26.3750   9.8966845576e+01   6.9649259830e+01    0.3807006    0.2615242 -42.64  0.001201726    1.167    0.143
       193  -9.8075     24.9772     32.9103   9.3450380905e+01   6.7143157041e+01    0.5245258    0.2531805 -54.83  0.002605273    2.295    0.564
       194  -9.3755     21.1238     31.3476   9.4667933857e+01   6.7773154129e+01    0.3792172    0.1966759 -46.78  0.001222025    1.615    0.381
       195  -9.6782    246.8800     44.5060   4.3086587830e+01   1.8822588842e+01    0.5678403    0.1998833 -36.39 0.0008827503    2.381    0.580
       196  -9.0175    250.2237     40.4202   4.1835135720e+01   1.8658749772e+01    0.2603268    0.2073631 -73.12  0.001019681    1.171    0.146
       197  -9.4247    247.6927     37.6804   4.1457167080e+01   1.9558546409e+01    0.4652959    0.2013751 -43.11  0.001634654    1.915    0.478
       198  -8.7781      8.6972     44.3150   1.0486565721e+02   6.6207805661e+01    0.3554663    0.1254088 -42.65  0.001716222    2.151    0.535
       199  -8.6649    187.9765     44.0212   5.0212980858e+01   3.2677136096e+01    0.2309501    0.1967007  78.07 0.0003096948    1.153    0.133
       200  -8.8741    185.4683     41.4912   4.9869834139e+01   3.3649997501e+01    0.2781352    0.2252863 -66.06 0.0007496916    1.256    0.204
       201  -7.9286     95.6939     43.4773   7.0235587117e+01   5.4727858439e+01    0.1949876    0.1248576  33.19 0.0009337927    1.595    0.373
       202  -9.8904    123.9493     27.0420   5.6492139286e+01   5.0739539274e+01    0.3723041    0.2027768 -26.65  0.001166203    1.916    0.478
       203  -9.7530    128.1045     40.2312   6.0302563397e+01   4.8044997747e+01     0.404652    0.2935718 -11.51  0.001506313    1.548    0.354
       204  -9.9531    128.3940     31.1142   5.6979332292e+01   4.9186113690e+01    0.3565725    0.2313546  41.56 0.0003263773    1.500    0.333
       205  -9.0026    119.9897     38.8282   6.1756989514e+01   5.0136618363e+01    0.2657448    0.2027673  45.96 0.0004674257    1.249    0.199
       206 -10.3155    124.4389     35.9776   5.9640700556e+01   4.9491736295e+01    0.3725261    0.3190158 -28.48  0.001142101    1.206    0.171
       207  -7.5152     85.2723     42.3576   7.3108904764e+01   5.6941647695e+01    0.1433857    0.1001608   0.01 0.0004533278    1.647    0.393
       208  -8.7602     67.2517     42.0926   7.9317572846e+01   6.0140675853e+01    0.6307191    0.2204459  46.12 0.0008985337    3.556    0.719
       209  -9.3940     68.3302     27.0311   7.2616029647e+01   6.2293670277e+01     0.432004    0.2674756   6.68  0.001612555    1.951    0.487
       210  -8.6256     70.1542     32.0208   7.4107048217e+01   6.1257408828e+01    0.2589497    0.2421517  12.79  0.001667304    1.210    0.174
       211  -9.3832     59.8505     33.3279   7.8540716102e+01   6.2737079089e+01    0.3775108    0.1993393 -37.97  0.001882233    1.783    0.439
       212  -9.8458     51.9532     37.6329   8.3485893581e+01   6.3186698708e+01    0.4783228    0.3145364 -31.27  0.001683959    1.332    0.249
       213  -8.4334     56.5294     36.5006   8.1176671822e+01   6.2724533816e+01     0.223181    0.1539064  24.42 0.0006273817    1.471    0.320
       214  -9.2340     63.0142     38.5550   7.9490033491e+01   6.1402735758e+01    0.5514245     0.251676  31.35  0.002433132    2.414    0.586
       215  -8.5204     67.1118     36.4589   7.7085055697e+01   6.1085282850e+01    0.3024884    0.2082356  22.16 0.0008703803    1.475    0.322
       216  -8.3578     78.4696     40.9804   7.4855772244e+01   5.8412921245e+01    0.2185987    0.1756867  29.94  0.001252125    1.231    0.188
       217  -8.1970    241.9751     40.5498   4.2668275695e+01   2.0414804683e+01    0.1888234     0.124268  77.55  0.001022491    1.594    0.372
       218  -8.1887    106.6434     39.9702   6.5696478673e+01   5.2961243323e+01     0.191144     0.167099 -18.54 0.0003672193    1.129    0.114
       219  -8.0763     90.4961     40.3375   7.0629810462e+01   5.6250557457e+01    0.2451272    0.1550265  24.54 0.0009139897    1.772    0.436
       220  -9.2475    216.0156     39.0088   4.5119071305e+01   2.6530318962e+01    0.3177452    0.2810213 -60.23 0.0006817874    1.030    0.029
       221 -10.7998    211.6680     33.7508   4.4285893141e+01   2.8249849415e+01    0.5220963    0.3715998 -43.48  0.002836113    1.317    0.240
       222  -9.2041    113.7857     35.7399   6.2182880580e+01   5.1977335039e+01    0.5651931    0.2784194  35.40  0.002280574    2.324    0.570
       223  -8.1919    109.6598     36.3071   6.3480995665e+01   5.2821257198e+01    0.2214031    0.1997695  83.78  0.001256875    1.364    0.267
       224  -8.7499     99.8407     37.8520   6.6819333030e+01   5.4720033342e+01    0.3143045    0.2270934  20.03  0.001251096    1.471    0.320
       225 -10.0064    102.7676     33.8109   6.4404232112e+01   5.4667126426e+01    0.2470258    0.2174416   8.39 0.0002554448    1.066    0.062
       226  -8.9556    192.7056     36.5912   4.7447193886e+01   3.2501852390e+01     0.251025    0.2162874  48.07 0.0005489863    1.258    0.205
       227  -9.5482    235.4064     35.9343   4.2250387591e+01   2.2473311204e+01    0.4346497    0.1756105  65.33  0.001888356    2.492    0.599
       228  -9.9933    154.0473     33.1479   5.2521897337e+01   4.2638828933e+01    0.4182554    0.3274121 -56.39  0.000771325    1.397    0.284
       229  -9.3440    156.0882     28.8673   5.0780364663e+01   4.2654679674e+01    0.3380449    0.2012899  68.34 0.0008214714    1.665    0.399
       230  -9.2195     91.7651     35.8177   6.8438598802e+01   5.6671335734e+01    0.2794251    0.2343299  59.71 0.0009021328    1.442    0.306
       231  -7.4640    165.6971     35.3248   5.1178303341e+01   3.9435194629e+01    0.1489045    0.1052146 -65.59 0.0007031263    1.639    0.390
       232  -8.8207     33.8805     34.2485   8.9885182768e+01   6.6004910258e+01    0.3033239    0.2311867  46.84  0.001555593    1.954    0.488
       233  -7.8993     17.5228     34.5829   9.7594209132e+01   6.7481486448e+01    0.1188321   0.09332436 -32.00 4.542388e-05    1.038    0.037
       234  -8.2405     63.7386     32.7608   7.6802565755e+01   6.2212484113e+01    0.1595161    0.1494158 -24.95 0.0006756305    1.288    0.224
       235  -8.9141     39.6501     32.3798   8.6550127030e+01   6.5667929483e+01    0.2264802    0.1743806 -15.65 0.0005090547    1.097    0.088
       236  -9.0888    186.9647     29.4181   4.6222246146e+01   3.4834902223e+01    0.4785395    0.2669494 -40.66  0.002242283    1.748    0.428
       237  -8.9526    177.6612    242.2459   9.7316827254e+01  -5.3194796978e-01    0.2168992    0.1857442  31.46 0.0006964844    1.083    0.077
       238  -9.5227    192.6574     24.2061   4.4035539575e+01   3.4046216324e+01    0.3718957    0.2660743 -22.16  0.001486918    1.581    0.367
       239  -9.3741    189.0059     22.4828   4.4014110897e+01   3.5149156788e+01    0.3565167    0.2713968 -33.29  0.001055695    1.364    0.267
       240  -8.4315    235.0368    242.5357   8.6981705243e+01  -9.0752756159e+00     0.175884   0.09416495  32.59 0.0005269071    1.589    0.371
       241  -7.9189    194.9761    243.0000   9.4210977807e+01  -3.3081673475e+00    0.2055079   0.05754392  38.93 0.0008086442    2.986    0.665
       242  -9.4706    247.7955    239.2644   8.4269449794e+01  -1.0417626648e+01    0.2309035    0.1352234 -15.20  0.001420874    1.644    0.392
       243  -8.8357    133.9785     32.0283   5.6090097901e+01   4.7729333115e+01     0.217545    0.2010956  38.05 0.0005560057    1.027    0.026
       244  -8.0275     54.9737     31.2657   7.9596588878e+01   6.3797654852e+01    0.2056843    0.1376418  -8.16 0.0006257051    1.544    0.352
       245  -8.7466     52.6191     28.3032   7.9267354083e+01   6.4602785613e+01    0.3690478    0.1902545  27.11 0.0009452967    2.084    0.520
       246  -9.1618     51.3323     24.8361   7.8252889405e+01   6.5312906476e+01    0.3388421    0.2665133 -19.91  0.002162321    1.116    0.104
       247  -8.3440     47.0661     30.5486   8.2563449929e+01   6.5026744967e+01     0.229493    0.1418076 -23.78 0.0003507993    1.491    0.329
       248  -9.5601    224.5692     28.2293   4.1502943174e+01   2.5913800735e+01    0.4212026     0.227133 -32.06  0.001300737    1.821    0.451
       249  -9.7621    172.0558    233.6269   9.7121345842e+01   1.6382977166e+00    0.3693803    0.2604252  44.06  0.002222269    1.305    0.233
       250  -8.5028     97.6533     29.8387   6.4278342065e+01   5.6286078351e+01    0.2421046    0.1981705  51.39 0.0008175984    1.282    0.220
       251  -9.3247     84.1334     29.5606   6.8282117136e+01   5.9054606822e+01    0.2624927    0.1948299   1.03 0.0005348521    1.362    0.266
       252  -8.0705    167.4548     28.3037   4.8734429967e+01   3.9864700553e+01    0.2643716    0.1780405 -22.17  0.001306996    1.647    0.393
       253  -7.5548    170.4908     26.4583   4.7707996215e+01   3.9319453174e+01    0.2007761    0.1215394  54.83 0.0009518212    1.569    0.362
       254  -9.0323    169.0147     23.2508   4.6958752446e+01   4.0060990845e+01    0.4085945    0.2402811  62.97  0.001567176    1.566    0.361
       255  -7.4926    163.6665     29.6755   4.9763261300e+01   4.0653056372e+01    0.1492196    0.1024636  33.17 0.0006488069    1.710    0.415
       256  -9.3922    105.0991     26.9783   6.1077089715e+01   5.5049898642e+01    0.4351509    0.2565436   1.00   0.00124455    2.302    0.566
       257  -7.8881    247.6262     27.8797   3.9266400151e+01   2.0823457734e+01    0.1894761   0.09087645 -45.08 0.0005160327    1.742    0.426
       258  -7.7086    201.9776     28.0402   4.3938097440e+01   3.1302111421e+01     0.161005    0.1449808 -77.12 0.0003487348    1.003    0.003
       259  -8.9960    175.1785     26.7256   4.7095431678e+01   3.8109262408e+01    0.5112842    0.1675806 -43.61  0.001795906    3.153    0.683
       260  -8.0245     62.0640     27.3342   7.5091468209e+01   6.3295670940e+01    0.2854797    0.1738387   3.52  0.001404326    2.032    0.508
       261  -9.2585    114.5797     27.0320   5.8683382218e+01   5.2918437416e+01    0.2544717    0.1856918  47.93 0.0004431254    1.272    0.214
       262  -8.3402     39.2874     25.0419   8.3550811382e+01   6.6911287040e+01    0.3309247    0.2551009  11.51  0.002165509    1.243    0.196
       263  -7.8431     30.1806     25.5527   8.7974770929e+01   6.7888252275e+01     0.353579    0.2605496 -16.41  0.001847477    1.127    0.113
       264  -9.2065    234.9726     26.0504   3.9979275691e+01   2.3818637871e+01     0.234488    0.2088942  84.93 0.0008002273    1.166    0.142
       265  -9.5373    239.0114     24.5701   3.9273218568e+01   2.3102601249e+01    0.3043117    0.2196978 -43.72 0.0004173989    1.247    0.198
       266  -9.9920    136.9133     25.3745   5.3158487456e+01   4.7819051297e+01    0.3722017    0.2636352 -64.37 0.0005626821    1.800    0.445
       267  -8.9126    143.6993     22.5437   5.0895653385e+01   4.6471854084e+01    0.3316096    0.2655688  38.13  0.001237427    1.250    0.200
       268  -8.3770    152.6843    233.8939   1.0090908666e+02   4.7209900524e+00    0.1826639    0.1541719 -13.90  0.001173487    1.430    0.301
       269  -7.9637    102.5296    229.4610   1.1020283584e+02   1.3389165775e+01    0.1239884    0.1037369  56.97 7.078215e-05    1.015    0.015
       270  -8.6802    219.8474    228.8320   8.7411575989e+01  -5.1664770510e+00    0.3095656   0.07823632  41.25  0.001134631    3.741    0.733
       271  -7.8312    239.5067    215.5417   8.1604653995e+01  -6.3162558600e+00    0.1238626   0.09877815   4.89 0.0002054267    1.010    0.010
       272  -8.1116     28.4874    214.4861   1.2316965059e+02   2.6007763887e+01    0.1151484   0.08831411  76.54 8.144957e-05    1.030    0.029
       273 -10.0472    129.6648     19.2870   5.2449990065e+01   5.0251815985e+01    0.4159844    0.2509024  70.32  0.001345855    1.772    0.436
       274  -7.6979    197.6426     25.2866   4.3721536574e+01   3.2692506562e+01    0.1461929   0.09368102 -68.42 0.0007022831    1.677    0.404
       275  -9.0809    238.6155    204.9297   7.9820415748e+01  -4.7340807180e+00    0.2155202    0.1605902  22.83 0.0003904137    1.220    0.180
       276  -9.0151     28.9894    199.7883   1.2201325492e+02   2.9010401859e+01    0.2173829     0.192581 -78.77 0.0009788631    1.317    0.241
       277  -8.5404    176.8844    192.3499   8.9285865369e+01   7.7375321868e+00    0.2028244    0.1932112 -41.52  0.000356412    1.174    0.148
       278  -8.1840     33.8883    193.0289   1.2047714943e+02   2.9944306165e+01    0.1668417    0.1370089 -47.49 0.0009765759    1.651    0.394
       279  -7.5767    141.3197    189.6596   9.6419568004e+01   1.4743618207e+01    0.1442019    0.1078722  75.37 0.0004994316    1.715    0.417
       280  -8.2224    178.8543     23.4203   4.5608772668e+01   3.7571874868e+01    0.2233903    0.1719249 -50.91 0.0007048762    1.309    0.236
       281  -8.3029    152.9814     23.4646   4.9567521583e+01   4.4060987308e+01    0.3495119    0.1771566 -52.70  0.001081612    2.493    0.599
       282  -7.8561    137.5015    171.0095   9.3901471308e+01   1.9351979635e+01     0.212711    0.1229521 -28.88 0.0008105444    2.654    0.623
       283  -7.7112    171.5194    152.4845   8.2298050316e+01   1.6526261965e+01     0.148199    0.1467601 -13.44 3.153173e-05    1.051    0.048
       284  -8.0627     96.0527     23.7804   6.2266188841e+01   5.7387700814e+01    0.1932779    0.1819653 -80.10  0.001184153    1.371    0.271
       285  -8.8577    245.9753     23.1924   3.8364968698e+01   2.1752170011e+01    0.1927051    0.1381944 -65.88 0.0003376935    1.226    0.184
       286  -9.1107    159.6892     22.5883   4.8184945449e+01   4.2478914035e+01    0.5561206    0.2135304  59.00   0.00219841    2.272    0.560
       287  -8.4067    113.5945     22.3545   5.7126636547e+01   5.3692782082e+01    0.2650548    0.1491951  32.85 0.0007902955    1.916    0.478
       288  -8.4317     22.0060     22.7791   9.0729609793e+01   6.9176950190e+01    0.1618562    0.1269445  -9.24 0.0004428495    1.133    0.117
       289  -8.8904    103.8566     20.8678   5.8963963931e+01   5.6047018006e+01    0.2722739    0.2140917  -4.57  0.000969619    1.292    0.226
       290  -8.4452      7.3261    151.0985   1.2272149045e+02   4.1911880107e+01    0.1702517     0.156636 -66.33 0.0005198137    1.310    0.236
       291  -7.6810      6.3157    142.6369   1.2220053392e+02   4.3957739339e+01     0.129483   0.07311494  72.21 0.0007041072    1.764    0.433
       292  -8.7462     13.3962    133.1324   1.1943636186e+02   4.5681961192e+01    0.2180128    0.1694963  74.92 0.0006132557    1.256    0.204
       293  -8.0865    206.5980     20.1973   4.1366749329e+01   3.1111422654e+01    0.2312556    0.1694181 -23.36   0.00126167    1.548    0.354
       294  -9.4622     66.1777    131.4850   1.0469960444e+02   4.0608518073e+01    0.4926114    0.2855941  23.36  0.002164754    2.247    0.555
       295  -8.5450     25.3538    128.5046   1.1565637657e+02   4.5828854318e+01    0.2309442    0.1007233 -69.96 0.0008063167    1.865    0.464
       296  -8.2780     71.0629     20.2232   6.8603993900e+01   6.2722162087e+01    0.2194926    0.1612907 -51.15 0.0008127199    1.985    0.496
       297  -7.8792     58.3168     21.2776   7.3809680478e+01   6.4751456767e+01    0.1645112     0.104245 -34.29  0.000766836    1.567    0.362
       298  -7.4754     39.3625    126.7247   1.1148064223e+02   4.4946093714e+01    0.1342298   0.09144931  69.60 0.0007006292    1.664    0.399
       299  -9.0652    231.0029     19.2338   3.8752049064e+01   2.5525768785e+01    0.3694879    0.1582333 -61.10  0.001550219    2.626    0.619
       300  -8.7190     29.9660    124.1411   1.1375581307e+02   4.6478900800e+01    0.2239912    0.1556901 -70.68 0.0003585081    1.181    0.153
       301  -9.7626     69.2552    122.7799   1.0213388352e+02   4.2325729193e+01     0.244616    0.2204201 -72.54 0.0002486052    1.042    0.040
       302  -9.1997      6.4695    113.3808   1.1901132964e+02   5.0850454507e+01    0.2785321    0.2368672  84.87  0.001681027    1.194    0.162
       303  -9.2274     12.0291    114.9889   1.1761713438e+02   5.0105812769e+01    0.2334146    0.1927806 -73.41 0.0004408435    1.056    0.053
       304  -9.1629     15.4918    112.5051   1.1627078874e+02   5.0456024961e+01    0.2268089    0.1814699 -84.26 0.0006480161    1.140    0.123
       305  -8.4476      2.2720     20.0283   9.9795757482e+01   7.1184553304e+01    0.1850106    0.1383036 -10.92 0.0009441303    1.268    0.211
       306  -8.1898     22.5039    114.0096   1.1441810290e+02   4.9564667757e+01    0.2002434    0.1036123 -67.79  0.000668616    1.543    0.352
       307  -9.1533    197.0040     18.5840   4.1999680177e+01   3.3620783355e+01    0.3375429    0.2192151 -82.15  0.001152514    1.613    0.380
       308  -7.6152     65.3457    110.3133   1.0066990308e+02   4.5899219717e+01    0.1471368    0.1025977 -29.46 0.0007046892    1.712    0.416
       309  -7.8486     44.3710    105.2473   1.0616383410e+02   4.9655006578e+01    0.1879453    0.1150718 -71.30 0.0003657077    1.582    0.368
       310  -8.6493     19.5046    104.9448   1.1392753132e+02   5.1968199817e+01     0.200531    0.1007138 -65.52 0.0005622746    1.557    0.358
       311  -8.6499    119.8167    102.9518   8.2682305559e+01   3.8252832067e+01    0.2853003    0.2280817  54.13 0.0006920555    1.356    0.263
       312  -8.7830     33.5297     16.4708   8.2234788091e+01   6.8919767604e+01    0.2092428    0.1498613 -22.61 0.0006851634    1.148    0.129
       313  -8.5822     25.5181    103.0777   1.1173520101e+02   5.1944867696e+01    0.1783741    0.1656911 -58.85 0.0003774723    1.152    0.132
       314  -9.8313      9.2252    100.6352   1.1646080700e+02   5.3688871114e+01    0.3403331    0.2478534  40.97  0.001693308    1.672    0.402
       315  -8.8882    202.7243     98.2575   6.2578826928e+01   2.0281994452e+01    0.4302718    0.2962461  -6.31    0.0018344    2.073    0.518
       316  -8.9933    169.3163     18.1947   4.5388873533e+01   4.0542451722e+01    0.2857995    0.1991511  56.87 0.0005047942    1.350    0.259
       317  -8.8040    172.9915     17.1832   4.4579557268e+01   3.9729320911e+01    0.3425147    0.1734987  60.49  0.001321382    1.779    0.438
       318  -9.1834    121.6551     17.6244   5.3503793959e+01   5.2334960845e+01    0.2329466    0.2034571  67.78 0.0002352096    1.188    0.158
       319  -8.0856     55.5983     99.8617   1.0140163332e+02   4.9663800272e+01    0.2102653    0.1675392  37.12 0.0008058996    1.432    0.302
       320  -9.1563    109.9192     15.6497   5.5382313822e+01   5.5255003659e+01    0.2777825     0.212834  50.64 0.0006449224    1.198    0.165
       321  -9.0926    113.7176     15.6896   5.4518436729e+01   5.4383262826e+01    0.1981601    0.1942819  67.57 0.0002744329    1.154    0.133
       322  -7.7507     16.5329     99.3811   1.1396417646e+02   5.3503990821e+01     0.124983   0.09987566 -61.00 6.166876e-05    1.046    0.044
       323  -7.6987     73.3044     16.6445   6.6206136344e+01   6.2749941949e+01    0.1192185    0.1012898 -55.65 0.0007040264    1.715    0.417
       324  -7.8527     43.3114     98.0410   1.0501338564e+02   5.1493383109e+01    0.2411169   0.05520169 -46.27 0.0007044898    4.333    0.769
       325  -7.7809     24.4779     98.5042   1.1126156663e+02   5.3117807677e+01    0.1310045    0.1042779 -59.84 0.0001277104    1.028    0.027
       326  -9.2387     71.9971     95.4332   9.4995799625e+01   4.8500049363e+01    0.3941339    0.2859266  48.88  0.001509277    1.608    0.378
       327  -8.5796     38.6330     95.1830   1.0595343755e+02   5.2647452956e+01    0.3138198    0.1468101 -50.23   0.00132381    1.779    0.438
       328  -8.2093    212.8523     94.8131   5.9937087663e+01   1.8585621418e+01    0.2698621    0.1703832 -54.45 0.0008733021    1.732    0.423
       329  -8.6325    209.1695     91.5321   5.9713944653e+01   1.9996291632e+01    0.2754013    0.1518357  61.06  0.001145043    2.064    0.516
       330  -7.7635    154.0183     95.0586   7.1716880133e+01   3.2342980810e+01    0.1842132    0.1811572 -28.61 0.0003478736    1.010    0.010
       331  -8.0620    165.9476     94.2647   6.8793747795e+01   2.9686759217e+01    0.2245046    0.1977598  49.36 0.0006039516    1.167    0.143
       332  -7.9567    174.5904     93.2018   6.6653581354e+01   2.7833408373e+01    0.2145196    0.1485528 -26.90 0.0008522149    1.553    0.356
       333  -7.8919    145.8421     92.8609   7.3033163717e+01   3.4685950125e+01    0.2236663    0.2023304  18.08 0.0003904349    1.185    0.156
       334  -8.6954     99.8182     91.2015   8.5097672577e+01   4.4797368191e+01    0.2469122    0.2276108 -40.96 0.0004679952    1.028    0.027
       335  -9.5720     19.5835     90.6612   1.1144455529e+02   5.5337612776e+01    0.3696746    0.2814182 -73.78   0.00212317    1.202    0.168
       336  -8.8998     56.1570     89.6473   9.8756984399e+01   5.1995316897e+01    0.3413743     0.219422  62.97  0.001174639    2.398    0.583
       337  -7.9586    136.6416     89.7081   7.4396844113e+01   3.7430164209e+01    0.1615276    0.1234435  10.13 0.0007028983    1.692    0.409
       338  -7.6409     77.2652     89.6992   9.1743118180e+01   4.9017691181e+01    0.1361531    0.1124621 -84.29 0.0002809088    1.519    0.342
       339  -8.5557     27.8300     88.9281   1.0829978071e+02   5.5099903931e+01    0.2786608    0.1906152  48.86  0.001578407    1.835    0.455
       340  -8.6967      1.7577     88.4951   1.1702896508e+02   5.6933905204e+01    0.2585172    0.1578235 -73.96  0.001543947    1.342    0.255
       341  -9.0593      5.9062     87.5304   1.1549622288e+02   5.6936752462e+01    0.2533961    0.1758737 -51.80 0.0007745911    1.209    0.173
       342  -8.9891    242.4051     87.2008   5.3598210591e+01   1.3425671747e+01    0.3606793    0.2057505 -25.14   0.00121993    1.903    0.475
       343  -9.3885    189.0338     87.9111   6.2337308534e+01   2.5360073772e+01    0.2659017     0.242699 -83.41            0    1.169    0.145
       344  -7.9663     40.2362     88.1635   1.0385552431e+02   5.4135005422e+01    0.2354935    0.1086651 -33.47 0.0009459583    2.801    0.643
       345  -7.8047    102.7562     86.3722   8.2783286768e+01   4.5287133637e+01    0.1967828    0.1431162  30.03 0.0004617927    1.510    0.338
       346  -8.4377     49.5677     84.4930   9.9714976427e+01   5.3972672533e+01    0.3079316    0.1339534 -49.44 0.0009873816    1.910    0.476
       347 -10.7221     65.2675     83.2478   9.3940517673e+01   5.2250040664e+01    0.5170124    0.3618103 -16.03 0.0007100038    1.767    0.434
       348  -9.2306     87.3149     83.0118   8.6554172161e+01   4.8843733500e+01    0.3871941    0.2816135 -67.66  0.001392766    1.747    0.428
       349  -9.0479     11.8608     82.3689   1.1254929354e+02   5.7775468860e+01    0.3993432    0.1316045 -49.67  0.001785599    2.306    0.566
       350 -10.3096    195.8241     82.0729   5.9513403323e+01   2.4769318860e+01    0.3498659    0.2469521  60.42            0    1.500    0.333
       351 -10.3618    188.7256     82.1842   6.0822805161e+01   2.6453408887e+01    0.3142867    0.2661512  47.12 0.0002903308    1.241    0.194
       352  -7.7285    154.5213     83.4897   6.8228514478e+01   3.4483645664e+01     0.155923    0.1506258  -4.85 5.378902e-05    1.055    0.052
       353  -8.1936    146.2881     82.9008   6.9974767541e+01   3.6549178588e+01    0.2223355    0.1958098 -33.85 0.0004529629    1.118    0.106
       354  -7.9993    135.5874     82.7348   7.2562310487e+01   3.9065160190e+01    0.2205924    0.1432683 -49.20 0.0006260574    1.609    0.378
       355  -8.6559    126.0373     81.6001   7.4702825269e+01   4.1437493514e+01    0.3618566    0.2515876  16.99 0.0008310927    1.959    0.490
       356  -8.6947    169.3801     81.2967   6.4352864227e+01   3.1305228238e+01    0.2886782    0.1845436  43.44  0.001240922    1.659    0.397
       357  -8.4431     80.7445     79.1485   8.7518551890e+01   5.0789024756e+01    0.2682217     0.169267  53.09  0.001206606    2.055    0.513
       358  -8.5710     75.8222     78.6831   8.9019175107e+01   5.1683967322e+01    0.2636716    0.2018637  -9.74 0.0008634479    1.513    0.339
       359  -7.4185    245.2927     77.2943   5.0883792868e+01   1.4382270443e+01    0.1275345     0.105724   4.69 0.0006976536    1.556    0.357
       360  -8.8186    200.1555     75.8891   5.7100177777e+01   2.4786722163e+01    0.3397497    0.2844533  40.28  0.001769397    1.324    0.245
       361  -7.4361    107.4910     77.4921   7.8618076774e+01   4.6199382052e+01    0.1505486    0.1427242 -23.36 0.0008105403    1.013    0.013
