#   1 NUMBER                 Running object number                                     
#   2 MAG_AUTO               Kron-like elliptical aperture magnitude                    [mag]
#   3 X_IMAGE                Object position along x                                    [pixel]
#   4 Y_IMAGE                Object position along y                                    [pixel]
#   5 X_WORLD                Barycenter position along world x axis                     [deg]
#   6 Y_WORLD                Barycenter position along world y axis                     [deg]
#   7 A_WORLD                Profile RMS along major axis (world units)                 [deg]
#   8 B_WORLD                Profile RMS along minor axis (world units)                 [deg]
#   9 THETA_WORLD            Position angle (CCW/world-x)                               [deg]
#  10 FWHM_WORLD             FWHM assuming a gaussian core                              [deg]
#  11 ELONGATION             A_IMAGE/B_IMAGE                                           
#  12 ELLIPTICITY            1 - B_IMAGE/A_IMAGE                                       
         1 -14.1468    183.3766     29.9808   6.9797520084e+01   3.6000155648e+01    0.9415705    0.8807362  66.42  0.003286606    1.124    0.110
         2 -14.3877    190.3953     18.9231   6.5970641033e+01   3.5576212873e+01      0.78502      0.69369  12.14  0.001457581    1.489    0.328
         3 -11.2996     59.0186      3.4904   8.8674830765e+01   6.5456397691e+01    0.1738799   0.07158704  28.94 0.0008105502    2.615    0.618
         4 -12.1241     67.5651    233.6376   1.3940158279e+02   1.8007262830e+01    0.3836789    0.2248963  49.15  0.001431463    1.488    0.328
         5 -16.2244     71.2200    149.0955   1.2771077946e+02   3.6423922508e+01     7.000905     3.670625 -89.77   0.01513739    3.425    0.708
         6  -9.8684     58.4885    196.1264   1.3729235051e+02   2.7198162709e+01     0.186082    0.1109336 -71.45  0.001003796    1.506    0.336
         7 -11.0187    208.9824    188.2971   1.0360993313e+02   1.7324737505e+00    0.2059672    0.1816333  29.94 0.0009573546    1.090    0.082
         8  -9.4369     64.3318    186.6818   1.3490949099e+02   2.8539894072e+01     0.141172   0.08699681  73.07 0.0007047895    1.690    0.408
         9 -11.0903    190.7191    229.7593   1.1481264628e+02  -2.0343743354e+00    0.3419839    0.2051807 -59.32  0.001635583    2.505    0.601
        10 -12.1153     60.5281    227.9341   1.4016943912e+02   2.0130947605e+01    0.3599661     0.270034  74.11  0.002091981    1.045    0.043
        11 -12.2578     83.6343    181.9972   1.2995620310e+02   2.6789984017e+01    0.4641168    0.2507746 -45.53  0.002051126    2.328    0.571
        12 -12.1600     86.9208    176.5839   1.2838272683e+02   2.7532203591e+01    0.3434822    0.2468873 -52.45 0.0008769733    1.471    0.320
        13 -10.6676    200.5714    181.1551   1.0384361113e+02   4.6993316469e+00    0.2855108    0.2463493  48.52  0.001081076    1.186    0.157
        14 -16.2369    117.9156    246.8930   1.3139514353e+02   7.7013473082e+00     6.036115     2.616247  44.08   0.02896996    1.925    0.481
        15  -9.6185     57.6557    177.2892   1.3519188117e+02   3.1599909983e+01    0.1381485   0.08675236  71.64 0.0007024178    1.653    0.395
        16 -12.0699    191.9845    192.8119   1.0791439677e+02   4.1986687108e+00    0.9207579    0.4466612 -63.60  0.002525672    6.054    0.835
        17 -11.2686    126.4949    172.7443   1.1844446533e+02   2.1453515175e+01    0.3318076    0.1659357  53.81  0.001293785    2.167    0.538
        18 -11.4458    110.8332    197.6537   1.2622931067e+02   1.8742864665e+01    0.3080189    0.1730969  31.81  0.001343777    2.207    0.547
        19 -10.3243     70.0252    228.3044   1.3842344026e+02   1.8726839666e+01    0.1730803    0.1297395  64.94  0.000372295    1.092    0.084
        20 -19.2873     21.7205    130.2300   1.3753813778e+02   4.6446368861e+01     19.07399     2.103325 -68.22   0.04078199    9.888    0.899
        21 -11.9123    136.3543    170.3505   1.1568309698e+02   2.0068669131e+01    0.5251853       0.2381  50.37  0.001962659    2.274    0.560
        22 -12.5068     98.5141    158.7347   1.2257038469e+02   2.9833521077e+01    0.6732702    0.3813911 -40.74  0.002829796    2.202    0.546
        23 -10.2645     93.0975    197.9555   1.3013834502e+02   2.1666549287e+01    0.2099578     0.157179  75.39  0.001156716    1.273    0.214
        24 -10.2255    162.3234    154.6574   1.0640179275e+02   1.8155823930e+01    0.1618835    0.1226658  89.54 0.0004924458    1.730    0.422
        25 -11.4301    133.4478    142.6916   1.1057072015e+02   2.6986768901e+01     0.709719    0.1998359 -55.30  0.001770701    4.893    0.796
        26 -10.4611    179.9448    147.7268   1.0092796569e+02   1.5780731301e+01    0.2184272    0.2026038  56.90 0.0005397649    1.084    0.077
        27 -11.9570    108.9629    142.5989   1.1672991505e+02   3.1807061118e+01    0.5505729    0.2865679 -38.03  0.002079976    2.483    0.597
        28 -12.3395     97.6413    143.3636   1.1981427981e+02   3.3644617074e+01    0.2647403    0.2604999  51.96 0.0003442555    1.132    0.117
        29 -13.4714     45.4672    131.2913   1.3141874514e+02   4.3904056551e+01    0.6188975    0.3928235  50.37  0.002214298    1.795    0.443
        30 -11.6688    115.6306    132.2016   1.1270377088e+02   3.2987709943e+01    0.3526852    0.2789278 -19.87  0.000961234    1.638    0.390
        31 -11.8525    104.7618    129.5700   1.1497094388e+02   3.5643943869e+01    0.4950566    0.3658506  79.06  0.001320067    1.723    0.420
        32 -10.6105    110.9350    120.4496   1.1116953499e+02   3.6602878008e+01    0.2400859    0.2033725 -66.42 0.0004331297    1.198    0.166
        33 -12.9333      7.6249    226.2593   1.4937943001e+02   2.6733885414e+01    0.3015287    0.2538433   4.04   0.00220412    2.370    0.578
        34 -10.8250    168.6658    113.5986   9.5123694892e+01   2.5553423216e+01    0.3339745    0.2549758 -83.02  0.001008473    1.656    0.396
        35 -10.4252     53.7145    200.8777   1.3879965169e+02   2.6773759604e+01    0.2029536    0.1692579  39.16  0.001310712    1.484    0.326
        36 -10.1115    205.0313    110.4744   8.6919998594e+01   1.7593583981e+01    0.2354168    0.1494477  51.37  0.001035396    1.623    0.384
        37 -12.5543    103.2582    207.7683   1.2932674483e+02   1.7851318904e+01    0.5721192    0.2924079 -72.54  0.002503551    2.342    0.573
        38 -12.8850    110.9547    206.1660   1.2746750138e+02   1.6882277174e+01    0.4794788     0.320253 -55.43  0.002505519    1.603    0.376
        39 -10.3257    123.6076    101.8408   1.0296699441e+02   3.8177481791e+01    0.2121794    0.1411733 -55.50 0.0004356534    1.607    0.378
        40 -13.6469     73.0828    198.6501   1.3452001261e+02   2.4595881226e+01    0.8613288    0.6400132 -59.14  0.004887182    1.446    0.308
        41 -13.6144    173.0399     39.5510   7.4017532392e+01   3.7335227587e+01    0.7712771    0.5323794 -18.68 0.0008477481    1.821    0.451
        42 -11.9249    199.0255    199.8209   1.0783859340e+02   1.5585273121e+00    0.5057329    0.2149019  35.83  0.001959486    2.483    0.597
        43 -11.2134      1.9900    237.7520   1.5093087380e+02   2.5073669815e+01    0.1399357    0.1140738 -88.61 0.0007328941    1.387    0.279
