#   1 NUMBER                 Running object number                                     
#   2 MAG_AUTO               Kron-like elliptical aperture magnitude                    [mag]
#   3 X_IMAGE                Object position along x                                    [pixel]
#   4 Y_IMAGE                Object position along y                                    [pixel]
#   5 X_WORLD                Barycenter position along world x axis                     [deg]
#   6 Y_WORLD                Barycenter position along world y axis                     [deg]
#   7 A_WORLD                Profile RMS along major axis (world units)                 [deg]
#   8 B_WORLD                Profile RMS along minor axis (world units)                 [deg]
#   9 THETA_WORLD            Position angle (CCW/world-x)                               [deg]
#  10 FWHM_WORLD             FWHM assuming a gaussian core                              [deg]
#  11 ELONGATION             A_IMAGE/B_IMAGE                                           
#  12 ELLIPTICITY            1 - B_IMAGE/A_IMAGE                                       
         1 -13.0458    198.4321     33.5504   6.2651249575e+01   3.2029793199e+01     1.070812    0.8363064  64.87  0.005557873    1.257    0.205
         2 -13.8836    212.5348     17.6178   5.7619564719e+01   3.0756815665e+01     1.310592    0.9962074  36.81   0.00798056    2.015    0.504
         3 -11.2718      2.0000      9.5229   1.0836721506e+02   7.1584046220e+01     0.481493    0.1094218 -39.35  0.002226623    3.500    0.714
         4 -10.3542     16.6994      3.9901   9.8667357117e+01   7.0894541555e+01    0.1522266    0.1094935  -6.81 0.0008963937    1.083    0.076
         5  -9.8956     16.8593     25.2356   1.0756792032e+02   6.8193316554e+01    0.1552268    0.1301974  -3.01 0.0007837429    1.251    0.201
         6 -10.3670    161.3701    249.7394   1.1664559901e+02  -1.4687768570e+00    0.2553447    0.1413473  45.59    0.0012621    1.675    0.403
         7 -11.6524    139.7644    248.5816   1.2093426055e+02   2.3384482797e+00    0.4350547    0.2985834 -60.77  0.002396987    1.721    0.419
         8 -11.4741    126.7718    249.6709   1.2376929716e+02   4.2929602764e+00    0.3143286    0.2627532  41.22  0.001509825    1.095    0.087
         9 -14.6763     17.3136    244.6450   1.4466493235e+02   2.0873643811e+01     10.11637     3.298848  27.06   0.03392863    7.074    0.859
        10 -11.5162     59.3865    192.0543   1.3106353796e+02   2.7553196990e+01    0.4400112     0.253334 -48.27 0.0009439394    2.004    0.501
        11 -11.6892     65.4742    184.8414   1.2862588521e+02   2.8472049700e+01    0.3257309    0.2588431 -47.59 0.0007423325    1.422    0.297
        12 -15.3202      9.3235    209.2600   1.4369585055e+02   2.9290710956e+01     13.29129     1.352336 -74.97   0.02817545   11.443    0.913
        13  -8.5590    181.5159    192.4908   1.0240007729e+02   5.9565650395e+00    0.1455114     0.139917   2.34 -2.273516e-05    1.006    0.006
        14  -9.3544     94.8997    220.2938   1.2667059745e+02   1.5616069454e+01    0.3167315    0.1971867 -30.31  0.001317809    3.019    0.669
        15 -10.7888     75.6818    173.2346   1.2430768170e+02   2.9860832677e+01    0.2673196    0.2346641 -66.00 0.0003696846    1.098    0.089
        16 -13.1597     62.5048    170.4221   1.2724411033e+02   3.2453979989e+01    0.5697198    0.2904509 -45.36  0.002169067    2.260    0.558
        17 -11.7734     83.4105    164.6596   1.2083260718e+02   3.0808583287e+01    0.6132668    0.5744327  77.14  0.003470784    1.060    0.057
        18 -11.9531     22.6172    155.7202   1.3544572037e+02   4.0635588448e+01    0.4054301    0.2216444 -69.85  0.002104198    1.503    0.335
        19 -12.4952     67.4865    143.9012   1.2136048555e+02   3.8387326875e+01    0.9663993    0.6369918  87.16   0.00322365    2.016    0.504
        20 -11.6537     57.3780    131.9910   1.2198710285e+02   4.2679037878e+01     1.977488    0.6417391 -70.34   0.00399412    9.447    0.894
        21  -9.7342     96.7985    149.4804   1.1429438683e+02   3.2364079723e+01    0.2890624    0.2715003 -76.57 0.0008179008    1.020    0.019
        22 -11.8945     85.1866    148.2374   1.1724073523e+02   3.4626308180e+01    0.3275867    0.2613534 -45.28 0.0005959686    1.264    0.209
        23  -9.0189     99.9390    145.2717   1.1254427555e+02   3.2848117667e+01    0.2388697    0.1790888  -8.49   0.00105433    1.932    0.483
        24 -14.1563     29.0317    185.3001   1.3733201369e+02   3.2850095633e+01     5.014392     1.865612  73.40    0.0090212    9.703    0.897
        25 -10.4443     32.6727    155.1835   1.3276627474e+02   3.9795554834e+01    0.3201959   0.09793646 -64.28   0.00122006    2.600    0.615
        26  -9.4673    108.8678    135.2643   1.0784464619e+02   3.3636322211e+01    0.3669558    0.2485732  -8.14  0.001279331    2.589    0.614
        27  -9.8932     68.6648    134.9330   1.1925704710e+02   4.0433893489e+01    0.2077904    0.1724854 -61.00 0.0004618157    1.104    0.094
        28 -10.3647     95.9575    132.3024   1.1078216808e+02   3.6715366692e+01     0.280636    0.2433299 -16.36 0.0006158198    1.326    0.246
        29 -12.5946     31.6062    224.1841   1.4047494697e+02   2.3591963788e+01    0.3284883    0.2835647 -71.84 0.0007853898    1.343    0.255
        30  -9.1838    106.1600    122.6346   1.0557847897e+02   3.7137160449e+01    0.2004288    0.1874394  27.36 0.0003909849    1.121    0.108
        31 -10.0691    167.8448    112.9226   8.7516859418e+01   2.5990217150e+01    0.3947105    0.2840107 -77.34  0.001162588    1.802    0.445
        32  -9.3183    204.1671    110.9213   7.9841213540e+01   1.8135467801e+01    0.2881154    0.1975446  26.80   0.00125135    2.224    0.550
        33 -14.4696     38.3992    215.7632   1.3834930554e+02   2.4666395815e+01     1.879043     1.546551  -2.68  0.008729981    2.012    0.503
        34 -10.4946    243.7854     94.6063   7.0099439351e+01   1.2726520709e+01    0.1830446    0.1230951  78.14 0.0009563161    1.705    0.414
        35  -8.6676    159.2857     78.3341   8.0349606356e+01   3.4625643856e+01    0.1446278    0.1175268  15.09 0.0003508205    1.623    0.384
        36 -11.4245     46.7465    234.9477   1.3842063190e+02   1.9388923542e+01    0.6046544    0.2492853  69.75  0.002359767    3.278    0.695
        37 -10.0991     40.3943    229.1855   1.3916484803e+02   2.1437996309e+01    0.2686464    0.1635844  64.69   0.00068003    1.444    0.307
        38 -10.4480    226.0224    201.0786   9.5070921589e+01  -3.6252204015e+00    0.4776655    0.2797945 -61.12  0.001584953    3.067    0.674
        39 -12.4648    105.0981    242.7917   1.2738082100e+02   9.1832758584e+00    0.5696501    0.3878138  67.95  0.002865194    1.528    0.345
        40 -10.4305     25.9828    203.4716   1.3980589574e+02   2.8901449791e+01     0.171815    0.1173652  40.82 0.0005385716    1.574    0.365
        41 -11.2115     90.6499    246.4125   1.3077994473e+02   1.0730153583e+01    0.2569447    0.1884122  83.54   0.00114988    1.379    0.275
