#   1 NUMBER                 Running object number                                     
#   2 MAG_AUTO               Kron-like elliptical aperture magnitude                    [mag]
#   3 X_IMAGE                Object position along x                                    [pixel]
#   4 Y_IMAGE                Object position along y                                    [pixel]
#   5 X_WORLD                Barycenter position along world x axis                     [deg]
#   6 Y_WORLD                Barycenter position along world y axis                     [deg]
#   7 A_WORLD                Profile RMS along major axis (world units)                 [deg]
#   8 B_WORLD                Profile RMS along minor axis (world units)                 [deg]
#   9 THETA_WORLD            Position angle (CCW/world-x)                               [deg]
#  10 FWHM_WORLD             FWHM assuming a gaussian core                              [deg]
#  11 ELONGATION             A_IMAGE/B_IMAGE                                           
#  12 ELLIPTICITY            1 - B_IMAGE/A_IMAGE                                       
         1 -14.1555      6.8798     46.8225   1.1140839780e+02   6.7851324443e+01      1.25932     1.005762  74.95  0.007915185    1.393    0.282
         2 -13.5917     58.5055     64.2575   9.2114874471e+01   5.8172307632e+01     1.736765    0.9710536 -31.12   0.00703673    2.464    0.594
         3 -15.2208      5.9556     69.1509   1.1604760311e+02   6.2369910699e+01     1.583209    0.9109095 -83.09  0.005968003    1.514    0.340
         4 -14.7269    119.7833     54.6126   6.8274400707e+01   4.7874503213e+01     1.213907    0.8825027  38.46  0.002292354    1.518    0.341
         5 -13.5951    131.8728     32.7174   5.7070087033e+01   4.8363584383e+01     1.105085    0.5095657 -33.78  0.004332841    2.023    0.506
         6 -14.3425    121.7910     37.5951   6.1196548866e+01   5.0209954097e+01     1.056205    0.6314938  32.12  0.002697629    2.174    0.540
         7 -13.8543     86.1913     66.4090   8.2581398629e+01   5.2867112183e+01     1.832332     1.034415 -24.29  0.004809833    2.984    0.665
         8 -12.3166    232.5970      2.2171   3.5992566762e+01   2.6802208961e+01    0.4455283    0.2753735  55.88  0.002060497    1.952    0.488
         9 -15.7725    218.4409     16.5167   4.0682200921e+01   2.8553217887e+01     2.331082     1.674921 -24.36   0.01317534    1.313    0.238
        10 -14.5158    189.5393     26.7050   4.6295914052e+01   3.4327106392e+01     1.814545     0.661609 -50.24  0.006373087    2.975    0.664
        11 -13.2789    139.5775     22.0608   5.1462839483e+01   4.7737705104e+01    0.6788219    0.3943464  60.51  0.001503723    1.692    0.409
        12 -14.9496    166.7028     29.9332   5.0178093366e+01   3.9715483775e+01      1.17492     1.143947 -38.05  0.003807065    1.054    0.051
        13 -15.0736    147.3048     29.8183   5.3114454625e+01   4.4757792951e+01     1.536685     1.084301  61.92   0.00594414    1.433    0.302
        14 -13.0754      7.8595      2.6828   9.2986637435e+01   7.7559559613e+01    0.5659818    0.4499777  44.43  0.002578549    1.708    0.415
        15 -13.4467      2.6786     10.7222   1.0197733342e+02   7.6362280867e+01    0.8184183    0.4236211 -63.70  0.004355345    1.792    0.442
        16 -13.3544     17.0006     10.8051   9.0968869814e+01   7.5091804243e+01    0.5803857    0.3331936 -62.88  0.001213723    2.251    0.556
        17 -15.9691     11.5024     23.0357   1.0107478416e+02   7.3073506248e+01     1.921105     1.169432 -33.47  0.009012106    1.592    0.372
        18 -14.2358     24.3018     13.9840   8.7818611044e+01   7.3643119569e+01    0.7542471    0.3970178  27.36  0.002409429    2.172    0.540
        19 -12.8971    120.2485     26.6886   5.7041584788e+01   5.2156928674e+01    0.7718279    0.4996885  44.08  0.003505501    1.620    0.383
        20 -12.5234     71.5627     17.7787   6.6407465490e+01   6.4905392153e+01    0.5565704    0.3644074 -41.17  0.002100379    1.554    0.356
        21 -15.4138     97.7979     12.3490   5.5634234076e+01   5.9558263670e+01      1.76249    0.8694638  57.46  0.006060594    1.944    0.486
        22 -11.6232     60.0569     16.9330   7.0446297765e+01   6.7375575663e+01     0.360679    0.1903739 -37.19  0.001664277    1.784    0.439
        23 -14.4282     42.3345      4.0232   7.0476240523e+01   7.2563458835e+01     1.289138    0.7693738 -23.58  0.005631933    1.596    0.374
        24 -15.2301    212.4814     41.0657   4.8034705346e+01   2.7125126231e+01     2.810588    0.9034376  75.37  0.008855792    4.718    0.788
        25 -12.2654    153.3143      8.7577   4.4426509511e+01   4.5549935790e+01    0.3104206    0.2727761 -17.63    0.0008375    1.177    0.150
        26 -10.7463    160.4983      6.4957   4.2783661740e+01   4.3879360185e+01     0.137781    0.1346304 -78.57 -7.181721e-05    1.051    0.049
        27 -11.1992     68.3025      5.2841   6.0290149465e+01   6.7231454034e+01     0.289974    0.1344111 -44.39  0.001178414    2.619    0.618
        28 -12.5075    182.1682      2.4057   3.9364989648e+01   3.8674243214e+01    0.5922037    0.2917106 -83.80  0.002522464    2.288    0.563
        29 -14.1665    187.7387     11.9480   4.1890902989e+01   3.6371306083e+01     1.144811    0.6125767 -40.28  0.005352143    1.651    0.394
        30 -12.3207    118.4558      2.8000   4.6907593684e+01   5.5268317753e+01     0.592036    0.3150681 -81.33  0.002360129    2.566    0.610
        31 -11.1870    112.1455      1.8732   4.7550875040e+01   5.6983970025e+01    0.2819737    0.1976968  68.68  0.001432114    1.400    0.286
        32 -12.1405     79.3151      2.1208   5.4968438589e+01   6.5078177163e+01    0.6256635    0.2082373  55.55  0.002390072    2.655    0.623
        33 -12.0042     61.6964      1.9701   6.0551499508e+01   6.9028458617e+01    0.3220836    0.2383224  66.80  0.001283314    1.607    0.378
        34 -12.0776     48.9958      3.4885   6.6839961512e+01   7.1408412284e+01    0.2591322    0.1802494  56.61 0.0007102919    1.691    0.409
        35 -12.4688     22.4903    166.5001   1.2020135483e+02   3.7392127092e+01    0.2250088    0.1792303  71.23  0.001110815    1.013    0.012
        36 -11.7363     51.7329    248.8650   1.1894055599e+02   1.8931087067e+01    0.2932813    0.1541011  79.10  0.001948874    2.091    0.522
        37 -12.1584     56.8209    246.9140   1.1793568969e+02   1.8683119933e+01     0.414064    0.1099757  37.69  0.002108753    2.521    0.603
        38 -13.7452     28.3119    246.1807   1.2292576623e+02   2.1743092557e+01     0.608633    0.2728575  67.69  0.003944032    1.979    0.495
        39 -11.8717      2.6721    249.8389   1.2739651483e+02   2.3524659957e+01    0.2903774    0.1339974  41.19   0.00172009    1.531    0.347
        40 -13.9523      9.1287    245.6644   1.2621257303e+02   2.3616765994e+01    0.7068589    0.3001149  49.86  0.003318652    1.537    0.349
        41 -13.0912     22.6038    162.0996   1.1988364471e+02   3.8358333185e+01     0.381214    0.1914793  63.96  0.002024743    1.782    0.439
        42 -12.0810     77.3528    156.9493   1.0556376154e+02   3.3119752457e+01    0.4481216    0.2572025  32.88  0.001615382    1.796    0.443
        43 -13.4526     74.0127    153.2373   1.0590691870e+02   3.4419492640e+01    0.7180465    0.4542368  35.63  0.002908638    1.585    0.369
        44 -11.2350    154.8310    157.6044   8.7523834601e+01   2.0291590586e+01    0.1987814    0.1201755  50.41 0.0009543957    1.776    0.437
        45 -11.3582     89.6663    169.6814   1.0427373914e+02   2.8609044900e+01    0.1246783    0.1025605 -16.18 0.0007048635    1.696    0.410
        46 -11.4891    112.6486    157.1929   9.6919124307e+01   2.7643421904e+01    0.1972173    0.1679254  55.95  0.001146893    1.130    0.115
        47 -12.7770    208.6013    154.6534   7.6694406533e+01   1.1400870907e+01     0.588793    0.3581166  41.52  0.003197003    1.681    0.405
        48 -11.8837     86.0314    152.6800   1.0274971408e+02   3.2810168333e+01    0.4272672    0.2392869 -49.51  0.002031073    1.965    0.491
        49 -11.4266    133.1009    152.6945   9.1352253967e+01   2.5060656019e+01    0.2320155    0.1949573 -41.66 0.0002438273    1.250    0.200
        50 -11.9424    103.3310    150.2154   9.8001708649e+01   3.0646950265e+01    0.3738595    0.2846874 -30.65  0.001885708    1.677    0.404
        51 -11.5855     24.4013    150.6573   1.1859891496e+02   4.0796821544e+01    0.2883211    0.1986671 -70.11  0.001746597    1.404    0.288
        52 -10.9775     60.3213    149.2953   1.0896440861e+02   3.7150751083e+01    0.1241182    0.1016635 -33.91 0.0003200069    1.615    0.381
        53 -10.6011    149.9825    141.6584   8.5381855213e+01   2.4130027788e+01      0.23094     0.110124  60.83 0.0007050915    4.401    0.773
        54 -11.6048     88.7013    139.8479   9.9985503159e+01   3.5298135296e+01    0.2690396    0.2151202 -33.71   0.00144586    1.549    0.354
        55 -14.6885    230.0584    129.1522   6.7873661334e+01   1.1362844297e+01     1.118938    0.9647524  54.85  0.007134461    1.503    0.334
        56 -12.9243    246.4365    133.2712   6.6392825433e+01   8.0949433071e+00    0.4604159    0.3081356 -28.62   0.00278162    1.284    0.221
        57 -10.2081     10.6917    134.2831   1.2109265537e+02   4.5824764370e+01     0.129695   0.07392202  62.88 0.0005630883    1.565    0.361
        58 -12.8731    133.8306    102.8697   7.9962744162e+01   3.5148410201e+01     1.343355    0.3457866  50.75   0.00357224    4.683    0.786
        59 -13.9314     83.3397    114.4807   9.6649441772e+01   4.2121863111e+01     2.131979     1.368671  -9.07   0.00789491    3.481    0.713
        60 -14.9792    106.4445    105.9392   8.7968267833e+01   4.0027087579e+01     1.586108     1.246047 -25.55  0.006604895    1.546    0.353
        61 -11.1226     25.7308    127.2361   1.1613751656e+02   4.6271828791e+01    0.1752377    0.1384204 -58.86  0.001062464    1.349    0.259
        62 -11.0313     59.6594    125.4450   1.0576053767e+02   4.2933896247e+01    0.1753248    0.1380933  18.21 0.0009470643    1.595    0.373
        63 -11.9799    182.2070    121.8936   7.4307816905e+01   2.1442093898e+01    0.4403472    0.3123814  85.67  0.001940058    2.569    0.611
        64 -12.6843     28.5828    122.1877   1.1473268951e+02   4.7252953557e+01    0.3312579    0.2409415  82.99  0.001924199    1.217    0.178
        65 -11.8521      3.8814    119.8510   1.2205935197e+02   4.9800325169e+01    0.4706326    0.1761267  17.58   0.00208194    3.361    0.702
        66 -13.9804     17.7829    111.0065   1.1690900528e+02   5.0985415444e+01    0.8159582    0.6531931 -50.38  0.004327856    1.396    0.284
        67 -12.2592     23.2209     71.7446   1.0900905234e+02   6.0501922792e+01    0.2334725    0.2186283 -64.54 0.0003737745    1.124    0.111
        68 -14.0525    170.9187    243.0901   9.7341113318e+01   5.1708806525e+00    0.8135093    0.4292139  30.36  0.005234431    1.498    0.333
        69 -14.5488     26.1644     94.4700   1.1187658841e+02   5.4469430511e+01     1.356302     1.215634  12.57  0.008558451    1.382    0.276
        70 -12.4747     16.6654     71.1691   1.1172183556e+02   6.1167944732e+01    0.4574487    0.2300374  26.89  0.002246513    2.265    0.558
        71 -11.9782    177.0282    110.5803   7.2539099524e+01   2.4466371832e+01    0.4301648    0.2941245 -14.31  0.001996858    1.761    0.432
        72 -12.0952    121.2098    111.9989   8.5498768679e+01   3.5798908098e+01    0.3294096    0.2033432  55.98  0.001424612    1.835    0.455
        73 -13.5781    120.4106    102.2417   8.3211000013e+01   3.8080466885e+01     0.719294     0.366545  41.20   0.00263262    2.083    0.520
        74 -14.7715    105.6778    121.7438   9.1885370882e+01   3.6575935266e+01     1.745416      1.10549  34.81   0.00804279    1.711    0.416
        75 -11.6790     45.5197    110.2602   1.0771264336e+02   4.8466545199e+01    0.3450938    0.2658986  83.89  0.001924303    1.244    0.196
        76 -12.2481     45.5176    134.7827   1.1121789188e+02   4.2389954582e+01    0.3647097    0.2808848 -85.26  0.002138698    1.156    0.135
        77 -12.5408     32.6516    104.4050   1.1109658487e+02   5.1331108356e+01    0.4158996    0.3160867  53.25  0.002102516    1.350    0.259
        78 -11.4083     64.6656    102.2788   9.9895327169e+01   4.7981018959e+01    0.2303152    0.1817382  41.42 0.0004990191    1.350    0.260
        79 -12.2036     62.0056     98.5098   9.9967905327e+01   4.9299171104e+01    0.7322039    0.4085592  70.92  0.002815867    2.835    0.647
        80 -12.8451     52.4902     98.0097   1.0312184456e+02   5.0708326643e+01    0.8745369    0.5197046   4.53  0.003555515    3.068    0.674
        81 -12.6958     49.4760     94.5104   1.0346309402e+02   5.1971495905e+01    0.6748307    0.4295832  52.84  0.003315984    1.721    0.419
        82 -13.1768    249.1536     96.2738   5.7858550997e+01   1.2438004584e+01    0.7752286    0.2145382 -32.20  0.002973906    2.788    0.641
        83 -12.9692    137.0509     95.7685   7.7235451940e+01   3.5910705969e+01    0.4912747    0.3762816  66.36  0.001652521    1.517    0.341
        84 -12.2529    125.3435     92.6539   7.9277228815e+01   3.9093376009e+01    0.4220627     0.258188 -66.71   0.00162429    2.376    0.579
        85 -11.7710     43.2024     91.2291   1.0505817794e+02   5.3554195565e+01    0.3925561    0.2229662 -79.86  0.001270112    1.853    0.460
        86 -12.1455     90.1469     88.2014   8.8097259450e+01   4.7186452781e+01    0.4709747    0.3500227  57.56  0.002231597    1.489    0.329
        87 -13.5615    242.2687     84.0132   5.5799505066e+01   1.5299647458e+01     0.499019    0.4083748 -55.92  0.002891645    1.389    0.280
        88 -13.3502    237.2111     80.3701   5.5519046353e+01   1.6749197237e+01    0.4945432    0.3474633  78.23  0.002399526    1.976    0.494
        89 -12.7751    130.1311     86.3134   7.6202645563e+01   3.9356655960e+01    0.8045239    0.4170674  48.90  0.003204369    2.008    0.502
        90 -13.2296    135.6528     80.0191   7.2930258432e+01   3.9361737246e+01    0.8459899    0.4798116  45.46    0.0035049    1.863    0.463
        91 -12.9966    149.6802     84.9621   7.1199497186e+01   3.5187228642e+01    0.8252669    0.4398075  31.48  0.002937105    2.850    0.649
        92 -14.1886    164.2158     71.3956   6.4112259499e+01   3.4192854962e+01     1.580146    0.5536975  47.67  0.005235723    3.082    0.676
        93 -13.0399    160.0149     68.3124   6.3966225616e+01   3.5724162428e+01    0.8107256    0.4387304 -46.93  0.002493342    1.876    0.467
        94 -13.8512    160.8132     80.8055   6.7618166517e+01   3.3365436478e+01    0.8950152    0.6662061   8.64  0.003001783    1.790    0.441
        95 -14.7396    169.3642     77.0574   6.4841853104e+01   3.2013492503e+01     1.424072    0.6611513  54.29  0.005358166    2.265    0.558
        96 -13.2218    188.4376     84.2407   6.3496851925e+01   2.6443422951e+01     0.780735    0.3551698  40.72  0.002652713    2.721    0.632
        97 -13.3352     65.9948     49.0192   8.3549083066e+01   6.0353736457e+01    0.5976466    0.5090294 -69.17  0.003261091    1.318    0.241
        98 -13.5994     96.5867    238.7381   1.1014368224e+02   1.5293700811e+01    0.4850376    0.3015622  41.90  0.002219943    1.224    0.183
        99 -12.9198     54.9477     82.0600   9.8613286033e+01   5.4377436554e+01    0.5704636     0.370042 -48.75  0.001994027    1.463    0.316
       100 -13.8995     60.9561     75.5621   9.4598853344e+01   5.5108684855e+01    0.7291575    0.4656853 -43.63  0.001230236    1.554    0.357
       101 -13.1227     70.2589     75.9077   9.1253042935e+01   5.3563588439e+01    0.5368199    0.4585736 -36.78  0.001238982    1.212    0.175
       102 -12.3285     77.1457     73.8454   8.8161678835e+01   5.2872360253e+01    0.3561535    0.3367355  52.25  0.001036601    1.137    0.121
       103 -13.2105    213.1000     78.3065   5.8109473822e+01   2.1948657636e+01    0.9811796    0.6151752  82.97  0.004422431    2.470    0.595
       104 -12.9203    216.6318     73.4170   5.6343553092e+01   2.1893978298e+01    0.6869028    0.4442026 -62.23  0.003288778    1.979    0.495
       105 -12.1352    113.9902     80.2606   7.8616353334e+01   4.4153408822e+01    0.4305666    0.3732303 -59.17  0.001103219    1.155    0.134
       106 -11.3926     90.8012     80.8271   8.5731786526e+01   4.8760054217e+01     0.392188    0.2776281 -27.49  0.001777306    1.744    0.426
       107 -11.7205    147.4958    239.0099   1.0093284107e+02   8.7127443372e+00    0.1343955    0.1091107 -45.31  0.000914558    1.583    0.368
       108 -11.8399     96.5671     79.2175   8.3417806512e+01   4.7999161292e+01    0.2820432    0.2230537  45.66  0.001400319    1.337    0.252
       109 -11.2400     42.1365     76.9572   1.0231906996e+02   5.7276949101e+01    0.2332365     0.207304  38.46  0.001378419    1.271    0.213
       110 -14.0500    198.9832     69.7851   5.7813689532e+01   2.6301761408e+01     1.039722    0.6396002  36.64  0.003355946    2.011    0.503
       111 -12.4348    199.8506     62.2825   5.5576581097e+01   2.7196471817e+01    0.4139268     0.285577 -42.36  0.001146209    1.325    0.246
       112 -10.5907     27.4863     76.5414   1.0819131126e+02   5.8912489843e+01    0.1366736    0.1156436 -68.04 2.794339e-05    1.023    0.022
       113 -12.1213    242.0126     71.3571   5.2757343956e+01   1.6996211480e+01    0.4214653     0.243368 -54.79  0.002076534    2.038    0.509
       114 -13.6525    133.4495     66.0003   6.8925651000e+01   4.2539235180e+01    0.9518505    0.7531126  -9.00  0.003498188    1.514    0.340
       115 -11.9611    100.4456     64.9940   7.7496635688e+01   5.0255702200e+01    0.4792143     0.336387 -35.58  0.001990505    1.421    0.296
       116 -12.5197     38.4822     68.3478   1.0166463268e+02   5.9839424246e+01    0.6656169    0.2892396  30.63  0.002830529    2.566    0.610
       117 -14.2143    178.1257     57.5295   5.7406717952e+01   3.3039901847e+01     1.002735     0.694105 -37.12  0.002870671    1.321    0.243
       118 -12.4695     79.6541     61.1385   8.2990016383e+01   5.5266639094e+01    0.5277602    0.5102032  89.88  0.002564911    1.105    0.095
       119 -12.9446     82.4558     54.6298   7.9565057874e+01   5.6102693365e+01       0.5616    0.4539705   2.26   0.00211826    1.538    0.350
       120 -11.4450     77.9615     54.0000   8.0930362983e+01   5.7108505336e+01    0.3207703    0.2055092  36.02  0.001043099    1.753    0.429
       121 -12.1753     24.9041    217.5874   1.2239146340e+02   2.6914168844e+01    0.5677596    0.3064798  59.00  0.003766062    1.421    0.296
       122 -13.0716    135.6079     50.3164   6.2939392313e+01   4.4745416654e+01    0.5925151    0.3671434  34.77  0.002459811    2.013    0.503
       123 -11.4145     14.6139    224.0846   1.2459310516e+02   2.6729793632e+01    0.3226949    0.1779631  58.59  0.001276179    1.323    0.244
       124 -13.8021     25.7682    227.5450   1.2265009041e+02   2.5073123209e+01    0.5463723    0.3274451 -61.00  0.003745271    2.185    0.542
       125 -12.9325    109.9509     42.3735   6.6092233733e+01   5.2345191669e+01      0.63195    0.2654863  50.90  0.001656075    2.399    0.583
       126 -13.1124    113.6157     38.2317   6.3435763204e+01   5.2132167314e+01     0.449471    0.4142239 -23.02  0.002438001    1.068    0.063
       127 -11.9634     24.4298     59.8847   1.0577458739e+02   6.3357052044e+01    0.3165575    0.2231182 -57.43 0.0008228282    1.195    0.163
       128 -10.5815     38.5012     60.0100   9.9326603786e+01   6.1875458570e+01    0.1983608    0.1156769 -86.19 0.0008105735    2.580    0.612
       129 -13.5016     20.7480    225.2618   1.2349415202e+02   2.5951757270e+01    0.4004969     0.337936  64.16  0.002392513    1.220    0.180
       130 -13.1434    248.2374     51.7208   4.7314462737e+01   1.8216581192e+01    0.6807974    0.3742199 -27.20     0.003542    1.512    0.339
       131 -11.7826    230.5316     55.3203   4.9955265142e+01   2.1370956452e+01    0.4005748    0.1878631  67.42  0.001798104    2.562    0.610
       132 -13.6375    103.1553     50.6175   7.1313546614e+01   5.2477065399e+01    0.9366959    0.6468659 -66.81 0.0008134079    1.938    0.484
       133 -12.2398     98.0448     50.5314   7.2815250498e+01   5.3638261907e+01    0.4396623    0.3241873 -84.08  0.001288948    1.958    0.489
       134 -14.5229      7.0003     99.8031   1.1937824144e+02   5.4572948814e+01     1.286936     0.704362  48.13  0.006852321    1.859    0.462
       135 -11.7302     24.1757     49.2490   1.0297029923e+02   6.5965626273e+01    0.4391159    0.1371716 -40.43  0.001411309    4.200    0.762
       136 -12.7080    237.1685    230.6352   8.5047779397e+01  -1.7225276328e+00    0.2749761    0.1066197  38.29  0.001574806    2.407    0.585
       137 -11.8197     40.1844    243.7481   1.2073549811e+02   2.0940543743e+01    0.2334617    0.1301124  85.11  0.001631631    1.859    0.462
       138 -12.9975     66.3354    223.4039   1.1467552880e+02   2.1426677637e+01    0.6378037    0.4470294  33.98  0.004438193    1.358    0.264
       139 -12.1437    169.8840     43.7595   5.4328175460e+01   3.7079477123e+01    0.3276724    0.3090408  54.81   0.00162883    1.132    0.117
       140 -10.3851     55.5056     41.3930   8.4815957857e+01   6.3727354519e+01     0.139257     0.126374 -29.97 0.0001146638    1.040    0.038
       141 -12.4624     75.8971     37.3601   7.4669999108e+01   6.0785767791e+01     0.339771    0.2722886  45.55 0.0008384807    1.328    0.247
       142 -12.2727     69.6463     36.7517   7.6779484763e+01   6.2130412472e+01    0.4448174    0.2464797  39.72  0.000932308    1.967    0.492
       143 -13.7923    241.9114     34.5401   4.3587762570e+01   2.1488082807e+01     0.773578    0.6348974  81.89  0.003043193    1.409    0.290
       144 -11.2521    104.4550     37.0425   6.5354798530e+01   5.4528577858e+01    0.2371998    0.1428196 -32.27   0.00103476    1.609    0.378
       145 -13.8809     63.0907    214.4632   1.1466073513e+02   2.3371818065e+01    0.6790273    0.3453934  52.55  0.003994847    1.631    0.387
       146 -12.4942    185.7632    213.6613   9.0905344504e+01   6.7940562665e+00    0.1841158    0.1607963  -9.55  0.001381742    1.224    0.183
       147 -13.4542      9.0437    210.9674   1.2520711493e+02   2.9594528473e+01    0.8702017     0.479932  60.40  0.005941696    1.343    0.255
       148 -12.2645     46.1720     33.8830   8.5823778652e+01   6.6736720309e+01    0.5120834    0.3230257 -35.88   0.00257556    1.506    0.336
       149 -12.7509     16.7229    195.7624   1.2307063606e+02   3.1811471766e+01    0.8645545    0.2335024 -73.46   0.00395235    3.383    0.704
       150 -13.4299     29.9274    169.3816   1.1861194613e+02   3.6042440283e+01    0.6923459      0.42388 -47.50   0.00306544    2.231    0.552
       151 -13.5219     22.3555    181.2023   1.2111858045e+02   3.4246856126e+01    0.5800734    0.4024775 -66.96  0.002711142    1.583    0.368
       152 -12.6773      1.7653     21.7764   1.0734275995e+02   7.4009488593e+01     0.264834     0.154457 -66.24 0.0006162292    1.468    0.319
       153 -14.7469      8.3436    183.5352   1.2433390386e+02   3.5016520249e+01      1.04561     0.788274  54.97  0.007603705    1.137    0.121
       154 -14.7591     15.8038    175.6395   1.2230139962e+02   3.6021609967e+01     2.044898    0.4643013  50.81  0.008432193    3.260    0.693
       155 -12.0046     29.3949     32.2283   9.3960940630e+01   6.9322370589e+01    0.5382333    0.3473773 -11.81   0.00270442    2.062    0.515
       156 -10.5729     36.3061     34.3130   9.1080257303e+01   6.8029102598e+01    0.1385549   0.09392872 -25.89 0.0002540495    1.620    0.383
       157 -11.4502    136.8241    211.3365   9.9623493406e+01   1.4109067090e+01    0.1773149    0.1617106 -87.91 0.0007722903    1.365    0.268
       158 -11.0713     89.1421     30.1743   6.6775602625e+01   5.9175124154e+01    0.2088037    0.1866794  10.19 0.0002557989    1.154    0.133
       159 -12.8919     56.4663     27.5761   7.7848469191e+01   6.6260682294e+01    0.6385479    0.3276183  49.51  0.001950061    2.283    0.562
       160 -12.7871     67.9692     24.6186   7.1453912343e+01   6.4593096891e+01    0.7069129    0.3784133  43.91  0.003192117    1.953    0.488
       161 -11.6807     58.6595     35.3113   8.0678959911e+01   6.4420481539e+01    0.5024652    0.2466345  39.89  0.002171462    2.227    0.551
       162 -10.9134     97.9389     27.1708   6.2756002588e+01   5.7593526900e+01    0.2249514    0.2013278 -73.61  0.001220264    1.266    0.210
       163 -12.0499     46.5584     20.9381   7.8996602778e+01   6.9149532938e+01    0.3911612     0.322082  14.68  0.001805078    1.281    0.219
       164 -10.6912     54.1872     19.8359   7.4699434656e+01   6.8016431320e+01     0.278145    0.1724762  18.41  0.001142515    2.217    0.549
       165 -12.5479     94.4805    218.5038   1.0873867112e+02   1.8769698414e+01     0.296372    0.1609621  46.83  0.001446468    1.515    0.340
       166 -12.2073     41.8720    206.9673   1.1845798433e+02   2.7140089406e+01    0.2412145    0.1210411  77.32  0.001355301    2.045    0.511
       167 -11.3381    150.9689    206.8994   9.6313598772e+01   1.2735731440e+01    0.2696026    0.1408918  25.48  0.001375547    2.067    0.516
       168 -12.5141     57.2789    203.3712   1.1501546946e+02   2.6095405354e+01    0.4305139    0.2258811  87.70  0.002367977    2.167    0.538
       169 -12.8462     40.5647    195.2301   1.1798096488e+02   2.9546490034e+01    0.4015436    0.1611762  87.61  0.001843206    2.993    0.666
       170 -13.1924    164.1955    194.6450   9.1995961703e+01   1.2605138159e+01    0.5079799    0.3026988 -56.94  0.002683803    2.442    0.591
       171 -10.7424    212.4808    200.4937   8.4327727780e+01   4.6953263505e+00     0.116705   0.09051479   9.44 3.475539e-05    1.039    0.038
       172 -12.6027    201.0039    192.1382   8.4892861241e+01   7.3987832131e+00    0.3185191    0.2284752  -7.88  0.001488154    1.371    0.271
       173 -11.7803     49.1020    181.5220   1.1506253585e+02   3.1390050353e+01    0.3254788    0.2317792 -55.19  0.002015544    1.694    0.410
       174 -13.4992    196.8383    179.2432   8.3402430946e+01   9.7890054231e+00    0.6292173    0.4265317 -66.09  0.002968832    3.454    0.710
       175 -12.4453     85.2972    180.4956   1.0665337568e+02   2.7010786551e+01    0.2736394    0.1771717  72.66  0.001480522    1.748    0.428
       176 -12.4200    130.6300    173.6056   9.5524022258e+01   2.1473001246e+01    0.2615609    0.2263228  57.74  0.001562731    1.182    0.154
       177 -13.3051    157.8405     43.5608   5.6223850248e+01   4.0161335286e+01    0.8650197    0.5927817  25.74  0.003811206    1.904    0.475
       178 -13.0851    124.6178    167.8167   9.5916303151e+01   2.3549853783e+01    0.4123267    0.2563102 -54.80  0.002129836    1.752    0.429
       179 -13.0969     14.4744    159.0085   1.2169327396e+02   3.9775768492e+01    0.5047529    0.3289011  82.40  0.003142148    1.273    0.215
