#   1 NUMBER                 Running object number                                     
#   2 MAG_AUTO               Kron-like elliptical aperture magnitude                    [mag]
#   3 X_IMAGE                Object position along x                                    [pixel]
#   4 Y_IMAGE                Object position along y                                    [pixel]
#   5 X_WORLD                Barycenter position along world x axis                     [deg]
#   6 Y_WORLD                Barycenter position along world y axis                     [deg]
#   7 A_WORLD                Profile RMS along major axis (world units)                 [deg]
#   8 B_WORLD                Profile RMS along minor axis (world units)                 [deg]
#   9 THETA_WORLD            Position angle (CCW/world-x)                               [deg]
#  10 FWHM_WORLD             FWHM assuming a gaussian core                              [deg]
#  11 ELONGATION             A_IMAGE/B_IMAGE                                           
#  12 ELLIPTICITY            1 - B_IMAGE/A_IMAGE                                       
         1 -14.5420    146.2703     60.2948   9.3141184366e+01   4.0612434712e+01     1.575125     1.121693  12.82  0.004688995    1.697    0.411
         2 -14.6639    157.1929     44.7902   8.5439022128e+01   4.0337417336e+01     1.271834     1.011609 -20.11  0.003666255    1.212    0.175
         3 -14.4136    168.0303     13.0196   7.2373896076e+01   4.1354553677e+01     1.012091    0.9460615  -0.00  0.004055076    1.058    0.055
         4 -12.6212    189.1552     13.8969   7.0078330603e+01   3.5876118388e+01    0.4439391    0.2191314 -40.24   0.00188807    1.949    0.487
         5 -11.6260     59.4853      4.5090   9.5229780582e+01   6.8464590579e+01     0.139439    0.1165148  -1.06 0.0001140345    1.019    0.018
         6 -12.0514    151.0659    239.6247   1.2892092503e+02   9.6554988036e+00    0.2246241    0.1723474  18.93 0.0005135136    1.177    0.151
         7 -19.9670     95.6495    230.0795   1.3802230693e+02   1.7826661734e+01     7.425914     5.237473  46.98   0.05402226    1.151    0.131
         8 -14.2214    153.0255    145.7103   1.1440345373e+02   2.3581349383e+01    0.6045881    0.4692098  65.45  0.003182163    1.790    0.441
         9 -12.9085    140.1601    149.1942   1.1799756919e+02   2.5187130764e+01    0.5064634    0.2919286  56.21  0.001599946    2.379    0.580
        10 -12.3573     26.8289    194.4658   1.4886944235e+02   3.1054885875e+01    0.1983719    0.1687795  50.34 0.0005042473    1.177    0.150
        11 -11.0675    192.2003    153.3723   1.0782893701e+02   1.5420774335e+01    0.2093399    0.1516834 -32.21 0.0007285269    1.427    0.299
        12 -12.8842    154.4198    152.8532   1.1550726311e+02   2.2077490403e+01    0.2847491    0.2398773 -81.58  0.001594267    1.749    0.428
        13 -10.7796     17.9019    151.8552   1.4843039807e+02   4.0275619311e+01    0.4217187     0.131099 -77.33  0.001901145    2.826    0.646
        14 -13.0428    173.9546    148.5616   1.1049058232e+02   1.9373057089e+01    0.3816358    0.3255577 -36.93  0.001491335    1.312    0.238
        15 -14.5854    133.8538    146.0467   1.1885935754e+02   2.6853932084e+01     1.385785    0.4901035 -56.25   0.00438905    4.544    0.780
        16 -10.2728    182.3734    149.1377   1.0889418085e+02   1.7787691389e+01     0.181441    0.1226467 -44.06  0.000779344    1.733    0.423
        17 -12.9797     11.5106    206.0170   1.5231097877e+02   3.0274494293e+01    0.4060126     0.228598  22.36  0.002092618    2.090    0.522
        18 -12.3341     27.9955    145.0355   1.4545844737e+02   4.0941727872e+01    0.3373419     0.282081  71.20   0.00144961    1.049    0.046
        19 -14.5156    143.5788    144.2805   1.1625327960e+02   2.5506386418e+01    0.9865759    0.5098165 -58.61  0.003948762    2.950    0.661
        20 -12.3760    134.5674    106.2785   1.0982604182e+02   3.4570021601e+01    0.5443572    0.1429668 -44.49  0.001590773    3.811    0.738
        21 -14.0826    135.8409    127.7113   1.1461160578e+02   3.0061596531e+01     1.597322    0.3228023 -49.72   0.00375245    6.887    0.855
        22 -12.0277    175.9531    142.3230   1.0877114684e+02   2.0034159504e+01    0.2003706    0.1644096  25.07 0.0005754958    1.122    0.109
        23 -10.7726     19.4609    203.5725   1.5072373306e+02   3.0050141552e+01    0.1561844   0.07719478 -66.22 0.0008673337    2.223    0.550
        24 -13.5411    160.4896    128.4089   1.0901559399e+02   2.5307712675e+01    0.4789689    0.4358045 -11.12  0.002295607    1.060    0.056
        25 -12.2784     21.7357    236.4626   1.5154308210e+02   2.4443364672e+01    0.1677321    0.1218505  72.01  0.001415596    1.214    0.177
        26 -12.3952    167.0729    173.6951   1.1666810108e+02   1.6529669754e+01    0.2222958     0.214814  11.55 0.0009486497    1.244    0.196
        27 -13.0410     39.1135    123.9721   1.4040348456e+02   4.4738800265e+01    0.3732797    0.2167589  15.89  0.001823989    2.206    0.547
        28 -11.0985     27.9574    172.4164   1.4739793611e+02   3.5188005359e+01    0.1886126    0.1400739 -77.74 0.0006320702    1.316    0.240
        29 -10.7851    205.5005    110.1867   9.5552372283e+01   1.9436512895e+01    0.2462941    0.1901948  34.45 0.0006200163    1.302    0.232
        30 -19.1312     79.0494     93.4667   1.2266083277e+02   4.7203042788e+01     18.49723    0.7972321 -55.15   0.02421191   20.052    0.950
        31 -11.8281     12.8186    241.9008   1.5318421151e+02   2.4373169279e+01     0.138344    0.1127756  60.00  0.001138445    1.203    0.169
        32 -11.6737     31.9137    104.3517   1.4012707137e+02   5.0046610533e+01    0.3135393     0.208995  -3.25  0.001691936    2.091    0.522
        33 -11.6951     96.8388     96.1883   1.1774834574e+02   4.3728828340e+01    0.2989945    0.1915407  49.06 0.0008210421    1.739    0.425
        34 -12.5245    230.2699    167.3259   1.0376272663e+02   7.3248731967e+00    0.3561785    0.1714989 -40.39  0.001714274    2.714    0.631
        35 -11.2934     41.9723     92.2712   1.3491621568e+02   5.2075744589e+01    0.2585061    0.1809302 -78.72 0.0008465971    1.369    0.270
        36 -12.0087     52.3984     91.5176   1.3117247386e+02   5.1165082972e+01    0.2728445    0.2451677 -64.22  0.000639192    1.007    0.007
        37 -12.0703    201.1254    164.8622   1.0841662224e+02   1.2267500238e+01    0.3900563    0.2718732 -45.18  0.001489237    1.929    0.482
        38 -11.3552    222.2689    161.5099   1.0398338198e+02   9.2941630973e+00    0.2545418    0.1989982 -45.47  0.001115621    1.912    0.477
        39 -13.0592    168.2258    239.6872   1.2592995713e+02   7.4545933461e+00    0.2812638    0.1780468  35.33 0.0009570594    1.245    0.197
        40 -10.8449    142.0307     80.7095   1.0074894471e+02   3.7976403600e+01    0.2150956    0.1992032  15.84 0.0004715225    1.063    0.059
        41 -10.5866      5.9113    162.0673   1.5174437287e+02   3.9018142905e+01    0.1643048    0.1338013  74.94 0.0008022763    1.051    0.048
        42 -10.6982     15.5902    246.7865   1.5287146105e+02   2.3421226734e+01    0.1465849   0.06778377  79.25   0.00105251    2.069    0.517
        43 -13.1340    160.6951     35.9292   8.1658418849e+01   4.0656978175e+01    0.4561317    0.4132068   5.28 0.0008670939    1.078    0.073
        44 -12.4674    161.3093    238.7296   1.2702254919e+02   8.4530867773e+00    0.2617372    0.1526168  38.51  0.001460394    1.387    0.279
        45 -11.1477     13.4096     59.8771   1.4012626619e+02   6.2223320953e+01    0.1857112    0.1701273  63.66 0.0004470665    1.269    0.212
        46 -11.1739     28.4138    238.1695   1.5047752262e+02   2.3597423188e+01    0.1189169   0.08609302  72.03 0.0003755529    1.235    0.190
        47 -11.6788     19.9393    196.5091   1.5033057267e+02   3.1274099864e+01    0.1551677    0.1248319 -74.41   0.00045329    1.403    0.287
