#   1 NUMBER                 Running object number                                     
#   2 MAG_AUTO               Kron-like elliptical aperture magnitude                    [mag]
#   3 X_IMAGE                Object position along x                                    [pixel]
#   4 Y_IMAGE                Object position along y                                    [pixel]
#   5 X_WORLD                Barycenter position along world x axis                     [deg]
#   6 Y_WORLD                Barycenter position along world y axis                     [deg]
#   7 A_WORLD                Profile RMS along major axis (world units)                 [deg]
#   8 B_WORLD                Profile RMS along minor axis (world units)                 [deg]
#   9 THETA_WORLD            Position angle (CCW/world-x)                               [deg]
#  10 FWHM_WORLD             FWHM assuming a gaussian core                              [deg]
#  11 ELONGATION             A_IMAGE/B_IMAGE                                           
#  12 ELLIPTICITY            1 - B_IMAGE/A_IMAGE                                       
         1 -14.7288     68.5160    144.2187   1.0932388720e+02   3.7374675131e+01     5.136433     2.643917  70.72  0.009139379    3.107    0.678
         2 -14.5015    198.6353     35.7187   4.9456267926e+01   3.0977748510e+01     2.191267     1.532577  27.84  0.007660083    1.935    0.483
         3 -14.5578    210.1684     23.1939   4.4637196597e+01   2.9643673638e+01     1.651856     1.193762  10.43  0.008326464    2.028    0.507
         4  -8.9153    121.6595      9.2907   5.3690791562e+01   5.3490247042e+01    0.1329762    0.1034603 -71.21 0.0007024902    1.648    0.393
         5 -11.6295    234.3435      1.8680   3.7152329972e+01   2.6219228658e+01    0.6422468    0.1889057  73.46  0.002299151    3.141    0.682
         6 -11.2353     62.1702      2.0238   6.6903627530e+01   6.6685699408e+01    0.2615802    0.1668744  47.93  0.001040784    1.632    0.387
         7 -10.5142     25.2845      2.0029   8.3129018117e+01   7.2053500955e+01    0.1967824    0.1485273  54.61  0.001192984    2.768    0.639
         8 -12.2811    193.8307    194.9700   8.9584416906e+01   4.4213149933e+00     1.021028    0.6223435 -65.63  0.004104256    3.547    0.718
         9 -12.9526     71.3448    175.9396   1.1317141346e+02   2.9595883181e+01    0.9932359    0.5318145 -33.39  0.003467109    4.982    0.799
        10 -14.4456     87.1940    227.4993   1.1563851537e+02   1.6718836150e+01     2.256051     0.951998  48.53  0.001085767    1.935    0.483
        11 -14.4254     46.9563    220.3192   1.2256383065e+02   2.3442793728e+01     1.363163    0.9230485  55.15  0.001191509    1.226    0.184
        12 -13.1991     17.2100    191.4491   1.2614963382e+02   3.2527875646e+01    0.3961704    0.2562364  49.99  0.000772051    1.448    0.310
        13 -16.0323     69.3976    247.9746   1.2063894401e+02   1.5540847175e+01     9.018373     2.827584  31.75   0.02759999    7.599    0.868
        14 -10.3965    209.8766    200.0639   8.7426860096e+01   7.5229909287e-01    0.1847124    0.1734583  30.66 0.0003838194    1.229    0.186
        15  -9.3165     98.2428    199.9786   1.1032865374e+02   2.0405657123e+01     0.293422    0.1757353  25.30   0.00106194    2.382    0.580
        16  -9.5136     81.9415    194.8884   1.1316532172e+02   2.3942388592e+01    0.1800112    0.1722126  85.36  0.000626912    1.245    0.197
        17 -10.8048    150.2126    189.4510   9.7585316307e+01   1.3516506284e+01    0.3249571    0.2336054 -52.45  0.001252277    1.535    0.349
        18  -9.8350     95.9714    188.9955   1.0937374578e+02   2.3055820641e+01    0.3464222    0.2389607   0.93  0.001509721    3.190    0.687
        19  -9.5749     98.8680    186.3313   1.0836505035e+02   2.3163452967e+01    0.2329584    0.1783081 -69.45  0.000673498    1.319    0.242
        20  -9.7487     73.6409    188.1301   1.1415247757e+02   2.6581887889e+01    0.2095123    0.1484898  62.52 0.0005034658    1.270    0.212
        21 -10.0998     99.5173    180.7426   1.0741553880e+02   2.4266529973e+01    0.2502847    0.2253852  65.93 0.0006374269    1.053    0.050
        22 -10.3117     41.8445    179.0576   1.2008354353e+02   3.2624307532e+01    0.1980845    0.1353806  76.91 0.0006563846    1.272    0.214
        23 -12.8817     89.1513    156.3616   1.0606652522e+02   3.1448509871e+01     1.685686    0.8854414 -70.75  0.002208736    2.111    0.526
        24 -12.5517     82.6407    163.3922   1.0877587233e+02   3.0820441483e+01    0.6899751    0.3862246  60.28 0.0008865288    1.991    0.498
        25 -13.6858     70.7149    159.0653   1.1103259171e+02   3.3556684930e+01    0.6087409    0.5609432 -19.93  0.002192457    1.444    0.307
        26  -9.4387    173.4136    245.2412   1.0150598835e+02   2.7206674981e-01    0.1400891    0.1176128 -64.42 0.0009496359    1.656    0.396
        27  -9.9146    230.2927    166.3428   7.6967741847e+01   2.3513451211e+00    0.1427252   0.09850225   1.59  0.000341761    1.657    0.397
        28  -9.9102    192.8483    165.2809   8.3922636135e+01   9.7617927555e+00    0.2313454    0.2010355 -46.25 0.0008205212    1.259    0.205
        29 -10.9467     32.4284    165.3452   1.2083023596e+02   3.6716882353e+01    0.2032876    0.1727981 -87.40 0.0005663849    1.121    0.108
        30  -8.8803    170.3106    161.6984   8.7915702275e+01   1.5019762947e+01     0.145057     0.118208  83.40 0.0004602842    1.606    0.377
        31 -10.0571     47.6483    172.6168   1.1814880977e+02   3.3392998123e+01    0.1790172    0.1384163 -47.15 0.0001167313    1.652    0.395
        32  -9.2027    135.3038    250.6171   1.0914064926e+02   5.5187850619e+00    0.1206209   0.07838996  66.24 0.0007021709    1.786    0.440
        33 -11.1973    137.5000    170.9974   9.7104350158e+01   1.9633930726e+01    0.3411531    0.2485422  44.57  0.001308718    1.299    0.230
        34 -11.1608    133.6156    143.6230   9.2533531828e+01   2.6356541228e+01       1.1364    0.2858465 -54.70   0.00266065    5.934    0.831
        35 -10.3098    174.4480    148.9605   8.4248561032e+01   1.6687860332e+01    0.2926531    0.2571897  63.41 0.0008437666    1.247    0.198
        36  -9.8350    145.0469    147.0227   9.0515972115e+01   2.3279581336e+01    0.2870553    0.1669316  66.53  0.001037593    2.712    0.631
        37 -10.5493     41.4537    145.9552   1.1651072081e+02   4.0264926236e+01    0.4106067    0.2189352 -38.68  0.001850133    2.872    0.652
        38 -10.4203     84.6831    143.9810   1.0507190367e+02   3.5069790889e+01    0.3413154    0.2298806  76.00  0.001505724    1.791    0.442
        39 -10.9879    103.0307    140.8710   9.9700251277e+01   3.2773242331e+01    0.5795677    0.3577219 -29.13  0.002330069    2.570    0.611
        40 -12.4509     90.3440    141.1601   1.0307391410e+02   3.4844531506e+01    0.2849653    0.2638289 -60.01 0.0005194587    1.111    0.100
        41  -9.5321     38.7584    141.4106   1.1661381229e+02   4.1625270945e+01    0.2035482    0.1151806  39.36 0.0005648076    1.897    0.473
        42  -9.9469    174.9688    138.9827   8.1843533135e+01   1.8577893151e+01    0.2387973    0.1908158 -81.32 0.0006207164    1.664    0.399
        43 -11.4209     45.7834    136.3286   1.1409214205e+02   4.2082473366e+01    0.4462104    0.1661768 -62.28  0.001257418    2.208    0.547
        44  -9.3764    201.6768    169.3437   8.3002394452e+01   7.2897903092e+00    0.1378324    0.1159853 -85.68 0.0005086982    1.733    0.423
        45 -10.3297    111.9728    130.9771   9.5265222119e+01   3.3470266811e+01    0.3256036    0.2613889  12.57 0.0009529839    1.617    0.381
        46 -10.2585    106.0710    130.8145   9.6797856772e+01   3.4597474250e+01    0.3377226    0.2932746 -80.95  0.001242827    1.174    0.149
        47 -10.4211     32.3552    131.4966   1.1699173734e+02   4.4615495266e+01    0.2358449    0.1500199 -35.72  0.001254615    2.102    0.524
        48 -11.8593    136.0000    124.0138   8.7404732739e+01   3.0249647292e+01    0.8888487    0.2619371 -52.99  0.002314138    4.464    0.776
        49 -10.6806    160.4568    127.7726   8.2411969156e+01   2.4097389332e+01    0.3934102     0.153206 -41.11  0.001309006    2.611    0.617
        50 -10.2779    126.1529    128.0353   9.0886395964e+01   3.1383167828e+01    0.3579944    0.2381448 -83.65   0.00140102    2.387    0.581
        51 -11.6359    118.0082    125.2458   9.2357827912e+01   3.3643492733e+01    0.9637021      0.50776 -30.16  0.003250467    3.180    0.685
        52 -11.1494     98.8338    127.2880   9.7985136833e+01   3.6718184201e+01    0.3801398    0.2766263  28.41  0.001274904    1.612    0.380
        53  -9.4657     44.6714    169.3110   1.1846587924e+02   3.4486985144e+01    0.2147362    0.1053404 -81.52 0.0006346107    1.966    0.491
        54 -15.0162     46.3038    205.6722   1.2153948360e+02   2.6434381812e+01      2.34523    0.7904764  47.57  0.008414125    2.445    0.591
        55 -11.3511     22.8131    119.6202   1.1801010591e+02   4.8273948421e+01    0.2270524    0.1525358  57.77 0.0007509211    1.638    0.389
        56 -11.4424     29.4090    117.7836   1.1589470061e+02   4.8147601261e+01    0.2919145    0.1734119 -53.06  0.001604257    1.536    0.349
        57  -9.9057    108.0603    119.8259   9.3758250433e+01   3.6806588087e+01     0.211374    0.2073579 -71.58  0.000325753    1.038    0.036
        58 -10.4504    134.5590    105.3566   8.2941071410e+01   3.4670431675e+01    0.5554582    0.1505216 -44.27  0.001550518    3.620    0.724
        59  -9.7367    167.8932    112.7782   7.6891343850e+01   2.5507288418e+01    0.3053778    0.2050259 -67.33  0.001217742    2.087    0.521
        60 -11.7758    118.7128    108.9461   8.8118458484e+01   3.7227509396e+01    0.6713754    0.5475351 -66.23  0.003303595    1.318    0.241
        61  -9.9998    205.6125    110.1145   6.8467138989e+01   1.7228344402e+01    0.2771668    0.2215083  41.16 0.0006162924    1.313    0.239
        62 -11.6960     43.6791    109.1109   1.1027343204e+02   4.8839451883e+01    0.3261755    0.2830999 -60.38  0.001154963    1.068    0.064
        63  -9.6443     46.4458    166.4877   1.1775156031e+02   3.4925997358e+01    0.2084954    0.1649431  89.63  0.001319164    1.048    0.046
        64  -9.2799    205.2790    167.0645   8.1816670754e+01   6.9825434662e+00    0.3349371    0.1207807 -41.64  0.001211213    2.846    0.649
        65  -8.7939     93.5209    104.4029   9.4111833512e+01   4.3027114438e+01    0.1463513    0.1379215 -74.43 0.0002807504    1.076    0.070
        66  -9.0542    162.4306    167.4837   9.0828889632e+01   1.5468149969e+01    0.1446274    0.1382642  54.51 7.002531e-05    1.060    0.056
        67 -11.1394     51.4963     93.4806   1.0461582434e+02   5.1678153814e+01    0.4522741    0.2284496  49.70  0.001986401    2.620    0.618
        68 -10.8784     52.5229     90.5155   1.0359200936e+02   5.2248039761e+01    0.2565278    0.2179336 -33.17  0.001541317    1.202    0.168
        69  -9.1577    108.0690     93.0338   8.6760160880e+01   4.2900582366e+01    0.2418047     0.186879  85.64  0.001108362    1.785    0.440
        70 -10.0365     41.9135     91.9233   1.0742971964e+02   5.3082516096e+01     0.195479    0.1687349 -56.40 0.0004840257    1.030    0.029
        71  -8.9836    161.3003     88.6437   7.1703620985e+01   3.1879243739e+01    0.1649411    0.1235922 -71.53 0.0006529724    1.707    0.414
        72  -9.0274    184.4964     77.4416   6.3652380904e+01   2.8189481358e+01    0.1516233    0.1503421   6.51 0.0001160758    1.049    0.047
        73  -9.5830     58.4962     67.4718   9.5303383180e+01   5.6637072264e+01    0.2197359    0.1210337  44.90 0.0006508658    2.267    0.559
        74 -10.0291    113.9417    200.1008   1.0701678537e+02   1.7838611461e+01     0.265842    0.1783398  87.62  0.001295696    1.864    0.463
        75 -10.9523     13.4436     59.7402   1.1045057053e+02   6.2625497618e+01    0.2191264    0.1820296 -59.79  0.000440588    1.131    0.116
        76 -13.1360    189.5639     42.3425   5.2643031306e+01   3.2402781663e+01    0.8888863    0.6124245  36.98  0.001097792    1.734    0.423
        77 -14.3749     54.4274    195.3203   1.1899092938e+02   2.7593740365e+01     1.140069    0.9538748  57.94  0.007792437    1.197    0.164
        78 -11.3311    170.4998    233.3447   1.0039054188e+02   2.4540486430e+00    0.3226807    0.2567294  80.64  0.001380162    1.824    0.452
        79 -10.9064     11.9804     52.6769   1.0929993469e+02   6.4209855742e+01    0.1639856    0.1339592 -42.89 0.0006788141    1.080    0.074
        80 -10.6955    149.6274     45.5064   6.0796349102e+01   4.2206430713e+01      0.28644    0.2430657 -71.21 0.0005066932    1.336    0.252
        81 -11.1119     18.9756     33.2139   1.0028325221e+02   6.7595755075e+01    0.2222478    0.1349776  16.97  0.001063959    1.856    0.461
        82 -11.4945    148.4669     52.4078   6.3332016887e+01   4.1450897789e+01     0.522636    0.3529971 -79.47  0.001289516    2.241    0.554
        83  -8.9013    142.8267     17.6234   5.2609145861e+01   4.7456505404e+01    0.1905133    0.1282077  77.99 0.0003236354    1.614    0.380
        84  -9.7585    189.6853     14.9716   4.4771517124e+01   3.5735379124e+01    0.1902834     0.174734 -55.46 0.0006429813    1.113    0.101
        85 -17.0342      8.9285    242.8382   1.3032460055e+02   2.3458857506e+01     9.035341     2.010419 -79.04   0.01876558    4.042    0.753
        86 -16.6231      6.8926    208.3091   1.2905808542e+02   3.0078668859e+01     5.070356      1.16811 -68.27   0.02301593    3.572    0.720
        87  -8.7537    133.3274    208.2681   1.0411726578e+02   1.2973383452e+01    0.1247909    0.1005829  14.97 0.0002651271    1.575    0.365
