#   1 NUMBER                 Running object number                                     
#   2 MAG_AUTO               Kron-like elliptical aperture magnitude                    [mag]
#   3 X_IMAGE                Object position along x                                    [pixel]
#   4 Y_IMAGE                Object position along y                                    [pixel]
#   5 X_WORLD                Barycenter position along world x axis                     [deg]
#   6 Y_WORLD                Barycenter position along world y axis                     [deg]
#   7 A_WORLD                Profile RMS along major axis (world units)                 [deg]
#   8 B_WORLD                Profile RMS along minor axis (world units)                 [deg]
#   9 THETA_WORLD            Position angle (CCW/world-x)                               [deg]
#  10 FWHM_WORLD             FWHM assuming a gaussian core                              [deg]
#  11 ELONGATION             A_IMAGE/B_IMAGE                                           
#  12 ELLIPTICITY            1 - B_IMAGE/A_IMAGE                                       
         1 -10.2722    145.7387     22.0302   2.9031499533e+02   6.6278154495e+00   0.01502367   0.01169293 -50.57 0.0004034816    1.266    0.210
         2 -10.4845     24.6536     16.6929   2.9167019037e+02   7.4161865135e+00    0.0235515   0.01914333  58.95 0.0007168483    1.348    0.258
         3  -9.1282     31.3827     11.1400   2.9155861663e+02   7.4392188033e+00   0.02121881   0.01118012 -43.04   0.00175116    2.030    0.507
         4  -9.6531     64.0576     14.3389   2.9120352536e+02   7.2068206940e+00   0.02047408   0.01436902  -8.13  0.000811433    1.804    0.446
         5  -9.4523     74.5464     13.2070   2.9107621571e+02   7.1567562739e+00   0.02180513   0.01179319 -49.57  0.001621958    1.816    0.449
         6  -8.1604    146.7886     14.1380   2.9025402963e+02   6.7114531244e+00  0.009352161  0.008822666  76.73 0.0003978538    1.109    0.099
         7  -8.7156    135.2515     12.6633   2.9037702897e+02   6.7977893357e+00   0.01788238   0.00874692 -33.47  0.001050731    2.925    0.658
         8  -8.5497     97.3149     12.0982   2.9080827402e+02   7.0325753718e+00   0.01290907   0.01035425 -11.00  0.000772123    1.417    0.294
         9  -8.4924    157.2894     10.6927   2.9011241129e+02   6.6874058469e+00   0.01312777  0.008612497 -86.35  0.001269218    1.988    0.497
        10  -8.3372    106.0488     10.6876   2.9069941282e+02   6.9961262090e+00  0.009205164  0.008680278   4.04 0.0004711605    1.083    0.076
        11 -10.5189     20.2816      8.7123   2.9167100835e+02   7.5333760095e+00   0.01277757   0.01219345  34.24 0.0002958133    1.056    0.053
        12  -7.9725     39.3985      8.8192   2.9145226865e+02   7.4176575792e+00   0.00978175  0.005704216 -49.80 0.0009478146    1.683    0.406
        13  -8.4713      2.1046      7.9030   2.9187466727e+02   7.6513438008e+00   0.01369058   0.01142862 -83.01  0.001589581    1.305    0.234
        14  -8.8021    128.3265      7.0943   2.9042183074e+02   6.9029837578e+00   0.02137461  0.006600336 -49.71   0.00154147    3.115    0.679
        15  -7.4178    119.3481      7.2803   2.9052586564e+02   6.9549304061e+00  0.006847367  0.004968622 -21.77  0.000701199    1.642    0.391
        16  -8.9847     79.9584     12.6253   2.9101054805e+02   7.1308831032e+00   0.01533841    0.0126136  47.75 0.0009984359    1.261    0.207
        17  -8.2037     84.8466      5.4759   2.9091020017e+02   7.1830253880e+00   0.01269481  0.009484911 -60.96   0.00139272    1.329    0.248
        18  -8.9788     56.3945      4.6851   2.9123165962e+02   7.3628820801e+00    0.0201364    0.0122775 -20.37  0.001299335    2.338    0.572
        19 -10.0282     49.0954      4.6698   2.9131531200e+02   7.4068378918e+00   0.01359507   0.01106171 -33.73 0.0003707943    1.291    0.226
        20  -8.1020     12.8587      5.4509   2.9173604242e+02   7.6149885408e+00   0.01283764   0.00764649 -28.86  0.001170153    2.184    0.542
        21  -9.1162    110.7977      4.0687   2.9060394868e+02   7.0430036568e+00   0.01817994   0.01110067 -69.37  0.001363575    1.775    0.437
        22  -8.6241    125.1768      3.8862   2.9043802489e+02   6.9585190040e+00   0.01099497  0.009540356  22.48 0.0005897313    1.168    0.144
        23  -8.5597    153.8282      3.1650   2.9010534026e+02   6.7940641330e+00   0.00953877  0.008753511  66.07 0.0003096319    1.151    0.131
        24  -8.2373    182.1491      2.1590   2.8977488308e+02   6.6346164077e+00  0.009754222  0.008663121 -22.44 0.0003803856    1.183    0.155
        25  -8.0395    143.1145      2.1028   2.9022145511e+02   6.8707658861e+00  0.009588584  0.009514035 -29.39 0.0003364634    1.003    0.003
        26  -8.6260     68.9251      3.8146   2.9108251545e+02   7.2976010675e+00   0.01920451  0.007582957 -50.22  0.001562661    2.443    0.591
        27  -7.8001      3.0971      1.2875   2.9182236465e+02   7.7208459388e+00  0.009307158  0.005448594  36.81 0.0003784465    1.687    0.407
        28  -7.4794    204.6345    230.7368   2.9093219778e+02   3.8908301215e+00  0.006815078  0.004977014 -19.01 0.0004239788    1.645    0.392
        29  -8.2950    249.1294    250.1056   2.9054410326e+02   3.4019037794e+00   0.01060249  0.008797877 -26.50  0.001220409    1.296    0.229
        30  -9.4829    213.4498    250.3693   2.9095264096e+02   3.6136423281e+00   0.01968633  0.007073997  31.71  0.001547189    2.634    0.620
        31 -10.0024    200.3984    249.0685   2.9109353552e+02   3.7070119723e+00   0.02165883   0.01462088  -8.13  0.001389438    1.954    0.488
        32  -8.9911    151.0879    249.5805   2.9165957588e+02   3.9976086692e+00    0.0127342  0.008365844   7.97  0.001256963    1.852    0.460
        33  -7.8144    123.5553    250.5006   2.9197967797e+02   4.1524395414e+00   0.01124492   0.00655872  10.92  0.001016645    2.180    0.541
        34  -8.3513    194.9862    229.0215   2.9103174618e+02   3.9684751089e+00   0.01062189  0.007611803 -26.23 0.0005891714    1.631    0.387
        35  -9.2255    236.6455    226.5024   2.9054084359e+02   3.7464493635e+00   0.02286832  0.008446418 -41.29  0.001590895    3.548    0.718
        36  -7.1426    133.6604    228.7289   2.9173029369e+02   4.3405108340e+00  0.006764286  0.004979696 -21.32 0.0004666226    1.605    0.377
        37  -8.9197    247.3378    225.3249   2.9041162783e+02   3.6954862590e+00   0.01722237  0.009883286 -43.16  0.001393238    1.834    0.455
        38  -7.6401    229.8835    226.4397   2.9061759160e+02   3.7878872540e+00   0.01139884  0.007359773 -55.56 0.0008847501    1.505    0.336
        39  -8.5655    187.0663    226.6483   2.9110752676e+02   4.0432254886e+00  0.009454643  0.008724712  10.34 0.0006389975    1.110    0.099
        40  -7.5839     70.1231    225.8665   2.9243885224e+02   4.7544393265e+00  0.009546568  0.007626067 -27.36  0.001070228    1.368    0.269
        41  -7.7550    223.5227    224.9702   2.9068109403e+02   3.8429638486e+00  0.009746644   0.00475991 -39.88 0.0008082503    2.405    0.584
        42  -8.2057     47.9461    223.6045   2.9267851482e+02   4.9131314014e+00   0.01079402  0.008526425 -46.21 0.0004898923    1.263    0.208
        43  -8.0161      4.9923    234.4748   2.9323633756e+02   5.0457546263e+00  0.009229274  0.005666055  -8.56 0.0006060527    2.422    0.587
        44  -7.0662    206.3843    222.3009   2.9086020147e+02   3.9766177320e+00  0.007112321  0.004919601 -22.44 0.0007019516    1.781    0.439
        45  -7.4671    175.3753    228.1835   2.9125047212e+02   4.0960158904e+00  0.008620114   0.00630771 -76.46 0.0002763341    1.513    0.339
        46  -7.3593     51.6283    221.7132   2.9262479637e+02   4.9127029590e+00  0.006980512  0.004946999 -21.75 0.0007019665    1.712    0.416
        47  -8.2625    182.4747    219.9239   2.9111849610e+02   4.1476436132e+00   0.01264469  0.009287966  -0.37  0.001338592    1.624    0.384
        48  -7.8190    130.4861    220.5043   2.9171592921e+02   4.4535472189e+00  0.006477306  0.006444195 -56.28 0.0008104959    1.010    0.010
        49  -7.3315    217.4638    219.5427   2.9071674140e+02   3.9414059035e+00  0.006471801  0.006411198  72.78 0.0008078554    1.027    0.026
        50  -7.7042    173.2666    219.1759   2.9121903614e+02   4.2115771724e+00   0.01101377   0.00619506 -26.24  0.000683387    2.594    0.615
        51  -7.2350    114.6545    219.6926   2.9189185424e+02   4.5578920229e+00  0.007006223  0.004935841 -24.65 0.0006561617    1.697    0.411
        52  -7.9364    227.4882    217.4838   2.9058965204e+02   3.9045433530e+00  0.006511524   0.00640718 -33.42 0.0001586747    1.008    0.008
        53  -8.9482    246.5615    216.0675   2.9036333130e+02   3.8058132770e+00   0.01213634   0.01156173 -68.49 0.0003520801    1.057    0.054
        54  -8.9200    248.0344    211.7668   2.9031997594e+02   3.8460205286e+00   0.01568939   0.01098017  -9.30  0.001178987    1.820    0.451
        55  -7.4856    203.7179    216.6029   2.9085548824e+02   4.0577277520e+00  0.007191641  0.004722699 -32.62 0.0005749797    1.765    0.433
        56  -8.1804    193.8120    215.4001   2.9096115364e+02   4.1310850802e+00   0.01283795  0.009370494 -16.21  0.001186317    1.663    0.399
        57  -7.3850    210.3774    215.3101   2.9077149900e+02   4.0323962665e+00  0.007141886  0.004910919 -23.41 0.0007028322    1.788    0.441
        58  -7.5414    179.3851    214.8640   2.9112257877e+02   4.2240187783e+00  0.009348786  0.005765509 -49.86 0.0005472316    1.594    0.373
        59  -7.1238     84.0120    215.0000   2.9221326436e+02   4.7953791545e+00   0.01079913  0.003743531  27.70  0.000797097    2.906    0.656
        60  -8.0923    122.1159    213.3333   2.9176743107e+02   4.5857558041e+00   0.01051088  0.008230504   0.88 0.0007961679    1.451    0.311
        61  -7.5019    169.8109    212.3880   2.9121665976e+02   4.3098920075e+00  0.009127113  0.006349397  10.55 0.0005018845    1.650    0.394
        62  -7.7016      3.3278    212.6426   2.9312152590e+02   5.3053039140e+00  0.007105326  0.004939877  65.17 0.0007044216    1.782    0.439
        63  -7.7706    232.7617    211.2455   2.9049097705e+02   3.9439876750e+00  0.009241112  0.007512914 -24.00 0.0006871873    1.350    0.259
        64  -7.9649    186.3569    210.3104   2.9101488372e+02   4.2340745029e+00   0.01045259  0.007259093 -27.34 0.0006949205    1.703    0.413
        65  -7.6609     54.6402    210.7003   2.9252269746e+02   5.0205533977e+00  0.007014406  0.004937672 -23.43 0.0005268841    1.714    0.417
        66  -7.7009    163.1726    207.8489   2.9126450385e+02   4.4016646324e+00  0.009125425  0.007581037 -20.15  0.000493996    1.320    0.242
        67  -8.1470    246.7295    205.4761   2.9029601001e+02   3.9256767701e+00   0.01432223  0.006812328 -49.58  0.001264576    2.060    0.514
        68  -8.0538    215.8466    205.5347   2.9064874861e+02   4.1110678685e+00   0.01299669  0.009027286  -9.18  0.001003364    1.847    0.459
        69  -9.1888    124.0063    206.0063   2.9170070371e+02   4.6581216047e+00  0.009138909  0.009080036 -10.08  -0.01509786    1.008    0.008
        70  -7.3320    148.5156    204.9958   2.9141437541e+02   4.5223869498e+00  0.009726109  0.004766681 -39.85 0.0008081941    2.395    0.582
        71  -8.0499    117.5786    205.1308   2.9176878525e+02   4.7067298611e+00   0.01281582  0.008696807   0.61 0.0008242325    1.863    0.463
        72  -7.0087    205.6330    204.6967   2.9076016178e+02   4.1821431738e+00  0.007064351  0.004933249 -23.24 0.0007034917    1.742    0.426
        73  -8.1333    250.5279    199.5137   2.9021585446e+02   3.9708280703e+00   0.01401697  0.006361092 -60.67  0.001207322    2.162    0.538
        74  -7.9172    229.2038    199.4257   2.9045859098e+02   4.1003440598e+00   0.01234246  0.007548626 -47.28  0.001227574    1.636    0.389
        75  -7.6378    196.0639    200.4945   2.9084348152e+02   4.2877395892e+00   0.01033914  0.006514016  26.53  0.001038935    1.609    0.379
        76  -7.5908    185.0082    199.9765   2.9096653766e+02   4.3602061436e+00   0.01067933  0.007600104 -26.73 0.0009806177    1.644    0.392
        77  -8.1616    243.5273    198.6875   2.9029060582e+02   4.0224529133e+00   0.01254705  0.005883706 -54.86   0.00106007    2.024    0.506
        78  -7.2455     99.6780    199.2859   2.9193745096e+02   4.8809854458e+00  0.006783365   0.00494139  60.71 0.0005473932    1.598    0.374
        79  -7.3820     42.4726    198.4967   2.9258688020e+02   5.2329128791e+00  0.006512632  0.006395332 -36.25  0.000810027    1.010    0.010
        80  -8.4090    166.0311    197.1748   2.9116602748e+02   4.5063940605e+00   0.01325475   0.00926012  -2.63 0.0008314408    1.796    0.443
        81  -8.0289    236.6700    194.8781   2.9034530830e+02   4.1072603285e+00   0.01346093  0.007095614 -46.48  0.001237216    1.927    0.481
        82  -7.2433      1.5374    194.4930   2.9303065463e+02   5.5235003849e+00  0.006518536  0.006374582 -36.45 0.0008094122    1.015    0.015
        83  -7.4300     47.9832    205.5255   2.9256703778e+02   5.1195736103e+00  0.009404078  0.005694137  -7.50 0.0008095601    2.505    0.601
        84  -7.5486     90.2268    192.3492   2.9200282572e+02   5.0169731957e+00  0.009633491  0.005728616  37.63 0.0009424933    1.667    0.400
        85  -8.0956    193.3017    193.9104   2.9083438914e+02   4.3795544034e+00    0.0171802  0.008198529 -36.18   0.00136616    2.795    0.642
        86  -7.5587    246.3503    190.3181   2.9020669301e+02   4.1009539591e+00  0.007084462  0.004918438 -25.07 0.0004853614    1.737    0.424
        87  -7.8270    225.0000    188.9536   2.9044188715e+02   4.2452143524e+00   0.01078715  0.003717685 -61.59 0.0005153906    2.881    0.653
        88  -7.9303    190.8049    189.3501   2.9083475430e+02   4.4466620219e+00   0.01022137  0.007657947  47.65 0.0004533768    1.400    0.285
        89  -7.7725     64.9414    189.5113   2.9227458625e+02   5.2010342263e+00  0.009812688  0.006531361  25.10 0.0005686873    1.535    0.348
        90  -7.5897    148.9803    185.4999   2.9128886345e+02   4.7423092500e+00  0.009002479  0.005653368  -9.80 0.0006999298    2.301    0.565
        91  -7.6615    231.4614    184.4882   2.9034055601e+02   4.2572447677e+00  0.006598769  0.006303073 -30.78 6.406404e-05    1.051    0.049
        92  -7.6127    217.4913    184.4551   2.9049980956e+02   4.3418134244e+00  0.006557667  0.006339805 -26.96 6.975769e-05    1.037    0.036
        93  -7.2813    139.6736    184.6863   2.9139022492e+02   4.8075616536e+00  0.006967071  0.004928979 -26.17 0.0007042678    1.667    0.400
        94  -7.6688    130.3360    183.2887   2.9148835670e+02   4.8796547746e+00  0.006858754  0.004964774 -23.48 0.0007019754    1.633    0.388
        95  -7.6087    249.9956    182.0561   2.9011404569e+02   4.1732623355e+00   0.00788324  0.007586726 -56.22 0.0004517714    1.031    0.030
        96  -7.4061    224.5261    180.4676   2.9039487028e+02   4.3449393155e+00  0.006569138   0.00633255 -29.26 0.0002157389    1.040    0.038
        97  -7.2162     93.6550    179.6678   2.9188552362e+02   5.1413252181e+00  0.007144522  0.004888277 -26.36 0.0007050121    1.760    0.432
        98  -7.5392     96.5626    178.4579   2.9184481043e+02   5.1377009030e+00  0.006570536  0.006277547 -31.96 3.427383e-05    1.050    0.047
        99  -7.9513    191.4114    174.6987   2.9073736482e+02   4.6103148936e+00   0.01148122   0.00808956  -4.75  0.001075644    1.782    0.439
       100  -7.5795     46.7899    175.4315   2.9239566042e+02   5.4707140516e+00  0.009173084  0.006440538   9.86 0.0009459612    1.635    0.389
       101  -7.7994    148.9343    174.5499   2.9122183972e+02   4.8676706822e+00  0.009398879   0.00569077  -7.10 0.0008079067    2.509    0.602
       102  -7.8448     14.7952    170.3779   2.9273079798e+02   5.7199420061e+00  0.009608513  0.006343089  11.49 0.0009545673    1.767    0.434
       103  -7.4305    105.3588    169.2879   2.9168768436e+02   5.1896756276e+00  0.006942258  0.004958374 -22.27 0.0004325885    1.683    0.406
       104  -7.7750    199.0363    166.9371   2.9060232556e+02   4.6530077028e+00   0.01102168  0.007623765 -26.86  0.001121315    1.722    0.419
       105  -8.0026    168.5401    163.7510   2.9093108619e+02   4.8730445683e+00   0.01526469  0.007870897 -32.73  0.001250676    2.678    0.627
       106  -7.6891    122.9594    162.5386   2.9144474513e+02   5.1610536517e+00   0.00910248  0.005661325  -8.92 0.0006810473    2.353    0.575
       107  -7.6211    160.0010    160.3667   2.9100779156e+02   4.9630924275e+00   0.01390461  0.006003745 -45.73  0.001139406    2.430    0.588
       108  -7.8061    177.2223    167.5862   2.9085554927e+02   4.7769774298e+00  0.009414791   0.00641802  10.41 0.0009519382    1.705    0.413
       109  -7.8715    138.7850    158.3920   2.9123817106e+02   5.1132828662e+00  0.009068223  0.006387458  12.53  0.000940952    1.593    0.372
       110  -7.8683    196.6659    153.6708   2.9054742340e+02   4.8187537376e+00  0.007083537  0.004902788 -26.65 0.0007051992    1.723    0.420
       111  -7.6556    107.4052    152.1662   2.9155869660e+02   5.3730119895e+00  0.008794042  0.006380506 -78.01 0.0003953866    1.550    0.355
       112  -7.5094    168.9646    151.7442   2.9085207618e+02   5.0076078192e+00  0.008473205  0.005686912  26.06 0.0008725474    1.513    0.339
       113  -7.9724    133.4160    147.7286   2.9123375424e+02   5.2673753412e+00   0.01132035  0.008178269 -10.54  0.001172774    1.711    0.415
       114  -9.5438     67.0264    144.5123   2.9197363939e+02   5.7028076239e+00   0.02330372   0.01619981  62.07  0.001972236    1.742    0.426
       115  -9.2141    134.6214    137.3072   2.9115561766e+02   5.3791595932e+00   0.01153655   0.01111167 -26.53 0.0002768639    1.043    0.041
       116  -7.4276    107.0372    137.4577   2.9147215718e+02   5.5432563196e+00   0.01012536  0.006544724  23.66 0.0008285404    1.602    0.376
       117  -7.9777     54.9917    135.2032   2.9205406241e+02   5.8813254932e+00   0.01110344  0.007378296 -14.37  0.001068887    2.007    0.502
       118  -8.5161      4.8999    134.1552   2.9262135257e+02   6.1931148222e+00   0.01761175  0.009937637 -12.98  0.001400682    3.082    0.676
       119  -8.4942     23.1537    130.1938   2.9238785589e+02   6.1292241479e+00   0.01974746    0.0111898   1.89  0.001658177    2.716    0.632
       120  -7.7334     67.6626    126.7114   2.9185660952e+02   5.9023831444e+00  0.006862487  0.004960899 -23.45 0.0002944813    1.636    0.389
       121  -8.3754    132.3084    122.9743   2.9109354430e+02   5.5567658585e+00   0.01877958   0.01022387  87.20 0.0006338604    3.554    0.719
       122  -9.1680     13.8107    120.0490   2.9243242342e+02   6.3010346788e+00   0.02322773   0.01314532 -22.79  0.001950255    2.716    0.632
       123  -7.2892     84.6681    121.6988   2.9163096166e+02   5.8576131954e+00  0.006916236  0.004945791 -24.89 0.0003385856    1.651    0.394
       124  -7.7915    119.4953    118.8524   2.9121470401e+02   5.6808960086e+00   0.01208819  0.007645237  -4.27  0.001111646    2.224    0.550
       125  -9.9151    245.0296    116.9149   2.8976769365e+02   4.9464909171e+00   0.01570342   0.01208841  43.77 0.0004959574    1.329    0.248
       126  -7.3083    193.2969    112.3538   2.9033039443e+02   5.3107000436e+00  0.007057143  0.004839695 -30.31 0.0005936517    1.693    0.409
       127  -7.4641    142.6587    111.6785   2.9090530779e+02   5.6234746716e+00  0.007069533  0.004914445 -25.79  0.000705036    1.722    0.419
       128  -8.6617      1.9666    110.1716   2.9250732249e+02   6.4847020228e+00   0.01418805  0.008715527 -26.74  0.001318471    2.127    0.530
       129  -8.1428    133.9895    106.5028   2.9097250913e+02   5.7347405639e+00   0.01512586  0.006693677 -45.21  0.001255039    2.390    0.582
       130  -8.0434    124.1309    107.2906   2.9109020779e+02   5.7850521425e+00   0.01068689  0.008060316  -9.33 0.0007556457    1.580    0.367
       131  -7.3275     33.3307    107.7206   2.9213278430e+02   6.3250814049e+00  0.006796777  0.004914875  59.54   0.00039568    1.603    0.376
       132  -9.0922     13.6379    106.1883   2.9234901791e+02   6.4604318407e+00   0.01575322   0.01059959 -18.40  0.001183959    1.920    0.479
       133  -8.5727     17.7587    103.3696   2.9228441907e+02   6.4679845641e+00   0.01261098  0.008379863  16.09 0.0007472333    1.666    0.400
       134  -7.5404    109.0120    106.5103   2.9125845292e+02   5.8848643728e+00  0.009254882  0.005683561  -8.25 0.0008085625    2.426    0.588
       135  -7.2146    190.5040    103.5438   2.9030779355e+02   5.4280860353e+00  0.006698833  0.006193005 -26.72 0.0006042104    1.107    0.096
       136  -7.5381     93.5080    103.5143   2.9141746598e+02   6.0122349606e+00  0.006658819  0.006254958 -28.41 5.096197e-07    1.078    0.073
       137  -8.1719    246.3210    101.3355   2.8965645183e+02   5.1163953693e+00  0.007059645  0.004891112 -27.73 0.0007050007    1.706    0.414
       138  -7.6124    129.8596     97.3523   2.9096319938e+02   5.8640639110e+00   0.00965112   0.00625616  11.70 0.0009456254    1.816    0.449
       139  -9.5276      9.2222     96.2152   2.9233817155e+02   6.6007675773e+00   0.02430859   0.01257094  15.99   0.00210224    2.394    0.582
       140  -9.5340     19.4420     93.5804   2.9220477767e+02   6.5697354070e+00   0.02176226  0.009646686 -47.41  0.001849074    2.280    0.561
       141  -8.6185     44.3901     91.6844   2.9190713174e+02   6.4420136104e+00   0.01781017   0.01114418 -25.85  0.001682375    2.077    0.519
       142  -8.2390    109.1877     91.1255   2.9116136093e+02   6.0594821704e+00   0.01643887  0.008965207   3.15  0.001317443    2.957    0.662
       143  -8.1974     96.5679     90.4518   2.9130171749e+02   6.1430171371e+00   0.01806399    0.0107352 -10.24  0.001544718    2.654    0.623
       144  -8.6897     67.3796     85.9234   2.9160811678e+02   6.3699677630e+00   0.02956942   0.01173552  15.68  0.001948336    4.176    0.761
       145  -9.4848     35.7798     81.9064   2.9194547914e+02   6.6052633863e+00   0.02810032   0.01414941 -29.44  0.002144088    3.133    0.681
       146  -7.5018    126.6827     83.6709   2.9091495159e+02   6.0393639232e+00  0.007013174  0.004898549 -27.70 0.0005967419    1.682    0.405
       147  -8.5957     89.5484     78.5284   2.9130842670e+02   6.3213203611e+00   0.01952239   0.01210662   4.27  0.001825185    2.146    0.534
       148  -9.4226      8.5241     76.8396   2.9222671312e+02   6.8262366183e+00   0.02424578   0.01409011 -26.91  0.001424475    2.372    0.578
       149  -7.8566    184.4844     77.9993   2.9021845227e+02   5.7558651488e+00  0.009846174  0.006364333 -59.02 0.0004817382    1.518    0.341
       150  -8.7970     48.7373     76.7560   2.9176515016e+02   6.5864405712e+00   0.01753951   0.01379373 -42.74  0.001597967    1.287    0.223
       151  -9.7964     24.8188     72.4194   2.9201259258e+02   6.7792240325e+00   0.03933053   0.01959985 -27.30  0.002906889    3.495    0.714
       152  -8.1642     23.4528     69.5018   2.9201024772e+02   6.8207141322e+00   0.01188313  0.009602136 -37.03 0.0005250539    1.282    0.220
       153  -7.8438     75.0415     74.5189   2.9144985975e+02   6.4542043488e+00  0.009834367  0.006543477  24.10 0.0005718686    1.546    0.353
       154  -8.1912     80.4751     68.0335   2.9134750671e+02   6.4956194581e+00    0.0122716  0.008757795 -41.43 0.0004023128    1.449    0.310
       155  -8.5950     84.2589     63.9512   2.9127890690e+02   6.5194945608e+00   0.01855636   0.01161863 -10.09  0.001289378    2.315    0.568
       156  -8.1662     61.8580     67.1584   2.9155546561e+02   6.6173417011e+00   0.01152243  0.009391999 -58.26 0.0006229405    1.211    0.174
       157  -9.6035     65.0563     61.2553   2.9148232095e+02   6.6655398757e+00    0.0227596   0.01618563  -9.46  0.002354456    1.760    0.432
       158  -8.9331     43.8041     67.6831   2.9176567100e+02   6.7195962124e+00   0.01733519   0.01079227  -9.68   0.00157179    2.343    0.573
       159  -7.8036    106.4561     67.0642   2.9104384760e+02   6.3505744435e+00  0.009490327  0.004812541 -39.32 0.0008043818    2.309    0.567
       160  -9.4595     17.7279     62.1711   2.9203065205e+02   6.9386697831e+00   0.02277105   0.01357187 -42.81  0.001830215    1.761    0.432
       161  -7.5562    147.4652     63.7785   2.9055392475e+02   6.1412624758e+00  0.009321565  0.005818989 -47.69 0.0009293056    1.597    0.374
       162  -9.0016     51.2082     60.6837   2.9163754265e+02   6.7551211185e+00   0.01916526   0.01535373  65.31  0.002169919    1.414    0.293
       163 -10.7199     38.1200     57.7482   2.9176947642e+02   6.8670691722e+00   0.02799608   0.01754893 -13.30  0.002574039    2.293    0.564
       164  -7.2595    122.3210     61.3598   2.9082683720e+02   6.3202479954e+00  0.007186657  0.004832577 -28.88 0.0003402211    1.770    0.435
       165  -9.5571      2.8612     55.7483   2.9216153634e+02   7.1009073434e+00   0.03188283    0.0166632 -50.68  0.002988385    1.860    0.462
       166  -8.2758     98.9558     55.1553   2.9105608999e+02   6.5315747249e+00   0.02093416  0.007881065 -44.41   0.00156944    2.978    0.664
       167  -8.1174    197.0048     55.1552   2.8993371650e+02   5.9408758497e+00  0.009382208   0.00909816 -51.70 0.0004137053    1.022    0.021
       168  -9.5168     74.9227     50.6475   2.9130363147e+02   6.7273932981e+00   0.02179259   0.01324523 -28.88 0.0005231834    2.107    0.525
       169  -8.0035    118.5010     51.3534   2.9080864356e+02   6.4574092649e+00   0.01083665  0.006200857  27.51 0.0004619693    1.761    0.432
       170 -10.3278     45.2746     49.0847   2.9163389634e+02   6.9230810160e+00   0.01355575   0.01177119 -23.63 0.0005887372    1.220    0.180
       171  -9.6872     10.5709     47.1974   2.9202029977e+02   7.1524107925e+00   0.02980983   0.01756925 -22.72   0.00192267    2.456    0.593
       172  -8.3574    106.8365     48.1157   2.9092222639e+02   6.5645163891e+00  0.009403578  0.008784255  68.48  0.001154563    1.123    0.110
       173  -9.6318     23.9873     47.4930   2.9186821391e+02   7.0687582992e+00   0.02454752   0.01378504  10.59  0.001935989    2.344    0.573
       174  -9.2019     30.4056     44.7922   2.9177790411e+02   7.0611532831e+00   0.02120943   0.01307431  -3.72  0.001923291    2.345    0.574
       175  -9.1970      2.0384     45.4343   2.9210730924e+02   7.2235541081e+00   0.01660927   0.01127522 -39.41  0.001314157    1.564    0.361
       176  -9.2411      6.5854     34.4255   2.9198714694e+02   7.3220003781e+00   0.02168666   0.01448251 -26.65  0.002176105    1.826    0.452
       177 -10.1063     83.2337     40.0355   2.9114270537e+02   6.7985707280e+00   0.01353409   0.01143199  -7.32  0.001578336    1.298    0.230
       178  -8.4893     94.3956     42.1931   2.9102812380e+02   6.7068861039e+00   0.02211146  0.008285313  21.82  0.001605753    3.261    0.693
       179  -8.9463     38.0341     41.8623   2.9167229528e+02   7.0488941862e+00   0.01661384  0.009159856  26.94  0.001579042    1.837    0.456
       180  -8.2046    250.5828     40.9876   2.8923357662e+02   5.7785951342e+00  0.009680512  0.006356682 -61.62 0.0009933903    1.516    0.340
       181  -7.9838     43.2459     40.2505   2.9160255311e+02   7.0360565831e+00   0.01403306  0.007431819  37.06  0.001314081    1.856    0.461
       182  -8.3702     46.6803     38.6767   2.9155343131e+02   7.0334286609e+00   0.01062052  0.008385203  -5.25 0.0009059236    1.450    0.310
       183  -9.7007     17.7640     38.3687   2.9188323909e+02   7.2101347247e+00   0.02416281   0.01300701 -26.85   0.00197228    2.837    0.647
       184  -8.5285    106.5685     36.7133   2.9085469739e+02   6.6962088108e+00   0.01724363   0.01009842 -28.20  0.001547909    2.290    0.563
       185  -9.2323     91.6706     37.1022   2.9102784143e+02   6.7813416982e+00   0.01893623   0.01257033   6.25  0.001236883    1.851    0.460
       186  -9.0853     96.0587     33.3327   2.9095420884e+02   6.7979667987e+00   0.01337025   0.01108954   3.34 0.0003765077    1.313    0.239
       187  -8.7574     68.1930     36.1691   2.9129121677e+02   6.9329957932e+00   0.01813348   0.01042549  35.92  0.001775884    1.711    0.415
       188  -9.2594     54.8088     36.4906   2.9144668650e+02   7.0096321283e+00   0.01524083   0.01252699   5.65  0.001757152    1.321    0.243
       189  -8.7066     37.1962     35.8940   2.9164501206e+02   7.1220177724e+00   0.01822618    0.0117006  -0.74  0.001540831    2.096    0.523
       190  -9.1899     76.2579     34.4157   2.9118789660e+02   6.9045806997e+00     0.026795   0.01064669  30.82  0.002207523    2.426    0.588
       191  -8.1393    105.0072     31.6954   2.9084151221e+02   6.7628364501e+00   0.00930125   0.00871361  11.57  0.000597196    1.086    0.079
       192  -7.2463    143.6670     33.7537   2.9041139680e+02   6.5066278207e+00  0.006579054  0.004981978 -17.92  0.000227598    1.550    0.355
       193  -8.2701    127.8034     30.3263   2.9057184186e+02   6.6412652625e+00   0.01060711   0.00899471 -48.48 0.0002959901    1.167    0.143
       194  -8.1226    112.2582     30.0986   2.9074853005e+02   6.7374286707e+00   0.01635356   0.01016368  -6.75  0.001479983    2.346    0.574
       195  -9.0639      1.5036     29.9517   2.9201782986e+02   7.4034308594e+00   0.01584669  0.007153198 -59.28  0.001371138    2.136    0.532
       196  -7.3334    184.3856     27.5164   2.8990665197e+02   6.3321595321e+00  0.006483986  0.006258081 -53.24 0.0001299747    1.027    0.026
       197  -8.1066    153.1359     26.8622   2.9026025407e+02   6.5281367466e+00  0.009229813   0.00765202 -20.74 0.0005734346    1.322    0.244
       198 -10.1481     72.5279     25.6993   2.9117671292e+02   7.0264083410e+00   0.02680751   0.01302399  24.96 0.0009099116    2.154    0.536
       199  -9.3684     61.9711     26.9779   2.9130569164e+02   7.0751895169e+00   0.02603869   0.01269376 -41.87  0.002032058    2.292    0.564
       200  -8.6401     57.4689     25.4608   2.9134794043e+02   7.1195071826e+00   0.01318401   0.01193799  18.30 0.0009358217    1.122    0.109
       201  -8.6205     60.2390     22.9880   2.9130086474e+02   7.1310932223e+00   0.01090367   0.01012807 -77.43 0.0002069051    1.107    0.097
       202 -10.8830     48.2241     25.5331   2.9145443011e+02   7.1741261520e+00   0.01411084     0.012331  17.14 0.0004071414    1.173    0.148
       203  -8.5670     45.5441     20.0843   2.9145146346e+02   7.2523456518e+00   0.01445762  0.008204404 -64.19  0.001383115    1.801    0.445
       204  -7.3125    123.7242     26.6696   2.9059591210e+02   6.7075263540e+00  0.006843083   0.00485262 -31.08 0.0002941657    1.596    0.373
       205  -7.7170    102.4445     25.4601   2.9083225968e+02   6.8493629796e+00  0.006541712  0.006310982 -31.71 0.0002583603    1.036    0.034
       206  -7.1563    155.6724     30.7201   2.9025513314e+02   6.4688589802e+00  0.006764345  0.004972402 -22.89 0.0002281158    1.598    0.374
       207  -9.2527     83.9254     22.0243   2.9102327146e+02   6.9998674479e+00   0.02231343   0.01420054   3.71  0.001052299    2.052    0.513
       208  -7.6651    150.6257     23.2379   2.9026652199e+02   6.5845888268e+00  0.006833015  0.004737831  53.71 0.0006920663    1.618    0.382
       209  -8.0741     73.7937    247.4367   2.9252938653e+02   4.4859051293e+00  0.009170423  0.006415894   8.15 0.0007559215    1.668    0.401
       210  -7.7855     18.4793    247.5447   2.9316224728e+02   4.8157370738e+00  0.006491329   0.00638895 -29.89 9.498615e-05    1.011    0.011
       211  -8.5518    249.2668    245.2318   2.9051247346e+02   3.4566931165e+00    0.0155613  0.005914925 -63.79  0.001196569    2.763    0.638
       212  -7.1964    133.2622     19.6419   2.9044308595e+02   6.7302183544e+00  0.006725011  0.005029627  72.13 0.0006980413    1.628    0.386
       213  -8.5444     92.2134     20.6294   2.9091961263e+02   6.9659670143e+00   0.01267069   0.01224067  54.38  0.001179039    1.058    0.055
       214  -9.9707      8.7963     20.0647   2.9187303405e+02   7.4726194435e+00   0.01692371   0.01224674  37.84 0.0003825354    1.383    0.277
       215  -8.4022     12.3663     18.3297   2.9182133261e+02   7.4710549645e+00   0.01142794   0.01010246  21.22 0.0007282048    1.147    0.128
       216  -7.9639    116.7830     20.0569   2.9063446050e+02   6.8247119282e+00   0.00850285   0.00534734 -63.10 0.0008460527    1.601    0.375
       217  -7.4623    131.0020     21.7873   2.9048227801e+02   6.7193722930e+00  0.009374158  0.006370207   9.24 0.0003284023    1.732    0.423
       218  -7.4495    161.6248     19.1259   2.9011508991e+02   6.5651399513e+00  0.009176343  0.005691115 -48.74 0.0004092721    1.596    0.374
       219  -8.2183    127.6981     16.9312   2.9049002330e+02   6.7946349288e+00   0.01054293  0.008891497   7.60 0.0004037398    1.266    0.210
       220  -8.9215    243.1781    244.9512   2.9058016590e+02   3.4965548312e+00   0.01753622  0.008330656 -55.27   0.00156852    2.001    0.500
       221  -7.4458    189.4857     15.9966   2.8977682539e+02   6.4326538236e+00  0.009058324  0.005718651  82.29 0.0008072136    2.351    0.575
       222  -8.4941     50.2472     15.3935   2.9136847936e+02   7.2776474289e+00   0.01254317   0.00973582 -26.51 0.0007573543    1.432    0.302
       223  -7.8530     32.2099    247.5755   2.9300549430e+02   4.7332811407e+00  0.009345403    0.0064449  10.82 0.0006725005    1.666    0.400
       224  -8.2212    218.7780    244.8245   2.9085767612e+02   3.6448775788e+00   0.01040891  0.008775915 -31.01 0.0008508236    1.246    0.198
       225  -8.3613    183.1637    250.3903   2.9129836819e+02   3.7955699321e+00    0.0097199  0.005760981  39.45 0.0007987252    1.688    0.408
       226  -9.4387    157.9208    244.5339   2.9155048962e+02   4.0141973087e+00   0.01739072    0.0104984  -5.04  0.001334399    2.501    0.600
       227  -7.9677    121.6779     14.6218   2.9054468374e+02   6.8572134318e+00  0.007274513  0.004785193 -29.37 0.0007025065    1.826    0.452
       228  -9.0304    234.4644    243.3768   2.9066982380e+02   3.5669830968e+00     0.016889   0.01074994 -12.75  0.001302251    2.223    0.550
       229  -9.7869    192.9053    243.6060   2.9114538928e+02   3.8144559015e+00   0.01471466   0.01234595  11.81 0.0008383076    1.257    0.205
       230  -8.8691    176.3760    243.8018   2.9133527026e+02   3.9116228040e+00  0.009974799  0.005614494 -50.13 0.0008858097    1.740    0.425
       231  -8.0840     95.7698    243.4193   2.9225358431e+02   4.4000735893e+00  0.008878102  0.006426787  10.80 0.0005827543    1.552    0.356
       232  -9.4261    170.5737    239.6379   2.9137586756e+02   3.9940644067e+00   0.01742742   0.01033332 -37.51  0.001011105    1.916    0.478
       233  -7.4650     25.5127    240.9913   2.9304167971e+02   4.8486034678e+00  0.009463889  0.004828323 -39.29 0.0005805671    2.292    0.564
       234  -8.3921    249.2297    238.9992   2.9047444423e+02   3.5280392893e+00    0.0137497   0.01071253 -46.98   0.00155352    1.277    0.217
       235  -7.5320    202.0000    239.9554   2.9101909672e+02   3.8014271805e+00   0.01072938  0.003717605 -61.63 0.0007913163    2.866    0.651
       236  -7.4927    214.3274    239.3161   2.9087449083e+02   3.7345454252e+00  0.006983038  0.004924924 -26.23 0.0003594848    1.675    0.403
       237  -9.1880    242.0450    236.6149   2.9054166027e+02   3.5985157187e+00   0.01625431   0.01438597 -31.33  0.001356265    1.165    0.141
       238  -7.7079     79.4843    238.4559   2.9240919462e+02   4.5544427916e+00   0.00645724   0.00643411 -35.13 0.0002827256    1.008    0.008
       239  -7.5880    148.4508    237.5056   2.9161536964e+02   4.1513877738e+00  0.006473645  0.006418369 -75.12 0.0001756005    1.018    0.018
       240  -8.2524    195.6956    235.9834   2.9106656537e+02   3.8847105353e+00  0.009236846  0.008762286 -59.44 0.0006265991    1.048    0.046
       241  -8.4380     88.7681     13.1694   2.9091290042e+02   7.0717431112e+00   0.01279143  0.008365594 -11.98  0.001215368    2.090    0.522
       242 -10.0142    188.7593    234.1595   2.9113449757e+02   3.9472661051e+00   0.01652264   0.01391809  66.40  0.001475582    1.311    0.237
       243  -7.6200    138.0587    235.2185   2.9171999275e+02   4.2399489912e+00  0.008762802  0.005399431  25.84 0.0008571541    1.655    0.396
       244  -7.8898     90.9898    235.4720   2.9225936510e+02   4.5195641489e+00  0.009760948  0.005723804  -5.82 0.0008084256    2.715    0.632
       245  -8.1595    161.9135    234.2298   2.9144144582e+02   4.1078968791e+00   0.01146569  0.008982122  -4.73 0.0007573921    1.471    0.320
       246  -8.2688    247.9516    232.9115   2.9045145281e+02   3.6052088485e+00   0.01043157  0.008721429 -27.28  0.000605204    1.279    0.218
