#   1 NUMBER                 Running object number                                     
#   2 MAG_AUTO               Kron-like elliptical aperture magnitude                    [mag]
#   3 X_IMAGE                Object position along x                                    [pixel]
#   4 Y_IMAGE                Object position along y                                    [pixel]
#   5 X_WORLD                Barycenter position along world x axis                     [deg]
#   6 Y_WORLD                Barycenter position along world y axis                     [deg]
#   7 A_WORLD                Profile RMS along major axis (world units)                 [deg]
#   8 B_WORLD                Profile RMS along minor axis (world units)                 [deg]
#   9 THETA_WORLD            Position angle (CCW/world-x)                               [deg]
#  10 FWHM_WORLD             FWHM assuming a gaussian core                              [deg]
#  11 ELONGATION             A_IMAGE/B_IMAGE                                           
#  12 ELLIPTICITY            1 - B_IMAGE/A_IMAGE                                       
         1 -14.9481      2.8990    134.6959   1.4312832338e+02   4.6697753417e+01      6.22981    0.5720762 -69.60    0.0180728    5.939    0.832
         2 -13.3736    198.6703     28.6304   6.7589864567e+01   3.2283162852e+01     1.402421     1.039691  63.13  0.005913051    1.261    0.207
         3 -13.5351    214.7357      8.8327   6.1018630492e+01   3.0706758118e+01    0.9674937    0.7703523  74.25  0.003647616    1.161    0.139
         4 -11.1981      3.2071      4.1462   1.1310777229e+02   7.1791036436e+01    0.2620704    0.1610939 -39.77   0.00191851    1.546    0.353
         5 -11.2247    198.4968    246.3755   1.1636896474e+02  -5.9117834588e+00    0.2082788    0.1737741  48.83 0.0008522343    1.283    0.221
         6 -12.3065    247.3824    248.2521   1.0778771454e+02  -1.3798687200e+01    0.5932886    0.4303101  24.34  0.004020883    1.148    0.129
         7 -12.1159    172.7420    248.5781   1.2156395480e+02  -1.8748384057e+00    0.5328409     0.260406  49.62   0.00259561    1.913    0.477
         8 -10.6086    156.5577    249.8083   1.2480566598e+02   7.0736341082e-01    0.2179474    0.1279867  46.37 0.0008255516    1.408    0.290
         9 -11.5383    139.4535    247.8076   1.2778432973e+02   3.9640791162e+00    0.4381234    0.2211751 -50.10  0.002225814    2.394    0.582
        10  -9.0988     66.5139    250.4721   1.4139569986e+02   1.4952166653e+01    0.1193433   0.08789663  69.04 5.755185e-05    1.015    0.015
        11 -11.2330     46.7334    249.0671   1.4464410498e+02   1.7856270438e+01    0.3276671    0.1915356  68.40  0.001437278    1.358    0.264
        12 -10.8079     28.9739    248.9077   1.4753774513e+02   2.0060123129e+01    0.3018836    0.1923481 -79.35   0.00124415    1.441    0.306
        13 -12.8389     34.2106    244.9082   1.4642604650e+02   2.0186241761e+01    0.7208485    0.5956376 -75.52  0.005546035    1.501    0.334
        14 -12.8712     10.1440    230.0400   1.4942990517e+02   2.5717039587e+01    0.6972374    0.3358244  74.93  0.004261977    1.717    0.418
        15 -13.4445      6.2939    246.5950   1.5095268686e+02   2.2985798767e+01     1.419215    0.8392582  60.08  0.008441314    1.310    0.236
        16 -12.5627     17.5558    241.5518   1.4891499057e+02   2.2727720290e+01    0.5320984    0.3167491  65.25  0.002626441    1.264    0.209
        17 -10.8261    126.0556    250.0000   1.3058162951e+02   5.8470062428e+00    0.2398952    0.1412502  45.41  0.001333852    1.402    0.287
        18 -10.6635    216.1508    249.3237   1.1356228208e+02  -9.1995635260e+00    0.2581904   0.09130385  34.97  0.001098922    2.579    0.612
        19  -8.7686     57.3061    240.3366   1.4214847813e+02   1.8122928243e+01   0.09983581   0.09037282 -56.32 0.0007040838    1.673    0.402
        20 -11.4188     49.8567    235.4426   1.4305512243e+02   2.0054796527e+01    0.2670874    0.1969153 -80.07  0.001264259    1.300    0.231
        21 -13.1685     45.6206    215.5246   1.4212192073e+02   2.4624775343e+01     1.098678     0.750124 -89.20  0.005650019    1.218    0.179
        22 -13.0229     30.3489    233.0727   1.4625519571e+02   2.2914830394e+01    0.3048052    0.2398012 -83.27 0.0007743365    1.300    0.231
        23 -14.0685     35.1285    226.9674   1.4498016562e+02   2.3561802807e+01    0.7836368    0.5277662  67.40  0.002367896    1.172    0.147
        24 -11.5752     90.9748    227.4978   1.3464426405e+02   1.5754335545e+01    0.4440506    0.1539286  52.77  0.001789948    2.759    0.638
        25 -12.5824    114.4527    231.7484   1.3056426914e+02   1.1108018068e+01     0.898953    0.1713278  44.13  0.002828847    4.200    0.762
        26  -9.6764    173.7436    222.8728   1.1740265534e+02   2.1748302627e+00    0.2812029    0.1456627  50.24  0.001277455    1.891    0.471
        27 -12.5284      9.5931    207.4115   1.4808209656e+02   3.0305654318e+01     0.630953    0.5266864  27.47  0.003157836    1.824    0.452
        28 -11.6211     57.3729    212.1792   1.3955220799e+02   2.3811172059e+01    0.6061152    0.2097457  57.71  0.002397641    3.267    0.694
        29  -8.8563    152.5061    213.0566   1.2013596561e+02   7.9204859146e+00    0.1801118    0.1388477 -55.65 0.0003485961    1.441    0.306
        30 -10.9302     55.3834    205.5421   1.3926812540e+02   2.5494723030e+01    0.4447579    0.1572054  56.07  0.001812126    3.032    0.670
        31 -11.7824     57.9796    199.2977   1.3807713215e+02   2.6512344108e+01    0.2801476    0.2191598 -78.67 0.0004963739    1.166    0.142
        32 -14.2145      9.2938    155.9803   1.4389205683e+02   4.1467272720e+01     3.739046     1.431586  83.55   0.01405863    4.133    0.758
        33 -11.0125    230.8881    249.2479   1.1087669354e+02  -1.1482305855e+01    0.2437111    0.1425879  22.97  0.001384083    1.606    0.377
        34  -9.3115     95.9005    172.9486   1.2607956787e+02   2.6850580799e+01    0.2270623    0.1563385  76.06  0.000531136    1.637    0.389
        35 -11.9867     83.5484    168.4067   1.2826625110e+02   2.9903074981e+01     0.711973    0.6449767 -39.95  0.004203737    1.349    0.259
        36 -10.0913      8.5822    193.9384   1.4730546299e+02   3.3221251956e+01     0.206346    0.1205218  61.92 0.0007922645    1.529    0.346
        37 -10.4971     96.1850    152.7114   1.2243075593e+02   3.1573212526e+01    0.3483298    0.2981444 -33.57 0.0008194634    1.393    0.282
        38  -9.4623     99.1166    148.6313   1.2090187728e+02   3.2041479279e+01    0.2392965    0.1897412 -50.03 0.0006457884    1.266    0.210
        39 -12.0626     84.6943    151.7260   1.2514835979e+02   3.3679423099e+01    0.3070508    0.2492429 -48.26 0.0006070829    1.294    0.227
        40 -12.2350     67.2960    143.5129   1.2814247313e+02   3.8190232317e+01    0.6697236    0.4329944  65.83  0.002908997    1.848    0.459
        41 -10.0026    108.3795    137.7792   1.1626818053e+02   3.2955326996e+01    0.4363897    0.3031215 -16.54  0.001140302    2.382    0.580
        42 -11.6123     26.6380    129.1830   1.3645346931e+02   4.6112167693e+01    0.3871788    0.2538381  54.57  0.002277365    1.764    0.433
        43 -10.6044     95.5365    134.8480   1.1901982104e+02   3.5923412320e+01    0.2405559    0.2388334 -31.00 0.0004316385    1.119    0.106
        44  -8.4676     75.6910    129.2746   1.2322291714e+02   4.0383148272e+01    0.1377082    0.1046583  78.49 0.0001896389    1.551    0.355
        45  -9.0333    106.2009    124.0168   1.1373608196e+02   3.6567334158e+01    0.1953116    0.1817827 -60.43 0.0002431056    1.022    0.022
        46  -8.9452    191.3486    192.0287   1.0826876168e+02   4.4159858512e+00    0.2276298     0.117578 -63.97 0.0007048696    4.428    0.774
        47 -12.0049     64.6351    190.7350   1.3568790129e+02   2.7516645441e+01    0.2679767    0.2352809 -80.35 0.0005029323    1.168    0.144
        48 -11.0307    242.7988     93.5057   7.6948515595e+01   1.1968479472e+01    0.2803307    0.1900929 -41.56  0.001417342    1.350    0.259
        49  -8.4767     65.2853     81.6438   1.1504441332e+02   5.2467554100e+01    0.1278534    0.1045133 -83.54 0.0003360452    1.671    0.402
        50 -10.2365    158.8225     76.8669   8.7731641915e+01   3.4945179409e+01    0.2326486    0.2098821  20.05 0.0005659793    1.231    0.188
        51 -13.1763     61.8019    175.8502   1.3441425544e+02   3.1303436009e+01    0.5191711    0.2701382 -47.61  0.001574682    2.332    0.571
        52 -10.7943     75.4432    177.6398   1.3155753628e+02   2.8970715757e+01    0.2455658    0.2132594 -88.82 0.0003347054    1.029    0.028
        53 -11.8358      2.8005     49.8043   1.2866662255e+02   6.4488795505e+01    0.2996937    0.2449186 -45.99  0.001988462    1.150    0.130
        54 -10.9974     98.1231    248.5119   1.3558570340e+02   1.0630448293e+01    0.2441372    0.1943283  66.08  0.001069558    1.027    0.027
        55 -10.7888    161.9721    249.2251   1.2369892231e+02  -1.2831572372e-01    0.1985928     0.194954 -78.91  0.001200906    1.226    0.184
