#   1 NUMBER                 Running object number                                     
#   2 MAG_AUTO               Kron-like elliptical aperture magnitude                    [mag]
#   3 X_IMAGE                Object position along x                                    [pixel]
#   4 Y_IMAGE                Object position along y                                    [pixel]
#   5 X_WORLD                Barycenter position along world x axis                     [deg]
#   6 Y_WORLD                Barycenter position along world y axis                     [deg]
#   7 A_WORLD                Profile RMS along major axis (world units)                 [deg]
#   8 B_WORLD                Profile RMS along minor axis (world units)                 [deg]
#   9 THETA_WORLD            Position angle (CCW/world-x)                               [deg]
#  10 FWHM_WORLD             FWHM assuming a gaussian core                              [deg]
#  11 ELONGATION             A_IMAGE/B_IMAGE                                           
#  12 ELLIPTICITY            1 - B_IMAGE/A_IMAGE                                       
         1 -13.4435    163.1673     53.0383   9.9042893463e+00   3.6644709054e+01     1.101959    0.9841964 -24.26  0.003655007    1.268    0.211
         2 -13.4843    177.8766     23.8957   3.5954530713e+02   3.6739283335e+01    0.9237248    0.7420982 -80.63  0.004083868    1.105    0.095
         3 -10.6728    119.6077      9.4398   1.9674970505e+00   5.3659454586e+01    0.5495066    0.3578532  45.03  0.002690115    1.652    0.395
         4 -13.6678    195.1407    239.3558   4.3477992948e+01   6.6480103645e-01     1.687102    0.6793047  23.84  0.008725544    2.193    0.544
         5 -19.4308     66.5649    220.8582   6.9187188035e+01   2.0474782902e+01     5.639878     5.211618  70.17   0.02501741    1.225    0.184
         6 -11.5667    119.0657    236.5268   5.8500778363e+01   1.0790807101e+01    0.2579497    0.1914628 -38.24 0.0006341409    1.675    0.403
         7 -11.6156    192.0905    193.8124   3.7042398387e+01   7.2465471707e+00    0.6616408     0.418694 -57.86   0.00324534    3.007    0.667
         8 -14.5738     39.9189    242.4585   7.6808336940e+01   1.9425192215e+01     0.399957    0.3390427 -74.39  0.001744927    1.510    0.338
         9 -10.4310    147.6168    188.9685   4.5489388358e+01   1.4837807740e+01    0.2781504    0.2265233 -68.20  0.001567859    1.721    0.419
        10  -9.8889    202.6102    188.7998   3.4234974032e+01   6.4867036216e+00    0.2566309    0.1781679  19.71  0.001043982    1.302    0.232
        11  -9.7318    132.1213    228.1841   5.4641596936e+01   1.0382219290e+01    0.2872061    0.1778951  40.04 0.0008463257    1.445    0.308
        12 -10.1786    165.7152    243.6294   4.9615219558e+01   3.6824386302e+00    0.3240118    0.1686524  17.48   0.00132938    1.764    0.433
        13 -10.4964    129.9228    241.5166   5.6706990758e+01   8.5725473164e+00    0.1929525    0.1653679 -20.87 0.0005454842    1.381    0.276
        14 -10.9616    150.2931    178.8212   4.3145033258e+01   1.6256590378e+01    0.2929851    0.2397945 -66.12  0.001382961    1.653    0.395
        15 -11.0944    125.8136    230.0764   5.6264596648e+01   1.0936238203e+01    0.5714189    0.4590212  -2.61  0.003706994    1.345    0.256
        16 -11.1470    185.9905    173.5462   3.4618081983e+01   1.1316630193e+01    0.3329445    0.2792142  11.31  0.001085402    1.059    0.055
        17  -9.8154    184.8377    168.8029   3.3954171181e+01   1.2276779803e+01    0.2431066    0.1899847 -39.62 0.0007841347    1.372    0.271
        18 -11.0998      3.5429    176.6080   8.2982151998e+01   3.6735061056e+01    0.3439154    0.2158272   9.13  0.001089919    1.900    0.474
        19 -10.3112    188.3706    164.4036   3.2427457063e+01   1.2421272755e+01    0.4128575    0.2198607 -53.97  0.001235162    2.924    0.658
        20  -9.5492    154.9964    160.9624   3.8749311944e+01   1.8794208263e+01    0.1726113    0.1515818  23.90 0.0003085079    1.050    0.048
        21 -14.0227    226.2204    231.5028   3.6987290357e+01  -1.9238920157e+00     2.667679    0.8299435  23.53   0.01159739    3.712    0.731
        22  -9.6574     18.1143    154.5811   7.7561613276e+01   4.0972916773e+01    0.2872941    0.1707884 -70.54  0.001437363    1.672    0.402
        23 -10.6324     17.7818    148.7764   7.7271992447e+01   4.2482694980e+01     0.464369    0.2972222  -9.56  0.002034537    2.130    0.531
        24  -9.5869     10.8381    152.3780   7.9741624849e+01   4.2112558710e+01    0.2863431    0.1799254   8.57  0.001276841    1.871    0.466
        25  -9.1839      7.7007    150.3348   8.0632180398e+01   4.2859007303e+01    0.2141867    0.1598944  61.28 0.0005059391    1.168    0.143
        26  -9.7691    156.8259    232.2318   4.9912598842e+01   6.4202035564e+00    0.3375473    0.1690295 -49.94  0.001779341    2.666    0.625
        27 -11.6417    151.9191    150.3082   3.7312455887e+01   2.1418203303e+01     0.602943    0.4057105  76.90  0.002383758    2.994    0.666
        28 -12.1790    145.0119    147.0003   3.8258599816e+01   2.3393802592e+01    0.5489348     0.401911 -88.79  0.002420121    2.285    0.562
        29 -11.3030    154.9408    223.4803   4.9116049089e+01   7.9842424620e+00    0.4727224    0.3514296  64.43  0.002372838    2.349    0.574
        30 -10.9281    154.9459    146.5186   3.5821341965e+01   2.1583485800e+01    0.5052894    0.3395314 -86.04  0.001777683    3.418    0.707
        31 -11.3958     27.3603    146.4537   7.3908048948e+01   4.2232110863e+01    0.4430858    0.3321345  19.64  0.001484091    1.417    0.294
        32 -11.3143     28.3391    141.8898   7.3154043353e+01   4.3329979445e+01    0.6136722      0.31243   2.46  0.002403999    2.876    0.652
        33 -10.2674     36.2423    142.0768   7.0450737260e+01   4.2480427793e+01    0.2502757    0.2009856 -15.71  0.001154918    1.550    0.355
        34 -10.8129    157.1804    140.3982   3.3998603916e+01   2.2340525636e+01    0.2826156    0.2452417 -83.09 0.0008753437    1.485    0.326
        35 -11.1731    154.0135    136.9935   3.3970761453e+01   2.3630930139e+01     0.318385    0.2653211 -55.14 0.0004827126    1.334    0.250
        36 -11.8883    159.1486    221.4751   4.7956740949e+01   7.7118218198e+00    0.6041582    0.5241809  66.90  0.003943881    1.802    0.445
        37 -10.2448     11.4065    135.9754   7.8543740942e+01   4.6293143578e+01     0.228695    0.1886609  23.87 0.0003323629    1.281    0.220
        38  -9.8095    160.4904    127.9661   3.0466321216e+01   2.4079191549e+01    0.2920565    0.1407383 -46.66  0.001155219    2.166    0.538
        39 -11.6110    135.0000    120.0338   3.4640800609e+01   3.1051679998e+01    0.4560559    0.2200911 -50.34  0.001492042    2.242    0.554
        40 -11.5403    136.0000    127.9716   3.6282880484e+01   2.9154316323e+01    0.4065871    0.2139477 -48.80  0.001622914    2.005    0.501
        41 -10.7791    149.4980    127.4924   3.2856183120e+01   2.6441447200e+01    0.2569632    0.2063714  84.93 0.0005531862    1.668    0.400
        42 -12.7647    122.5047    126.3753   3.9505603584e+01   3.2305455667e+01    0.5976619    0.5351368  51.24  0.002494251    1.093    0.085
        43  -9.8559     25.6226    139.7012   7.3887721735e+01   4.4159161209e+01    0.3270388    0.1772819  13.84 0.0009508175    2.105    0.525
        44 -12.1881    110.2382    122.4806   4.2120152466e+01   3.5714802819e+01    0.4546909    0.3863139 -51.84 0.0008551133    1.234    0.190
        45 -10.8267    152.0232    217.4906   4.8892741391e+01   9.3255737098e+00    0.3408704    0.2254092  22.00  0.001072591    1.277    0.217
        46 -10.1630    154.4475    214.5169   4.7947469952e+01   9.4550267567e+00    0.2173036    0.1928291  -0.06 0.0006315968    1.163    0.140
        47 -11.2603    184.9782    228.4282   4.3819289429e+01   3.3035105188e+00    0.2668028    0.2066698  -9.64  0.001871059    1.214    0.176
        48 -10.5005    112.9148    243.5278   6.0598551927e+01   1.0468832014e+01    0.5134053    0.2126096  47.37  0.002341782    2.625    0.619
        49 -10.7399    176.8391    226.9995   4.5180421143e+01   4.5407813775e+00     0.294482    0.1500624  20.65  0.001571931    1.787    0.440
        50 -10.4775    168.5400    114.0635   2.5462297963e+01   2.5015799963e+01    0.3599228    0.2776204 -73.36  0.001015247    1.697    0.411
        51 -11.5237    145.7666    223.1144   5.1014285326e+01   9.3095456753e+00    0.4233977     0.346874 -66.88  0.002694334    1.834    0.455
        52 -11.6795    119.0596    110.5184   3.6567705519e+01   3.6583599593e+01    0.4628727    0.3193148  83.01  0.001819724    2.266    0.559
        53 -10.7936    166.7090    227.8903   4.7313129725e+01   5.7425297976e+00    0.2959823    0.2615828 -86.83  0.001976425    2.018    0.504
        54  -9.3844     22.9614    107.5491   7.1405674970e+01   5.2995400127e+01    0.2061744    0.1412539  16.02  0.001016562    1.571    0.363
        55 -11.3048    175.0573    220.6931   4.4616212441e+01   5.6666393579e+00    0.3552734    0.1739751 -42.70  0.001878557    2.363    0.577
        56 -11.2674     59.1442    101.7502   5.5155466831e+01   5.0278385132e+01    0.4622269    0.2118954  23.34  0.001617017    2.603    0.616
        57 -11.2304    100.0036     98.5046   3.9168255796e+01   4.3460774638e+01    0.4398415    0.2623479  40.47  0.001788751    1.635    0.389
        58 -11.2154     27.0090     98.6253   6.8382160921e+01   5.5050177656e+01    0.4649151    0.3452809  19.91  0.002221592    1.414    0.293
        59 -11.2188    166.4110    220.9767   4.6392270006e+01   6.7924136568e+00     0.274304    0.2354568 -47.41  0.001858606    1.604    0.376
        60 -10.3580    165.5358    212.6488   4.5343261155e+01   8.1736180562e+00    0.3395163    0.2023117 -48.23  0.001390409    2.121    0.529
        61 -10.8036    156.1725     73.1921   1.7062476456e+01   3.5193767316e+01    0.2221066    0.2106929  25.59 0.0006002194    1.193    0.162
        62 -12.6160    152.0508     66.4210   1.5863152200e+01   3.7357011418e+01    0.6828812    0.5859939 -47.12  0.001311617    1.157    0.136
        63  -9.5576    117.4476     62.6966   2.2570883926e+01   4.6831208046e+01    0.2875991    0.1806603  66.29  0.001193388    1.706    0.414
        64 -12.1082    104.4195    247.4141   6.2834805080e+01   1.0933304028e+01    0.3263345    0.1788731  37.80 0.0003419198    1.392    0.282
        65 -12.0581    168.3593     43.8512   6.4257205127e+00   3.6635219377e+01    0.4985877    0.4446701 -83.86 0.0008334623    1.035    0.033
        66  -9.9077    143.9760     59.6407   1.5369323223e+01   4.0527505927e+01     0.270685    0.1979587 -67.00 0.0006829268    1.501    0.334
        67 -10.3438    116.4127    240.0000   5.9463249014e+01   1.0579299973e+01    0.3273143    0.1327883  33.40  0.001586184    1.833    0.454
        68 -10.2515    144.4144    213.3656   4.9956352199e+01   1.1085451429e+01    0.2498008    0.1876698  31.03 0.0008044008    1.138    0.121
        69  -9.7645    157.0860    246.3537   5.1666737795e+01   4.3899663296e+00    0.3018464    0.1365299 -25.82  0.001388204    3.481    0.713
