#   1 NUMBER                 Running object number                                     
#   2 MAG_AUTO               Kron-like elliptical aperture magnitude                    [mag]
#   3 X_IMAGE                Object position along x                                    [pixel]
#   4 Y_IMAGE                Object position along y                                    [pixel]
#   5 X_WORLD                Barycenter position along world x axis                     [deg]
#   6 Y_WORLD                Barycenter position along world y axis                     [deg]
#   7 A_WORLD                Profile RMS along major axis (world units)                 [deg]
#   8 B_WORLD                Profile RMS along minor axis (world units)                 [deg]
#   9 THETA_WORLD            Position angle (CCW/world-x)                               [deg]
#  10 FWHM_WORLD             FWHM assuming a gaussian core                              [deg]
#  11 ELONGATION             A_IMAGE/B_IMAGE                                           
#  12 ELLIPTICITY            1 - B_IMAGE/A_IMAGE                                       
         1 -14.5149    120.8913     99.8072   1.0890279583e+02   3.8642513383e+01     1.331306    0.9077182 -62.94  0.006405584    1.725    0.420
         2 -11.2173    200.0227     14.8055   6.6121446258e+01   3.2792111625e+01    0.5649498    0.1001422 -29.76  0.001611245    3.972    0.748
         3  99.0000    195.9376     10.8272   6.5322020786e+01   3.4251838333e+01    0.5909973    0.1822718 -10.77  0.001636209    4.541    0.780
         4  -9.7476    177.4654      9.3393   6.7189339862e+01   3.9327263850e+01    0.1546258    0.1250823  38.31 0.0006316039    1.211    0.174
         5  -9.6240    152.0290      9.7531   7.1254590662e+01   4.6072133694e+01    0.1849486    0.1251131  63.68 0.0004848304    1.488    0.328
         6 -11.1427      2.4853      2.9872   1.2191795895e+02   7.3836468718e+01    0.1838118    0.0848884 -56.00  0.001042962    1.621    0.383
         7 -10.3527     38.5211      2.5214   1.0196080891e+02   7.0603309842e+01    0.1266133   0.09768771 -22.08 0.0001676879    1.020    0.020
         8 -13.3487     60.6198    170.4329   1.3433429760e+02   3.3499054874e+01    0.2918102    0.2773639  44.85 0.0009547511    1.376    0.274
         9  99.0000    147.6836     33.8241   8.1371828513e+01   4.4350837124e+01     8.066833      7.36336 -24.22   0.04328073    1.096    0.088
        10 -10.5283    214.9738    174.0363   1.0525066734e+02   8.4890946102e+00    0.1850568    0.1465613  24.36 0.0003572207    1.022    0.021
        11 -10.4699    169.0787    162.1415   1.1141818242e+02   1.8355775285e+01    0.1915218    0.1662152  41.49 0.0004600025    1.069    0.064
        12 -13.3066    166.5713    152.2046   1.1007416737e+02   2.0365956676e+01    0.5575665    0.4799074  31.94  0.003441536    1.056    0.053
        13 -12.3627    172.8106    150.0383   1.0842889103e+02   1.9533193122e+01    0.2686595     0.238112  69.19  0.001127415    1.352    0.260
        14 -11.4269    133.7199    145.8300   1.1565462629e+02   2.7435095937e+01    0.6380224    0.1769647 -53.16  0.002059414    4.641    0.785
        15 -11.3262    143.8531    145.7358   1.1348897979e+02   2.5642467469e+01    0.2447657    0.1757212 -80.58  0.001240485    2.064    0.516
        16 -11.5087    163.1445    140.8191   1.0852773495e+02   2.2870223209e+01    0.1963006    0.1801471  65.93 0.0004804049    1.215    0.177
        17 -10.2029    101.7045    135.4407   1.2094612426e+02   3.4741861217e+01    0.1619349    0.1220033  32.48 0.0009264665    1.478    0.323
        18 -11.7825    165.6696    133.9633   1.0658381188e+02   2.3522419189e+01    0.1887427    0.1811532  -9.38 0.0006034244    1.085    0.079
        19 -12.9696    131.4114     96.2625   1.0539036750e+02   3.7294053100e+01     0.474188    0.3894015   5.76  0.001434225    1.457    0.314
        20 -11.7856    138.7039    104.0120   1.0561422736e+02   3.4332994747e+01    0.3002621    0.2526998 -34.49 0.0007902281    1.201    0.167
        21 -13.4353    143.3345    100.2287   1.0356885498e+02   3.4099568142e+01    0.6120574    0.5213378  45.40  0.001683315    1.177    0.150
        22 -12.1104    136.0000    130.0141   1.1211882059e+02   2.9931408186e+01    0.5224774    0.1749748 -47.63  0.001907436    3.137    0.681
        23 -12.6107    135.1394    121.1456   1.1044156507e+02   3.1763556407e+01    0.6764123     0.196722 -48.54  0.002075351    3.697    0.730
        24 -14.1986    134.8489    107.6262   1.0741029811e+02   3.4409335938e+01      1.16973     0.407736 -45.67  0.004146152    2.899    0.655
        25 -11.7267    153.9648    125.9992   1.0732313126e+02   2.7216141508e+01    0.2147639    0.2052783  37.87 0.0005736843    1.031    0.030
        26 -12.5278    199.9933    237.9916   1.1740742196e+02   3.9894982086e+00     0.631685    0.1585878  48.59   0.00232054    5.077    0.803
        27 -11.6402    113.5422     95.0753   1.0959814181e+02   4.0969333548e+01    0.2602185    0.2088254  33.87 0.0003808912    1.340    0.254
        28 -12.9559    119.3236    111.3475   1.1201271789e+02   3.6616029737e+01    0.7383931    0.4287805  62.87  0.003150245    2.407    0.585
        29 -10.2113    111.9931    113.0144   1.1417932843e+02   3.7580843394e+01    0.1995718    0.1879128  -9.95 0.0004654361    1.197    0.164
        30 -13.2718    152.9005    109.3008   1.0367292399e+02   3.0434443393e+01    0.4754237    0.3979412  77.64  0.002213754    1.482    0.325
        31 -10.4795     24.3219    106.0672   1.3589311071e+02   5.0234961530e+01    0.3320378    0.1326236 -78.10  0.001619262    2.233    0.552
        32 -13.3032    136.7024     89.6820   1.0233501366e+02   3.7475772164e+01    0.5253034    0.3764026  44.79  0.002578612    1.415    0.293
        33 -10.7700     88.5806    170.2194   1.2871974188e+02   3.0011629831e+01    0.2415192    0.1209199  54.54  0.000764093    1.904    0.475
        34 -10.7146    207.6365     78.3767   8.4447258369e+01   2.3040871292e+01    0.2887155    0.1602617  -5.33  0.001095461    2.409    0.585
        35 -12.0247    112.5340    104.3505   1.1210400769e+02   3.9254838691e+01    0.4190934    0.3776613  70.69  0.001766141    1.167    0.143
        36 -12.5226    188.2823     62.7341   8.3241062540e+01   2.9981994530e+01    0.6999527    0.6227842  16.63  0.002498077    1.093    0.085
        37 -14.1801    160.3810     69.5975   9.0917951874e+01   3.5748553977e+01     1.127445    0.5557516  50.80  0.003330197    2.031    0.508
        38 -10.7556    225.4210     62.0570   7.7041467614e+01   2.0982016025e+01    0.1953156    0.1796711  43.00 0.0004645853    1.153    0.132
        39 -12.4164     79.6117     56.6436   1.0848862919e+02   5.4740571260e+01    0.3307593    0.1710597  35.81  0.001149809    2.221    0.550
        40 -12.9511    199.5484     52.5945   7.8188145606e+01   2.8553277858e+01    0.6906176    0.3054218  49.02  0.002622888    2.212    0.548
        41 -10.5215    223.8764     53.9164   7.4938457718e+01   2.2358277719e+01    0.2159284    0.1637179 -56.75  0.001063553    1.575    0.365
        42 -10.6869    204.8672     64.6516   8.0956383172e+01   2.5612260136e+01    0.1963924    0.1832581  61.60 0.0007929767    1.193    0.162
        43 -10.5732    211.3462     47.6960   7.4887561744e+01   2.6207317453e+01    0.1543495     0.111299 -58.25 0.0007040845    1.691    0.409
        44 -12.5253    186.1317     44.0035   7.7676779956e+01   3.3108495140e+01     0.513828    0.2153119 -37.88  0.001855289    2.351    0.575
        45 -10.5605    219.5098     44.5276   7.2798814447e+01   2.4554679731e+01    0.1472314    0.1370718 -19.01 0.0003890676    1.042    0.040
        46 -12.2651     23.7097     36.3044   1.2305442777e+02   6.5641648312e+01    0.3249319    0.1490213 -53.72  0.001712044    1.624    0.384
        47 -10.8446    216.0410     36.8044   7.0956053287e+01   2.6317000633e+01    0.2171418    0.1889136 -56.15  0.001161537    1.257    0.204
        48 -11.4048    207.7136     35.5991   7.1704472663e+01   2.8571526550e+01    0.3413453    0.2147632 -39.40  0.001545988    1.588    0.370
        49 -10.7048    201.5863     34.2784   7.2147076672e+01   3.0302313906e+01    0.2619909    0.1467081 -30.79 0.0006992888    1.682    0.405
        50 -17.3650    237.8276    123.6558   9.0985266931e+01   1.0404652150e+01     11.38575     4.300119 -28.30    0.0464495    2.509    0.601
        51 -14.6555    178.5838     75.9004   8.9065312159e+01   3.0367569941e+01     1.922055    0.9539895 -46.36  0.007213813    2.390    0.582
        52 -15.5320     69.2531    162.4495   1.3178389430e+02   3.3962225247e+01     1.519587     1.181236 -14.42  0.008194085    2.317    0.568
        53 -12.2805    185.9510     20.4746   6.9853128847e+01   3.5946317752e+01    0.4185216    0.2039205 -30.96  0.001682328    1.943    0.485
        54 -10.5772    169.9598    228.1501   1.2095188189e+02   9.4238669789e+00    0.1621344    0.1154965  49.13 0.0004698865    1.263    0.208
        55 -15.9045     25.2289    191.8606   1.4244829755e+02   3.3364574285e+01     2.095597     1.235439  42.26   0.01579271    1.586    0.370
        56 -11.4963    192.3758    194.1912   1.1253962266e+02   9.9108529130e+00    0.6559976    0.3538919 -61.12  0.002273012    7.242    0.862
        57 -14.2201     46.5125    175.1482   1.3748713580e+02   3.4198023022e+01    0.9190342    0.4424859  70.85  0.005294344    2.130    0.531
        58 -13.4358     68.2411    144.8076   1.2995224162e+02   3.7531655979e+01     1.171736    0.5169016  58.04  0.004368011    2.629    0.620
