#   1 NUMBER                 Running object number                                     
#   2 MAG_AUTO               Kron-like elliptical aperture magnitude                    [mag]
#   3 X_IMAGE                Object position along x                                    [pixel]
#   4 Y_IMAGE                Object position along y                                    [pixel]
#   5 X_WORLD                Barycenter position along world x axis                     [deg]
#   6 Y_WORLD                Barycenter position along world y axis                     [deg]
#   7 A_WORLD                Profile RMS along major axis (world units)                 [deg]
#   8 B_WORLD                Profile RMS along minor axis (world units)                 [deg]
#   9 THETA_WORLD            Position angle (CCW/world-x)                               [deg]
#  10 FWHM_WORLD             FWHM assuming a gaussian core                              [deg]
#  11 ELONGATION             A_IMAGE/B_IMAGE                                           
#  12 ELLIPTICITY            1 - B_IMAGE/A_IMAGE                                       
         1 -18.8412    236.1492     37.7343   4.8027483459e+01   2.1351753828e+01     10.71004     5.833718 -20.02   0.04814013    1.963    0.491
         2 -13.9424    212.0833     22.6641   4.6400547627e+01   2.9026618803e+01     1.248026    0.4152851 -20.47  0.004090637    3.557    0.719
         3 -16.2298     99.8507      7.2487   5.9035474830e+01   5.9541592071e+01     5.966695     3.630219 -89.11   0.02473939    2.960    0.662
         4 -12.7597      6.4329     23.1680   1.0688138523e+02   7.1428469742e+01    0.6356881    0.4624425 -30.58  0.003728871    1.242    0.195
         5 -13.0343     12.0628     31.5993   1.0683944576e+02   6.9347596154e+01    0.7178705    0.4255846  -3.54  0.004187841    2.099    0.523
         6 -14.5037    153.7420     17.1731   5.2251712452e+01   4.4965026872e+01     1.393438     1.102877 -33.63  0.006465806    1.282    0.220
         7 -14.4170    143.4595      4.1405   4.9001506922e+01   4.8959691073e+01     1.174452    0.5635811  49.19  0.004116679    1.956    0.489
         8 -11.8687    205.7405     16.9335   4.5410890801e+01   3.1278424715e+01    0.4447362    0.3283432 -84.34   0.00152516    1.382    0.276
         9 -12.0792    209.4792      4.4824   4.1480845020e+01   3.1609946400e+01    0.2551415    0.2053267   0.35   0.00142219    1.491    0.329
        10 -11.1798    158.6230      2.5356   4.6256556596e+01   4.5094641429e+01    0.2929899    0.2137396  19.69 0.0008563854    1.572    0.364
        11  -9.9671    169.9507      1.0000   4.4339603696e+01   4.2220200855e+01    0.2310361   0.07600193  72.48 0.0007926739    2.875    0.652
        12 -13.9743     87.7907    200.4685   1.1398868569e+02   2.2711263356e+01     1.307979     0.706844  68.38  0.005840023    2.099    0.524
        13 -14.8044    205.7089    249.3669   9.8419015382e+01  -2.4762297177e+00     2.447206    0.3933857  42.12  0.008377359    5.124    0.805
        14 -15.0355    192.5021    247.1613   1.0031345795e+02  -3.3449797849e-01     1.646728    0.4812678  40.60  0.007655522    2.619    0.618
        15 -12.7267    159.6726    248.7171   1.0605624301e+02   4.3063753476e+00    0.5834036     0.263569  43.95   0.00267746    1.709    0.415
        16 -12.5376    133.7613    248.8162   1.1050732086e+02   8.0848363495e+00    0.6580541    0.2941982  49.16   0.00371211    1.841    0.457
        17 -13.3725     68.1602    144.7148   1.1147668046e+02   3.7316118080e+01    0.8279671    0.5541772  60.76  0.003239589    1.486    0.327
        18 -14.9905     80.5913    155.9322   1.1004383016e+02   3.3006559923e+01     1.670798    0.9539698 -60.35  0.006425084    1.698    0.411
        19 -14.6593     62.8590    155.5131   1.1424194255e+02   3.5545460969e+01     1.048263    0.9658894 -27.45  0.006823848    1.494    0.331
        20 -14.5730     81.3614    176.5116   1.1260350778e+02   2.8425642000e+01     1.083094     0.546618 -67.51  0.004043509    1.998    0.499
        21 -14.0479     71.2835    172.4878   1.1435652023e+02   3.0686648735e+01    0.9348792    0.5311643  69.44  0.003750238    1.886    0.470
        22 -12.5755    192.5563    194.4505   9.2394826824e+01   6.4618755861e+00    0.8553462    0.4691059 -63.01  0.002869919    6.064    0.835
        23 -11.2594     62.8610    198.0427   1.1874582336e+02   2.6550891517e+01     0.344427    0.1991349 -59.67  0.002022791    1.947    0.486
        24 -11.8217     60.7299    193.6590   1.1878206717e+02   2.7686128658e+01    0.5716296    0.2993052 -53.78  0.003072484    2.396    0.583
        25 -10.4446    128.6753    197.5605   1.0536470544e+02   1.6929016534e+01    0.2762897    0.2115265  76.35  0.001171964    1.477    0.323
        26 -10.1505    131.4937    194.9902   1.0443259485e+02   1.6920973054e+01    0.1751526    0.1653791  72.54  0.000827999    1.116    0.104
        27 -12.1679    116.2774    188.3097   1.0663337882e+02   2.0670805910e+01    0.5567548    0.3737722  51.42  0.002157598    1.326    0.246
        28 -11.7405    114.2497    183.4922   1.0638489789e+02   2.1932134146e+01    0.4502776    0.3099753 -38.99  0.002032148    1.928    0.481
        29 -12.5615     51.8551    186.2671   1.1994184726e+02   3.0271444365e+01    0.4626649    0.3013635 -67.82  0.002673745    1.550    0.355
        30 -12.9451     55.4227    181.3512   1.1874691572e+02   3.0856892673e+01     0.726216    0.4637174 -83.57   0.00436086    1.434    0.303
        31 -12.7577     81.5327    239.1594   1.1868317263e+02   1.6799511296e+01    0.5589179    0.3609344  43.92  0.002604519    1.308    0.235
        32 -12.6801    106.6322    170.5560   1.0615821644e+02   2.5787904157e+01    0.6572109    0.5044928  28.67  0.002797362    1.525    0.344
        33 -11.1685    134.0000    147.0869   9.5741284610e+01   2.5835717212e+01    0.5687288    0.1700683 -52.36  0.001780886    3.708    0.730
        34 -12.1844    198.9884    144.4145   8.1285092780e+01   1.3190014930e+01    0.2883293    0.2406647 -86.84  0.001093054    1.739    0.425
        35 -12.6449     53.5520    161.9949   1.1719376029e+02   3.5256325971e+01    0.3071522    0.2823389 -38.28 0.0009855877    1.500    0.333
        36 -11.2394    166.0044    134.3033   8.5718736890e+01   2.1917832701e+01    0.2133603    0.1908481  41.21 0.0004292371    1.101    0.092
        37 -11.1087    136.0000    131.3422   9.1913774919e+01   2.8775858668e+01    0.8088568   0.07958955 -47.95  0.001401409   10.778    0.907
        38 -11.7003    135.1097    121.3233   8.9794337601e+01   3.1109270132e+01    0.6266149    0.2076603 -48.15  0.001967358    3.038    0.671
        39 -12.2967    134.6604    108.0890   8.6569509668e+01   3.4054492019e+01      1.31613    0.2434148 -45.18  0.003114531    5.293    0.811
        40  -9.4048     98.6946    132.2716   1.0148825223e+02   3.5551916539e+01    0.1430187    0.1057255  76.00 0.0002555768    1.539    0.350
        41 -12.4148    151.2585    119.7992   8.5552792157e+01   2.7995620295e+01    0.3996266    0.3675459  87.25  0.002111179    1.187    0.158
        42 -10.3577     76.6258    119.9406   1.0504505205e+02   4.1968276183e+01    0.3445606    0.1748486  56.39  0.001417626    2.445    0.591
        43 -10.1872     93.9126    117.8678   9.9792457986e+01   3.9717635130e+01    0.2204671    0.1971607 -24.87  0.001118734    1.331    0.248
        44 -14.1333      2.9270    102.7990   1.2399633332e+02   5.3620286017e+01     1.391003    0.2800939 -74.71  0.005041764    3.608    0.723
        45 -11.9838    178.0215    109.9890   7.7123308573e+01   2.3914688677e+01    0.2810744      0.23224 -49.17 0.0006163191    1.255    0.203
        46 -11.9801    177.4211    106.1283   7.6222928016e+01   2.4776431036e+01    0.3324133    0.2585703 -75.24  0.001039107    1.709    0.415
        47 -11.0051    127.3620    105.0156   8.7621096042e+01   3.6271448607e+01    0.3108135     0.138983 -39.02  0.001094274    2.414    0.586
        48 -13.4900    155.5047     97.6323   7.8672014164e+01   3.1535778677e+01     1.035333    0.8715227  54.11   0.00510379    1.230    0.187
        49 -12.8881    166.3914     87.9929   7.3468211981e+01   3.0801567964e+01    0.7339858    0.5539759  37.08  0.003407411    1.424    0.298
        50 -11.7230    158.5802     84.7084   7.4203534732e+01   3.3314449040e+01    0.4782897    0.3553054  36.24  0.001474841    1.465    0.318
        51 -10.8701    162.4578     83.2455   7.2908421025e+01   3.2645429333e+01     0.305454    0.2336586 -52.15 0.0005594289    1.374    0.272
        52  -9.9812    140.3130    105.2942   8.4416598119e+01   3.3419030195e+01    0.1542441    0.1240278   3.42 0.0002990375    1.596    0.373
        53 -11.0709    112.0948    103.8576   9.1401166106e+01   3.9634076331e+01    0.2381034    0.2086523 -89.07  0.001233251    1.242    0.195
        54 -11.1391    144.5882    101.9901   8.2469916527e+01   3.3156549894e+01    0.2999919    0.2729647  14.43 0.0006306799    1.199    0.166
        55 -10.8137    132.0160     97.5828   8.4380149799e+01   3.6874452522e+01    0.2761445     0.250592 -66.76 0.0006763977    1.143    0.125
        56 -12.6263    107.6648    162.6103   1.0468582145e+02   2.7286828309e+01    0.4756371    0.4105205 -85.99  0.001563601    1.138    0.121
        57  -9.9366    113.4710     94.9858   8.8620716226e+01   4.1345722067e+01    0.2273427     0.145188 -47.12 0.0003356407    1.493    0.330
        58 -10.8238    137.4441     91.8802   8.1361015355e+01   3.6862172001e+01    0.2938476     0.259306  53.85 0.0007524356    1.176    0.149
        59 -13.2822    106.8215    156.5837   1.0389163251e+02   2.8722320858e+01    0.8926088    0.5393968  28.23  0.003612112    2.114    0.527
        60 -13.1198    109.1389    149.4142   1.0209243988e+02   2.9890767677e+01     0.709663    0.5105762 -72.29  0.002923989    1.479    0.324
        61 -12.3613    150.3731     87.1017   7.6800798651e+01   3.4822869836e+01    0.3284246    0.2711679 -36.17 0.0004479309    1.183    0.155
        62 -13.3393    163.2546     74.6555   7.0107234561e+01   3.4018692560e+01    0.4713703    0.3482525  -4.03  0.001737811    1.722    0.419
        63 -10.7047     87.3687     76.5477   9.1029018596e+01   5.0395208243e+01    0.2946259    0.1271116 -60.03 0.0009474551    3.322    0.699
        64 -10.9742    151.9928     75.3599   7.2809702532e+01   3.6675715673e+01    0.5949634    0.1705737  49.76  0.001730736    3.448    0.710
        65 -10.8697     83.6883     72.2288   9.0881770542e+01   5.1988021173e+01    0.3240496    0.2013155  42.70  0.000879407    1.768    0.434
        66 -10.5339     48.7731     70.7865   1.0276955104e+02   5.7371977029e+01    0.3345811    0.1685136 -42.36  0.001527694    1.926    0.481
        67 -11.3147    224.4883    238.5170   9.3837752355e+01  -4.0128570382e+00    0.2347272    0.1011811 -25.68  0.001267133    2.815    0.645
        68 -12.6259    189.3036    148.2687   8.4026200879e+01   1.4496836178e+01    0.3683267    0.2532036 -68.05  0.001611058    2.436    0.589
        69 -10.1259    164.1899     68.4759   6.7967472343e+01   3.4872280966e+01    0.2511345    0.2110639 -53.88 0.0004388076    1.238    0.192
        70 -11.7455    121.4626     66.9950   7.7678176843e+01   4.5493921220e+01    0.2489005    0.2105939  47.23 0.0006255161    1.229    0.186
        71 -11.0180    105.2238     66.6062   8.2195683749e+01   4.9085640529e+01    0.2108845    0.1427188  34.34 0.0008668394    1.651    0.394
        72 -12.8978     22.3201     58.4710   1.0989924253e+02   6.2752405287e+01    0.6882517    0.3727216 -44.61  0.002422121    1.620    0.383
        73 -10.2204     30.0468     54.5091   1.0562015643e+02   6.3004472983e+01    0.2344429    0.2050789   9.21  0.001195584    1.359    0.264
        74 -10.6441    225.1432    233.8800   9.3045506203e+01  -3.6225786016e+00    0.1627172    0.1346247  28.17  0.001228308    1.267    0.211
        75 -13.6173     84.1098    223.5045   1.1692994220e+02   1.9055900789e+01    0.6988281      0.51187  66.57  0.002504347    1.149    0.129
        76 -10.7073    114.4507    227.2172   1.1170202336e+02   1.4122425106e+01    0.2408812    0.1153844 -63.17  0.001298306    2.595    0.615
        77 -11.4567      1.5647    148.2648   1.2796400065e+02   4.3326143961e+01    0.3277766    0.1226567 -79.20  0.001378858    2.070    0.517
        78 -14.8065    195.3496     69.5507   6.2455388328e+01   2.6818240611e+01     1.910164     1.250114  41.60  0.008497101    1.689    0.408
        79 -10.3498    195.0974     38.9416   5.3293904623e+01   3.1374196334e+01    0.2162855    0.2006519 -47.17 0.0003251747    1.030    0.029
        80 -11.1762    190.0011     35.5309   5.2957056177e+01   3.3148732886e+01    0.2671422    0.2062438 -25.53 0.0005916869    1.299    0.230
        81 -11.0828    160.0941     29.1287   5.5483201543e+01   4.1879909139e+01    0.2365687    0.2292159 -12.18 0.0003020039    1.051    0.049
        82 -11.9723     24.5574     27.0314   9.8709555659e+01   6.9286363109e+01     0.365667    0.3281863 -35.35  0.001824935    1.176    0.149
        83 -10.9129     53.2351     27.3239   8.5174356327e+01   6.5792233447e+01    0.2574642    0.2460043 -66.50  0.001673291    1.409    0.290
        84 -10.7569    158.7290    220.1865   1.0266327387e+02   8.3386285119e+00    0.1753591    0.1496821  76.13  0.001110394    1.458    0.314
        85 -10.9343     40.3548     24.3536   8.9660584211e+01   6.8073255772e+01    0.2521838    0.1542648  -3.13  0.001027701    2.184    0.542
        86 -10.7074     44.0535     21.9270   8.6737515370e+01   6.8020267778e+01    0.2360575    0.2001014   4.79  0.001095819    1.188    0.158
        87 -10.9929     69.6293    218.0170   1.1914075765e+02   2.1939213891e+01    0.2620211    0.1777996  74.00  0.001641262    1.299    0.230
        88 -16.0244     20.1768    185.8581   1.2632458859e+02   3.3768448346e+01     1.919835     1.251431  87.90  0.009209771    1.228    0.185
        89 -10.9688     38.6072     19.2647   8.8039028550e+01   6.9187536657e+01    0.1810325   0.09825534 -33.67 0.0009418547    1.587    0.370
        90 -13.1074     13.2003     39.4561   1.0876715232e+02   6.7609880568e+01    0.7084547    0.4848656  65.18  0.003249727    2.229    0.551
        91 -10.5710     31.9586     16.0055   8.9760726335e+01   7.0552355702e+01    0.1989794    0.1562116 -24.42 0.0008953898    1.017    0.017
        92 -11.4440    116.1829    205.2525   1.0887012751e+02   1.7566879454e+01    0.5086575    0.2506222  38.27  0.002570786    1.855    0.461
        93 -12.8650     90.2885    167.9897   1.0948604660e+02   2.8914573881e+01    0.5989857    0.3909713 -54.72  0.001937544    1.640    0.390
