#   1 NUMBER                 Running object number                                     
#   2 MAG_AUTO               Kron-like elliptical aperture magnitude                    [mag]
#   3 X_IMAGE                Object position along x                                    [pixel]
#   4 Y_IMAGE                Object position along y                                    [pixel]
#   5 X_WORLD                Barycenter position along world x axis                     [deg]
#   6 Y_WORLD                Barycenter position along world y axis                     [deg]
#   7 A_WORLD                Profile RMS along major axis (world units)                 [deg]
#   8 B_WORLD                Profile RMS along minor axis (world units)                 [deg]
#   9 THETA_WORLD            Position angle (CCW/world-x)                               [deg]
#  10 FWHM_WORLD             FWHM assuming a gaussian core                              [deg]
#  11 ELONGATION             A_IMAGE/B_IMAGE                                           
#  12 ELLIPTICITY            1 - B_IMAGE/A_IMAGE                                       
         1 -14.0186    187.6645     22.8714   2.8976451858e+02   6.4195108979e+00   0.09964939   0.05158263 -53.49  0.007358042    1.836    0.455
         2 -14.2648    195.5829     17.4512   2.8964185577e+02   6.4360792092e+00   0.06946111   0.06479605  -8.39  0.007275851    1.122    0.109
         3 -14.0037    200.8343      9.4018   2.8953384391e+02   6.4984179120e+00    0.0715475   0.04613313  -3.57  0.001366883    2.118    0.528
         4 -10.9962     17.4063     11.7875   2.9164212275e+02   7.5311056857e+00  0.009899127  0.005652233 -51.55  0.000956574    1.689    0.408
         5 -10.5543    101.5498    241.9185   2.9205018011e+02   4.3860559300e+00   0.02108832   0.00951341 -72.74   0.00167294    2.769    0.639
         6  -9.5757    234.4898    250.5247   2.9058952018e+02   3.5189012742e+00  0.006491579  0.006356522 -55.01 -1.438806e-05    1.004    0.004
         7 -10.6412    205.0178    249.4908   2.9091824408e+02   3.7012417821e+00  0.009924822  0.008870622 -63.09 0.0003598109    1.098    0.089
         8  -9.4728    184.0306    249.9862   2.9115975284e+02   3.8167907029e+00  0.008174503  0.007600229 -62.18  0.001003357    1.054    0.052
         9 -11.6546    143.7537    249.3621   2.9161409124e+02   4.0565692979e+00   0.03477404   0.01837629  79.31  0.002477948    3.934    0.746
        10 -10.2364    132.1737    224.8506   2.9160040166e+02   4.4068398454e+00   0.01129394   0.00907995  40.86 0.0007707927    1.265    0.209
        11 -10.9561    136.0799    227.5676   2.9157207386e+02   4.3528760474e+00   0.02071134   0.01003868 -58.00  0.001882462    1.944    0.485
        12 -12.0271    150.1000    247.9470   2.9153350523e+02   4.0363042457e+00   0.03378092   0.01330579  35.56  0.002805459    2.428    0.588
        13 -10.5835    152.5117    243.6428   2.9148053005e+02   4.0721477971e+00   0.01641893   0.01195276  76.56  0.001556691    1.679    0.404
        14 -11.8837    146.1627    240.8020   2.9153589619e+02   4.1416441650e+00    0.0220693    0.0178771 -36.50 0.0006183142    1.288    0.223
        15  -9.6934    150.5237    239.4484   2.9147824967e+02   4.1321210939e+00   0.01109629  0.009861508 -85.73 0.0006362858    1.174    0.148
        16 -12.6255    134.8390    236.3462   2.9163829188e+02   4.2585218991e+00   0.03649676   0.02057021 -72.54  0.003420336    1.984    0.496
        17 -10.4646    126.5689    248.7424   2.9180591960e+02   4.1628819142e+00   0.01668552    0.0108464  65.27  0.001389689    1.973    0.493
        18 -11.4588    121.7538    244.9625   2.9183829535e+02   4.2343656773e+00   0.01695961   0.01029734  51.05  0.001654265    1.859    0.462
        19 -12.6951    126.2382    240.7348   2.9176219454e+02   4.2573920036e+00   0.02429591    0.0207246 -58.55  0.001767575    1.142    0.125
        20 -12.1753    110.1038    248.5218   2.9199196263e+02   4.2603749407e+00   0.06064869   0.01429546  33.57  0.004112639    3.643    0.725
        21 -10.6632     97.9921    246.4959   2.9211779558e+02   4.3536132001e+00   0.02442398   0.01378121 -66.59  0.002346605    1.808    0.447
        22 -11.0377     87.8096    249.2987   2.9225028924e+02   4.3798575182e+00    0.0224323   0.02013933 -78.33  0.002579351    1.134    0.119
        23 -11.1841     81.4598    246.6630   2.9230695536e+02   4.4469166784e+00   0.03626098   0.01862429 -75.78  0.003107927    2.439    0.590
        24 -11.7088     84.3123    241.7528   2.9224540595e+02   4.4872875603e+00   0.06498507   0.03024404 -23.68   0.00382449    5.726    0.825
        25  -9.7725     83.4864    238.4061   2.9223498496e+02   4.5307580868e+00   0.01397901   0.01010134  40.37 0.0008555807    1.404    0.288
        26 -10.1085     86.2707    236.9810   2.9219484520e+02   4.5312053643e+00   0.01336601   0.01188257 -11.50 0.0008065509    1.208    0.172
        27  -9.7715     74.5296    250.5692   2.9240896477e+02   4.4416335393e+00   0.01570615  0.006686416  23.64  0.001284187    2.558    0.609
        28 -15.5497      4.1013     59.8546   2.9208046170e+02   7.0524412844e+00     1.363698    0.1080102 -63.42   0.04220309   17.300    0.942
        29  -9.2939    158.1341    241.8342   2.9140584081e+02   4.0605982622e+00  0.009124997  0.007414802 -33.55 0.0003962205    1.302    0.232
        30 -10.5405    108.0174    240.4226   2.9196770137e+02   4.3660769977e+00   0.01726872  0.009261689 -62.28 0.0008765866    1.817    0.450
        31 -10.4776    104.1826    237.8752   2.9199624802e+02   4.4176464752e+00   0.01077213  0.008827288  29.34 0.0006240748    1.238    0.192
        32 -10.9483    173.3899    240.0926   2.9122198879e+02   3.9926249354e+00   0.01631594   0.01146029 -85.73 0.0008254788    1.682    0.405
        33 -10.8245    115.8137    240.1648   2.9187744407e+02   4.3241077899e+00   0.01195099   0.01052144  83.98 0.0007356327    1.213    0.176
        34  -9.5485    119.0501    237.1057   2.9182247126e+02   4.3408225286e+00   0.01344352  0.008499817  79.54  0.001241341    2.235    0.553
        35 -11.4326     98.6700    231.2775   2.9201988919e+02   4.5257344832e+00   0.02120945    0.0181946 -60.97  0.002540796    1.139    0.122
        36 -12.2571    110.4021    230.0485   2.9187904790e+02   4.4723152156e+00   0.03801351   0.02510626  21.86  0.002583381    1.600    0.375
        37 -10.7732    117.5148    224.3416   2.9176423101e+02   4.4973021149e+00   0.01297965   0.01276821  38.60 0.0009734526    1.035    0.034
        38 -11.7319    246.5853    232.5920   2.9034546406e+02   3.6560878636e+00   0.02510118   0.01058714  31.35  0.001948768    2.301    0.565
        39 -10.4414    121.3338    232.9153   2.9177162673e+02   4.3761145318e+00   0.01455777   0.01071034  41.57  0.001117987    1.385    0.278
        40 -10.8210    156.4470    231.8827   2.9136594840e+02   4.1853988718e+00   0.01220913   0.01109972  -7.58 0.0008491096    1.167    0.143
        41  -9.6343     92.6405    231.7223   2.9209116642e+02   4.5553372439e+00   0.01329304  0.007995559 -63.57  0.001321016    1.638    0.390
        42 -12.2230    142.5891    228.5500   2.9150383282e+02   4.3039445489e+00   0.08727822   0.03470318 -79.39  0.004695697    6.466    0.845
        43 -11.5959    142.0084    221.7522   2.9147008159e+02   4.3859034091e+00   0.01487506  0.009642117  31.65 0.0002282111    1.543    0.352
        44 -11.6708    142.3180    218.6967   2.9144841371e+02   4.4194493862e+00   0.01745403   0.01210987  46.86 0.0003423993    1.518    0.341
        45 -13.4675     45.7521    246.1413   2.9271036716e+02   4.6584369951e+00   0.04233051   0.03247961 -29.79  0.004733164    1.440    0.306
        46 -14.3002     10.4790    206.8171   2.9287953778e+02   5.3161420244e+00    0.1002854   0.06759012  13.97  0.007869288    1.678    0.404
        47 -14.8994     27.2030    248.2343   2.9293392860e+02   4.7408387524e+00   0.06704171   0.03562564  21.67  0.006216015    2.053    0.513
        48 -10.7147     79.5128    229.1276   2.9222525598e+02   4.6609783507e+00  0.009236061  0.008022699 -73.87  0.000628057    1.166    0.142
        49 -10.6766    190.7817    228.1413   2.9095320354e+02   4.0302754963e+00   0.01070229   0.01027708   6.71 0.0002587445    1.072    0.067
        50  -9.9943    180.9646    229.4846   2.9107282640e+02   4.0714881907e+00  0.009650225  0.006517683  25.73 0.0004481344    1.520    0.342
        51 -11.4243    134.6052    249.6007   2.9171957856e+02   4.1065984152e+00   0.02811098   0.01186135  38.73  0.002384748    2.339    0.572
        52 -11.0503    164.8785    226.8955   2.9124040988e+02   4.1943617071e+00   0.01718663  0.009991643 -76.78  0.001345427    2.046    0.511
        53  -9.8042    164.1212    221.0548   2.9121432598e+02   4.2662630162e+00   0.01689294  0.007227183 -46.48  0.001395861    2.416    0.586
        54 -11.0576    245.1273    226.8971   2.9032813618e+02   3.7303116616e+00   0.01070054  0.009042147  67.22  0.001200457    1.290    0.225
        55  -9.9388     92.3001    226.3785   2.9206336691e+02   4.6191131900e+00   0.02164204  0.009961896  58.38   0.00153082    3.755    0.734
        56 -10.3473     89.8587    218.9957   2.9204739626e+02   4.7185828133e+00    0.0171629   0.01115624  58.66  0.001364316    1.847    0.459
        57 -11.2770     98.4916    223.0740   2.9197328072e+02   4.6216528607e+00   0.01735411   0.01597332  17.54 0.0003063266    1.120    0.107
        58  -9.8464     93.8499    217.2458   2.9199157044e+02   4.7158235230e+00   0.01684178     0.010175 -80.56  0.001584919    2.041    0.510
        59 -10.1004    110.4881    222.6209   2.9183401238e+02   4.5577289746e+00    0.0135256   0.01042612  27.32 0.0009185182    1.321    0.243
        60 -10.5479    104.9826    222.9719   2.9189877339e+02   4.5854148832e+00   0.01461888   0.01040513  -9.16 0.0004068614    1.761    0.432
        61 -11.3282    105.0468    218.9712   2.9187431128e+02   4.6313186887e+00   0.01232952   0.01061185 -72.98            0    1.175    0.149
        62 -12.7288     19.0115    250.0207   2.9303774746e+02   4.7672245926e+00   0.01401983   0.01280834  33.03 0.0006548406    1.112    0.101
        63  -8.9459    219.9864    223.5009   2.9059359663e+02   3.9150205224e+00  0.009153976  0.006494323  26.91 0.0009806604    1.438    0.305
        64 -10.7772    149.9910    222.3630   2.9138286973e+02   4.3327513992e+00   0.01178197  0.009700442 -55.46 0.0001803333    1.181    0.153
        65  -9.1841    149.5436    218.5395   2.9136525085e+02   4.3795447015e+00  0.009631731  0.007683512  73.73 0.0004928373    1.428    0.300
        66 -10.4167    246.3083    218.6845   2.9026583651e+02   3.8183465118e+00   0.01353748  0.008141553  -5.37  0.001190809    2.501    0.600
        67 -10.4741    177.1244    218.2690   2.9104984709e+02   4.2233335938e+00   0.01859247   0.01308865  72.52  0.001299855    1.774    0.436
        68 -10.2228    233.3642    217.2098   2.9040412813e+02   3.9103037099e+00   0.01486776  0.009856732  78.43 0.0009229107    2.021    0.505
        69 -10.3573    183.4520    214.2344   2.9095388674e+02   4.2333977049e+00   0.01587612  0.009732489  48.47  0.000847292    1.780    0.438
        70  -9.0807     85.7345    215.3303   2.9207262801e+02   4.7847468108e+00  0.006512248  0.006251482 -82.36 0.0003266885    1.048    0.046
        71 -10.0617     88.4860    213.2875   2.9202917957e+02   4.7925236037e+00   0.01472413   0.01224709 -48.78 0.0004418538    1.184    0.155
        72 -10.0515    141.8833    213.2117   2.9142078509e+02   4.4853854208e+00   0.01548926   0.01108443  53.32  0.001661299    1.534    0.348
        73 -10.8147    101.5392    212.2875   2.9187459935e+02   4.7288519451e+00   0.02271484   0.01569231  29.97  0.002445938    1.459    0.315
        74  -9.5456    152.1470    211.9036   2.9129620290e+02   4.4412394097e+00   0.01001578  0.008784551  72.02 0.0005238117    1.225    0.183
        75 -10.2675    131.3582    211.7907   2.9153214783e+02   4.5625780046e+00   0.01172881   0.01020971  75.38   0.00051573    1.241    0.194
        76  -9.6371    134.6565    208.3204   2.9147399201e+02   4.5836700000e+00   0.01536527  0.008799403 -44.13   0.00105785    1.816    0.449
        77 -11.1025    133.2110    202.8242   2.9145780047e+02   4.6555750599e+00   0.01254551   0.01088755 -60.93 0.0002650026    1.126    0.112
        78 -10.5812    134.2194    197.4999   2.9141468749e+02   4.7113252117e+00   0.01641557   0.01129821 -60.14  0.000885816    1.408    0.290
        79  -9.3044     81.3469    211.0599   2.9209727746e+02   4.8594260510e+00   0.01740864  0.008316852  55.89  0.001347391    3.066    0.674
        80  -9.0304    109.4761    210.4864   2.9177353448e+02   4.7039160087e+00  0.006486521  0.006364133 -73.50 0.0002350704    1.014    0.014
        81  -9.4912    198.0680    207.9067   2.9075001838e+02   4.2220226309e+00    0.0134933  0.008076913 -28.26  0.001112716    2.191    0.543
        82 -10.6891    174.5049    205.9832   2.9100660527e+02   4.3805019825e+00   0.01806336   0.01416357 -40.15    0.0009782    1.312    0.238
        83 -11.4861     92.0813    204.9149   2.9193856995e+02   4.8686541172e+00   0.02892783   0.01541874  23.78  0.001507009    1.986    0.496
        84 -11.4882    247.1958    205.8026   2.9017905005e+02   3.9620181933e+00    0.0245479   0.01514433   2.58  0.002296624    2.200    0.546
        85 -10.9361    108.5524    203.4755   2.9174244098e+02   4.7903332694e+00   0.02041242   0.01107685 -49.59    0.0005422    1.802    0.445
        86 -10.0512     97.2004    207.4248   2.9189515903e+02   4.8101126496e+00   0.01214406    0.0104625  47.72 0.0005786543    1.196    0.164
        87  -9.5715    148.6759    205.3387   2.9129669878e+02   4.5371966085e+00   0.01377084  0.008524403 -28.74  0.001304061    2.045    0.511
        88  -9.8974    125.9568    205.6954   2.9155744353e+02   4.6642434149e+00    0.0114298  0.009017562  73.75 0.0006730402    1.455    0.313
        89  -8.9061    114.2617    206.3961   2.9169476384e+02   4.7236213160e+00  0.007093489  0.004626769 -36.24 0.0006970884    1.712    0.416
        90 -11.4387     96.3408    239.2494   2.9209365252e+02   4.4469471915e+00   0.02333591   0.01830881 -70.04  0.001858579    1.291    0.225
        91  -9.2672    156.5570    204.4732   2.9120185816e+02   4.5016791170e+00  0.006480264  0.006330874 -77.26 0.0001397653    1.021    0.021
        92  -9.9496    103.3409    203.3139   2.9180083131e+02   4.8222577764e+00   0.01397739   0.01033387  -1.85  0.001163265    1.620    0.383
        93  -9.6975    224.8112    202.3656   2.9041297298e+02   4.1313191010e+00   0.01006406   0.00878471 -82.54 0.0004869166    1.194    0.163
        94 -11.0367    197.3506    200.9977   2.9071707115e+02   4.3060258478e+00   0.01838456   0.01262265  44.86  0.001936184    1.514    0.340
        95  -9.4054    123.0705    200.8715   2.9156165772e+02   4.7366895868e+00   0.01006628  0.008811829  62.30 0.0005854218    1.212    0.175
        96  -9.5812    169.5257    200.1477   2.9102856003e+02   4.4767455594e+00   0.00951927  0.008779026  31.14 0.0006274143    1.103    0.093
        97 -10.2589    141.4048    198.4938   2.9133878904e+02   4.6583401231e+00   0.01737832   0.01128204 -22.73 0.0009251544    2.001    0.500
        98 -10.9248    166.2139    205.0159   2.9109519091e+02   4.4396046917e+00   0.02073118   0.01691156 -60.83  0.002094006    1.196    0.164
        99  -9.0241    158.5489    199.5053   2.9114965699e+02   4.5476095254e+00  0.006493122  0.006338192 -62.70  5.42487e-05    1.006    0.006
       100 -10.5270    100.5813    198.2415   2.9180215344e+02   4.8968420052e+00   0.01174519   0.01092297 -37.46 0.0002393869    1.084    0.077
       101  -9.9046     58.0032    199.0244   2.9229185432e+02   5.1330855835e+00   0.01187174  0.008395237 -57.45  0.000358715    1.364    0.267
       102 -10.3471     57.0000    194.4493   2.9227616450e+02   5.1917901326e+00   0.02215726   0.01080493 -61.21  0.002008927    1.972    0.493
       103  -8.6553    149.6998    198.7213   2.9124571650e+02   4.6077985448e+00  0.006628066  0.004907941 -27.42 0.0002004228    1.541    0.351
       104 -11.9705     77.4972    187.7905   2.9200310661e+02   5.1507874041e+00   0.01677508   0.01198556 -39.46 0.0008471491    1.473    0.321
       105 -12.0441     72.9160    194.6141   2.9209578818e+02   5.0982420071e+00   0.02449974   0.01263763 -45.64  0.001337137    1.996    0.499
       106 -10.2068     70.7075    190.0742   2.9209402187e+02   5.1634821278e+00   0.01064265   0.00935104  12.97 0.0002475557    1.195    0.163
       107 -10.2254     52.7313    198.1164   2.9234654271e+02   5.1739317109e+00   0.01174301  0.009758743   9.03 0.0006712532    1.301    0.231
       108  -9.2989     95.3200    197.0206   2.9185483559e+02   4.9412999752e+00  0.009397785  0.008483778 -57.53 0.0005293442    1.081    0.075
       109 -10.2777    113.5419    195.9906   2.9164117757e+02   4.8481219404e+00   0.01361229  0.008124697  42.70   0.00134418    1.728    0.421
       110  -9.1622    107.6203    195.7941   2.9170745216e+02   4.8845550061e+00  0.009255379  0.006268186 -77.32 0.0009422611    1.644    0.392
       111 -16.0396      8.6478    245.7220   2.9313035801e+02   4.8764710301e+00    0.1444126    0.0863234 -36.16   0.01391559    1.938    0.484
       112 -12.1721    248.7774    241.1378   2.9037141272e+02   3.5446896254e+00   0.02197048   0.01599934  80.14  0.002325374    1.680    0.405
       113 -10.0056    177.6827    193.9599   2.9089893943e+02   4.5011220578e+00   0.02135112   0.01128302 -24.25  0.001665239    3.174    0.685
       114 -10.5697    172.9626    192.8958   2.9094631887e+02   4.5407137873e+00    0.0216826   0.01089438 -49.48  0.001383664    1.946    0.486
       115 -10.5589    159.5962    194.1819   2.9110608551e+02   4.6031050713e+00   0.01690217   0.01022809  42.76  0.001042045    1.704    0.413
       116  -9.9027    120.5816    194.7261   2.9155349681e+02   4.8221255938e+00   0.02049906  0.007343067  36.14  0.001623231    2.645    0.622
       117 -10.2004     83.7744    193.7635   2.9196702999e+02   5.0455239818e+00   0.02037136   0.01591395   2.71  0.001062545    1.456    0.313
       118 -10.8376     73.5598    237.9464   2.9234527269e+02   4.5932394551e+00   0.01878085   0.01081036  68.41  0.001577039    2.649    0.623
       119 -10.5175    191.4567    191.4274   2.9072715977e+02   4.4507347797e+00   0.01239065    0.0121612 -53.87 0.0005987171    1.006    0.006
       120  -9.6532    112.9950    192.0759   2.9162415708e+02   4.8965538279e+00  0.009657474  0.009439967 -59.25            0    1.002    0.002
       121  -9.4961     86.1475    199.0176   2.9197117067e+02   4.9710713996e+00   0.00978484  0.008131215 -35.67 0.0003192948    1.252    0.201
       122  -9.0363     47.4681    192.5320   2.9237342172e+02   5.2688236794e+00  0.006541115   0.00628668 -41.74 0.0001157311    1.037    0.036
       123 -10.3432    135.4711    190.2869   2.9135757187e+02   4.7875081601e+00   0.01129096   0.01101503 -69.18 0.0003549776    1.014    0.013
       124  -8.9338    197.9541    189.9815   2.9064464385e+02   4.4298570059e+00  0.007594056  0.007465994  19.82            0    1.038    0.037
       125 -11.3286    249.9544    187.6364   2.9003948378e+02   4.1558857154e+00   0.01944534   0.01031965 -56.21  0.001844867    1.783    0.439
       126  -9.6809     54.8803    188.8479   2.9226711028e+02   5.2687943245e+00  0.009569901  0.008634296 -14.06 0.0003579696    1.178    0.151
       127 -10.3854     43.9553    188.7301   2.9239092175e+02   5.3330191715e+00    0.0182363   0.01163806   7.74  0.001786864    1.944    0.486
       128  -9.0104     59.7336    188.3069   2.9220859159e+02   5.2471165752e+00  0.006544144  0.004966963  68.52 0.0002731756    1.533    0.348
       129  -9.6751    175.8945    186.9860   2.9087779484e+02   4.5920792050e+00  0.009857344  0.009462552 -86.90 0.0004511291    1.054    0.051
       130  -9.5405    124.1316    186.1513   2.9146212358e+02   4.9008023881e+00   0.01384482  0.008200137  62.72  0.001093559    2.295    0.564
       131 -12.9716     42.9577    237.4526   2.9269079204e+02   4.7750322452e+00   0.02961682   0.02121508 -15.56  0.000413352    1.727    0.421
       132  -9.2756     67.8020    186.5359   2.9210614150e+02   5.2211477795e+00  0.009304907  0.006521751  24.34 0.0007406618    1.475    0.322
       133  -8.9091    161.4577    184.6118   2.9102797867e+02   4.7029908209e+00    0.0159821  0.002488839 -49.22 0.0008075242    6.116    0.837
       134 -10.4831    141.8967    184.1775   2.9124809011e+02   4.8210424368e+00   0.02246605  0.009073133  45.04  0.001771459    2.777    0.640
       135  -9.9123     38.2538    184.1070   2.9242850633e+02   5.4193009839e+00   0.01159941  0.009913578   2.62 0.0006276479    1.271    0.213
       136 -10.0351     37.1576    180.0350   2.9241686571e+02   5.4727156716e+00   0.01185494  0.009314497 -71.53 0.0004131944    1.299    0.230
       137  -9.1663    217.3983    183.2448   2.9038338811e+02   4.3951706665e+00  0.008698746   0.00629253 -78.28 0.0003369267    1.515    0.340
       138 -11.0082     17.3678    182.2110   2.9265536450e+02   5.5612906876e+00   0.01597376  0.009778959 -12.18  0.001435286    2.414    0.586
       139 -11.0112    248.5005    177.9871   2.8999849547e+02   4.2757673150e+00   0.01271662  0.009874965 -89.26  0.001409675    1.459    0.314
       140  -9.1465    116.3325    181.7074   2.9152454645e+02   4.9972096398e+00  0.006855629  0.004884936  61.02 0.0003990492    1.634    0.388
       141  -9.9709    104.3147    180.8989   2.9165664373e+02   5.0759004901e+00  0.009953251  0.008632271  44.69 0.0002807826    1.180    0.152
       142 -10.2675     87.2773    183.5592   2.9186655505e+02   5.1433733369e+00   0.02168954   0.01062397  30.04  0.001976801    2.022    0.505
       143 -10.3589    129.0294    179.5588   2.9136716001e+02   4.9487629958e+00   0.01181859  0.009100956 -54.71  0.001332505    1.259    0.206
       144  -9.8944     48.1785    179.8333   2.9229003951e+02   5.4116518986e+00  0.009464496  0.008505507  55.76  0.000442737    1.156    0.135
       145  -9.6294     12.5114    178.9765   2.9269157393e+02   5.6266114674e+00  0.009861466  0.008954245  17.57 0.0005657243    1.138    0.121
       146 -10.7688    181.9914    177.0053   2.9074901210e+02   4.6721881311e+00   0.01462324    0.0122839  -7.91  0.001605486    1.324    0.244
       147 -10.4848     80.5537    163.6671   2.9182505514e+02   5.4122141741e+00   0.01454669   0.01164963  69.78  0.001046028    1.410    0.291
       148 -10.8427     85.0055    166.0237   2.9178831112e+02   5.3592970369e+00   0.02076879   0.01083381 -64.34 0.0008534063    1.911    0.477
       149 -12.9810     91.6477    167.5463   2.9172165444e+02   5.3033908816e+00   0.06036592   0.02797747 -50.20  0.002492005    2.089    0.521
       150  -9.4760    109.1579    176.1655   2.9157334544e+02   5.1027037577e+00  0.009047645  0.007578123  72.49 0.0002762012    1.317    0.241
       151 -11.4272     89.0488    176.0428   2.9180173941e+02   5.2201028520e+00   0.01190577    0.0104975 -74.18 0.0003562702    1.147    0.128
       152 -11.7948     73.3484    174.2591   2.9197007644e+02   5.3312173128e+00    0.0243732   0.02105649  -6.76  0.002166374    1.264    0.209
       153  -9.5164     67.5240    174.8990   2.9204025980e+02   5.3573656944e+00  0.009679438  0.006394857 -64.47 0.0003162622    1.499    0.333
       154 -12.7646     18.2529    170.7438   2.9257733337e+02   5.6888804038e+00   0.04534301   0.02216681 -84.88  0.003258653    3.710    0.730
       155  -9.8717     88.9834    157.0289   2.9168952871e+02   5.4403943165e+00   0.01139721  0.009227155 -61.43  0.001315882    1.207    0.171
       156  -9.9591     48.1770    169.8109   2.9223061251e+02   5.5276071442e+00   0.01315266  0.009164607 -33.58  0.001378008    1.605    0.377
       157 -11.0497     43.7843    169.4467   2.9227853287e+02   5.5570959758e+00   0.02062215   0.01451312 -16.89  0.001246885    1.776    0.437
       158  -9.7788    154.5435    172.9408   2.9103725784e+02   4.8778885784e+00   0.01400109  0.009564605  -4.45  0.001133645    1.887    0.470
       159 -10.0887    100.4585    170.3843   2.9163811260e+02   5.2197528511e+00   0.01339846  0.009822967  34.90 0.0005741796    1.371    0.270
       160 -10.7198     68.9435    168.5686   2.9198650308e+02   5.4224172544e+00   0.01877217  0.008652415 -57.47  0.001666247    2.030    0.507
       161  -8.8203    122.5018    169.4138   2.9138119693e+02   5.1037674349e+00  0.006432765  0.006330872  69.68 6.712432e-05    1.032    0.031
       162  -9.3136    112.9670    169.4825   2.9149023036e+02   5.1580119699e+00   0.00976094  0.004722496  49.48 0.0008092732    2.467    0.595
       163 -10.5161    107.3711    168.4057   2.9154758836e+02   5.2027565491e+00   0.01368522   0.01047002 -11.02  0.001383786    1.547    0.353
       164 -11.6468    240.6688    150.7818   2.8992529427e+02   4.6353962249e+00   0.01780084   0.01368545  27.50  0.001408262    1.325    0.245
       165 -12.3486    245.0091    162.1464   2.8994373408e+02   4.4789724795e+00   0.03031205   0.01372888 -57.97  0.002677633    2.068    0.516
       166 -10.6293    249.0530    160.5046   2.8988797923e+02   4.4744947560e+00   0.01556281   0.01034717  24.88    0.0016298    1.555    0.357
       167 -11.7978    245.5425    156.4037   2.8990342203e+02   4.5422102510e+00   0.06081794   0.01529249  42.82  0.003748278    4.536    0.780
       168  -9.6045     58.7565    167.5833   2.9209678163e+02   5.4924807389e+00   0.01033407  0.007747144 -70.80 0.0006412784    1.366    0.268
       169  -9.8238    250.4567    165.9888   2.8990473080e+02   4.4030163221e+00   0.01033967  0.006339041 -62.65 0.0008409429    1.598    0.374
       170  -9.4820    175.8724    166.1994   2.9075431785e+02   4.8324887653e+00  0.009830291  0.008531947  63.74 0.0003014173    1.231    0.188
       171  -9.3169     77.0000    165.9380   2.9187904951e+02   5.4064281443e+00   0.01046527  0.003674003 -62.91            0    2.791    0.642
       172  -8.9487    124.2944    165.3308   2.9133649754e+02   5.1406317721e+00  0.006916826  0.004820182 -31.69 0.0002089264    1.634    0.388
       173 -10.7248     24.8563    164.3089   2.9246389009e+02   5.7253804326e+00   0.01359305  0.006753284 -52.98  0.001240666    1.909    0.476
       174 -10.3115     47.3467    163.4751   2.9220248798e+02   5.6056787752e+00   0.01155575   0.01013602 -78.31 0.0005866063    1.169    0.145
       175 -11.0231     23.6222    149.2193   2.9238847571e+02   5.9070355049e+00   0.01321426   0.00921993 -82.89 0.0009058099    1.657    0.397
       176 -12.3252     35.4746    160.7672   2.9232179895e+02   5.7053034425e+00   0.02838109   0.02565761 -79.29   0.00267955    1.127    0.113
       177 -12.5521     24.0717    155.2322   2.9241901371e+02   5.8348948658e+00   0.03617648   0.01627194  34.87  0.001007596    2.156    0.536
       178 -11.8540    248.7631    171.6409   2.8995767980e+02   4.3475487880e+00   0.02262264   0.01712303  36.01  0.002548935    1.331    0.249
       179 -10.8081     59.1702    159.5723   2.9204451334e+02   5.5827656655e+00   0.01153304   0.01031664 -63.66 0.0002727071    1.098    0.089
       180  -9.0717    171.4341    159.4736   2.9076479178e+02   4.9359054640e+00  0.006479671  0.006318022 -74.89 0.0001075622    1.021    0.020
       181  -9.6785    119.9210    159.0436   2.9134893229e+02   5.2385849283e+00  0.009519954  0.009271581 -87.65 0.0003023347    1.035    0.034
       182  -9.5637     82.4649    159.4573   2.9177826169e+02   5.4498896509e+00  0.006465144  0.006354433 -71.53 6.958588e-05    1.012    0.011
       183 -10.3230     46.6890    158.2295   2.9217885858e+02   5.6701445394e+00   0.01583225  0.009251494 -45.13  0.001330562    1.752    0.429
       184  -9.6768     52.5608    158.1161   2.9211123047e+02   5.6376621447e+00  0.009694745  0.008785645  17.41 0.0005157923    1.141    0.123
       185 -11.1856     73.2611    156.7312   2.9186698866e+02   5.5344631562e+00   0.02421945   0.01302441  22.82  0.001746655    1.992    0.498
       186  -9.8442    134.5090    155.6978   2.9116282712e+02   5.1930188757e+00    0.0112782    0.0106094 -11.78 0.0005409228    1.106    0.096
       187  -8.8982    228.2568    155.3506   2.9009367233e+02   4.6545590301e+00  0.006863861  0.004719437 -35.78  0.000545941    1.602    0.376
       188 -10.0253     62.2307    153.0157   2.9197068528e+02   5.6409812789e+00   0.01920837  0.009744924 -72.31  0.001155218    2.284    0.562
       189 -13.1286     62.5739    245.4917   2.9251501132e+02   4.5691854604e+00   0.06915885   0.03558562  22.29  0.006312036    2.111    0.526
       190 -11.4311    249.3300    150.0344   2.8982237619e+02   4.5938139728e+00   0.02584972   0.01636637 -83.30  0.002505797    1.963    0.491
       191 -10.2073    113.5650    152.3872   2.9138176714e+02   5.3522492538e+00   0.01242029   0.01123495  71.20 0.0005792283    1.167    0.143
       192 -11.7446     85.5303    175.9668   2.9184138318e+02   5.2412643665e+00   0.01615433   0.01288085 -49.96 0.0005117985    1.230    0.187
       193 -10.9588    103.2135    151.1690   2.9149249583e+02   5.4260798209e+00   0.01724091    0.0133617 -49.98  0.001029538    1.265    0.209
       194 -10.0621    105.9866    146.0538   2.9143046702e+02   5.4692264703e+00    0.0146159   0.01110994 -29.07   0.00157355    1.466    0.318
       195  -8.8753    119.7254    151.3512   2.9130540341e+02   5.3286625527e+00  0.006782084  0.004970206  70.16 0.0003406809    1.637    0.389
       196 -12.7831     66.4010    127.9345   2.9177409089e+02   5.9070269149e+00   0.04434203   0.02446977 -74.49   0.00405429    2.119    0.528
       197 -11.4913     58.9671    133.3605   2.9189113807e+02   5.8871021087e+00   0.01649649   0.01515728 -86.86  0.001164389    1.121    0.108
       198 -10.4776     61.0048    137.4765   2.9189235499e+02   5.8277644578e+00   0.01445916   0.01090054  16.05 0.0008702144    1.429    0.300
       199 -13.5081     67.2849    143.6982   2.9185770117e+02   5.7196331227e+00   0.04868187   0.03416072  85.40   0.00503042    1.774    0.436
       200 -12.3248     74.3401    138.9468   2.9174900826e+02   5.7339298091e+00   0.03762549    0.0252821  87.78    0.0028593    1.904    0.475
       201 -11.6077     57.0417    148.6220   2.9200376275e+02   5.7216809943e+00   0.03044995   0.01606626 -28.00  0.002476308    2.882    0.653
       202  -9.6079     47.2246    150.6155   2.9212755676e+02   5.7551361443e+00   0.01315056  0.005934095  31.42  0.001146228    2.162    0.538
       203 -11.7271    133.5237    142.8420   2.9109753814e+02   5.3473434528e+00   0.04064833    0.0152296 -67.90  0.003029089    3.058    0.673
       204 -12.7863     32.8000    142.1826   2.9224202645e+02   5.9356632190e+00   0.03461533    0.0180017 -51.41  0.002589974    1.848    0.459
       205 -11.2304     33.2020    153.9930   2.9230752886e+02   5.7967373664e+00   0.01406813   0.01223767 -37.17 0.0002664722    1.175    0.149
       206 -10.1793    236.5246    146.1599   2.8994484329e+02   4.7128046125e+00    0.0173822  0.007989621  15.22  0.001357963    2.979    0.664
       207 -11.7873    248.5756    141.3000   2.8977883753e+02   4.6990599649e+00   0.04536629   0.02158245  18.33  0.003816396    2.555    0.609
       208 -11.3118    248.2396    135.9999   2.8975102705e+02   4.7622149317e+00   0.02521725    0.0155494  30.15  0.002570548    1.627    0.385
       209 -11.4461    248.9998    131.8296   2.8971749387e+02   4.8059621594e+00   0.02246954   0.01701204  68.16  0.002194049    1.540    0.350
       210  -9.3718     85.9870    147.7437   2.9166849908e+02   5.5650556702e+00  0.008942002  0.008420534  16.47  0.001107926    1.092    0.084
       211 -10.7772     27.6879    142.3093   2.9230109638e+02   5.9635936550e+00   0.01062304  0.009448891  67.06  0.000753033    1.193    0.162
       212 -11.2297     26.4806    139.5141   2.9229827970e+02   6.0028666281e+00   0.01628909  0.009724961 -20.46  0.001447064    2.437    0.590
       213 -10.0069     51.8654    133.0986   2.9197059168e+02   5.9310232687e+00    0.0131531  0.008968843 -61.42 0.0005839297    1.427    0.299
       214 -10.0604     53.6778    140.2951   2.9199267026e+02   5.8373597373e+00   0.01009343  0.008426242 -66.08 0.0003677927    1.186    0.156
       215 -12.0390     48.3489    138.5837   2.9204328831e+02   5.8878293487e+00   0.02889263   0.01439858  12.50  0.002186427    2.766    0.638
       216 -10.3438    119.3286    138.3364   2.9123248133e+02   5.4814323859e+00   0.01430458  0.009641706 -41.31  0.001419092    1.553    0.356
       217 -11.2437    113.1841    136.2729   2.9129023465e+02   5.5407709348e+00   0.01901153   0.01546262  24.93  0.001575199    1.261    0.207
       218 -13.3657     49.6719    228.3517   2.9256047795e+02   4.8417153291e+00   0.04572632   0.02925264  -0.25  0.002079876    2.093    0.522
       219 -10.1662    136.8407    134.1212   2.9100781868e+02   5.4289894338e+00  0.009625281   0.00867613  69.31  0.001164338    1.172    0.147
       220 -12.7950     45.0326    130.4141   2.9203259170e+02   6.0014013524e+00   0.02897169   0.02224531 -64.82  0.001906637    1.287    0.223
       221 -10.7212     35.6747    149.1243   2.9225043554e+02   5.8388355435e+00   0.01313483  0.008813609  45.79  0.001229009    1.564    0.360
       222 -10.4747    241.3692    130.8018   2.8979811585e+02   4.8620903747e+00   0.01872929   0.01061789  -7.22  0.001524296    2.988    0.665
       223  -9.4715    107.2328    130.2152   2.9132202431e+02   5.6451669177e+00    0.0198257  0.007174625  49.92  0.001292027    4.175    0.760
       224 -10.2031    118.2078    128.7738   2.9118833360e+02   5.5984601368e+00  0.009476145  0.007346663 -35.47 0.0007688752    1.370    0.270
       225  -9.1812     74.3035    128.6113   2.9168797769e+02   5.8536604228e+00  0.007089295  0.004900049  68.27 0.0007014766    1.801    0.445
       226 -11.6887     32.6793    126.6597   2.9215123753e+02   6.1158940441e+00   0.01751364   0.01230798  77.74  0.001579608    1.793    0.442
       227 -10.5015     27.9576    126.4556   2.9220390346e+02   6.1454079672e+00   0.01479375  0.006299752  27.45  0.001241503    2.375    0.579
       228  -9.8616    159.6130    126.7836   2.9070465769e+02   5.3821215813e+00  0.009399028  0.006291073 -77.61 0.0009185175    1.680    0.405
       229  -9.1425     93.0736    127.5110   2.9146737331e+02   5.7581436463e+00  0.009183817  0.006483216  27.29 0.0003191647    1.443    0.307
       230  -9.9783     85.8569    126.7701   2.9154526198e+02   5.8083380480e+00   0.01261843  0.009369984 -13.93  0.001100756    1.624    0.384
       231  -9.5568     87.7328    133.0807   2.9156140686e+02   5.7245510642e+00  0.008887186  0.008054896 -54.38 0.0002452177    1.078    0.072
       232 -15.0240     58.2837    216.5435   2.9239247060e+02   4.9287853729e+00    0.1616545    0.1304104  79.40   0.01850507    1.402    0.287
       233 -11.2635    244.7925    121.2936   2.8970243118e+02   4.9520297893e+00   0.02861243   0.01758229  38.80  0.002297154    1.635    0.389
       234 -11.8934    248.5906    112.8844   2.8960903045e+02   5.0270846605e+00   0.02593641     0.021957 -37.41  0.003079646    1.214    0.177
       235 -10.2942    209.7765    125.7999   2.9012764502e+02   5.1030211548e+00   0.01172376   0.01060707 -48.68 0.0004937413    1.089    0.081
       236  -9.9028    124.9647    125.5444   2.9109208524e+02   5.5967616149e+00   0.00992061  0.008744155 -61.09 0.0003607574    1.110    0.099
       237 -12.1247     17.9285    124.5917   2.9230728633e+02   6.2246155467e+00   0.02474298   0.01365682  48.34  0.001864096    2.023    0.506
       238  -9.6316    114.8989    122.9920   2.9119162843e+02   5.6844095802e+00  0.009508231  0.009257657 -75.88 0.0003032332    1.023    0.023
       239  -9.4530     50.5115    123.0065   2.9192606532e+02   6.0555282545e+00   0.01003255  0.006431091 -65.68 0.0006818984    1.561    0.360
       240 -10.3463    249.5295    117.5220   2.8962605012e+02   4.9680934416e+00   0.01166291   0.01103322 -69.34 0.0007467847    1.046    0.044
       241  -8.7197     79.6937    122.3116   2.9158903091e+02   5.8954282270e+00  0.006794997  0.004938346  64.41 0.0003841282    1.618    0.382
       242  -9.7597    143.0040    119.9690   2.9085327972e+02   5.5569416309e+00   0.01872693  0.008681927 -78.47  0.001097089    3.315    0.698
       243  -8.9763    130.6921    119.2837   2.9098951260e+02   5.6360341865e+00  0.006680986  0.004914476  61.94 0.0002226053    1.565    0.361
       244 -11.6548     31.9774    116.7359   2.9210029646e+02   6.2346938499e+00   0.02006933   0.01278234 -46.08  0.002060103    1.580    0.367
       245 -10.8500    168.4155    113.5463   2.9052546896e+02   5.4841483666e+00   0.01795313   0.01202762  60.45  0.001153489    1.794    0.443
       246 -10.1295     72.9560    115.0316   2.9162257865e+02   6.0184436326e+00  0.009605602  0.009519588  12.91  0.001224896    1.029    0.028
       247 -10.6546     70.0676    111.0919   2.9163209294e+02   6.0806405103e+00   0.01124856  0.009750653  63.32 0.0002811161    1.233    0.189
       248  -9.0961     82.1576    114.3703   2.9151367764e+02   5.9730359265e+00  0.008972575  0.005790054  39.56 0.0001329502    1.565    0.361
       249 -11.3099     59.7577    111.9600   2.9175489062e+02   6.1300099547e+00   0.02087935    0.0147684  78.86  0.002158256    1.773    0.436
       250  -9.4595     55.4813    111.4591   2.9180070848e+02   6.1604335800e+00  0.009854662  0.005744932 -50.28 0.0001033405    1.670    0.401
       251 -11.2811     20.3598    120.9927   2.9225816916e+02   6.2522642684e+00   0.01819364  0.009778262  16.57  0.001372834    2.215    0.548
       252  -8.7754     79.7080    109.2765   2.9151130671e+02   6.0460506789e+00  0.006555262  0.004920649  62.58 0.0001900376    1.523    0.343
       253  -9.1107    114.6660    107.3191   2.9110093850e+02   5.8669202268e+00  0.006977609   0.00489549  62.93 0.0003722871    1.698    0.411
       254 -10.5261     62.4980    107.0736   2.9169455683e+02   6.1707183357e+00   0.01036222  0.006384471 -63.52  0.001035679    1.599    0.374
       255 -10.4776    134.5373    105.1898   2.9086169580e+02   5.7766965571e+00   0.01620388  0.005941555 -59.73  0.001283507    2.534    0.605
       256 -10.3634    250.3798    104.7775   2.8954026273e+02   5.1102923898e+00   0.01118116   0.01021337 -17.75  0.001368622    1.153    0.132
       257 -11.4218    248.3519     99.8235   2.8953372535e+02   5.1792499678e+00   0.02724486   0.01940886 -31.41  0.002905528    1.588    0.370
       258 -10.0159    165.1822    241.9969   2.9132664180e+02   4.0180176027e+00   0.01479987  0.008454441 -14.90  0.001215643    2.889    0.654
       259  -9.4540    112.4762    104.4867   2.9110903405e+02   5.9123051709e+00  0.006505848  0.006343043 -51.71 0.0008100401    1.010    0.010
       260  -9.6211     63.4685     98.4591   2.9163222463e+02   6.2647136335e+00  0.006470003  0.006349939 -85.42 5.734136e-05    1.024    0.024
       261  -8.9129    136.6817     94.2815   2.9077221420e+02   5.8903466649e+00  0.006727964  0.004896621  60.96 0.0002478142    1.582    0.368
       262  -9.4525    101.8992     88.1056   2.9113206399e+02   6.1627015393e+00  0.009434619  0.008412855  71.81            0    1.194    0.162
       263 -10.8126    220.2876    246.8554   2.9072905551e+02   3.6434186535e+00   0.01639626  0.008504254 -26.97  0.001277692    3.111    0.679
       264  -9.5956    101.1106    250.1718   2.9210408201e+02   4.2931256949e+00   0.01217766  0.009561501  34.77 0.0008378989    1.284    0.221
       265  -9.1719     93.1816    244.4163   2.9216022673e+02   4.4053853720e+00  0.009137118  0.007661288  67.59 0.0004869163    1.305    0.234
