#   1 NUMBER                 Running object number                                     
#   2 MAG_AUTO               Kron-like elliptical aperture magnitude                    [mag]
#   3 X_IMAGE                Object position along x                                    [pixel]
#   4 Y_IMAGE                Object position along y                                    [pixel]
#   5 X_WORLD                Barycenter position along world x axis                     [deg]
#   6 Y_WORLD                Barycenter position along world y axis                     [deg]
#   7 A_WORLD                Profile RMS along major axis (world units)                 [deg]
#   8 B_WORLD                Profile RMS along minor axis (world units)                 [deg]
#   9 THETA_WORLD            Position angle (CCW/world-x)                               [deg]
#  10 FWHM_WORLD             FWHM assuming a gaussian core                              [deg]
#  11 ELONGATION             A_IMAGE/B_IMAGE                                           
#  12 ELLIPTICITY            1 - B_IMAGE/A_IMAGE                                       
         1 -10.6854     56.0565     33.4543   7.5205458370e+01   6.3454784964e+01    0.9424335    0.4390109  50.88  0.003809948    3.507    0.715
         2 -11.6591    105.5866     21.1594   5.3924841565e+01   5.5492882803e+01    0.4224343    0.2906473  69.21 0.0004176587    1.645    0.392
         3 -11.8508    107.0315     29.6982   5.6774764260e+01   5.4187634198e+01    0.5325723    0.3876918 -16.19  0.001494958    1.487    0.327
         4 -11.1614     34.8827     28.3100   8.2371025575e+01   6.7161815436e+01    0.6871118    0.4418012   9.29  0.002068028    1.545    0.353
         5 -10.5562     41.2146     22.1403   7.6669888947e+01   6.7283249258e+01    0.3470887     0.233731 -39.94  0.001431026    1.650    0.394
         6 -10.3926     26.2994     21.8792   8.3765850381e+01   6.9152707414e+01    0.3574516    0.2060241 -22.58 0.0007723208    1.583    0.368
         7 -11.3905     18.7457     28.6322   9.0511784175e+01   6.8794700130e+01    0.4662894    0.3312843 -48.91 0.0006603436    1.520    0.342
         8 -11.7925    166.6155     17.1256   4.1264104348e+01   4.1387759737e+01    0.5406271     0.349234   6.59  0.002631305    2.392    0.582
         9 -10.1881    209.3123     34.0539   4.0411416248e+01   2.9271910403e+01    0.4393254    0.2891892  29.47  0.002131226    2.492    0.599
        10  -9.5284    219.1091     11.9492   3.4317241935e+01   2.9659067401e+01    0.3182348    0.2144299 -44.65  0.001933923    1.390    0.280
        11 -10.7077    221.4517     26.9732   3.7486908966e+01   2.7416886382e+01    0.4821649     0.309774 -40.68  0.002751412    1.467    0.318
        12 -10.7504    217.9902     18.8137   3.5959769403e+01   2.9144003084e+01    0.6430143    0.2680238  81.16  0.002728298    2.589    0.614
        13 -10.8783    172.8976     23.4837   4.2191723792e+01   3.9174229073e+01    0.6882353    0.3506663  66.55  0.003239983    1.778    0.437
        14 -12.1798    117.1467     22.1636   5.1566417396e+01   5.2755859083e+01     0.405509    0.2679633  55.24 0.0004760664    1.351    0.260
        15  -8.6506     69.0780     11.5388   6.0561911662e+01   6.4038977307e+01    0.1781039    0.1429147  30.42  0.001137878    1.080    0.074
        16 -10.8681     61.9013     16.9199   6.5604753039e+01   6.4739361266e+01    0.5470213    0.3055139  20.27  0.002154168    1.986    0.497
        17 -10.3239     67.6423     16.0853   6.3125142518e+01   6.3810740337e+01    0.3260437    0.3003901  88.61  0.001855899    1.643    0.391
        18 -10.5258    182.2710     18.3797   3.9605270280e+01   3.7474356261e+01    0.4853101    0.2823551  36.89  0.001444672    2.388    0.581
        19 -10.1377    174.0485     12.2794   3.8964668136e+01   4.0083506408e+01    0.4242721    0.3331298  42.85  0.002532015    1.441    0.306
        20 -11.1668    231.8528     16.5476   3.4267773131e+01   2.6383229904e+01    0.5703078     0.254474 -59.67  0.002761758    2.189    0.543
        21 -10.6595    198.3058     16.9833   3.7451143675e+01   3.3834449158e+01    0.5382347     0.276298 -55.89   0.00224077    1.968    0.492
        22  -8.6584      5.4927      8.3656   8.8974402641e+01   7.3173147940e+01      0.24119    0.2001911  51.28  0.001662892    2.355    0.575
        23  -9.3317     23.4270      1.5874   7.5177316529e+01   7.2282366566e+01    0.1898143    0.1209467 -34.29 0.0006516131    1.693    0.409
        24 -11.3348      5.8667     16.0420   9.2268191693e+01   7.1941223742e+01    0.3687676    0.2907345 -56.89  0.001346163    1.766    0.434
        25 -11.0325     12.7166     12.2647   8.6620907522e+01   7.1972787839e+01    0.7690471    0.3446854 -13.60  0.003062016    3.171    0.685
        26 -11.3475     15.7969      3.4571   8.0409833738e+01   7.2915596522e+01    0.4180917    0.2185497   1.16  0.001139905    2.173    0.540
        27 -11.5993     24.9001      6.8696   7.7219676172e+01   7.1446435338e+01     0.212268    0.1795252  -0.85   0.00156829    1.261    0.207
        28 -11.6295     20.5664      6.4595   7.9331008189e+01   7.2001511520e+01    0.3091145    0.2083104   6.13  0.002082112    1.264    0.209
        29  -9.8586    116.9860     15.2304   4.9102749752e+01   5.3505109604e+01    0.3615475    0.1960608  46.35  0.000987861    1.643    0.391
        30  -9.1246    112.3263     14.9424   5.0008486674e+01   5.4606761299e+01    0.2328859    0.1813489 -13.67   0.00136572    1.417    0.294
        31 -10.4658    244.5484     12.7967   3.2525146867e+01   2.4161070776e+01    0.4049891      0.25811  30.48  0.002008058    3.356    0.702
        32 -10.9034    145.7679     12.2264   4.2843394482e+01   4.6939103534e+01    0.5957672    0.2786655  74.40  0.001825928    2.189    0.543
        33  -9.3365    127.8764     13.0380   4.6164490585e+01   5.1158132809e+01    0.4028799    0.1695222  -7.72   0.00142477    4.263    0.765
        34  -9.1362    128.1443      8.2139   4.4474710440e+01   5.1531560171e+01    0.3480588    0.1255583  56.62  0.001181441    2.204    0.546
        35 -10.1509     99.1971     13.1433   5.2415158505e+01   5.7725025645e+01    0.3598931     0.267385 -81.08 0.0008013518    2.001    0.500
        36  -9.2433     97.8847      7.1295   5.0352188219e+01   5.8561605857e+01    0.2703804     0.182069  19.25  0.001262752    1.581    0.368
        37  -8.5315     49.4682      7.9639   6.6238438988e+01   6.7845990983e+01    0.1475079    0.1055937 -30.33 9.149594e-05    1.557    0.358
        38  -9.2667     52.2063     11.0634   6.6638557213e+01   6.7055250647e+01     0.431619    0.1777781 -24.40  0.002018052    2.536    0.606
        39 -10.1570     56.0307     11.3972   6.5272221158e+01   6.6381763868e+01    0.2671488    0.1685332 -16.29 0.0006412672    1.552    0.355
        40  -9.6926     32.5498     12.5896   7.6233792218e+01   6.9748465740e+01    0.2128855    0.1847904 -18.04 0.0009574918    1.349    0.259
        41 -10.7081    133.1420     12.7684   4.5116563564e+01   4.9928774952e+01    0.2235431    0.2095037  17.22 0.0002997311    1.168    0.144
        42  -9.4052     88.5311      6.4454   5.2442137298e+01   6.0634489472e+01    0.4115092    0.1763403  33.90   0.00178921    2.499    0.600
        43  -9.8593     89.0290     12.9682   5.5027987967e+01   5.9924527684e+01    0.2350795    0.2116234 -38.39 0.0004286268    1.354    0.261
        44  -9.2760     91.1199      8.6206   5.2662128607e+01   5.9892411441e+01    0.3635144    0.1785682  32.61  0.001702685    2.123    0.529
        45  -8.8016     75.5063     12.9959   5.9086754555e+01   6.2659837813e+01    0.2325527    0.1872832  25.97  0.001255858    1.046    0.044
        46 -10.1476     78.9622     11.2549   5.7237375752e+01   6.2154696693e+01    0.2826132    0.1947502 -15.11  0.001654987    1.507    0.336
        47  -9.7857    208.5109     15.1902   3.6006181211e+01   3.1681079349e+01    0.3471914     0.294213  18.16  0.002188684    1.677    0.404
        48  -9.5217    198.6533      1.6964   3.3721353806e+01   3.5315152297e+01    0.2479545    0.1482729  64.87  0.001240137    1.558    0.358
        49 -10.8410    192.0097      8.0095   3.5877782585e+01   3.6241354274e+01    0.4455813     0.375137 -68.37  0.001326839    1.102    0.092
        50 -10.4474    194.6861      3.5493   3.4525000226e+01   3.6053274786e+01    0.4896624    0.2329168  74.58  0.002128992    1.861    0.463
        51 -10.4271     42.0861     10.0954   7.0493560044e+01   6.8743813121e+01    0.3735842    0.1707419  35.86 0.0004539649    2.015    0.504
        52 -10.0570    224.5789      9.0917   3.3243492049e+01   2.8770134317e+01    0.2300193    0.1801229 -68.93 1.332438e-05    1.056    0.053
        53 -10.1784    213.2304      8.4021   3.4017859827e+01   3.1341995757e+01    0.4934332    0.2319728  49.31  0.002310887    2.760    0.638
        54 -10.1953    218.5129      2.6099   3.2302328602e+01   3.0765491712e+01    0.2556498    0.1969129  84.87 0.0009907868    1.162    0.140
        55 -10.7479    202.0452      8.0715   3.4930524377e+01   3.3909691208e+01    0.3102598    0.2210918 -70.74  0.001880281    1.272    0.214
        56  -8.7300    165.4094      9.1830   3.9178767792e+01   4.2467969573e+01    0.1814785    0.1091881 -43.55 0.0009502345    1.734    0.423
        57 -10.0744    106.9627      5.8827   4.7792608186e+01   5.6645263525e+01    0.4492117    0.3333371 -21.03  0.002445512    1.507    0.336
        58 -10.1325    111.8997      4.6511   4.6297812054e+01   5.5622797999e+01    0.2872811    0.2203285  39.95 0.0003787513    1.186    0.157
        59 -10.9754    116.3382      1.9121   4.4433682119e+01   5.4817608007e+01    0.4959346     0.176005  66.42 0.0006422488    2.580    0.612
        60  -9.0396     81.1912      1.8464   5.2467185705e+01   6.2550190334e+01    0.2470553    0.1634076  62.61 0.0009678858    1.596    0.374
        61  -9.1891     74.5017      7.5100   5.6960182704e+01   6.3397638817e+01    0.2274522    0.1833465  15.21  0.001032657    1.114    0.102
        62 -10.6577     74.3114      2.6819   5.4836957757e+01   6.3867427942e+01    0.3318079    0.2481402  45.51  0.001107817    1.193    0.162
        63 -10.1836     69.4133      2.0263   5.6059289053e+01   6.4879084734e+01     0.297329    0.1578596  32.63  0.001229745    1.706    0.414
        64 -10.3297    238.4161      3.4298   3.1053901644e+01   2.6438296859e+01    0.2399911     0.212685 -80.69  0.001774786    1.205    0.170
        65 -10.7135    208.5068      3.8308   3.3374567541e+01   3.2867213384e+01    0.4038544    0.3350117 -53.19  0.001724687    1.194    0.163
        66  -8.8381     69.5174      7.5148   5.8569720231e+01   6.4358917207e+01    0.1263269    0.1023098  23.86 0.0001724651    1.012    0.012
        67 -10.7672    248.4831      4.3919   3.0592181607e+01   2.4288060560e+01    0.2917586    0.2654577  21.57  0.002146965    1.712    0.416
        68  -9.5803    232.0936      5.8048   3.1979876682e+01   2.7510450929e+01    0.1965632      0.15549  18.86  0.001233449    2.089    0.521
        69  -9.8127     61.5199      4.9123   6.0096135710e+01   6.6091828156e+01     0.290705    0.2545964 -55.83  0.001255507    1.751    0.429
        70  -9.9592     39.2314      4.0985   6.8712616887e+01   6.9854934857e+01    0.2788478    0.2386311 -19.23  0.002002257    1.397    0.284
        71  -9.3801    120.0252      9.1732   4.6318337039e+01   5.3359034778e+01    0.2758637    0.1748899 -31.50  0.000345315    1.756    0.431
        72 -10.9120    179.7603      2.1950   3.5646641115e+01   3.9678214751e+01    0.3226751    0.2056998  80.37 0.0006292145    1.383    0.277
        73 -11.0549    160.8510      2.6015   3.7885010410e+01   4.4160730684e+01    0.6417435    0.2311377  64.25   0.00277755    2.244    0.554
        74  -9.5943    152.9507      3.7547   3.9229987225e+01   4.5964569515e+01    0.1882016    0.1783925 -47.27  0.001257723    1.191    0.161
        75 -10.2456     30.9394      3.1467   7.2154566191e+01   7.1134159244e+01    0.2299018    0.1832833 -33.31   0.00072261    1.629    0.386
        76  -8.7314    142.9907      3.0114   4.0391636811e+01   4.8424162485e+01    0.2119185    0.1300515  40.82 0.0005493233    1.713    0.416
        77  -8.5875    134.7249      3.3677   4.1759151145e+01   5.0373986667e+01     0.193147   0.09741257  58.02 0.0007904081    1.643    0.391
        78 -10.2496     90.2980      1.9180   5.0095137724e+01   6.0635533709e+01     0.443266    0.1848021  61.81  0.001538164    2.299    0.565
        79  -9.3098      2.4432      3.1212   8.8246415026e+01   7.4188814968e+01    0.1989466    0.1148383  -9.30  0.000976763    1.537    0.349
        80  -9.3403     50.5459      1.8889   6.2735337557e+01   6.8295674489e+01    0.3137304    0.1492204  43.28  0.001208428    1.861    0.463
        81  -8.3418    128.3723      1.2315   4.2078555303e+01   5.2052711247e+01    0.1356778   0.07700085  46.86 0.0006899603    1.604    0.377
        82  -8.2978    185.9286      1.0000   3.4724965264e+01   3.8333169842e+01    0.1994178   0.06226253  72.88 0.0004835422    2.804    0.643
        83  -9.2681      3.4681    102.9652   1.1528717776e+02   5.3891640569e+01    0.3949783    0.1272048 -73.07  0.001610738    2.640    0.621
        84  -9.5494    201.6080    249.4830   8.8465937974e+01  -5.5945408334e+00    0.2322518     0.168828  14.03 0.0007256766    1.161    0.139
        85 -10.1856      5.5321     98.1736   1.1390864200e+02   5.4920457287e+01    0.3763483    0.2653388  24.52  0.002333112    1.732    0.423
        86  -9.2918      6.9532     94.4970   1.1285224739e+02   5.5712389167e+01    0.2815989    0.2111135  71.05  0.001348047    1.593    0.372
        87  -9.6184      6.6979     89.2545   1.1208245789e+02   5.6956124122e+01    0.2270952    0.1539824 -63.87  0.001244462    1.180    0.152
        88  -9.8177      2.4938    109.4328   1.1645973213e+02   5.2398023543e+01    0.2941494    0.2109402 -88.02  0.001176361    1.318    0.241
        89 -10.4808      7.4103    107.4377   1.1462973945e+02   5.2603624997e+01    0.5420582    0.2506591 -54.75  0.001722765    1.718    0.418
        90  -9.8701     62.9151    110.8919   9.6949038345e+01   4.6511035135e+01    0.2329808    0.1871319 -53.27 0.0003053012    1.123    0.110
        91 -11.1416     37.1399    106.5594   1.0463494544e+02   5.0535226387e+01    0.8394265    0.2177106 -56.59  0.002370513    2.835    0.647
        92  -9.6339     33.9763     97.8752   1.0398397164e+02   5.2933107800e+01    0.2635515    0.2242388  65.41 0.0003318201    1.411    0.291
        93 -10.2249     33.2818     91.6258   1.0290365117e+02   5.4481178593e+01     0.617198    0.2721168 -34.51   0.00252123    2.694    0.629
        94  -9.8033     27.3962     91.8853   1.0509739668e+02   5.4931863461e+01    0.2983212    0.2112488  40.21 0.0008729533    1.692    0.409
        95 -11.2041     29.9964     85.4848   1.0274991474e+02   5.6207944811e+01    0.5191817    0.3394317 -40.01  0.001578363    1.373    0.272
        96 -10.2261     21.9744     87.6208   1.0620449868e+02   5.6359142864e+01    0.3286728      0.23604  27.25  0.001946172    1.636    0.389
        97 -10.3310     43.6763     88.1174   9.8278178194e+01   5.4266482515e+01    0.3878711    0.2501549  21.34 0.0005167938    1.750    0.429
        98  -9.6602     47.3448     91.7600   9.7830670025e+01   5.3013360188e+01     0.432843     0.166195 -49.44  0.001687034    2.184    0.542
        99  -9.4270     47.9886     88.1957   9.6712849670e+01   5.3768367101e+01    0.2030563    0.1618903 -33.99    0.0011486    1.166    0.142
       100 -10.4671    117.4938    106.5372   7.8922347602e+01   3.8206283727e+01     0.468487    0.2771185 -34.52  0.001269583    1.859    0.462
       101  -9.1440     77.9649     99.4889   8.9182229234e+01   4.7045460245e+01    0.4329425    0.2828192  68.45  0.001766712    2.580    0.612
       102 -10.8857     93.6152    104.6579   8.5526932674e+01   4.3211512568e+01    0.4556234    0.4083015  58.59  0.001000288    1.244    0.196
       103 -10.9237     88.8977    103.6499   8.6742098412e+01   4.4271139287e+01    0.2755667    0.2389374 -49.03  0.000271884    1.104    0.094
       104 -10.0164     84.8193    102.3826   8.7709868920e+01   4.5257453408e+01    0.4419836    0.2564021  31.90  0.001903175    1.872    0.466
       105  -9.4483     74.3354    105.7294   9.1978075709e+01   4.6134562953e+01     0.334508    0.1631519 -47.41  0.001365094    1.885    0.469
       106  -8.9382     69.8405    103.5674   9.2926880205e+01   4.7315625570e+01    0.4758017   0.09923486  39.79  0.001305342    4.995    0.800
       107  -9.2812     63.2150    104.5855   9.5390769952e+01   4.7999514165e+01     0.265069    0.1973358 -16.66  0.001231932    1.597    0.374
       108 -11.2829     21.2425    119.7421   1.1202182337e+02   4.8672257815e+01    0.6107234     0.359311  67.32  0.003011273    2.150    0.535
       109  -9.4993    100.3361    103.3150   8.3092530833e+01   4.2294619709e+01    0.3034725    0.2487707 -44.78 0.0007637921    1.171    0.146
       110  -9.6687    102.7113    101.3113   8.1820424803e+01   4.2301142090e+01    0.2619836     0.254087 -35.69 0.0005497453    1.029    0.028
       111  -9.7693    101.4033     98.5042   8.1435696831e+01   4.3180129353e+01    0.3385423    0.2706096  -1.02  0.001049179    1.493    0.330
       112 -10.9151     49.0922    101.4492   9.9477689996e+01   5.0515084069e+01    0.4506798    0.4008134  89.56  0.001271963    1.272    0.214
       113 -10.1115     13.7002    113.3268   1.1345449348e+02   5.0786267884e+01    0.2751237     0.225213  36.65  0.001374049    1.452    0.311
       114  -8.2287    134.3015    103.3080   7.3447343530e+01   3.5352223200e+01    0.1575963     0.124561  -0.60 0.0002273599    1.600    0.375
       115  -9.4495     43.3109     99.8055   1.0112044630e+02   5.1546512773e+01    0.3506919    0.1641125  40.34  0.001519545    2.486    0.598
       116  -9.3994    149.1156    100.4069   6.8917789124e+01   3.2648607943e+01    0.4444296    0.2304677 -33.28  0.001661523    2.150    0.535
       117  -9.4845    105.5433     91.0678   7.8035912442e+01   4.4004566919e+01    0.5921288    0.3340327  55.98  0.002316004    2.311    0.567
       118 -10.0668    110.4638     99.5135   7.9004548285e+01   4.1188389105e+01    0.3755572    0.2657193  50.62  0.001128972    1.533    0.347
       119 -10.8179    108.8511     95.3896   7.8305394314e+01   4.2414030683e+01    0.4515211    0.3914158  -4.66 0.0004486508    1.256    0.204
       120  -9.6293     72.3842     99.3341   9.1002403070e+01   4.7941043628e+01    0.2728133    0.1845332 -61.73   0.00129046    1.551    0.355
       121  -9.3757     16.6267     98.9349   1.1024037187e+02   5.4064383137e+01    0.3092431    0.1532709 -45.72  0.001539512    1.785    0.440
       122 -10.1406    124.3649     98.3614   7.4724979234e+01   3.8559482897e+01    0.4716267    0.2842078  29.11   0.00158783    2.061    0.515
       123 -10.2785    117.6242     98.0003   7.6506289756e+01   4.0058386948e+01    0.2667187    0.2238185  41.50 0.0002756847    1.215    0.177
       124  -9.3023    130.0650     96.5099   7.2653963073e+01   3.7717587157e+01     0.278658    0.2147707 -22.00 0.0005042713    1.466    0.318
       125  -9.3435     53.9599     97.2409   9.6805488518e+01   5.0944270847e+01    0.1883125    0.1699944 -40.33 0.0003482905    1.030    0.029
       126  -9.2606     13.0055     95.5113   1.1091158474e+02   5.5116421883e+01    0.3376961    0.1546204 -68.09  0.001622073    1.825    0.452
       127  -9.1371    141.4955     96.0302   6.9564775267e+01   3.5270704291e+01    0.2430071     0.152336 -40.52 0.0007698767    1.578    0.366
       128  -9.1209     80.4577     95.1250   8.7177497833e+01   4.7650897800e+01    0.2641164    0.2105546 -37.85  0.001363509    1.187    0.157
       129  -8.6125     63.7637     96.5757   9.3228971355e+01   4.9826936236e+01    0.1900031    0.1327595  44.31 0.0007869947    1.638    0.390
       130  -8.8226     86.7245     96.8172   8.5588413091e+01   4.6216876538e+01     0.251511    0.1796829 -30.53  0.001185934    1.480    0.324
       131  -8.7304     73.5318     95.0235   8.9475182432e+01   4.8768719656e+01    0.2211363    0.1345445 -50.18 0.0003660216    1.522    0.343
       132  -9.5427     22.8492     94.8968   1.0733013501e+02   5.4579319635e+01    0.2724243    0.2147763  12.65 0.0008755044    1.493    0.330
       133  -9.2627    172.1383     93.2415   6.1799004678e+01   2.8734933157e+01    0.2653008    0.2028037 -28.82 0.0006200759    1.377    0.274
       134  -8.4125    166.5590     94.5011   6.3316954055e+01   2.9795539143e+01     0.152267    0.1479299 -21.65 7.618751e-05    1.052    0.049
       135  -9.7013     52.3686     90.8080   9.5782021676e+01   5.2647076385e+01    0.5100117    0.1518155 -47.76  0.001787808    2.856    0.650
       136 -10.5898     55.7375     82.4811   9.2340150045e+01   5.4124297054e+01    0.6563179    0.4241037  -8.36  0.003086185    2.038    0.509
       137  -9.5929     46.9611     81.9322   9.5468889569e+01   5.5315062533e+01    0.2407696    0.2124087  49.17 0.0004957701    1.381    0.276
       138  -9.2559     41.3106     80.9148   9.7345455601e+01   5.6166386236e+01     0.847011    0.2000117  37.96  0.002678365    4.959    0.798
       139 -12.7417     53.0060     74.6735   9.1131529391e+01   5.6188360454e+01    0.6040846    0.3091964 -54.99 0.0007243037    1.919    0.479
       140  -8.8142    116.8275     91.4100   7.4824134337e+01   4.1628589133e+01    0.2132375    0.1451571  31.93 0.0006134997    1.604    0.377
       141  -9.1087     97.7220     88.3853   7.9648716645e+01   4.6095309715e+01    0.3712527    0.2308844 -65.80 0.0006492027    2.401    0.584
       142  -8.8596     94.0251     87.7339   8.0625010116e+01   4.6927463341e+01    0.1979849    0.1830604  10.70 0.0001891963    1.088    0.081
       143  -8.6867     70.4925     86.9826   8.8296246737e+01   5.1054314714e+01    0.2113856    0.1721218 -41.31 0.0006338695    1.125    0.111
       144 -11.0982     86.3910     87.7232   8.3100649969e+01   4.8302018107e+01    0.4527637    0.3557508 -38.63 0.0005224593    1.206    0.171
       145 -10.5963     81.0573     83.8181   8.3725461144e+01   5.0063322705e+01    0.3703819    0.3165767  17.00 0.0009263933    1.210    0.174
       146 -10.7425     73.7096     80.6776   8.5319670747e+01   5.1939446401e+01    0.6059877    0.3958003 -50.97   0.00226749    1.510    0.338
       147 -10.8510     45.7096     69.0203   9.2299706826e+01   5.8285150320e+01    0.5141582    0.3073858 -39.54 0.0009615536    1.480    0.324
       148 -10.4518    117.6854     83.6393   7.2250051173e+01   4.3040713632e+01    0.3724188    0.3405018 -22.34  0.001978174    1.087    0.080
       149 -11.0900    128.5974     85.8283   6.9920580515e+01   4.0221313323e+01    0.7106405    0.4645461  14.29  0.002767959    2.430    0.589
       150  -9.9718    123.2395     86.9730   7.1710695348e+01   4.1171020131e+01    0.3224098     0.270442 -35.62  0.001102397    1.182    0.154
       151 -10.0505     16.6137     87.1871   1.0809870513e+02   5.6840288464e+01    0.3315019    0.2176691 -54.00  0.001236762    1.216    0.178
       152  -8.6588      1.4587     88.0479   1.1375818520e+02   5.7500884188e+01    0.1860231   0.05727071 -50.54 0.0005004342    2.365    0.577
       153  -9.8959     65.2817     86.2238   8.9922069943e+01   5.1989694175e+01    0.3668189    0.2884939 -33.33  0.001186493    1.194    0.162
       154 -10.0333    155.0818     84.8409   6.3142289157e+01   3.4318452809e+01    0.2633271    0.2201293 -40.86 0.0005524146    1.186    0.157
       155  -7.8191     11.2754     85.6515   1.0977740364e+02   5.7535163710e+01    0.1202665    0.0897438  80.94 0.0003632751    1.633    0.388
       156  -8.0029     60.2704     83.3175   9.0910201364e+01   5.3337998758e+01    0.1441051   0.09820247 -26.61 0.0003101752    1.560    0.359
       157 -10.2826     20.5201     79.6773   1.0506275097e+02   5.8298959018e+01    0.3076871    0.2159864 -43.32  0.001831159    1.201    0.167
       158  -8.9802     17.9955     74.1503   1.0481061417e+02   5.9727443243e+01    0.3818122    0.2135669 -67.74  0.001985673    1.742    0.426
       159 -11.0013    150.4922     80.6070   6.2959314982e+01   3.6186249759e+01    0.4621459    0.2831851  55.19  0.001616532    1.668    0.400
       160 -10.0724    143.0242     80.9595   6.4815170570e+01   3.7871161355e+01    0.2242814    0.2229448  59.64 0.0003916519    1.015    0.015
       161  -9.4020      2.4838     80.4445   1.1210790743e+02   5.9202840666e+01    0.2027853    0.1886015 -74.88  0.001155686    1.216    0.178
       162 -11.0820     94.4293     72.1382   7.5621740905e+01   5.0054474890e+01    0.7126438    0.3990882 -37.64  0.001587184    1.766    0.434
       163 -12.1331     79.5592     70.0203   7.9905026360e+01   5.3180787043e+01    0.3434631    0.2622967  22.77 0.0001220522    1.352    0.261
       164 -10.3805     81.3343     75.7788   8.1151724660e+01   5.1711275372e+01    0.5022227     0.324261   8.74  0.002181605    2.164    0.538
       165 -10.4510     88.4419     72.6433   7.7742359757e+01   5.1080486233e+01    0.5859148    0.3599404 -13.25  0.002357702    2.477    0.596
       166  -8.4193    129.6803     77.7140   6.7173457275e+01   4.1547994918e+01    0.1535019    0.1185202  13.22 0.0007001372    1.593    0.372
       167  -9.3260    110.4800     76.8301   7.2206351774e+01   4.5912147830e+01     0.255888    0.2248957 -46.09 0.0009571187    1.179    0.152
       168  -8.5141    106.4404     77.4849   7.3612223593e+01   4.6620598677e+01    0.1488777    0.1420213  -9.41 5.876957e-05    1.009    0.009
       169  -9.6936    184.9358     75.9678   5.4684102567e+01   2.8814877541e+01    0.2206568    0.2055789 -63.76 0.0003720125    1.029    0.029
       170  -9.6048     63.8799     75.3713   8.7249683555e+01   5.4562796649e+01    0.4172311    0.2529531  22.34  0.001974748    1.861    0.463
       171 -10.0057     69.0138     74.4900   8.5097199141e+01   5.3983839864e+01    0.2532708    0.1923811 -43.08 0.0004701047    1.234    0.190
       172  -9.0755     28.3676     75.7278   1.0106130444e+02   5.8569744990e+01    0.2748214    0.1486789 -45.17  0.001206656    1.535    0.349
       173  -9.0870    178.5891     81.2162   5.7263524324e+01   2.9410497329e+01    0.2035054     0.143566 -26.62 0.0004190286    1.566    0.361
       174 -10.7901    170.4904     73.0537   5.6569330180e+01   3.2751752623e+01    0.3540609     0.291143  33.07 0.0009372564    1.376    0.273
       175  -9.7783    173.0468     69.4531   5.5074550417e+01   3.2741176537e+01    0.3393464    0.2105404  39.02 0.0009472878    1.908    0.476
       176  -9.1940    152.7192     73.4095   6.0345380918e+01   3.6951721586e+01    0.3005013    0.2360339 -74.53 0.0008783063    1.545    0.353
       177 -10.2941    137.5531     72.5577   6.3602075004e+01   4.0685012981e+01    0.4503702    0.2162336 -32.97  0.001711199    2.249    0.555
       178  -9.8825    199.2893     72.2040   5.1292269087e+01   2.6080447485e+01    0.2715917    0.2376553 -15.17 0.0008917465    1.329    0.247
       179  -8.5000    166.2952     73.3303   5.7473617749e+01   3.3711706489e+01    0.1496137     0.118174  14.66 0.0003368976    1.635    0.388
       180  -9.9713    145.9232     70.8098   6.1092771335e+01   3.9023636622e+01     0.546589    0.3294179  25.96  0.002008737    2.500    0.600
       181 -10.9833    144.1148     66.3939   6.0160906866e+01   4.0210637452e+01    0.4655507    0.3200031  40.93  0.001597463    1.506    0.336
       182  -8.7490     15.2326     64.0440   1.0352069981e+02   6.2137448721e+01     0.281211    0.1812839  10.45  0.001659162    1.756    0.431
       183 -11.2671      2.2771     66.8167   1.0957491460e+02   6.2265538288e+01    0.5801189    0.1797462 -59.79  0.001879518    2.250    0.556
       184  -9.2648      8.8793     61.8837   1.0569665199e+02   6.2995779949e+01    0.3689976    0.2354697 -10.04  0.001378587    1.709    0.415
       185 -10.5722      3.8382     59.9766   1.0741323548e+02   6.3673446930e+01    0.4631841    0.2407064 -22.77  0.002522639    2.022    0.506
       186  -8.6065    215.7729     70.7587   4.8479556857e+01   2.2575109146e+01     0.190446    0.1454059 -64.60 0.0003115858    1.303    0.233
       187  -8.6491    111.6105     71.1609   7.0059203236e+01   4.6753496514e+01     0.215784    0.1385036 -26.52 0.0009448957    1.736    0.424
       188 -10.1637    102.3246     70.0030   7.2443285388e+01   4.8903211863e+01     0.299556    0.2480533  32.33 0.0005584114    1.197    0.165
       189 -10.5524     30.8616     52.8212   9.3469414775e+01   6.3193575888e+01    0.6466394    0.2287656  31.60  0.002792613    3.043    0.671
       190 -10.6314     17.4266     46.5895   9.7594067376e+01   6.5587670161e+01    0.4086754    0.2813381   9.65  0.002564629    1.539    0.350
       191 -11.9232     31.7347     64.2095   9.6594397994e+01   6.0776199309e+01    0.7816635    0.4183749 -33.80  0.003919065    1.775    0.437
       192 -10.0176     45.3962     55.1264   8.7967134377e+01   6.1146684872e+01    0.3937312    0.2792406  50.40  0.002116316    2.039    0.509
       193 -10.1231     23.2783     63.2205   9.9886459144e+01   6.1723303123e+01    0.5586372    0.2662031 -18.28  0.002093698    2.888    0.654
       194 -10.3768     38.3795     46.7038   8.8025808706e+01   6.3575423370e+01    0.5186601    0.3210829   8.06   0.00279318    1.783    0.439
       195 -10.3309     42.1751     51.4156   8.8047924892e+01   6.2247618578e+01      0.69516    0.1974378 -40.76  0.001926972    3.244    0.692
       196 -10.0519     46.9453     47.5409   8.4609425234e+01   6.2379903466e+01    0.2841167    0.2010365 -18.15 0.0004794739    1.339    0.253
       197 -10.1309     22.2569     58.5607   9.9020666835e+01   6.2786716439e+01    0.3756302    0.2740019 -54.47  0.001773958    1.273    0.214
       198 -10.0002     25.0538     54.3009   9.6519990572e+01   6.3429887310e+01    0.3276589    0.1769639 -51.79 0.0008171289    1.597    0.374
       199  -9.7522     25.0169     47.9658   9.4511019013e+01   6.4691895370e+01      0.25425    0.2050218 -59.31  0.000386477    1.456    0.313
       200  -9.4868     27.0915     44.2977   9.2299582553e+01   6.5204973397e+01    0.2360205    0.1534403 -29.65 0.0003484651    1.314    0.239
       201  -9.3864     64.7158     69.8822   8.5219996447e+01   5.5586923041e+01    0.2268325    0.1986937  32.31 0.0003597446    1.254    0.203
       202 -10.7494     10.6720     69.1577   1.0663750550e+02   6.1307568277e+01    0.2299671    0.1608956 -43.38 0.0001551905    1.160    0.138
       203 -10.1317    119.7990     67.4361   6.6552680536e+01   4.5649038847e+01    0.4755385    0.3496104  -4.08   0.00176605    1.732    0.423
       204  -8.9606    157.1569     68.1291   5.7837918435e+01   3.6792652439e+01    0.2285254     0.203905  15.05  0.001209393    1.265    0.209
       205  -9.4116      1.8077     92.7627   1.1436777432e+02   5.6385256583e+01    0.2179878     0.147198 -72.32 0.0009362884    1.247    0.198
       206 -10.6875    135.2571     65.4878   6.1959572697e+01   4.2455387348e+01    0.4925105    0.3908823  40.45  0.001959759    1.258    0.205
       207  -9.5418    105.7167     65.7913   7.0019204753e+01   4.8982874465e+01     0.455003    0.2507823  59.88  0.001781996    2.505    0.601
       208 -10.3193     82.8919     63.5124   7.6560247311e+01   5.3852026075e+01    0.5147789     0.318402 -60.19  0.002196291    2.448    0.591
       209  -9.4584     75.0689     66.0124   8.0156816655e+01   5.4729949239e+01    0.2101921    0.1856717 -16.58 0.0003123405    1.032    0.031
       210 -10.0503    203.7660     63.2986   4.8353457278e+01   2.6452073546e+01    0.4262967    0.3036704  76.78  0.001453529    1.492    0.330
       211 -11.1386     97.1700     63.7767   7.1954366250e+01   5.1092639355e+01    0.2794008    0.2565412  -9.66 0.0002555068    1.037    0.036
       212  -9.7147     66.4088     63.2582   8.2400640132e+01   5.6657357342e+01    0.3334402    0.2793868 -69.63  0.001008704    1.627    0.385
       213 -10.3833     70.6957     60.0194   7.9689691883e+01   5.6599163674e+01    0.3597682     0.265439  52.08 0.0009166117    1.734    0.423
       214  -9.6225    193.9063     60.6151   4.9139229853e+01   2.9162931389e+01    0.3261667    0.2013033 -32.83 0.0003753489    1.661    0.398
       215  -9.3568    160.4389     61.7114   5.5285205658e+01   3.7047729146e+01    0.3034934    0.1774544 -39.92  0.001342678    1.712    0.416
       216  -9.8298    162.9567     57.7096   5.3625949656e+01   3.7061986043e+01    0.3756278    0.2181322 -24.47 0.0008474487    2.053    0.513
       217  -9.6622    141.4641     60.2725   5.8867113899e+01   4.1853000395e+01     0.264165    0.2300132  41.88 0.0005838034    1.136    0.120
       218  -9.3883     53.6953     60.6863   8.6456849935e+01   5.8994876382e+01    0.3817669    0.2495455 -64.41  0.001204597    2.209    0.547
       219  -8.2364     53.5222     49.5731   8.2612399519e+01   6.1127215487e+01    0.1816056    0.1190335  39.17 0.0004887909    1.720    0.419
       220  -9.0467     53.0275     54.2788   8.4516759476e+01   6.0323924246e+01    0.2593807    0.1921631 -23.98 0.0006722672    1.233    0.189
       221  -8.2102     56.4408     52.5714   8.2524458886e+01   6.0166649682e+01     0.235795    0.1470535 -22.56 0.0001043523    1.687    0.407
       222  -8.6364     56.7139     49.6913   8.1358478180e+01   6.0651855155e+01    0.1976595     0.148586   7.23 0.0003549437    1.325    0.245
       223  -9.5470    151.7458     60.4000   5.6664715894e+01   3.9362686162e+01    0.2770875    0.1417255  60.20  0.001117242    2.002    0.500
       224  -9.6031    128.1999     57.3730   6.1081077560e+01   4.5442855799e+01    0.3454962    0.2322076  73.59 0.0007751744    1.970    0.492
       225  -9.8282    133.3049     58.3343   6.0151043082e+01   4.4096686550e+01    0.4744092     0.277078  24.89  0.001827936    2.616    0.618
       226  -9.9658    136.5180     56.3859   5.8769821457e+01   4.3647982895e+01    0.3437982    0.2729588 -20.53 0.0009611672    1.376    0.273
       227  -9.5224     15.6853     59.9592   1.0227137992e+02   6.2979830376e+01    0.1858093    0.1547517 -24.78 0.0005674113    1.135    0.119
       228 -10.0187    171.0580     58.7856   5.2438477607e+01   3.4925978317e+01    0.3738358    0.2445427 -55.22  0.001188535    1.664    0.399
       229  -9.5605    167.0700     56.5186   5.2514068608e+01   3.6242331670e+01    0.2330241     0.229763  42.56 0.0003021508    1.084    0.078
       230  -9.9706    171.9905     53.2923   5.0718456439e+01   3.5526757127e+01    0.2529736    0.2268321 -21.49 0.0003101536    1.237    0.192
       231  -9.6364    174.7811     50.4134   4.9435355514e+01   3.5266914730e+01    0.3218988    0.2510249  55.79  0.001000867    1.267    0.211
       232 -10.2642    105.2375     57.8815   6.7467311065e+01   5.0468227425e+01    0.2653443    0.2245079 -23.65 0.0002947794    1.183    0.155
       233  -8.2817    208.3507     57.2601   4.6203338958e+01   2.6308241058e+01    0.1314541    0.1046655  34.79 0.0006972316    1.608    0.378
       234  -9.5802     65.0417     56.5726   8.0594242606e+01   5.8143199045e+01    0.2267587    0.2006618 -22.02 0.0001649432    1.072    0.067
       235  -9.9195     61.5777     52.0585   8.0300885448e+01   5.9503003650e+01    0.5062405    0.2538277 -39.86  0.002199806    1.872    0.466
       236  -8.6670    242.3155     55.9991   4.1831000535e+01   1.9111423821e+01    0.1760246     0.144084 -51.19 0.0002987547    1.069    0.064
       237 -10.3601    126.9599     39.1239   5.5276365893e+01   4.8416588520e+01    0.4352662    0.3261164 -75.61 0.0008726561    1.792    0.442
       238 -10.8272    118.0831     52.8358   6.2147023657e+01   4.8478709518e+01    0.4413033    0.2794183 -34.60  0.002084112    1.626    0.385
       239  -9.5276    133.7527     29.8591   5.0689202363e+01   4.7968258114e+01    0.4854348    0.2903154  -7.17  0.002183915    2.330    0.571
       240 -10.2847    124.0778     51.4966   6.0155886662e+01   4.7317906223e+01    0.5985345    0.2820612  48.03  0.002448929    1.999    0.500
       241 -10.1750    136.1623     37.2671   5.2640912681e+01   4.6472074583e+01    0.3426011    0.2812238 -83.76  0.001249272    1.413    0.292
       242 -10.5777    131.7733     35.6588   5.3038581528e+01   4.7728279713e+01    0.4676194    0.2908198 -56.38            0    2.096    0.523
       243  -9.5757    127.9382     48.0210   5.8048387809e+01   4.6941275229e+01     0.246658    0.2338329 -86.61   0.00044832    1.155    0.134
       244 -10.5103    123.5336     47.9725   5.9100471237e+01   4.7973227297e+01     0.452063     0.248273 -42.31  0.001988814    1.965    0.491
       245  -9.9075    125.7701     44.9970   5.7548288907e+01   4.7885408349e+01    0.2656488    0.2484975 -62.59 0.0003543586    1.187    0.158
       246  -8.9049      8.4693     43.9023   1.0102398320e+02   6.6731969553e+01    0.1668447    0.1335573 -26.22 0.0003454428    1.100    0.091
       247  -9.6998     14.1592     54.9948   1.0159675992e+02   6.4123092820e+01    0.3601514    0.1698874 -56.86 0.0008930577    1.783    0.439
       248 -11.4257     14.7203     38.6422   9.6270338630e+01   6.7320869462e+01    0.5798107    0.4011623 -59.51  0.002877906    1.637    0.389
       249 -11.1081      8.5898     51.0243   1.0302566788e+02   6.5292562092e+01    0.5630207    0.3640762  24.33  0.001749312    1.828    0.453
       250 -10.0422    149.9884     54.2526   5.5157618541e+01   4.0743342006e+01    0.4217162    0.2427466  64.69  0.001234091    1.832    0.454
       251  -8.9916     98.5148     54.8959   6.8442748522e+01   5.2369069840e+01     0.199759    0.1696478 -22.72 0.0004406827    1.166    0.142
       252  -9.3820     93.9226     54.2712   6.9653558953e+01   5.3401804994e+01    0.4007549    0.2800029   8.23  0.001218926    1.762    0.432
       253  -9.9217     11.9384     45.2142   9.9761779105e+01   6.6250736186e+01     0.353984    0.1443289 -52.55 0.0009494937    1.936    0.484
       254  -9.4527    191.5598     54.3122   4.7845378357e+01   3.0661553591e+01    0.2640531    0.2252064 -29.56  0.001001882    1.271    0.213
       255 -10.1421     83.1983     52.4496   7.2522265074e+01   5.5775388910e+01    0.3614793    0.2385618 -40.78 0.0006314397    1.555    0.357
       256  -8.8688    106.7969     52.8821   6.5268689786e+01   5.0959698775e+01    0.2107771    0.1796042  14.99 0.0002618972    1.181    0.153
       257  -8.5564    212.3307     51.8915   4.4366861691e+01   2.6180376323e+01    0.1791443    0.1555972 -49.32  0.000302124    1.109    0.098
       258  -9.6744    164.3198     51.7709   5.1640356806e+01   3.7620950869e+01    0.2632318    0.2126325  47.51  0.000308403    1.260    0.206
       259 -10.0975    115.7642    248.6115   1.0530999596e+02   7.2764833984e+00    0.2347742    0.1936909  34.70 0.0007622979    1.131    0.116
       260 -10.1150     71.6811     50.7954   7.5995417270e+01   5.8103679811e+01    0.4377798    0.3310017   8.50  0.002384728    1.356    0.263
       261 -12.8799     61.8858     44.0398   7.7147635445e+01   6.0852393231e+01    0.4592046    0.3677219 -34.28 0.0007081828    1.255    0.203
       262 -10.0400     68.9748     48.0066   7.5952449565e+01   5.9036314147e+01    0.2507408    0.1593309  21.58  0.001249577    1.691    0.409
       263 -10.5505     67.6766     44.3612   7.5041161562e+01   5.9862396019e+01    0.3589886    0.2826419 -11.87 0.0009036582    1.191    0.160
       264 -10.5859    153.9207     48.9984   5.2767470609e+01   4.0562904985e+01    0.4460417    0.3500088  83.83   0.00123587    1.397    0.284
       265 -10.1340    180.9487     47.9727   4.7768213641e+01   3.4117983591e+01    0.4435089    0.2244744 -54.93  0.001829054    2.308    0.567
       266 -11.0329     39.6031     57.7876   9.1299636830e+01   6.1295259461e+01    0.2803476    0.2073415 -45.72 0.0008111493    1.246    0.197
       267 -10.3889    114.4310     46.3203   6.0855250362e+01   5.0291581604e+01    0.3788774    0.2630047  -9.09  0.001324153    1.751    0.429
       268  -9.1753     96.9529     48.9928   6.6797539993e+01   5.3648801237e+01    0.2063681    0.1886231  10.73  0.000380309    1.010    0.010
       269 -11.1669     79.6971     33.5878   6.6431975121e+01   5.9352708239e+01     1.114606    0.4453797  45.93  0.002920868    2.376    0.579
       270 -11.0699     93.9873     45.0276   6.6249467878e+01   5.4870741607e+01    0.2994414    0.2551413  16.80  0.001715895    1.110    0.099
       271 -10.3302     90.9561     40.9839   6.5670070896e+01   5.6089887983e+01     0.452591    0.3891525 -75.75   0.00254117    1.657    0.396
       272  -9.6773     71.5127     29.5526   6.7616781122e+01   6.1426189228e+01    0.2357226    0.2091055  13.80 0.0006963843    1.084    0.077
       273  -9.8270     74.3820     27.1480   6.5589866030e+01   6.1220006953e+01    0.2906118    0.2692672 -70.38  0.001686019    1.550    0.355
       274  -9.0760     88.2722     48.4469   6.9346505181e+01   5.5472649375e+01    0.2531866    0.2121172  70.32  0.001379058    1.619    0.382
       275  -8.3802    224.5030     48.5588   4.2116606064e+01   2.3935274676e+01     0.131586    0.1143368 -66.81 0.0001411055    1.011    0.011
       276  -8.7490     79.0000     47.5032   7.2129505952e+01   5.7372830132e+01      0.25508   0.09692306 -40.32 0.0007571662    2.652    0.623
       277  -8.4476     76.5385     44.5140   7.1854162759e+01   5.8302402393e+01    0.2194801    0.1273492  40.07 0.0005609093    1.686    0.407
       278 -10.0258     32.0195     47.8500   9.1278907323e+01   6.4045958808e+01    0.2080708    0.1727495   9.51 0.0007527959    1.250    0.200
       279  -8.6373    234.6982     46.9790   4.0648268007e+01   2.1958009335e+01    0.1766588    0.1403667 -54.03 0.0002189555    1.086    0.080
       280  -9.5414    164.7827     45.8460   4.9831430095e+01   3.8353048643e+01    0.4113874    0.1897485  48.49  0.001670094    2.209    0.547
       281 -10.0563    132.9155     44.5610   5.5746931546e+01   4.6263893569e+01    0.3918636    0.1833615  56.03  0.001426085    2.005    0.501
       282 -10.0605    103.4579     42.9631   6.2664286894e+01   5.3195521965e+01    0.4140881    0.3140092 -85.42  0.002018169    2.101    0.524
       283 -12.0227    103.7236     38.6634   6.1004575623e+01   5.3747817020e+01    0.4539714    0.3630317  74.28 0.0003230704    1.589    0.371
       284  -9.7998    244.1474     43.7989   3.9011270045e+01   2.0422157276e+01    0.3156527    0.2395113  48.02  0.001153954    1.719    0.418
       285  -9.2944    185.3264     43.8278   4.5985442271e+01   3.3635000030e+01    0.2659654    0.2194733  62.12  0.000921515    1.198    0.165
       286  -8.8631    149.9776     43.9913   5.1998912272e+01   4.2229271215e+01    0.2102053    0.1971759  50.21 0.0003622471    1.054    0.052
       287  -8.6965     82.1012     43.8254   6.9656945346e+01   5.7386546876e+01    0.1988305    0.1863774 -39.27 0.0005172516    1.267    0.211
       288  -8.5236    199.7824     43.1510   4.3814262241e+01   3.0290871497e+01    0.1740454     0.158009  39.71  0.000460638    1.318    0.241
       289  -9.1236     32.5353     42.4880   8.9126745338e+01   6.4995780420e+01    0.1970403    0.1387544  17.45 0.0005679593    1.450    0.310
       290 -12.0706     41.3928     38.2413   8.3469909865e+01   6.4726486481e+01    0.4948602    0.2738669  -0.19 0.0005598312    2.518    0.603
       291  -9.1727    222.8247     40.0890   4.0347704818e+01   2.5451972141e+01    0.2408288    0.2097942  -6.96  0.001126491    1.538    0.350
       292 -11.0768    190.7386     40.3787   4.4306987167e+01   3.2800699163e+01    0.2511801    0.2391396 -42.40 0.0003007326    1.160    0.138
       293  -9.5334    186.1833     36.5973   4.3933455019e+01   3.4383635751e+01    0.2726506    0.2127208 -66.74  0.000684704    1.264    0.209
       294  -8.7353    112.8353     41.1816   5.9455593942e+01   5.1387383137e+01    0.1873953    0.1512367  21.93 -0.000430966    1.272    0.214
       295  -8.1496     48.9573     40.9982   8.1252963961e+01   6.3266521283e+01    0.1524386    0.1266863 -12.17 0.0003373295    1.009    0.009
       296  -8.5789     24.1707     39.5397   9.1981190979e+01   6.6364565629e+01     0.286495    0.1049026 -33.03  0.001182236    2.890    0.654
       297 -11.1894      5.0867     35.5953   1.0008682227e+02   6.8541102938e+01    0.7043714    0.3204849 -54.98  0.003815732    1.873    0.466
       298 -10.3321    177.9678     36.9016   4.5182569756e+01   3.6328950376e+01    0.6248046    0.3336982 -88.93  0.002506519    2.681    0.627
       299  -9.0889    158.0137     38.9857   4.8989743013e+01   4.0935404746e+01    0.2275839     0.161153 -69.43 0.0007059108    1.666    0.400
       300  -8.9687    120.9498     39.0212   5.6654051519e+01   4.9832650519e+01    0.2169105    0.1694972 -70.30 0.0009408688    1.674    0.403
       301  -9.3309    238.5045     37.7001   3.8236143158e+01   2.2395276278e+01    0.2301702    0.2058553  40.04  0.001400302    1.513    0.339
       302  -8.5828     82.4559     38.4607   6.7449815627e+01   5.8130408338e+01     0.134537    0.1214291  11.26 2.116514e-05    1.047    0.045
       303  -8.6935    103.5054     16.4342   5.2630817929e+01   5.6450015527e+01    0.1347305    0.1120595  37.09 8.786651e-05    1.062    0.058
       304  -8.5227    192.4495    248.4753   9.0056601929e+01  -4.1508360665e+00    0.1230783   0.09859238  16.22 0.0001120067    1.008    0.008
       305 -11.5705    114.2141     32.3246   5.5922895502e+01   5.2246544247e+01     0.450497    0.3824581 -80.51  0.001009346    1.481    0.325
       306 -10.0883    163.3156    246.3196   9.5450062323e+01   4.8762036566e-01    0.2208953    0.1725585  12.46 0.0006869134    1.263    0.208
       307  -9.6066    101.2471     25.7414   5.6798650128e+01   5.5934718389e+01    0.3663286    0.2074637  35.50  0.001756708    1.766    0.434
       308 -10.1690    221.8218     34.2510   3.9111250190e+01   2.6430733879e+01    0.3177091    0.1935438  88.27 0.0009125992    1.706    0.414
       309  -9.2302    143.8940     35.0759   5.0380606654e+01   4.4883540317e+01     0.306683    0.1731525  42.67  0.000999233    1.846    0.458
       310 -10.1605    144.1572     29.9924   4.8715130442e+01   4.5440031682e+01    0.6082349    0.2539148  47.67  0.002452529    2.327    0.570
       311 -10.7591    228.6132     38.4265   3.9364719045e+01   2.4405898384e+01    0.4136439    0.2077441 -50.74 0.0008793803    1.792    0.442
       312  -9.9920    123.2715     30.0490   5.2987663006e+01   5.0430985015e+01    0.4698537    0.2932138  66.25  0.002088856    1.663    0.399
       313  -9.7882    248.2692     31.1453   3.5985457370e+01   2.1224334870e+01    0.2512327    0.1558869 -57.93  0.001487032    1.367    0.268
       314  -9.5015    233.4115     31.2228   3.7304094559e+01   2.4297226628e+01    0.2818393    0.2083195  61.54  0.001731143    1.501    0.334
       315  -9.6517    182.5089     28.2338   4.2196929155e+01   3.6300190001e+01    0.2585812    0.1706911  68.27 0.0009070996    1.402    0.287
       316  -9.5898    186.3854     31.4749   4.2548797379e+01   3.4977317718e+01    0.2508168    0.2357592 -89.93 0.0007676681    1.079    0.073
       317  -9.3284    189.6649     28.7182   4.1406478716e+01   3.4527610912e+01    0.5209059    0.1904199  49.00  0.001949238    3.233    0.691
       318  -9.0277    154.7044     31.4193   4.7282803856e+01   4.2695821132e+01    0.3235102     0.171302  43.02  0.001156282    2.071    0.517
       319  -8.5226     44.1654     31.8333   7.9602864872e+01   6.5422381513e+01    0.1704276    0.1231668 -11.11 0.0004517153    1.250    0.200
       320  -9.0726     30.4074    247.2357   1.2166776211e+02   1.8713028230e+01    0.1584743   0.08601965  83.61 0.0009564151    1.713    0.416
       321  -9.9128     43.8737     15.4323   7.2313790451e+01   6.7818774566e+01    0.4647535     0.176338  37.70  0.002163619    2.503    0.600
       322  -9.8794     36.9498     19.1689   7.7280274841e+01   6.8276069421e+01    0.3762391     0.208302  -3.83  0.001887033    2.261    0.558
       323 -10.9359     49.9648     27.7184   7.5294873842e+01   6.5232389107e+01    0.6369341    0.3943776  60.48  0.002676571    4.087    0.755
       324  -8.8161      1.3807    244.2062   1.2660865178e+02   2.2235838040e+01    0.1458159   0.07524368  81.24  0.000399435    1.583    0.368
       325  -9.1163    246.4773    242.5221   7.9215396178e+01  -1.0618786883e+01    0.1164167   0.08763813   1.81 9.282532e-05    1.023    0.023
       326  -9.4685     21.8649     23.8583   8.6912963854e+01   6.9298858383e+01    0.2198499    0.1760236 -23.63 0.0007689893    1.132    0.116
       327 -11.2014     24.8986     30.9571   8.8335461647e+01   6.7818347001e+01    0.3136373    0.2910289  27.83   0.00122599    1.505    0.335
       328  -9.8680    202.6045    242.0833   8.7125886817e+01  -4.6959449367e+00    0.2157481    0.1477577  38.24 0.0005120196    1.470    0.320
       329  -8.3411    159.2743     31.6467   4.6585281844e+01   4.1549480563e+01    0.1419086   0.09862852 -64.51  0.000502017    1.641    0.391
       330  -8.3435    189.6632    240.2927   8.9342253894e+01  -2.5443557612e+00    0.1160759   0.09368686  52.78 0.0007025889    1.644    0.392
       331 -10.4970    164.1555     26.4079   4.4277811074e+01   4.0972591091e+01    0.4703362    0.3243677  52.75   0.00114631    1.403    0.287
       332  -8.8772    161.2017     22.3887   4.3551736409e+01   4.2144945452e+01    0.2369231    0.1923544 -84.42 0.0006883969    1.232    0.189
       333  -9.5412    221.4621    237.5067   8.2849374166e+01  -6.7033707378e+00     0.214428     0.133898   3.15 0.0006994283    1.641    0.390
       334  -8.4645    139.7529    237.0148   9.8952609738e+01   5.6701526786e+00    0.1465023    0.1116598 -52.34 0.0007293105    1.534    0.348
       335  -8.8301     31.9958    232.5260   1.2045630509e+02   2.1407981109e+01    0.1613202   0.09945864  40.96 0.0003842852    1.513    0.339
       336  -9.8159    187.0201    230.7406   8.8348214522e+01  -6.7037584659e-01     0.187454    0.1519016  21.88 0.0009520456    1.057    0.054
       337  -9.3608    225.9763     16.7988   3.4808025442e+01   2.7618348054e+01    0.2186934    0.1542265 -49.11 0.0003919736    1.275    0.216
       338  -9.0425     95.1696     35.8371   6.2407052576e+01   5.5954812859e+01    0.1974981     0.188243 -28.66 0.0007044331    1.197    0.164
       339  -9.6260    207.9027     26.7663   3.8813475147e+01   3.0493315052e+01    0.1840947    0.1650106  70.71 0.0005066212    1.199    0.166
       340  -9.0954    177.7929    231.3934   9.0304649573e+01   6.5482367187e-01    0.1938634    0.1076543  26.77 0.0009605587    1.719    0.418
       341 -11.7866      2.0225     25.1430   9.8081664466e+01   7.0642339244e+01    0.2416755    0.1466516 -48.27  0.000574433    1.399    0.285
       342  -9.7933    241.4703     25.0445   3.5280443315e+01   2.3365342759e+01    0.3063525     0.134795  60.13  0.001474407    2.427    0.588
       343  -9.7892    231.8067     23.4686   3.5761296635e+01   2.5587018450e+01    0.3422814    0.1691592 -70.26  0.001642261    2.231    0.552
       344 -10.4375    153.6486     22.9909   4.4901915588e+01   4.3923506148e+01    0.2797254    0.2066384  52.24 0.0003254343    1.283    0.221
       345  -8.7531    162.3885    225.1617   9.2489849486e+01   4.1543393598e+00    0.3421166    0.2158251 -76.67  0.001407103    3.650    0.726
       346  -9.7857     62.5689     23.0582   6.8121236936e+01   6.3863238818e+01    0.7435638    0.2522451  37.33  0.002977572    2.908    0.656
       347  -8.9903    223.7427    225.1575   8.0339249181e+01  -5.2786472290e+00    0.2002727    0.1492639  29.84 0.0007040832    1.328    0.247
       348  -8.6630    131.9885    225.2975   9.8965458725e+01   9.0354352920e+00    0.1847353    0.1571706  38.14 0.0004673743    1.038    0.037
       349  -8.2173      1.7063    224.2871   1.2566180178e+02   2.6098788602e+01    0.1155972   0.06000495  64.55 0.0002043696    1.545    0.353
       350  -9.9900    206.7084     22.4450   3.7903340947e+01   3.1276329750e+01    0.3378651    0.2098798  74.67  0.001847316    1.504    0.335
       351  -9.5532    189.1500     21.9950   3.9729167595e+01   3.5433015946e+01    0.2884068    0.2260656   6.83  0.001633205    1.800    0.444
       352  -8.3588     85.7459     23.0073   6.0147116138e+01   5.9519913303e+01    0.1540855     0.109072 -21.77 0.0004095736    1.461    0.316
       353  -8.3396     79.5126     22.4714   6.1888518882e+01   6.0823803907e+01    0.2158612    0.1111003 -39.89  0.001013438    2.296    0.564
       354  -9.7392    131.9912     21.3602   4.8198027866e+01   4.9344894599e+01    0.2968526    0.2322941  68.89 0.0008684498    1.222    0.182
       355  -9.2811    149.1612     20.5984   4.4897589435e+01   4.5275486454e+01    0.2496138    0.1769371   7.55  0.000900957    1.880    0.468
       356  -8.6139     93.2240     20.4986   5.6932976803e+01   5.8254897245e+01    0.4704769    0.2291811  53.18  0.002205389    1.877    0.467
       357  -8.3694      6.7215     21.7320   9.4166327012e+01   7.0932620423e+01    0.1153007   0.06553439 -24.57            0    1.485    0.327
       358  -9.2024    196.7810    222.2453   8.4997112199e+01  -8.2618605509e-01     0.190558    0.1378854   1.41  0.001082332    1.405    0.288
       359  -9.2649     88.4704    221.0259   1.0783952625e+02   1.6572272592e+01    0.2249584    0.1770309  23.83 0.0005628418    1.477    0.323
       360  -9.5963    179.4353     13.1964   3.8569166148e+01   3.8697694302e+01    0.3609195    0.1555163  71.68  0.001408914    2.113    0.527
       361  -8.9876    203.1457    217.8630   8.2986733165e+01  -1.1126145948e+00    0.1788262    0.1593218  12.72 0.0002706641    1.135    0.119
       362  -8.1069    145.4746    210.4560   9.3781836655e+01   9.6729750122e+00    0.1376219    0.1246961  38.09  7.03953e-05    1.043    0.041
       363  -9.8255    144.4375     17.5622   4.4729650128e+01   4.6738404673e+01    0.2985066    0.2399045  45.98 0.0009703304    1.218    0.179
       364 -10.2631     16.4515     17.5603   8.7002887926e+01   7.0818494854e+01    0.3923627    0.1841531  14.85  0.001576017    2.292    0.564
       365  -9.0495    231.0078    209.1408   7.6148499687e+01  -3.9542531658e+00    0.1939814     0.141118  -0.93 0.0004463745    1.256    0.204
       366  -9.0124     35.4907    201.4482   1.1741327209e+02   2.7632854687e+01      0.12474    0.1023014  77.68 0.0001001867    1.008    0.008
       367  -8.4360    120.3977    199.2229   9.7672881919e+01   1.6205752266e+01    0.1810165     0.134871 -73.09 0.0004913518    1.556    0.357
       368  -8.9515      6.5907    194.2453   1.2304788879e+02   3.2051916203e+01    0.1681975     0.087531 -69.03 0.0009484002    1.709    0.415
       369  -8.9563      5.7370    182.9559   1.2248568107e+02   3.4665392737e+01    0.1673558    0.1226303  89.02 0.0003011739    1.077    0.072
       370  -9.0795     55.1974    181.3320   1.1082717789e+02   3.0008823700e+01    0.2102319     0.164214 -68.26  0.000442793    1.219    0.179
       371  -9.6591     18.2071    174.4510   1.1900077959e+02   3.5578490478e+01      0.20669    0.1275776  19.04  0.001142467    2.137    0.532
       372  -9.7394      7.0609    174.4957   1.2158474088e+02   3.6506977519e+01    0.1630355    0.1167435  33.58  0.001038216    1.605    0.377
       373 -10.2636      7.1931    166.7060   1.2095305181e+02   3.8320257988e+01    0.2872303    0.1722054   4.94  0.001549214    2.619    0.618
       374 -10.7174     15.7186    165.1132   1.1877127704e+02   3.8011948491e+01     0.300118    0.1990486 -49.62  0.001743455    1.678    0.404
       375  -8.9268    139.1399     13.8766   4.4442470897e+01   4.8383201870e+01    0.2235638    0.1638827  74.43 0.0005357357    1.298    0.230
       376 -11.8765     37.3764    159.6116   1.1271960274e+02   3.7322288879e+01    0.6684088     0.404009  49.70  0.002751433    1.703    0.413
       377 -12.1093     30.5914    154.8726   1.1393828838e+02   3.9166348764e+01    0.5989476    0.4194944  61.51   0.00266389    1.458    0.314
       378 -10.4974     24.5529    162.9210   1.1637479379e+02   3.7764162584e+01    0.2392934    0.1978255  49.37 0.0002943484    1.288    0.224
       379 -10.1523      1.6352    158.1856   1.2160603016e+02   4.0739878628e+01    0.3300362    0.1717823 -65.34  0.001816422    1.611    0.379
       380 -10.2001      2.1384    153.1890   1.2107651957e+02   4.1891613482e+01    0.3183688    0.1627922  81.38 0.0008005929    1.893    0.472
       381  -9.4980    249.2109    153.5896   6.2065286728e+01   2.1107023119e+00    0.1726134    0.1201513  25.09 0.0005839574    1.655    0.396
       382  -9.3546     45.9513    151.4049   1.0935483815e+02   3.8437352609e+01    0.2360753     0.168704 -64.02 0.0002823209    1.247    0.198
       383 -10.5221     20.3111    150.9476   1.1620749720e+02   4.1055092472e+01    0.4407814    0.2176126 -47.69  0.001946927    2.194    0.544
       384 -10.8907     12.2377    150.8169   1.1830094793e+02   4.1734518112e+01    0.3820316     0.237481   8.86  0.002103954    2.267    0.559
       385 -10.7728      4.8471    146.9068   1.1984085688e+02   4.3211819950e+01    0.4080034    0.2131654  85.17  0.001453082    1.844    0.458
       386  -9.9454      4.9015    141.4350   1.1931245130e+02   4.4527381746e+01    0.4083678    0.1818504  40.81  0.002050462    2.401    0.584
       387 -10.4553      2.7227    134.3580   1.1920614249e+02   4.6375709711e+01    0.4034669    0.2257385 -80.78  0.001933051    1.479    0.324
       388 -11.0119      4.1201    128.4733   1.1820630262e+02   4.7713505128e+01    0.5016102     0.168134 -56.60  0.002227215    2.353    0.575
       389  -8.4439    230.2862    147.6901   6.3954488163e+01   6.3462839579e+00    0.1314904    0.1056638 -61.62  0.000279421    1.574    0.365
       390  -9.2368     54.1554    146.0618   1.0627457483e+02   3.8825503500e+01    0.2105689    0.1696675 -49.73 0.0003514064    1.251    0.201
       391 -10.1959     13.1399    145.0498   1.1748210670e+02   4.3067969457e+01    0.3320481    0.2114566 -56.43  0.001838766    1.458    0.314
       392 -10.5405     18.8025    140.6693   1.1546306037e+02   4.3702255108e+01    0.3519428    0.2402291  23.33   0.00122371    1.775    0.437
       393  -9.2530    235.7170    137.0233   6.0726774407e+01   7.2348184610e+00     0.210939    0.1945515  68.03 0.0006650118    1.344    0.256
       394  -8.9154     74.9977    135.9579   9.8453133909e+01   3.8594382123e+01    0.3583029    0.1655176 -40.29  0.001045489    2.679    0.627
       395  -9.7961     34.4887    136.6073   1.1049309707e+02   4.3332510470e+01    0.2824033    0.2397245  27.46  0.001207638    1.379    0.275
       396  -9.6315     14.5138    136.0029   1.1611570867e+02   4.5178261060e+01    0.3261777     0.166712 -14.99  0.001399698    3.538    0.717
       397 -11.3812     42.5913    131.8000   1.0737353090e+02   4.3720074688e+01    0.5335297    0.4253561 -41.43  0.002050755    1.315    0.239
       398  -9.4069     45.7987    127.6135   1.0570495553e+02   4.4426154833e+01    0.2403946    0.2278304  75.32 0.0005027415    1.133    0.117
       399  -8.8553    248.5356    133.9709   5.8048310783e+01   5.4882903902e+00    0.1850544    0.1062399 -17.41 0.0004864749    2.343    0.573
       400 -11.8974     28.6751    131.9951   1.1153587286e+02   4.5020656782e+01    0.2349776    0.2139154 -78.85 0.0002750761    1.083    0.077
       401  -9.3977     61.7659    131.2937   1.0150788878e+02   4.1592610578e+01    0.2393001    0.2016198  89.16 0.0005534965    1.241    0.194
       402  -9.0423     55.7847    132.6058   1.0355011888e+02   4.2016224605e+01    0.1801673    0.1279234  46.00 0.0002876133    1.530    0.346
       403 -11.1012     10.5068    129.7649   1.1652955273e+02   4.6988979733e+01    0.5766333    0.1981769 -54.09   0.00250194    2.429    0.588
       404  -9.7252     20.3331    130.9876   1.1384078186e+02   4.5968757381e+01    0.1921406    0.1359995 -70.48 0.0006151837    1.165    0.142
       405 -10.7392     34.0798    128.0040   1.0933589599e+02   4.5521002196e+01    0.4092329     0.204912 -72.31  0.001868709    1.843    0.457
       406  -9.1810     88.5130    128.0136   9.2782284997e+01   3.8474650106e+01    0.2091841    0.2075095  11.37 0.0003536469    1.067    0.063
       407  -8.7661     59.5475    125.5256   1.0108502244e+02   4.3324927082e+01    0.1435533    0.1287918 -60.48 -3.327496e-06    1.009    0.009
       408 -10.4063     72.5610    121.3511   9.6178000979e+01   4.2592537042e+01    0.7993996    0.3780412 -57.77  0.003226713    1.966    0.491
       409  -8.6622    221.3118    121.3265   5.9609006798e+01   1.2752816107e+01    0.1434865    0.1092743  -2.30 0.0007041153    1.663    0.399
       410  -9.2475    124.0049    120.9930   8.0908516390e+01   3.3592395503e+01    0.2624339    0.2214974  44.36 0.0006827174    1.216    0.177
       411  -9.9581     20.7493    113.5454   1.1124730882e+02   5.0231239661e+01    0.2559086    0.1709964 -87.85  0.001103648    1.552    0.356
       412 -10.4956     20.2457    109.0890   1.1070888694e+02   5.1356737364e+01     0.264922    0.1778679 -51.26   0.00150696    1.292    0.226
       413  -9.3931     13.8519    109.8626   1.1290397639e+02   5.1617533179e+01    0.2189488    0.1613676 -79.36 0.0002921384    1.236    0.191
       414  -8.6912    236.9623    120.7666   5.6951808299e+01   9.8211370442e+00    0.1708126    0.1173357  49.17 0.0008901287    1.671    0.402
       415 -10.2521     42.9143    119.1770   1.0511465980e+02   4.6842722731e+01    0.3000664    0.2395528  51.56 0.0005410868    1.414    0.293
       416 -10.1432     94.3140    118.2800   8.8779341638e+01   3.9865916991e+01    0.4520558    0.3135726 -11.93  0.001910658    2.112    0.527
       417  -9.4174     83.3140    116.9038   9.1819262448e+01   4.2040540746e+01    0.3194833    0.2141745 -59.72  0.001475644    1.476    0.323
       418  -9.2119     67.7555    118.5970   9.7090092942e+01   4.3957129667e+01    0.1938597    0.1338653  45.02  0.000559092    1.597    0.374
       419  -9.3379     54.7146    117.9870   1.0111818912e+02   4.5805324319e+01    0.2085963    0.2040278  -6.04  0.000323519    1.134    0.118
       420 -11.1403     28.9074    116.8360   1.0916871412e+02   4.8762203419e+01    0.4169676    0.2748477 -68.63  0.002267939    1.305    0.234
       421 -10.2342      3.5507    116.6383   1.1702629331e+02   5.0608146609e+01    0.2701102    0.2324079 -61.08   0.00184742    1.127    0.112
       422  -8.9068    241.3102    123.3375   5.6850949029e+01   8.5729782345e+00    0.1371206    0.1015408  -6.09 0.0003951789    1.685    0.406
       423  -9.2437     62.4567    115.5263   9.8118573020e+01   4.5434248574e+01    0.2862136    0.1917555  85.03  0.000910825    2.153    0.535
       424  -9.4912     48.5612    115.5196   1.0261060908e+02   4.7136494981e+01    0.2315494    0.1963042 -89.99 0.0006923997    1.268    0.211
       425  -8.6047    122.1446    112.1754   7.9134600200e+01   3.5985221338e+01    0.2133914    0.1886334  84.02 0.0004559298    1.317    0.241
